Data from Location5.07152019.Energy5.Lamp.07192019.3%Agarose_HRD10591_16-03-31-629.txt Node
Date: Fri Jul 19 16:03:31 EDT 2019
User: cochatt
Spectrometer: HR+D1059
Trigger mode: 1
Integration Time (sec): 1.000000E-1
Scans to average: 1
Electric dark correction enabled: true
Nonlinearity correction enabled: false
Boxcar width: 0
XAxis mode: Wavelengths
Number of Pixels in Spectrum: 2048
>>>>>Begin Spectral Data<<<<<
223.165	-11.75
223.4	-11.75
223.635	-11.75
223.869	-16.75
224.104	-15.75
224.338	-23.75
224.573	-11.75
224.808	-11.75
225.042	-14.75
225.277	-14.75
225.511	-2.75
225.746	5.25
225.98	2.25
226.215	6.25
226.449	16.25
226.683	33.25
226.918	20.25
227.152	40.25
227.387	36.25
227.621	38.25
227.856	41.25
228.09	35.25
228.324	38.25
228.559	52.25
228.793	65.25
229.027	62.25
229.262	64.25
229.496	65.25
229.73	68.25
229.964	62.25
230.199	75.25
230.433	65.25
230.667	75.25
230.901	80.25
231.136	70.25
231.37	66.25
231.604	87.25
231.838	80.25
232.072	75.25
232.306	74.25
232.541	88.25
232.775	77.25
233.009	74.25
233.243	71.25
233.477	77.25
233.711	71.25
233.945	80.25
234.179	77.25
234.413	70.25
234.647	77.25
234.881	74.25
235.115	81.25
235.349	92.25
235.583	86.25
235.817	88.25
236.051	69.25
236.285	74.25
236.519	81.25
236.753	74.25
236.987	84.25
237.221	68.25
237.455	84.25
237.689	80.25
237.922	75.25
238.156	68.25
238.39	69.25
238.624	61.25
238.858	73.25
239.091	88.25
239.325	62.25
239.559	77.25
239.793	71.25
240.027	67.25
240.26	77.25
240.494	76.25
240.728	83.25
240.961	56.25
241.195	74.25
241.429	75.25
241.662	74.25
241.896	71.25
242.13	72.25
242.363	77.25
242.597	74.25
242.83	92.25
243.064	81.25
243.298	82.25
243.531	72.25
243.765	69.25
243.998	67.25
244.232	78.25
244.465	70.25
244.699	67.25
244.932	77.25
245.166	66.25
245.399	73.25
245.633	78.25
245.866	80.25
246.099	74.25
246.333	73.25
246.566	63.25
246.8	62.25
247.033	84.25
247.266	77.25
247.5	94.25
247.733	73.25
247.966	78.25
248.2	80.25
248.433	75.25
248.666	63.25
248.899	75.25
249.133	81.25
249.366	85.25
249.599	66.25
249.832	78.25
250.066	78.25
250.299	89.25
250.532	93.25
250.765	70.25
250.998	76.25
251.231	79.25
251.465	83.25
251.698	87.25
251.931	79.25
252.164	82.25
252.397	78.25
252.63	67.25
252.863	77.25
253.096	86.25
253.329	67.25
253.562	78.25
253.795	86.25
254.028	96.25
254.261	73.25
254.494	73.25
254.727	92.25
254.96	99.25
255.193	81.25
255.426	83.25
255.659	90.25
255.892	83.25
256.124	84.25
256.357	95.25
256.59	72.25
256.823	94.25
257.056	73.25
257.289	71.25
257.521	71.25
257.754	76.25
257.987	88.25
258.22	84.25
258.452	68.25
258.685	80.25
258.918	83.25
259.151	81.25
259.383	85.25
259.616	76.25
259.849	81.25
260.081	81.25
260.314	101.25
260.547	78.25
260.779	87.25
261.012	79.25
261.244	83.25
261.477	76.25
261.71	87.25
261.942	84.25
262.175	77.25
262.407	90.25
262.64	82.25
262.872	84.25
263.105	87.25
263.337	79.25
263.57	81.25
263.802	86.25
264.035	89.25
264.267	77.25
264.499	82.25
264.732	86.25
264.964	98.25
265.197	87.25
265.429	80.25
265.661	74.25
265.894	104.25
266.126	105.25
266.358	101.25
266.591	85.25
266.823	82.25
267.055	91.25
267.287	85.25
267.52	83.25
267.752	73.25
267.984	81.25
268.216	80.25
268.448	88.25
268.681	87.25
268.913	76.25
269.145	77.25
269.377	85.25
269.609	81.25
269.841	86.25
270.073	92.25
270.306	81.25
270.538	83.25
270.77	77.25
271.002	85.25
271.234	82.25
271.466	85.25
271.698	85.25
271.93	72.25
272.162	95.25
272.394	81.25
272.626	78.25
272.858	87.25
273.09	96.25
273.322	87.25
273.553	86.25
273.785	90.25
274.017	82.25
274.249	70.25
274.481	88.25
274.713	88.25
274.945	83.25
275.176	85.25
275.408	68.25
275.64	83.25
275.872	68.25
276.104	96.25
276.335	72.25
276.567	73.25
276.799	85.25
277.031	78.25
277.262	84.25
277.494	92.25
277.726	82.25
277.957	73.25
278.189	83.25
278.421	96.25
278.652	88.25
278.884	83.25
279.115	98.25
279.347	98.25
279.579	73.25
279.81	92.25
280.042	102.25
280.273	91.25
280.505	80.25
280.736	79.25
280.968	76.25
281.199	90.25
281.431	83.25
281.662	97.25
281.894	88.25
282.125	86.25
282.356	71.25
282.588	85.25
282.819	85.25
283.051	90.25
283.282	76.25
283.513	105.25
283.745	63.25
283.976	70.25
284.207	80.25
284.439	81.25
284.67	94.25
284.901	88.25
285.132	82.25
285.364	86.25
285.595	73.25
285.826	88.25
286.057	88.25
286.288	94.25
286.52	92.25
286.751	81.25
286.982	68.25
287.213	75.25
287.444	90.25
287.675	81.25
287.906	93.25
288.138	93.25
288.369	86.25
288.6	85.25
288.831	89.25
289.062	81.25
289.293	87.25
289.524	84.25
289.755	81.25
289.986	91.25
290.217	85.25
290.448	92.25
290.679	82.25
290.91	88.25
291.141	94.25
291.371	88.25
291.602	95.25
291.833	80.25
292.064	86.25
292.295	88.25
292.526	78.25
292.757	67.25
292.987	93.25
293.218	82.25
293.449	80.25
293.68	88.25
293.91	94.25
294.141	92.25
294.372	87.25
294.603	69.25
294.833	87.25
295.064	100.25
295.295	89.25
295.525	83.25
295.756	91.25
295.987	84.25
296.217	91.25
296.448	95.25
296.679	89.25
296.909	94.25
297.14	106.25
297.37	80.25
297.601	100.25
297.831	94.25
298.062	92.25
298.292	97.25
298.523	91.25
298.753	97.25
298.984	78.25
299.214	91.25
299.445	95.25
299.675	98.25
299.905	81.25
300.136	94.25
300.366	95.25
300.597	94.25
300.827	84.25
301.057	85.25
301.288	81.25
301.518	82.25
301.748	89.25
301.979	96.25
302.209	92.25
302.439	78.25
302.669	93.25
302.9	90.25
303.13	109.25
303.36	87.25
303.59	81.25
303.82	88.25
304.051	78.25
304.281	88.25
304.511	88.25
304.741	81.25
304.971	81.25
305.201	78.25
305.431	84.25
305.661	97.25
305.891	88.25
306.121	88.25
306.352	74.25
306.582	96.25
306.812	76.25
307.042	87.25
307.272	96.25
307.502	105.25
307.731	93.25
307.961	95.25
308.191	93.25
308.421	96.25
308.651	67.25
308.881	87.25
309.111	90.25
309.341	94.25
309.571	89.25
309.8	80.25
310.03	86.25
310.26	89.25
310.49	87.25
310.72	82.25
310.949	83.25
311.179	76.25
311.409	83.25
311.639	99.25
311.868	86.25
312.098	91.25
312.328	89.25
312.557	79.25
312.787	77.25
313.017	92.25
313.246	75.25
313.476	88.25
313.706	82.25
313.935	93.25
314.165	93.25
314.394	98.25
314.624	88.25
314.853	97.25
315.083	93.25
315.312	100.25
315.542	84.25
315.771	86.25
316.001	96.25
316.23	99.25
316.46	96.25
316.689	94.25
316.919	94.25
317.148	98.25
317.377	104.25
317.607	90.25
317.836	92.25
318.065	93.25
318.295	97.25
318.524	99.25
318.753	107.25
318.983	86.25
319.212	87.25
319.441	85.25
319.67	88.25
319.9	93.25
320.129	88.25
320.358	89.25
320.587	88.25
320.816	91.25
321.046	103.25
321.275	103.25
321.504	90.25
321.733	104.25
321.962	89.25
322.191	70.25
322.42	95.25
322.649	81.25
322.878	82.25
323.108	89.25
323.337	90.25
323.566	89.25
323.795	75.25
324.024	90.25
324.253	78.25
324.482	85.25
324.71	89.25
324.939	96.25
325.168	97.25
325.397	92.25
325.626	92.25
325.855	83.25
326.084	78.25
326.313	85.25
326.542	87.25
326.77	73.25
326.999	80.25
327.228	92.25
327.457	86.25
327.686	94.25
327.914	92.25
328.143	91.25
328.372	91.25
328.6	101.25
328.829	89.25
329.058	97.25
329.287	81.25
329.515	90.25
329.744	93.25
329.972	90.25
330.201	92.25
330.43	87.25
330.658	94.25
330.887	92.25
331.115	77.25
331.344	78.25
331.572	82.25
331.801	84.25
332.03	81.25
332.258	102.25
332.486	109.25
332.715	97.25
332.943	85.25
333.172	85.25
333.4	98.25
333.629	94.25
333.857	88.25
334.085	85.25
334.314	87.25
334.542	90.25
334.771	102.25
334.999	90.25
335.227	101.25
335.455	97.25
335.684	88.25
335.912	94.25
336.14	95.25
336.369	94.25
336.597	99.25
336.825	76.25
337.053	102.25
337.281	82.25
337.51	106.25
337.738	105.25
337.966	75.25
338.194	95.25
338.422	111.25
338.65	94.25
338.878	76.25
339.106	80.25
339.334	90.25
339.562	96.25
339.79	84.25
340.018	81.25
340.246	90.25
340.474	91.25
340.702	87.25
340.93	95.25
341.158	88.25
341.386	93.25
341.614	94.25
341.842	85.25
342.07	78.25
342.298	82.25
342.526	77.25
342.754	89.25
342.981	88.25
343.209	98.25
343.437	94.25
343.665	102.25
343.893	103.25
344.12	109.25
344.348	88.25
344.576	87.25
344.804	85.25
345.031	84.25
345.259	77.25
345.487	90.25
345.714	90.25
345.942	100.25
346.17	88.25
346.397	97.25
346.625	89.25
346.853	91.25
347.08	78.25
347.308	86.25
347.535	94.25
347.763	84.25
347.99	87.25
348.218	85.25
348.445	89.25
348.673	82.25
348.9	93.25
349.128	83.25
349.355	100.25
349.583	76.25
349.81	96.25
350.037	86.25
350.265	99.25
350.492	86.25
350.72	94.25
350.947	94.25
351.174	83.25
351.402	85.25
351.629	85.25
351.856	87.25
352.083	90.25
352.311	80.25
352.538	102.25
352.765	88.25
352.992	80.25
353.22	84.25
353.447	70.25
353.674	92.25
353.901	85.25
354.128	95.25
354.355	99.25
354.583	97.25
354.81	81.25
355.037	108.25
355.264	102.25
355.491	90.25
355.718	80.25
355.945	92.25
356.172	93.25
356.399	98.25
356.626	89.25
356.853	86.25
357.08	85.25
357.307	88.25
357.534	98.25
357.761	79.25
357.988	87.25
358.215	94.25
358.441	85.25
358.668	89.25
358.895	88.25
359.122	94.25
359.349	90.25
359.576	99.25
359.802	81.25
360.029	92.25
360.256	90.25
360.483	74.25
360.709	89.25
360.936	99.25
361.163	99.25
361.39	93.25
361.616	100.25
361.843	95.25
362.07	80.25
362.296	95.25
362.523	92.25
362.749	77.25
362.976	78.25
363.203	78.25
363.429	80.25
363.656	92.25
363.882	86.25
364.109	81.25
364.335	83.25
364.562	85.25
364.788	86.25
365.015	90.25
365.241	77.25
365.468	102.25
365.694	92.25
365.92	87.25
366.147	81.25
366.373	100.25
366.599	97.25
366.826	87.25
367.052	96.25
367.278	82.25
367.505	72.25
367.731	91.25
367.957	82.25
368.184	100.25
368.41	85.25
368.636	85.25
368.862	83.25
369.089	94.25
369.315	84.25
369.541	81.25
369.767	81.25
369.993	89.25
370.219	101.25
370.445	90.25
370.672	97.25
370.898	103.25
371.124	92.25
371.35	85.25
371.576	86.25
371.802	78.25
372.028	87.25
372.254	83.25
372.48	86.25
372.706	93.25
372.932	102.25
373.158	80.25
373.384	98.25
373.61	97.25
373.835	82.25
374.061	100.25
374.287	79.25
374.513	69.25
374.739	97.25
374.965	86.25
375.191	95.25
375.416	97.25
375.642	80.25
375.868	88.25
376.094	101.25
376.319	90.25
376.545	78.25
376.771	99.25
376.997	73.25
377.222	104.25
377.448	88.25
377.674	99.25
377.899	92.25
378.125	99.25
378.35	87.25
378.576	93.25
378.802	95.25
379.027	85.25
379.253	92.25
379.478	76.25
379.704	88.25
379.929	92.25
380.155	94.25
380.38	81.25
380.606	94.25
380.831	89.25
381.057	93.25
381.282	101.25
381.507	88.25
381.733	94.25
381.958	103.25
382.184	90.25
382.409	89.25
382.634	89.25
382.86	91.25
383.085	95.25
383.31	90.25
383.535	90.25
383.761	94.25
383.986	98.25
384.211	96.25
384.436	87.25
384.662	87.25
384.887	106.25
385.112	101.25
385.337	94.25
385.562	103.25
385.787	94.25
386.013	101.25
386.238	81.25
386.463	88.25
386.688	91.25
386.913	97.25
387.138	93.25
387.363	67.25
387.588	96.25
387.813	93.25
388.038	82.25
388.263	94.25
388.488	74.25
388.713	83.25
388.938	95.25
389.163	88.25
389.387	101.25
389.612	94.25
389.837	84.25
390.062	76.25
390.287	82.25
390.512	91.25
390.736	113.25
390.961	84.25
391.186	98.25
391.411	100.25
391.636	100.25
391.86	86.25
392.085	88.25
392.31	87.25
392.534	88.25
392.759	100.25
392.984	102.25
393.208	94.25
393.433	110.25
393.658	77.25
393.882	82.25
394.107	84.25
394.331	97.25
394.556	98.25
394.78	95.25
395.005	100.25
395.229	100.25
395.454	96.25
395.678	93.25
395.903	85.25
396.127	96.25
396.352	101.25
396.576	95.25
396.801	88.25
397.025	101.25
397.249	98.25
397.474	97.25
397.698	88.25
397.922	96.25
398.147	78.25
398.371	104.25
398.595	102.25
398.82	95.25
399.044	82.25
399.268	102.25
399.492	95.25
399.717	101.25
399.941	101.25
400.165	86.25
400.389	86.25
400.613	102.25
400.837	105.25
401.062	109.25
401.286	105.25
401.51	91.25
401.734	87.25
401.958	109.25
402.182	100.25
402.406	101.25
402.63	82.25
402.854	88.25
403.078	99.25
403.302	92.25
403.526	109.25
403.75	92.25
403.974	96.25
404.198	92.25
404.422	101.25
404.645	97.25
404.869	106.25
405.093	92.25
405.317	97.25
405.541	89.25
405.765	108.25
405.988	92.25
406.212	93.25
406.436	101.25
406.66	98.25
406.883	117.25
407.107	100.25
407.331	92.25
407.555	102.25
407.778	99.25
408.002	84.25
408.226	112.25
408.449	97.25
408.673	101.25
408.896	110.25
409.12	108.25
409.344	106.25
409.567	100.25
409.791	88.25
410.014	96.25
410.238	95.25
410.461	85.25
410.685	109.25
410.908	94.25
411.132	100.25
411.355	104.25
411.578	93.25
411.802	90.25
412.025	79.25
412.249	94.25
412.472	101.25
412.695	86.25
412.919	96.25
413.142	93.25
413.365	101.25
413.589	92.25
413.812	89.25
414.035	104.25
414.258	95.25
414.482	94.25
414.705	99.25
414.928	90.25
415.151	101.25
415.374	104.25
415.597	101.25
415.821	94.25
416.044	88.25
416.267	92.25
416.49	89.25
416.713	96.25
416.936	91.25
417.159	96.25
417.382	89.25
417.605	82.25
417.828	87.25
418.051	90.25
418.274	103.25
418.497	105.25
418.72	106.25
418.943	100.25
419.166	101.25
419.389	104.25
419.611	105.25
419.834	98.25
420.057	102.25
420.28	82.25
420.503	108.25
420.726	89.25
420.948	99.25
421.171	87.25
421.394	86.25
421.617	104.25
421.839	91.25
422.062	80.25
422.285	102.25
422.507	97.25
422.73	100.25
422.953	105.25
423.175	102.25
423.398	97.25
423.621	87.25
423.843	104.25
424.066	101.25
424.288	96.25
424.511	87.25
424.733	87.25
424.956	98.25
425.178	78.25
425.401	95.25
425.623	85.25
425.846	95.25
426.068	98.25
426.291	103.25
426.513	104.25
426.735	98.25
426.958	97.25
427.18	86.25
427.402	103.25
427.625	88.25
427.847	95.25
428.069	92.25
428.292	95.25
428.514	93.25
428.736	88.25
428.958	90.25
429.181	103.25
429.403	94.25
429.625	82.25
429.847	101.25
430.069	96.25
430.292	104.25
430.514	109.25
430.736	93.25
430.958	102.25
431.18	82.25
431.402	96.25
431.624	96.25
431.846	95.25
432.068	94.25
432.29	100.25
432.512	92.25
432.734	94.25
432.956	93.25
433.178	87.25
433.4	98.25
433.622	87.25
433.844	93.25
434.066	100.25
434.287	83.25
434.509	85.25
434.731	86.25
434.953	98.25
435.175	103.25
435.397	89.25
435.618	112.25
435.84	94.25
436.062	80.25
436.284	89.25
436.505	96.25
436.727	88.25
436.949	95.25
437.17	91.25
437.392	87.25
437.614	108.25
437.835	101.25
438.057	89.25
438.278	107.25
438.5	89.25
438.721	91.25
438.943	95.25
439.165	100.25
439.386	103.25
439.608	113.25
439.829	97.25
440.05	97.25
440.272	103.25
440.493	100.25
440.715	104.25
440.936	80.25
441.158	97.25
441.379	98.25
441.6	98.25
441.822	96.25
442.043	81.25
442.264	89.25
442.486	96.25
442.707	86.25
442.928	101.25
443.149	94.25
443.371	96.25
443.592	87.25
443.813	94.25
444.034	99.25
444.255	97.25
444.476	102.25
444.698	110.25
444.919	99.25
445.14	203.25
445.361	142.25
445.582	99.25
445.803	97.25
446.024	91.25
446.245	88.25
446.466	108.25
446.687	96.25
446.908	103.25
447.129	110.25
447.35	95.25
447.571	80.25
447.792	105.25
448.013	96.25
448.234	98.25
448.455	88.25
448.675	87.25
448.896	85.25
449.117	77.25
449.338	87.25
449.559	77.25
449.779	90.25
450	86.25
450.221	95.25
450.442	90.25
450.662	97.25
450.883	87.25
451.104	92.25
451.324	84.25
451.545	76.25
451.766	79.25
451.986	92.25
452.207	94.25
452.428	82.25
452.648	81.25
452.869	108.25
453.089	92.25
453.31	80.25
453.53	93.25
453.751	89.25
453.971	95.25
454.192	91.25
454.412	103.25
454.633	101.25
454.853	82.25
455.073	96.25
455.294	97.25
455.514	102.25
455.734	95.25
455.955	98.25
456.175	92.25
456.395	79.25
456.616	99.25
456.836	84.25
457.056	87.25
457.276	82.25
457.497	94.25
457.717	104.25
457.937	86.25
458.157	85.25
458.377	86.25
458.598	91.25
458.818	92.25
459.038	101.25
459.258	98.25
459.478	97.25
459.698	86.25
459.918	95.25
460.138	93.25
460.358	99.25
460.578	82.25
460.798	100.25
461.018	83.25
461.238	103.25
461.458	93.25
461.678	91.25
461.898	106.25
462.118	115.25
462.338	95.25
462.558	97.25
462.777	97.25
462.997	105.25
463.217	110.25
463.437	108.25
463.657	88.25
463.876	95.25
464.096	106.25
464.316	100.25
464.536	98.25
464.755	78.25
464.975	90.25
465.195	92.25
465.414	89.25
465.634	93.25
465.854	108.25
466.073	104.25
466.293	103.25
466.512	84.25
466.732	90.25
466.951	107.25
467.171	99.25
467.391	92.25
467.61	85.25
467.829	92.25
468.049	102.25
468.268	84.25
468.488	91.25
468.707	87.25
468.927	93.25
469.146	100.25
469.365	96.25
469.585	95.25
469.804	95.25
470.023	95.25
470.243	100.25
470.462	95.25
470.681	98.25
470.901	104.25
471.12	97.25
471.339	96.25
471.558	96.25
471.777	120.25
471.997	97.25
472.216	99.25
472.435	94.25
472.654	97.25
472.873	109.25
473.092	93.25
473.311	89.25
473.53	89.25
473.749	83.25
473.968	109.25
474.187	99.25
474.406	81.25
474.625	86.25
474.844	93.25
475.063	95.25
475.282	99.25
475.501	82.25
475.72	102.25
475.939	96.25
476.158	104.25
476.377	84.25
476.596	104.25
476.814	86.25
477.033	101.25
477.252	69.25
477.471	96.25
477.69	99.25
477.908	103.25
478.127	111.25
478.346	113.25
478.564	108.25
478.783	118.25
479.002	87.25
479.22	101.25
479.439	99.25
479.658	97.25
479.876	108.25
480.095	94.25
480.313	96.25
480.532	112.25
480.751	96.25
480.969	106.25
481.188	97.25
481.406	96.25
481.624	92.25
481.843	104.25
482.061	108.25
482.28	99.25
482.498	97.25
482.717	96.25
482.935	102.25
483.153	97.25
483.372	103.25
483.59	111.25
483.808	98.25
484.027	103.25
484.245	110.25
484.463	101.25
484.681	118.25
484.9	102.25
485.118	103.25
485.336	76.25
485.554	102.25
485.772	109.25
485.99	94.25
486.209	96.25
486.427	106.25
486.645	103.25
486.863	107.25
487.081	100.25
487.299	96.25
487.517	86.25
487.735	93.25
487.953	97.25
488.171	109.25
488.389	109.25
488.607	98.25
488.825	96.25
489.043	92.25
489.261	104.25
489.479	97.25
489.696	107.25
489.914	98.25
490.132	100.25
490.35	108.25
490.568	124.25
490.786	101.25
491.003	95.25
491.221	113.25
491.439	98.25
491.657	104.25
491.874	118.25
492.092	112.25
492.31	103.25
492.527	108.25
492.745	112.25
492.963	117.25
493.18	106.25
493.398	114.25
493.615	116.25
493.833	104.25
494.05	105.25
494.268	108.25
494.485	116.25
494.703	119.25
494.92	114.25
495.138	102.25
495.355	101.25
495.573	114.25
495.79	109.25
496.008	126.25
496.225	117.25
496.442	120.25
496.66	114.25
496.877	103.25
497.094	112.25
497.312	101.25
497.529	110.25
497.746	108.25
497.963	104.25
498.181	112.25
498.398	120.25
498.615	116.25
498.832	121.25
499.049	111.25
499.267	131.25
499.484	126.25
499.701	129.25
499.918	134.25
500.135	142.25
500.352	152.25
500.569	172.25
500.786	165.25
501.003	161.25
501.22	145.25
501.437	145.25
501.654	125.25
501.871	110.25
502.088	124.25
502.305	111.25
502.522	128.25
502.739	118.25
502.956	108.25
503.172	128.25
503.389	101.25
503.606	112.25
503.823	105.25
504.04	111.25
504.256	124.25
504.473	109.25
504.69	97.25
504.907	132.25
505.123	111.25
505.34	124.25
505.557	103.25
505.773	92.25
505.99	95.25
506.207	90.25
506.423	105.25
506.64	92.25
506.856	81.25
507.073	86.25
507.289	85.25
507.506	104.25
507.722	110.25
507.939	89.25
508.155	111.25
508.372	102.25
508.588	100.25
508.805	104.25
509.021	85.25
509.238	106.25
509.454	103.25
509.67	94.25
509.887	99.25
510.103	113.25
510.319	101.25
510.536	80.25
510.752	97.25
510.968	89.25
511.184	104.25
511.401	72.25
511.617	99.25
511.833	98.25
512.049	99.25
512.265	96.25
512.481	96.25
512.698	83.25
512.914	108.25
513.13	94.25
513.346	110.25
513.562	99.25
513.778	93.25
513.994	80.25
514.21	102.25
514.426	106.25
514.642	102.25
514.858	101.25
515.074	105.25
515.29	105.25
