Data from Location5.07152019.Energy5.Lamp.07192019.3%Agarose_HRD10591_16-04-05-629.txt Node
Date: Fri Jul 19 16:04:05 EDT 2019
User: cochatt
Spectrometer: HR+D1059
Trigger mode: 1
Integration Time (sec): 1.000000E-1
Scans to average: 1
Electric dark correction enabled: true
Nonlinearity correction enabled: false
Boxcar width: 0
XAxis mode: Wavelengths
Number of Pixels in Spectrum: 2048
>>>>>Begin Spectral Data<<<<<
223.165	-18.62
223.4	-18.62
223.635	-18.62
223.869	-8.62
224.104	-10.62
224.338	-11.62
224.573	1.38
224.808	-16.62
225.042	-17.62
225.277	1.38
225.511	-5.62
225.746	3.38
225.98	-13.62
226.215	5.38
226.449	3.38
226.683	17.38
226.918	34.38
227.152	36.38
227.387	33.38
227.621	21.38
227.856	31.38
228.09	44.38
228.324	29.38
228.559	50.38
228.793	53.38
229.027	59.38
229.262	62.38
229.496	56.38
229.73	65.38
229.964	70.38
230.199	68.38
230.433	65.38
230.667	77.38
230.901	64.38
231.136	74.38
231.37	84.38
231.604	82.38
231.838	71.38
232.072	76.38
232.306	74.38
232.541	73.38
232.775	75.38
233.009	77.38
233.243	84.38
233.477	65.38
233.711	75.38
233.945	53.38
234.179	66.38
234.413	84.38
234.647	83.38
234.881	88.38
235.115	67.38
235.349	77.38
235.583	82.38
235.817	70.38
236.051	94.38
236.285	81.38
236.519	73.38
236.753	80.38
236.987	75.38
237.221	80.38
237.455	65.38
237.689	66.38
237.922	72.38
238.156	67.38
238.39	61.38
238.624	90.38
238.858	68.38
239.091	82.38
239.325	69.38
239.559	86.38
239.793	87.38
240.027	79.38
240.26	76.38
240.494	78.38
240.728	69.38
240.961	75.38
241.195	72.38
241.429	73.38
241.662	60.38
241.896	63.38
242.13	68.38
242.363	70.38
242.597	81.38
242.83	70.38
243.064	71.38
243.298	85.38
243.531	87.38
243.765	68.38
243.998	80.38
244.232	66.38
244.465	73.38
244.699	70.38
244.932	85.38
245.166	85.38
245.399	75.38
245.633	81.38
245.866	65.38
246.099	77.38
246.333	72.38
246.566	76.38
246.8	96.38
247.033	83.38
247.266	76.38
247.5	73.38
247.733	88.38
247.966	61.38
248.2	66.38
248.433	76.38
248.666	71.38
248.899	72.38
249.133	75.38
249.366	71.38
249.599	87.38
249.832	77.38
250.066	71.38
250.299	95.38
250.532	73.38
250.765	64.38
250.998	66.38
251.231	67.38
251.465	90.38
251.698	82.38
251.931	66.38
252.164	79.38
252.397	97.38
252.63	82.38
252.863	83.38
253.096	64.38
253.329	80.38
253.562	73.38
253.795	79.38
254.028	91.38
254.261	75.38
254.494	86.38
254.727	69.38
254.96	65.38
255.193	75.38
255.426	84.38
255.659	77.38
255.892	83.38
256.124	82.38
256.357	82.38
256.59	91.38
256.823	75.38
257.056	74.38
257.289	79.38
257.521	73.38
257.754	79.38
257.987	81.38
258.22	80.38
258.452	76.38
258.685	87.38
258.918	72.38
259.151	81.38
259.383	77.38
259.616	66.38
259.849	83.38
260.081	76.38
260.314	87.38
260.547	75.38
260.779	78.38
261.012	76.38
261.244	76.38
261.477	92.38
261.71	72.38
261.942	76.38
262.175	68.38
262.407	68.38
262.64	71.38
262.872	79.38
263.105	83.38
263.337	87.38
263.57	89.38
263.802	77.38
264.035	64.38
264.267	76.38
264.499	88.38
264.732	84.38
264.964	73.38
265.197	84.38
265.429	79.38
265.661	90.38
265.894	73.38
266.126	77.38
266.358	87.38
266.591	60.38
266.823	71.38
267.055	74.38
267.287	82.38
267.52	77.38
267.752	81.38
267.984	74.38
268.216	84.38
268.448	77.38
268.681	69.38
268.913	84.38
269.145	85.38
269.377	94.38
269.609	73.38
269.841	80.38
270.073	88.38
270.306	91.38
270.538	66.38
270.77	73.38
271.002	75.38
271.234	86.38
271.466	84.38
271.698	82.38
271.93	71.38
272.162	84.38
272.394	82.38
272.626	84.38
272.858	79.38
273.09	68.38
273.322	86.38
273.553	78.38
273.785	82.38
274.017	96.38
274.249	68.38
274.481	81.38
274.713	87.38
274.945	96.38
275.176	77.38
275.408	84.38
275.64	66.38
275.872	75.38
276.104	77.38
276.335	69.38
276.567	84.38
276.799	81.38
277.031	76.38
277.262	77.38
277.494	79.38
277.726	77.38
277.957	80.38
278.189	79.38
278.421	75.38
278.652	87.38
278.884	79.38
279.115	87.38
279.347	66.38
279.579	75.38
279.81	82.38
280.042	72.38
280.273	82.38
280.505	79.38
280.736	76.38
280.968	88.38
281.199	78.38
281.431	75.38
281.662	71.38
281.894	81.38
282.125	88.38
282.356	79.38
282.588	95.38
282.819	80.38
283.051	73.38
283.282	99.38
283.513	99.38
283.745	82.38
283.976	82.38
284.207	96.38
284.439	83.38
284.67	84.38
284.901	99.38
285.132	76.38
285.364	88.38
285.595	79.38
285.826	77.38
286.057	85.38
286.288	81.38
286.52	77.38
286.751	78.38
286.982	68.38
287.213	80.38
287.444	75.38
287.675	77.38
287.906	96.38
288.138	89.38
288.369	83.38
288.6	80.38
288.831	86.38
289.062	76.38
289.293	89.38
289.524	80.38
289.755	85.38
289.986	83.38
290.217	70.38
290.448	81.38
290.679	78.38
290.91	83.38
291.141	79.38
291.371	89.38
291.602	94.38
291.833	89.38
292.064	74.38
292.295	80.38
292.526	91.38
292.757	81.38
292.987	93.38
293.218	71.38
293.449	88.38
293.68	80.38
293.91	87.38
294.141	96.38
294.372	85.38
294.603	77.38
294.833	79.38
295.064	83.38
295.295	83.38
295.525	94.38
295.756	89.38
295.987	76.38
296.217	103.38
296.448	87.38
296.679	80.38
296.909	97.38
297.14	80.38
297.37	97.38
297.601	72.38
297.831	78.38
298.062	81.38
298.292	78.38
298.523	92.38
298.753	80.38
298.984	88.38
299.214	96.38
299.445	90.38
299.675	88.38
299.905	81.38
300.136	110.38
300.366	89.38
300.597	88.38
300.827	106.38
301.057	87.38
301.288	95.38
301.518	87.38
301.748	97.38
301.979	77.38
302.209	72.38
302.439	87.38
302.669	91.38
302.9	82.38
303.13	69.38
303.36	71.38
303.59	85.38
303.82	72.38
304.051	82.38
304.281	90.38
304.511	80.38
304.741	90.38
304.971	88.38
305.201	80.38
305.431	79.38
305.661	80.38
305.891	82.38
306.121	83.38
306.352	80.38
306.582	67.38
306.812	82.38
307.042	85.38
307.272	83.38
307.502	76.38
307.731	69.38
307.961	84.38
308.191	88.38
308.421	93.38
308.651	80.38
308.881	82.38
309.111	77.38
309.341	88.38
309.571	81.38
309.8	87.38
310.03	83.38
310.26	75.38
310.49	91.38
310.72	90.38
310.949	73.38
311.179	81.38
311.409	95.38
311.639	94.38
311.868	77.38
312.098	83.38
312.328	87.38
312.557	91.38
312.787	106.38
313.017	91.38
313.246	111.38
313.476	90.38
313.706	89.38
313.935	92.38
314.165	77.38
314.394	83.38
314.624	92.38
314.853	92.38
315.083	85.38
315.312	83.38
315.542	76.38
315.771	88.38
316.001	88.38
316.23	71.38
316.46	84.38
316.689	81.38
316.919	90.38
317.148	93.38
317.377	91.38
317.607	98.38
317.836	84.38
318.065	82.38
318.295	92.38
318.524	74.38
318.753	85.38
318.983	89.38
319.212	78.38
319.441	92.38
319.67	76.38
319.9	72.38
320.129	85.38
320.358	85.38
320.587	84.38
320.816	84.38
321.046	98.38
321.275	88.38
321.504	77.38
321.733	89.38
321.962	89.38
322.191	89.38
322.42	81.38
322.649	91.38
322.878	86.38
323.108	90.38
323.337	95.38
323.566	72.38
323.795	77.38
324.024	81.38
324.253	95.38
324.482	86.38
324.71	77.38
324.939	88.38
325.168	83.38
325.397	93.38
325.626	85.38
325.855	84.38
326.084	82.38
326.313	84.38
326.542	79.38
326.77	80.38
326.999	95.38
327.228	92.38
327.457	85.38
327.686	95.38
327.914	79.38
328.143	71.38
328.372	82.38
328.6	75.38
328.829	88.38
329.058	99.38
329.287	89.38
329.515	76.38
329.744	82.38
329.972	65.38
330.201	95.38
330.43	89.38
330.658	87.38
330.887	74.38
331.115	88.38
331.344	72.38
331.572	90.38
331.801	96.38
332.03	93.38
332.258	98.38
332.486	99.38
332.715	83.38
332.943	93.38
333.172	96.38
333.4	97.38
333.629	88.38
333.857	90.38
334.085	80.38
334.314	93.38
334.542	85.38
334.771	83.38
334.999	80.38
335.227	66.38
335.455	87.38
335.684	91.38
335.912	97.38
336.14	90.38
336.369	87.38
336.597	93.38
336.825	103.38
337.053	97.38
337.281	76.38
337.51	97.38
337.738	81.38
337.966	76.38
338.194	78.38
338.422	83.38
338.65	85.38
338.878	86.38
339.106	79.38
339.334	74.38
339.562	73.38
339.79	84.38
340.018	81.38
340.246	91.38
340.474	86.38
340.702	91.38
340.93	80.38
341.158	85.38
341.386	81.38
341.614	97.38
341.842	75.38
342.07	88.38
342.298	82.38
342.526	91.38
342.754	88.38
342.981	82.38
343.209	89.38
343.437	89.38
343.665	84.38
343.893	84.38
344.12	94.38
344.348	71.38
344.576	92.38
344.804	90.38
345.031	94.38
345.259	93.38
345.487	97.38
345.714	87.38
345.942	94.38
346.17	78.38
346.397	89.38
346.625	87.38
346.853	81.38
347.08	73.38
347.308	91.38
347.535	94.38
347.763	80.38
347.99	83.38
348.218	87.38
348.445	97.38
348.673	84.38
348.9	79.38
349.128	92.38
349.355	95.38
349.583	88.38
349.81	81.38
350.037	92.38
350.265	88.38
350.492	82.38
350.72	79.38
350.947	93.38
351.174	77.38
351.402	77.38
351.629	100.38
351.856	89.38
352.083	78.38
352.311	81.38
352.538	81.38
352.765	85.38
352.992	81.38
353.22	69.38
353.447	89.38
353.674	84.38
353.901	111.38
354.128	89.38
354.355	86.38
354.583	90.38
354.81	90.38
355.037	92.38
355.264	68.38
355.491	78.38
355.718	84.38
355.945	94.38
356.172	82.38
356.399	73.38
356.626	83.38
356.853	77.38
357.08	88.38
357.307	69.38
357.534	75.38
357.761	78.38
357.988	90.38
358.215	84.38
358.441	76.38
358.668	100.38
358.895	78.38
359.122	77.38
359.349	83.38
359.576	80.38
359.802	88.38
360.029	88.38
360.256	87.38
360.483	82.38
360.709	85.38
360.936	91.38
361.163	98.38
361.39	92.38
361.616	85.38
361.843	82.38
362.07	80.38
362.296	89.38
362.523	81.38
362.749	79.38
362.976	91.38
363.203	88.38
363.429	93.38
363.656	83.38
363.882	86.38
364.109	84.38
364.335	69.38
364.562	72.38
364.788	88.38
365.015	69.38
365.241	88.38
365.468	85.38
365.694	94.38
365.92	93.38
366.147	77.38
366.373	78.38
366.599	90.38
366.826	73.38
367.052	79.38
367.278	69.38
367.505	97.38
367.731	80.38
367.957	91.38
368.184	95.38
368.41	81.38
368.636	84.38
368.862	80.38
369.089	88.38
369.315	92.38
369.541	75.38
369.767	70.38
369.993	84.38
370.219	87.38
370.445	63.38
370.672	91.38
370.898	75.38
371.124	92.38
371.35	77.38
371.576	97.38
371.802	87.38
372.028	83.38
372.254	90.38
372.48	82.38
372.706	88.38
372.932	89.38
373.158	93.38
373.384	95.38
373.61	77.38
373.835	85.38
374.061	104.38
374.287	99.38
374.513	80.38
374.739	80.38
374.965	91.38
375.191	96.38
375.416	96.38
375.642	75.38
375.868	79.38
376.094	72.38
376.319	86.38
376.545	97.38
376.771	77.38
376.997	90.38
377.222	67.38
377.448	87.38
377.674	92.38
377.899	85.38
378.125	84.38
378.35	82.38
378.576	79.38
378.802	82.38
379.027	82.38
379.253	79.38
379.478	87.38
379.704	86.38
379.929	84.38
380.155	91.38
380.38	82.38
380.606	92.38
380.831	107.38
381.057	92.38
381.282	87.38
381.507	85.38
381.733	90.38
381.958	89.38
382.184	79.38
382.409	87.38
382.634	91.38
382.86	88.38
383.085	88.38
383.31	88.38
383.535	90.38
383.761	80.38
383.986	81.38
384.211	95.38
384.436	95.38
384.662	94.38
384.887	76.38
385.112	67.38
385.337	86.38
385.562	92.38
385.787	85.38
386.013	103.38
386.238	80.38
386.463	84.38
386.688	84.38
386.913	86.38
387.138	86.38
387.363	76.38
387.588	83.38
387.813	98.38
388.038	97.38
388.263	90.38
388.488	88.38
388.713	69.38
388.938	82.38
389.163	74.38
389.387	73.38
389.612	90.38
389.837	87.38
390.062	105.38
390.287	80.38
390.512	91.38
390.736	66.38
390.961	81.38
391.186	84.38
391.411	91.38
391.636	87.38
391.86	89.38
392.085	85.38
392.31	84.38
392.534	78.38
392.759	92.38
392.984	88.38
393.208	74.38
393.433	81.38
393.658	81.38
393.882	99.38
394.107	83.38
394.331	83.38
394.556	77.38
394.78	94.38
395.005	87.38
395.229	83.38
395.454	100.38
395.678	82.38
395.903	88.38
396.127	95.38
396.352	77.38
396.576	86.38
396.801	108.38
397.025	89.38
397.249	83.38
397.474	80.38
397.698	85.38
397.922	91.38
398.147	95.38
398.371	88.38
398.595	73.38
398.82	90.38
399.044	91.38
399.268	96.38
399.492	109.38
399.717	95.38
399.941	98.38
400.165	88.38
400.389	92.38
400.613	92.38
400.837	99.38
401.062	91.38
401.286	90.38
401.51	82.38
401.734	88.38
401.958	89.38
402.182	82.38
402.406	87.38
402.63	83.38
402.854	83.38
403.078	95.38
403.302	91.38
403.526	91.38
403.75	99.38
403.974	83.38
404.198	97.38
404.422	85.38
404.645	84.38
404.869	92.38
405.093	91.38
405.317	90.38
405.541	86.38
405.765	75.38
405.988	98.38
406.212	92.38
406.436	90.38
406.66	90.38
406.883	87.38
407.107	78.38
407.331	95.38
407.555	98.38
407.778	91.38
408.002	103.38
408.226	87.38
408.449	81.38
408.673	99.38
408.896	79.38
409.12	84.38
409.344	84.38
409.567	98.38
409.791	101.38
410.014	103.38
410.238	99.38
410.461	103.38
410.685	90.38
410.908	87.38
411.132	100.38
411.355	89.38
411.578	96.38
411.802	84.38
412.025	93.38
412.249	85.38
412.472	85.38
412.695	86.38
412.919	90.38
413.142	85.38
413.365	87.38
413.589	81.38
413.812	84.38
414.035	88.38
414.258	77.38
414.482	81.38
414.705	80.38
414.928	81.38
415.151	92.38
415.374	87.38
415.597	85.38
415.821	92.38
416.044	84.38
416.267	94.38
416.49	101.38
416.713	93.38
416.936	97.38
417.159	93.38
417.382	106.38
417.605	94.38
417.828	84.38
418.051	94.38
418.274	97.38
418.497	90.38
418.72	87.38
418.943	101.38
419.166	88.38
419.389	86.38
419.611	85.38
419.834	93.38
420.057	92.38
420.28	84.38
420.503	80.38
420.726	102.38
420.948	85.38
421.171	80.38
421.394	91.38
421.617	79.38
421.839	90.38
422.062	74.38
422.285	86.38
422.507	73.38
422.73	83.38
422.953	89.38
423.175	104.38
423.398	94.38
423.621	96.38
423.843	81.38
424.066	83.38
424.288	91.38
424.511	103.38
424.733	95.38
424.956	87.38
425.178	83.38
425.401	95.38
425.623	81.38
425.846	86.38
426.068	91.38
426.291	101.38
426.513	90.38
426.735	91.38
426.958	88.38
427.18	85.38
427.402	84.38
427.625	79.38
427.847	94.38
428.069	80.38
428.292	93.38
428.514	86.38
428.736	81.38
428.958	88.38
429.181	90.38
429.403	91.38
429.625	95.38
429.847	74.38
430.069	88.38
430.292	83.38
430.514	88.38
430.736	85.38
430.958	81.38
431.18	82.38
431.402	85.38
431.624	90.38
431.846	91.38
432.068	86.38
432.29	88.38
432.512	96.38
432.734	94.38
432.956	81.38
433.178	89.38
433.4	101.38
433.622	95.38
433.844	96.38
434.066	92.38
434.287	107.38
434.509	96.38
434.731	94.38
434.953	84.38
435.175	89.38
435.397	77.38
435.618	88.38
435.84	90.38
436.062	67.38
436.284	89.38
436.505	74.38
436.727	84.38
436.949	84.38
437.17	91.38
437.392	75.38
437.614	96.38
437.835	91.38
438.057	92.38
438.278	88.38
438.5	90.38
438.721	85.38
438.943	94.38
439.165	89.38
439.386	85.38
439.608	88.38
439.829	96.38
440.05	90.38
440.272	87.38
440.493	79.38
440.715	98.38
440.936	92.38
441.158	69.38
441.379	76.38
441.6	84.38
441.822	91.38
442.043	97.38
442.264	92.38
442.486	96.38
442.707	94.38
442.928	97.38
443.149	93.38
443.371	88.38
443.592	92.38
443.813	86.38
444.034	95.38
444.255	105.38
444.476	106.38
444.698	88.38
444.919	99.38
445.14	198.38
445.361	137.38
445.582	84.38
445.803	84.38
446.024	96.38
446.245	85.38
446.466	84.38
446.687	88.38
446.908	89.38
447.129	91.38
447.35	96.38
447.571	82.38
447.792	99.38
448.013	84.38
448.234	92.38
448.455	80.38
448.675	80.38
448.896	99.38
449.117	91.38
449.338	93.38
449.559	91.38
449.779	85.38
450	77.38
450.221	87.38
450.442	92.38
450.662	101.38
450.883	88.38
451.104	99.38
451.324	87.38
451.545	82.38
451.766	83.38
451.986	87.38
452.207	76.38
452.428	93.38
452.648	96.38
452.869	81.38
453.089	93.38
453.31	88.38
453.53	88.38
453.751	81.38
453.971	93.38
454.192	83.38
454.412	82.38
454.633	81.38
454.853	84.38
455.073	58.38
455.294	73.38
455.514	93.38
455.734	96.38
455.955	92.38
456.175	79.38
456.395	83.38
456.616	84.38
456.836	85.38
457.056	97.38
457.276	78.38
457.497	71.38
457.717	81.38
457.937	83.38
458.157	89.38
458.377	94.38
458.598	80.38
458.818	84.38
459.038	72.38
459.258	91.38
459.478	101.38
459.698	77.38
459.918	84.38
460.138	89.38
460.358	89.38
460.578	89.38
460.798	91.38
461.018	91.38
461.238	89.38
461.458	84.38
461.678	92.38
461.898	97.38
462.118	113.38
462.338	105.38
462.558	84.38
462.777	79.38
462.997	87.38
463.217	90.38
463.437	104.38
463.657	98.38
463.876	93.38
464.096	99.38
464.316	98.38
464.536	83.38
464.755	93.38
464.975	92.38
465.195	74.38
465.414	82.38
465.634	93.38
465.854	95.38
466.073	107.38
466.293	85.38
466.512	82.38
466.732	93.38
466.951	90.38
467.171	97.38
467.391	77.38
467.61	109.38
467.829	85.38
468.049	85.38
468.268	87.38
468.488	75.38
468.707	108.38
468.927	80.38
469.146	86.38
469.365	87.38
469.585	85.38
469.804	87.38
470.023	77.38
470.243	88.38
470.462	82.38
470.681	94.38
470.901	92.38
471.12	96.38
471.339	98.38
471.558	82.38
471.777	85.38
471.997	98.38
472.216	90.38
472.435	94.38
472.654	96.38
472.873	97.38
473.092	81.38
473.311	91.38
473.53	100.38
473.749	93.38
473.968	110.38
474.187	87.38
474.406	94.38
474.625	86.38
474.844	98.38
475.063	95.38
475.282	78.38
475.501	75.38
475.72	95.38
475.939	80.38
476.158	103.38
476.377	92.38
476.596	92.38
476.814	91.38
477.033	95.38
477.252	89.38
477.471	88.38
477.69	88.38
477.908	84.38
478.127	87.38
478.346	85.38
478.564	99.38
478.783	94.38
479.002	97.38
479.22	84.38
479.439	89.38
479.658	93.38
479.876	89.38
480.095	96.38
480.313	87.38
480.532	101.38
480.751	99.38
480.969	102.38
481.188	90.38
481.406	97.38
481.624	95.38
481.843	97.38
482.061	82.38
482.28	90.38
482.498	85.38
482.717	91.38
482.935	95.38
483.153	97.38
483.372	103.38
483.59	87.38
483.808	95.38
484.027	105.38
484.245	93.38
484.463	100.38
484.681	99.38
484.9	84.38
485.118	98.38
485.336	89.38
485.554	97.38
485.772	113.38
485.99	94.38
486.209	91.38
486.427	95.38
486.645	108.38
486.863	89.38
487.081	107.38
487.299	108.38
487.517	100.38
487.735	100.38
487.953	106.38
488.171	105.38
488.389	105.38
488.607	100.38
488.825	96.38
489.043	108.38
489.261	86.38
489.479	103.38
489.696	103.38
489.914	89.38
490.132	83.38
490.35	97.38
490.568	100.38
490.786	114.38
491.003	117.38
491.221	106.38
491.439	113.38
491.657	104.38
491.874	119.38
492.092	119.38
492.31	105.38
492.527	112.38
492.745	111.38
492.963	121.38
493.18	117.38
493.398	110.38
493.615	97.38
493.833	106.38
494.05	118.38
494.268	110.38
494.485	88.38
494.703	99.38
494.92	112.38
495.138	100.38
495.355	95.38
495.573	109.38
495.79	103.38
496.008	100.38
496.225	90.38
496.442	96.38
496.66	112.38
496.877	113.38
497.094	113.38
497.312	123.38
497.529	96.38
497.746	115.38
497.963	104.38
498.181	111.38
498.398	87.38
498.615	115.38
498.832	115.38
499.049	108.38
499.267	115.38
499.484	119.38
499.701	127.38
499.918	122.38
500.135	133.38
500.352	154.38
500.569	160.38
500.786	143.38
501.003	148.38
501.22	129.38
501.437	136.38
501.654	93.38
501.871	104.38
502.088	115.38
502.305	109.38
502.522	124.38
502.739	111.38
502.956	105.38
503.172	109.38
503.389	108.38
503.606	118.38
503.823	105.38
504.04	97.38
504.256	103.38
504.473	96.38
504.69	98.38
504.907	107.38
505.123	109.38
505.34	101.38
505.557	98.38
505.773	96.38
505.99	86.38
506.207	101.38
506.423	104.38
506.64	100.38
506.856	82.38
507.073	116.38
507.289	83.38
507.506	95.38
507.722	86.38
507.939	89.38
508.155	96.38
508.372	95.38
508.588	89.38
508.805	109.38
509.021	95.38
509.238	83.38
509.454	94.38
509.67	106.38
509.887	94.38
510.103	86.38
510.319	96.38
510.536	88.38
510.752	83.38
510.968	83.38
511.184	92.38
511.401	88.38
511.617	95.38
511.833	90.38
512.049	88.38
512.265	104.38
512.481	100.38
512.698	87.38
512.914	87.38
513.13	92.38
513.346	89.38
513.562	89.38
513.778	93.38
513.994	84.38
514.21	95.38
514.426	104.38
514.642	87.38
514.858	95.38
515.074	80.38
515.29	98.38
515.506	87.38
515.721	98.38
515.937	90.38
516.153	74.38
516.369	95.38
516.585	90.38
516.801	89.38
517.016	124.38
517.232	97.38
517.448	109.38
517.664	104.38
