Data from Location5.07152019.Energy5.Lamp.07192019.3%Agarose_HRD10591_15-38-13-387.txt Node
Date: Fri Jul 19 15:38:13 EDT 2019
User: cochatt
Spectrometer: HR+D1059
Trigger mode: 1
Integration Time (sec): 1.000000E-1
Scans to average: 1
Electric dark correction enabled: true
Nonlinearity correction enabled: false
Boxcar width: 0
XAxis mode: Wavelengths
Number of Pixels in Spectrum: 2048
>>>>>Begin Spectral Data<<<<<
223.165	-14.5
223.4	-14.5
223.635	-14.5
223.869	-20.5
224.104	-22.5
224.338	-8.5
224.573	-10.5
224.808	-7.5
225.042	-9.5
225.277	-6.5
225.511	-5.5
225.746	7.5
225.98	17.5
226.215	12.5
226.449	0.5
226.683	21.5
226.918	27.5
227.152	18.5
227.387	31.5
227.621	44.5
227.856	46.5
228.09	38.5
228.324	71.5
228.559	59.5
228.793	51.5
229.027	67.5
229.262	51.5
229.496	54.5
229.73	83.5
229.964	72.5
230.199	75.5
230.433	76.5
230.667	81.5
230.901	92.5
231.136	87.5
231.37	86.5
231.604	56.5
231.838	76.5
232.072	83.5
232.306	79.5
232.541	83.5
232.775	87.5
233.009	77.5
233.243	87.5
233.477	84.5
233.711	82.5
233.945	83.5
234.179	90.5
234.413	71.5
234.647	75.5
234.881	77.5
235.115	82.5
235.349	72.5
235.583	93.5
235.817	65.5
236.051	79.5
236.285	83.5
236.519	83.5
236.753	82.5
236.987	77.5
237.221	84.5
237.455	76.5
237.689	91.5
237.922	90.5
238.156	80.5
238.39	85.5
238.624	82.5
238.858	87.5
239.091	75.5
239.325	97.5
239.559	87.5
239.793	69.5
240.027	87.5
240.26	76.5
240.494	70.5
240.728	83.5
240.961	83.5
241.195	75.5
241.429	95.5
241.662	74.5
241.896	76.5
242.13	83.5
242.363	77.5
242.597	83.5
242.83	91.5
243.064	75.5
243.298	82.5
243.531	81.5
243.765	85.5
243.998	88.5
244.232	91.5
244.465	75.5
244.699	72.5
244.932	75.5
245.166	75.5
245.399	90.5
245.633	83.5
245.866	90.5
246.099	86.5
246.333	82.5
246.566	74.5
246.8	81.5
247.033	65.5
247.266	79.5
247.5	77.5
247.733	81.5
247.966	87.5
248.2	80.5
248.433	91.5
248.666	78.5
248.899	82.5
249.133	80.5
249.366	98.5
249.599	83.5
249.832	77.5
250.066	79.5
250.299	74.5
250.532	85.5
250.765	86.5
250.998	85.5
251.231	73.5
251.465	68.5
251.698	72.5
251.931	74.5
252.164	83.5
252.397	80.5
252.63	67.5
252.863	92.5
253.096	73.5
253.329	86.5
253.562	86.5
253.795	80.5
254.028	90.5
254.261	79.5
254.494	76.5
254.727	80.5
254.96	76.5
255.193	74.5
255.426	86.5
255.659	76.5
255.892	91.5
256.124	78.5
256.357	90.5
256.59	78.5
256.823	79.5
257.056	80.5
257.289	89.5
257.521	77.5
257.754	77.5
257.987	82.5
258.22	96.5
258.452	83.5
258.685	80.5
258.918	86.5
259.151	73.5
259.383	100.5
259.616	68.5
259.849	81.5
260.081	96.5
260.314	70.5
260.547	91.5
260.779	91.5
261.012	99.5
261.244	76.5
261.477	77.5
261.71	75.5
261.942	83.5
262.175	83.5
262.407	85.5
262.64	83.5
262.872	97.5
263.105	90.5
263.337	88.5
263.57	89.5
263.802	82.5
264.035	67.5
264.267	85.5
264.499	90.5
264.732	77.5
264.964	90.5
265.197	83.5
265.429	77.5
265.661	81.5
265.894	93.5
266.126	94.5
266.358	86.5
266.591	74.5
266.823	74.5
267.055	94.5
267.287	79.5
267.52	94.5
267.752	89.5
267.984	65.5
268.216	91.5
268.448	91.5
268.681	88.5
268.913	84.5
269.145	84.5
269.377	81.5
269.609	96.5
269.841	88.5
270.073	88.5
270.306	84.5
270.538	72.5
270.77	62.5
271.002	113.5
271.234	89.5
271.466	72.5
271.698	73.5
271.93	90.5
272.162	71.5
272.394	79.5
272.626	86.5
272.858	94.5
273.09	92.5
273.322	82.5
273.553	83.5
273.785	87.5
274.017	82.5
274.249	80.5
274.481	86.5
274.713	82.5
274.945	84.5
275.176	69.5
275.408	88.5
275.64	97.5
275.872	92.5
276.104	87.5
276.335	96.5
276.567	85.5
276.799	74.5
277.031	81.5
277.262	86.5
277.494	89.5
277.726	78.5
277.957	76.5
278.189	82.5
278.421	86.5
278.652	86.5
278.884	80.5
279.115	80.5
279.347	92.5
279.579	102.5
279.81	94.5
280.042	94.5
280.273	86.5
280.505	73.5
280.736	79.5
280.968	84.5
281.199	95.5
281.431	76.5
281.662	81.5
281.894	96.5
282.125	86.5
282.356	86.5
282.588	73.5
282.819	77.5
283.051	95.5
283.282	83.5
283.513	96.5
283.745	85.5
283.976	75.5
284.207	78.5
284.439	91.5
284.67	87.5
284.901	81.5
285.132	86.5
285.364	83.5
285.595	94.5
285.826	80.5
286.057	75.5
286.288	105.5
286.52	95.5
286.751	80.5
286.982	82.5
287.213	99.5
287.444	77.5
287.675	81.5
287.906	98.5
288.138	81.5
288.369	85.5
288.6	76.5
288.831	94.5
289.062	104.5
289.293	86.5
289.524	94.5
289.755	81.5
289.986	75.5
290.217	72.5
290.448	74.5
290.679	90.5
290.91	83.5
291.141	75.5
291.371	80.5
291.602	90.5
291.833	85.5
292.064	76.5
292.295	98.5
292.526	84.5
292.757	81.5
292.987	94.5
293.218	92.5
293.449	88.5
293.68	82.5
293.91	86.5
294.141	74.5
294.372	86.5
294.603	86.5
294.833	102.5
295.064	81.5
295.295	85.5
295.525	99.5
295.756	82.5
295.987	73.5
296.217	85.5
296.448	77.5
296.679	90.5
296.909	80.5
297.14	81.5
297.37	85.5
297.601	84.5
297.831	77.5
298.062	86.5
298.292	84.5
298.523	65.5
298.753	91.5
298.984	88.5
299.214	84.5
299.445	95.5
299.675	69.5
299.905	70.5
300.136	81.5
300.366	90.5
300.597	89.5
300.827	92.5
301.057	92.5
301.288	91.5
301.518	90.5
301.748	82.5
301.979	81.5
302.209	100.5
302.439	88.5
302.669	97.5
302.9	90.5
303.13	88.5
303.36	83.5
303.59	79.5
303.82	85.5
304.051	78.5
304.281	82.5
304.511	89.5
304.741	99.5
304.971	94.5
305.201	90.5
305.431	90.5
305.661	91.5
305.891	92.5
306.121	94.5
306.352	83.5
306.582	92.5
306.812	75.5
307.042	87.5
307.272	86.5
307.502	80.5
307.731	69.5
307.961	83.5
308.191	79.5
308.421	74.5
308.651	97.5
308.881	86.5
309.111	84.5
309.341	94.5
309.571	80.5
309.8	77.5
310.03	90.5
310.26	91.5
310.49	84.5
310.72	102.5
310.949	75.5
311.179	96.5
311.409	80.5
311.639	95.5
311.868	83.5
312.098	83.5
312.328	96.5
312.557	91.5
312.787	90.5
313.017	88.5
313.246	90.5
313.476	83.5
313.706	82.5
313.935	89.5
314.165	86.5
314.394	59.5
314.624	93.5
314.853	83.5
315.083	81.5
315.312	103.5
315.542	88.5
315.771	90.5
316.001	76.5
316.23	75.5
316.46	73.5
316.689	100.5
316.919	86.5
317.148	77.5
317.377	95.5
317.607	89.5
317.836	86.5
318.065	84.5
318.295	81.5
318.524	87.5
318.753	89.5
318.983	74.5
319.212	94.5
319.441	91.5
319.67	80.5
319.9	74.5
320.129	83.5
320.358	84.5
320.587	80.5
320.816	83.5
321.046	81.5
321.275	92.5
321.504	79.5
321.733	83.5
321.962	82.5
322.191	81.5
322.42	83.5
322.649	74.5
322.878	82.5
323.108	98.5
323.337	94.5
323.566	84.5
323.795	101.5
324.024	81.5
324.253	84.5
324.482	82.5
324.71	80.5
324.939	87.5
325.168	83.5
325.397	86.5
325.626	79.5
325.855	93.5
326.084	82.5
326.313	86.5
326.542	97.5
326.77	86.5
326.999	90.5
327.228	82.5
327.457	85.5
327.686	86.5
327.914	89.5
328.143	91.5
328.372	83.5
328.6	81.5
328.829	75.5
329.058	79.5
329.287	81.5
329.515	92.5
329.744	90.5
329.972	76.5
330.201	80.5
330.43	74.5
330.658	72.5
330.887	83.5
331.115	98.5
331.344	90.5
331.572	102.5
331.801	81.5
332.03	102.5
332.258	88.5
332.486	88.5
332.715	94.5
332.943	75.5
333.172	81.5
333.4	82.5
333.629	89.5
333.857	92.5
334.085	75.5
334.314	87.5
334.542	93.5
334.771	74.5
334.999	85.5
335.227	80.5
335.455	76.5
335.684	90.5
335.912	81.5
336.14	87.5
336.369	73.5
336.597	84.5
336.825	89.5
337.053	96.5
337.281	78.5
337.51	84.5
337.738	80.5
337.966	96.5
338.194	84.5
338.422	78.5
338.65	79.5
338.878	82.5
339.106	86.5
339.334	90.5
339.562	76.5
339.79	72.5
340.018	88.5
340.246	83.5
340.474	75.5
340.702	74.5
340.93	84.5
341.158	86.5
341.386	75.5
341.614	80.5
341.842	82.5
342.07	77.5
342.298	91.5
342.526	94.5
342.754	76.5
342.981	94.5
343.209	79.5
343.437	84.5
343.665	76.5
343.893	86.5
344.12	81.5
344.348	80.5
344.576	91.5
344.804	75.5
345.031	97.5
345.259	76.5
345.487	95.5
345.714	86.5
345.942	89.5
346.17	89.5
346.397	92.5
346.625	81.5
346.853	73.5
347.08	93.5
347.308	69.5
347.535	84.5
347.763	86.5
347.99	77.5
348.218	93.5
348.445	85.5
348.673	74.5
348.9	69.5
349.128	84.5
349.355	90.5
349.583	95.5
349.81	88.5
350.037	84.5
350.265	77.5
350.492	66.5
350.72	80.5
350.947	73.5
351.174	86.5
351.402	77.5
351.629	84.5
351.856	90.5
352.083	83.5
352.311	86.5
352.538	87.5
352.765	81.5
352.992	79.5
353.22	83.5
353.447	89.5
353.674	76.5
353.901	80.5
354.128	90.5
354.355	79.5
354.583	68.5
354.81	91.5
355.037	93.5
355.264	86.5
355.491	82.5
355.718	84.5
355.945	94.5
356.172	82.5
356.399	83.5
356.626	90.5
356.853	76.5
357.08	83.5
357.307	79.5
357.534	72.5
357.761	86.5
357.988	87.5
358.215	81.5
358.441	75.5
358.668	104.5
358.895	79.5
359.122	82.5
359.349	73.5
359.576	83.5
359.802	80.5
360.029	83.5
360.256	76.5
360.483	89.5
360.709	86.5
360.936	87.5
361.163	81.5
361.39	77.5
361.616	83.5
361.843	78.5
362.07	84.5
362.296	90.5
362.523	83.5
362.749	76.5
362.976	81.5
363.203	91.5
363.429	77.5
363.656	71.5
363.882	79.5
364.109	90.5
364.335	81.5
364.562	96.5
364.788	99.5
365.015	82.5
365.241	88.5
365.468	84.5
365.694	87.5
365.92	72.5
366.147	79.5
366.373	86.5
366.599	87.5
366.826	93.5
367.052	71.5
367.278	82.5
367.505	94.5
367.731	95.5
367.957	86.5
368.184	74.5
368.41	76.5
368.636	85.5
368.862	85.5
369.089	84.5
369.315	89.5
369.541	84.5
369.767	80.5
369.993	81.5
370.219	82.5
370.445	89.5
370.672	72.5
370.898	78.5
371.124	84.5
371.35	76.5
371.576	86.5
371.802	93.5
372.028	86.5
372.254	94.5
372.48	87.5
372.706	93.5
372.932	91.5
373.158	94.5
373.384	79.5
373.61	85.5
373.835	93.5
374.061	87.5
374.287	84.5
374.513	82.5
374.739	82.5
374.965	82.5
375.191	68.5
375.416	79.5
375.642	90.5
375.868	85.5
376.094	84.5
376.319	90.5
376.545	71.5
376.771	80.5
376.997	91.5
377.222	81.5
377.448	72.5
377.674	89.5
377.899	75.5
378.125	92.5
378.35	78.5
378.576	85.5
378.802	81.5
379.027	81.5
379.253	74.5
379.478	95.5
379.704	83.5
379.929	93.5
380.155	84.5
380.38	82.5
380.606	86.5
380.831	90.5
381.057	94.5
381.282	71.5
381.507	93.5
381.733	90.5
381.958	86.5
382.184	85.5
382.409	81.5
382.634	98.5
382.86	84.5
383.085	85.5
383.31	94.5
383.535	66.5
383.761	92.5
383.986	89.5
384.211	87.5
384.436	76.5
384.662	71.5
384.887	89.5
385.112	78.5
385.337	83.5
385.562	82.5
385.787	76.5
386.013	86.5
386.238	78.5
386.463	90.5
386.688	97.5
386.913	98.5
387.138	85.5
387.363	92.5
387.588	76.5
387.813	80.5
388.038	86.5
388.263	89.5
388.488	84.5
388.713	82.5
388.938	82.5
389.163	99.5
389.387	89.5
389.612	96.5
389.837	76.5
390.062	90.5
390.287	70.5
390.512	91.5
390.736	82.5
390.961	92.5
391.186	68.5
391.411	75.5
391.636	76.5
391.86	74.5
392.085	87.5
392.31	68.5
392.534	98.5
392.759	69.5
392.984	89.5
393.208	94.5
393.433	92.5
393.658	95.5
393.882	87.5
394.107	76.5
394.331	83.5
394.556	85.5
394.78	86.5
395.005	89.5
395.229	86.5
395.454	94.5
395.678	83.5
395.903	88.5
396.127	86.5
396.352	82.5
396.576	97.5
396.801	83.5
397.025	99.5
397.249	102.5
397.474	90.5
397.698	89.5
397.922	89.5
398.147	93.5
398.371	83.5
398.595	84.5
398.82	83.5
399.044	88.5
399.268	85.5
399.492	90.5
399.717	83.5
399.941	73.5
400.165	93.5
400.389	96.5
400.613	85.5
400.837	78.5
401.062	83.5
401.286	86.5
401.51	108.5
401.734	77.5
401.958	84.5
402.182	92.5
402.406	74.5
402.63	80.5
402.854	101.5
403.078	70.5
403.302	96.5
403.526	79.5
403.75	84.5
403.974	83.5
404.198	80.5
404.422	73.5
404.645	88.5
404.869	101.5
405.093	85.5
405.317	89.5
405.541	70.5
405.765	93.5
405.988	89.5
406.212	88.5
406.436	76.5
406.66	93.5
406.883	90.5
407.107	91.5
407.331	112.5
407.555	91.5
407.778	81.5
408.002	92.5
408.226	89.5
408.449	90.5
408.673	84.5
408.896	82.5
409.12	86.5
409.344	87.5
409.567	90.5
409.791	107.5
410.014	85.5
410.238	86.5
410.461	83.5
410.685	94.5
410.908	84.5
411.132	77.5
411.355	92.5
411.578	90.5
411.802	91.5
412.025	98.5
412.249	88.5
412.472	88.5
412.695	88.5
412.919	102.5
413.142	86.5
413.365	94.5
413.589	76.5
413.812	99.5
414.035	101.5
414.258	92.5
414.482	81.5
414.705	92.5
414.928	80.5
415.151	110.5
415.374	94.5
415.597	83.5
415.821	101.5
416.044	90.5
416.267	96.5
416.49	100.5
416.713	76.5
416.936	84.5
417.159	67.5
417.382	83.5
417.605	92.5
417.828	101.5
418.051	82.5
418.274	86.5
418.497	92.5
418.72	89.5
418.943	79.5
419.166	99.5
419.389	91.5
419.611	89.5
419.834	78.5
420.057	108.5
420.28	91.5
420.503	102.5
420.726	95.5
420.948	82.5
421.171	99.5
421.394	97.5
421.617	80.5
421.839	89.5
422.062	82.5
422.285	84.5
422.507	93.5
422.73	87.5
422.953	93.5
423.175	84.5
423.398	104.5
423.621	74.5
423.843	83.5
424.066	87.5
424.288	83.5
424.511	91.5
424.733	90.5
424.956	94.5
425.178	96.5
425.401	103.5
425.623	86.5
425.846	95.5
426.068	90.5
426.291	97.5
426.513	71.5
426.735	91.5
426.958	95.5
427.18	96.5
427.402	86.5
427.625	85.5
427.847	92.5
428.069	98.5
428.292	93.5
428.514	86.5
428.736	86.5
428.958	95.5
429.181	91.5
429.403	98.5
429.625	90.5
429.847	83.5
430.069	98.5
430.292	89.5
430.514	86.5
430.736	79.5
430.958	94.5
431.18	98.5
431.402	89.5
431.624	92.5
431.846	75.5
432.068	95.5
432.29	76.5
432.512	91.5
432.734	110.5
432.956	105.5
433.178	98.5
433.4	87.5
433.622	96.5
433.844	100.5
434.066	88.5
434.287	82.5
434.509	83.5
434.731	91.5
434.953	94.5
435.175	95.5
435.397	98.5
435.618	86.5
435.84	86.5
436.062	90.5
436.284	80.5
436.505	87.5
436.727	103.5
436.949	77.5
437.17	89.5
437.392	88.5
437.614	95.5
437.835	80.5
438.057	94.5
438.278	81.5
438.5	86.5
438.721	85.5
438.943	60.5
439.165	81.5
439.386	93.5
439.608	112.5
439.829	97.5
440.05	102.5
440.272	101.5
440.493	97.5
440.715	95.5
440.936	88.5
441.158	103.5
441.379	88.5
441.6	90.5
441.822	97.5
442.043	106.5
442.264	90.5
442.486	95.5
442.707	94.5
442.928	94.5
443.149	99.5
443.371	101.5
443.592	90.5
443.813	100.5
444.034	91.5
444.255	98.5
444.476	94.5
444.698	99.5
444.919	97.5
445.14	202.5
445.361	158.5
445.582	87.5
445.803	98.5
446.024	101.5
446.245	95.5
446.466	102.5
446.687	106.5
446.908	105.5
447.129	103.5
447.35	98.5
447.571	92.5
447.792	98.5
448.013	103.5
448.234	96.5
448.455	100.5
448.675	101.5
448.896	86.5
449.117	96.5
449.338	91.5
449.559	90.5
449.779	99.5
450	94.5
450.221	91.5
450.442	84.5
450.662	89.5
450.883	91.5
451.104	93.5
451.324	93.5
451.545	83.5
451.766	84.5
451.986	104.5
452.207	106.5
452.428	89.5
452.648	79.5
452.869	90.5
453.089	82.5
453.31	84.5
453.53	94.5
453.751	95.5
453.971	86.5
454.192	82.5
454.412	107.5
454.633	77.5
454.853	86.5
455.073	92.5
455.294	86.5
455.514	95.5
455.734	79.5
455.955	78.5
456.175	86.5
456.395	80.5
456.616	90.5
456.836	102.5
457.056	86.5
457.276	91.5
457.497	88.5
457.717	93.5
457.937	84.5
458.157	80.5
458.377	76.5
458.598	77.5
458.818	87.5
459.038	70.5
459.258	83.5
459.478	87.5
459.698	94.5
459.918	82.5
460.138	92.5
460.358	105.5
460.578	99.5
460.798	72.5
461.018	76.5
461.238	92.5
461.458	89.5
461.678	87.5
461.898	91.5
462.118	89.5
462.338	90.5
462.558	81.5
462.777	85.5
462.997	94.5
463.217	78.5
463.437	92.5
463.657	96.5
463.876	73.5
464.096	88.5
464.316	80.5
464.536	98.5
464.755	93.5
464.975	81.5
465.195	89.5
465.414	83.5
465.634	96.5
465.854	96.5
466.073	99.5
466.293	86.5
466.512	92.5
466.732	85.5
466.951	95.5
467.171	100.5
467.391	90.5
467.61	101.5
467.829	82.5
468.049	89.5
468.268	84.5
468.488	100.5
468.707	83.5
468.927	111.5
469.146	102.5
469.365	99.5
469.585	108.5
469.804	96.5
470.023	85.5
470.243	104.5
470.462	110.5
470.681	96.5
470.901	88.5
471.12	91.5
471.339	95.5
471.558	87.5
471.777	107.5
471.997	96.5
472.216	85.5
472.435	91.5
472.654	90.5
472.873	97.5
473.092	108.5
473.311	96.5
473.53	79.5
473.749	100.5
473.968	98.5
474.187	103.5
474.406	87.5
474.625	105.5
474.844	100.5
475.063	94.5
475.282	98.5
475.501	90.5
475.72	94.5
475.939	108.5
476.158	83.5
476.377	101.5
476.596	91.5
476.814	100.5
477.033	87.5
477.252	77.5
477.471	96.5
477.69	91.5
477.908	84.5
478.127	95.5
478.346	94.5
478.564	88.5
478.783	88.5
479.002	83.5
479.22	101.5
479.439	98.5
479.658	90.5
479.876	95.5
480.095	107.5
480.313	87.5
480.532	87.5
480.751	101.5
480.969	91.5
481.188	83.5
481.406	88.5
481.624	91.5
481.843	75.5
482.061	78.5
482.28	84.5
482.498	85.5
482.717	89.5
482.935	100.5
483.153	97.5
483.372	97.5
483.59	111.5
483.808	107.5
484.027	84.5
484.245	95.5
484.463	74.5
484.681	98.5
484.9	82.5
485.118	90.5
485.336	107.5
485.554	83.5
485.772	83.5
485.99	86.5
486.209	96.5
486.427	92.5
486.645	80.5
486.863	88.5
487.081	103.5
487.299	107.5
487.517	97.5
487.735	112.5
487.953	100.5
488.171	97.5
488.389	101.5
488.607	110.5
488.825	99.5
489.043	87.5
489.261	82.5
489.479	103.5
489.696	101.5
489.914	96.5
490.132	75.5
490.35	107.5
490.568	108.5
490.786	100.5
491.003	111.5
491.221	112.5
491.439	112.5
491.657	105.5
491.874	114.5
492.092	119.5
492.31	143.5
492.527	115.5
492.745	122.5
492.963	115.5
493.18	101.5
493.398	117.5
493.615	118.5
493.833	111.5
494.05	97.5
494.268	107.5
494.485	96.5
494.703	108.5
494.92	104.5
495.138	97.5
495.355	108.5
495.573	115.5
495.79	83.5
496.008	118.5
496.225	111.5
496.442	107.5
496.66	113.5
496.877	104.5
497.094	100.5
497.312	103.5
497.529	114.5
497.746	99.5
497.963	104.5
498.181	102.5
498.398	91.5
498.615	94.5
498.832	87.5
499.049	93.5
499.267	92.5
499.484	86.5
499.701	89.5
499.918	95.5
500.135	98.5
500.352	106.5
500.569	111.5
500.786	90.5
501.003	101.5
501.22	80.5
501.437	99.5
501.654	94.5
501.871	88.5
502.088	94.5
502.305	108.5
502.522	87.5
502.739	92.5
502.956	95.5
503.172	78.5
503.389	89.5
503.606	93.5
503.823	96.5
504.04	85.5
504.256	99.5
504.473	91.5
504.69	96.5
504.907	86.5
505.123	98.5
505.34	104.5
505.557	89.5
505.773	103.5
505.99	97.5
506.207	106.5
506.423	91.5
506.64	96.5
506.856	91.5
507.073	94.5
507.289	97.5
507.506	81.5
507.722	92.5
507.939	79.5
508.155	67.5
508.372	94.5
508.588	92.5
508.805	99.5
509.021	102.5
509.238	88.5
509.454	84.5
509.67	82.5
509.887	88.5
510.103	83.5
510.319	80.5
510.536	98.5
510.752	88.5
510.968	95.5
511.184	86.5
511.401	74.5
511.617	92.5
511.833	83.5
512.049	76.5
512.265	86.5
512.481	90.5
512.698	87.5
512.914	103.5
513.13	78.5
513.346	80.5
513.562	89.5
513.778	101.5
513.994	97.5
514.21	89.5
514.426	79.5
514.642	82.5
514.858	89.5
515.074	82.5
515.29	99.5
515.506	91.5
515.721	79.5
515.937	97.5
516.153	81.5
516.369	91.5
516.585	86.5
516.801	79.5
517.016	85.5
517.232	88.5
517.448	75.5
517.664	80.5
517.879	89.5
518.095	80.5
518.311	80.5
518.527	80.5
518.742	73.5
518.958	78.5
519.173	79.5
519.389	90.5
519.605	93.5
519.82	94.5
520.036	99.5
520.251	90.5
520.467	68.5
520.682	90.5
520.898	77.5
521.113	85.5
521.329	87.5
521.544	94.5
521.76	92.5
521.975	101.5
522.19	89.5
522.406	86.5
522.621	83.5
522.836	91.5
523.052	93.5
523.267	87.5
523.482	89.5
523.698	96.5
523.913	101.5
524.128	96.5
524.343	82.5
524.559	92.5
524.774	106.5
524.989	94.5
525.204	99.5
525.419	88.5
525.634	86.5
525.849	87.5
526.064	75.5
526.28	90.5
526.495	89.5
526.71	76.5
526.925	79.5
527.14	80.5
527.355	97.5
527.57	84.5
527.785	85.5
527.999	101.5
528.214	112.5
528.429	97.5
528.644	95.5
528.859	97.5
529.074	93.5
529.289	91.5
529.503	112.5
529.718	89.5
529.933	104.5
530.148	81.5
530.363	93.5
530.577	83.5
530.792	85.5
531.007	74.5
531.221	85.5
531.436	86.5
531.651	88.5
531.865	103.5
532.08	96.5
532.295	96.5
532.509	81.5
532.724	85.5
532.938	86.5
533.153	98.5
533.367	92.5
533.582	97.5
533.796	100.5
534.011	100.5
534.225	86.5
534.44	87.5
534.654	99.5
534.868	83.5
535.083	88.5
535.297	88.5
535.511	91.5
535.726	78.5
535.94	83.5
536.154	85.5
536.369	91.5
536.583	78.5
536.797	83.5
537.011	77.5
537.225	93.5
537.44	85.5
537.654	94.5
537.868	96.5
