Data from Location5.07152019.Energy5.Lamp.07192019.3%Agarose_HRD10591_16-02-38-628.txt Node
Date: Fri Jul 19 16:02:38 EDT 2019
User: cochatt
Spectrometer: HR+D1059
Trigger mode: 1
Integration Time (sec): 1.000000E-1
Scans to average: 1
Electric dark correction enabled: true
Nonlinearity correction enabled: false
Boxcar width: 0
XAxis mode: Wavelengths
Number of Pixels in Spectrum: 2048
>>>>>Begin Spectral Data<<<<<
223.165	-19.94
223.4	-19.94
223.635	-19.94
223.869	-23.94
224.104	-8.94
224.338	-23.94
224.573	-21.94
224.808	-8.94
225.042	-15.94
225.277	-9.94
225.511	-9.94
225.746	3.06
225.98	18.06
226.215	13.06
226.449	24.06
226.683	14.06
226.918	35.06
227.152	36.06
227.387	33.06
227.621	41.06
227.856	38.06
228.09	46.06
228.324	49.06
228.559	54.06
228.793	65.06
229.027	68.06
229.262	71.06
229.496	57.06
229.73	63.06
229.964	73.06
230.199	64.06
230.433	65.06
230.667	78.06
230.901	92.06
231.136	83.06
231.37	71.06
231.604	77.06
231.838	86.06
232.072	75.06
232.306	82.06
232.541	71.06
232.775	72.06
233.009	74.06
233.243	89.06
233.477	77.06
233.711	86.06
233.945	85.06
234.179	77.06
234.413	76.06
234.647	84.06
234.881	68.06
235.115	80.06
235.349	86.06
235.583	93.06
235.817	85.06
236.051	88.06
236.285	76.06
236.519	81.06
236.753	70.06
236.987	80.06
237.221	69.06
237.455	77.06
237.689	98.06
237.922	91.06
238.156	80.06
238.39	89.06
238.624	82.06
238.858	80.06
239.091	91.06
239.325	69.06
239.559	78.06
239.793	85.06
240.027	89.06
240.26	65.06
240.494	84.06
240.728	75.06
240.961	82.06
241.195	73.06
241.429	76.06
241.662	78.06
241.896	88.06
242.13	75.06
242.363	78.06
242.597	73.06
242.83	82.06
243.064	83.06
243.298	73.06
243.531	72.06
243.765	86.06
243.998	95.06
244.232	83.06
244.465	94.06
244.699	61.06
244.932	88.06
245.166	78.06
245.399	78.06
245.633	77.06
245.866	78.06
246.099	75.06
246.333	72.06
246.566	84.06
246.8	80.06
247.033	90.06
247.266	75.06
247.5	71.06
247.733	77.06
247.966	86.06
248.2	64.06
248.433	75.06
248.666	84.06
248.899	83.06
249.133	75.06
249.366	78.06
249.599	79.06
249.832	68.06
250.066	93.06
250.299	86.06
250.532	82.06
250.765	80.06
250.998	82.06
251.231	82.06
251.465	91.06
251.698	84.06
251.931	97.06
252.164	82.06
252.397	70.06
252.63	80.06
252.863	80.06
253.096	85.06
253.329	78.06
253.562	74.06
253.795	84.06
254.028	75.06
254.261	79.06
254.494	92.06
254.727	73.06
254.96	83.06
255.193	77.06
255.426	93.06
255.659	87.06
255.892	92.06
256.124	81.06
256.357	69.06
256.59	88.06
256.823	78.06
257.056	84.06
257.289	92.06
257.521	74.06
257.754	79.06
257.987	84.06
258.22	84.06
258.452	80.06
258.685	81.06
258.918	87.06
259.151	81.06
259.383	84.06
259.616	74.06
259.849	86.06
260.081	85.06
260.314	90.06
260.547	98.06
260.779	90.06
261.012	85.06
261.244	93.06
261.477	88.06
261.71	83.06
261.942	80.06
262.175	95.06
262.407	83.06
262.64	88.06
262.872	82.06
263.105	92.06
263.337	86.06
263.57	77.06
263.802	79.06
264.035	73.06
264.267	72.06
264.499	86.06
264.732	81.06
264.964	90.06
265.197	90.06
265.429	73.06
265.661	70.06
265.894	91.06
266.126	92.06
266.358	74.06
266.591	78.06
266.823	89.06
267.055	82.06
267.287	94.06
267.52	84.06
267.752	95.06
267.984	90.06
268.216	82.06
268.448	87.06
268.681	74.06
268.913	82.06
269.145	86.06
269.377	90.06
269.609	86.06
269.841	81.06
270.073	92.06
270.306	86.06
270.538	68.06
270.77	89.06
271.002	91.06
271.234	87.06
271.466	86.06
271.698	70.06
271.93	95.06
272.162	99.06
272.394	106.06
272.626	84.06
272.858	86.06
273.09	89.06
273.322	89.06
273.553	87.06
273.785	73.06
274.017	77.06
274.249	88.06
274.481	79.06
274.713	81.06
274.945	78.06
275.176	97.06
275.408	88.06
275.64	83.06
275.872	87.06
276.104	93.06
276.335	87.06
276.567	93.06
276.799	84.06
277.031	85.06
277.262	90.06
277.494	94.06
277.726	85.06
277.957	89.06
278.189	92.06
278.421	79.06
278.652	87.06
278.884	82.06
279.115	84.06
279.347	102.06
279.579	98.06
279.81	82.06
280.042	96.06
280.273	81.06
280.505	77.06
280.736	100.06
280.968	93.06
281.199	89.06
281.431	93.06
281.662	85.06
281.894	86.06
282.125	86.06
282.356	77.06
282.588	80.06
282.819	87.06
283.051	88.06
283.282	88.06
283.513	88.06
283.745	96.06
283.976	84.06
284.207	90.06
284.439	92.06
284.67	75.06
284.901	96.06
285.132	102.06
285.364	90.06
285.595	76.06
285.826	88.06
286.057	85.06
286.288	103.06
286.52	92.06
286.751	86.06
286.982	91.06
287.213	95.06
287.444	68.06
287.675	87.06
287.906	84.06
288.138	93.06
288.369	81.06
288.6	112.06
288.831	102.06
289.062	90.06
289.293	92.06
289.524	82.06
289.755	100.06
289.986	92.06
290.217	89.06
290.448	92.06
290.679	86.06
290.91	76.06
291.141	80.06
291.371	75.06
291.602	86.06
291.833	94.06
292.064	105.06
292.295	92.06
292.526	107.06
292.757	105.06
292.987	103.06
293.218	96.06
293.449	90.06
293.68	87.06
293.91	80.06
294.141	92.06
294.372	94.06
294.603	88.06
294.833	95.06
295.064	97.06
295.295	82.06
295.525	92.06
295.756	97.06
295.987	88.06
296.217	73.06
296.448	90.06
296.679	96.06
296.909	90.06
297.14	97.06
297.37	91.06
297.601	97.06
297.831	92.06
298.062	92.06
298.292	89.06
298.523	66.06
298.753	94.06
298.984	92.06
299.214	83.06
299.445	96.06
299.675	90.06
299.905	101.06
300.136	88.06
300.366	96.06
300.597	86.06
300.827	96.06
301.057	102.06
301.288	88.06
301.518	83.06
301.748	97.06
301.979	105.06
302.209	95.06
302.439	87.06
302.669	84.06
302.9	86.06
303.13	83.06
303.36	84.06
303.59	82.06
303.82	100.06
304.051	88.06
304.281	95.06
304.511	98.06
304.741	83.06
304.971	94.06
305.201	89.06
305.431	82.06
305.661	84.06
305.891	105.06
306.121	85.06
306.352	85.06
306.582	86.06
306.812	90.06
307.042	83.06
307.272	85.06
307.502	96.06
307.731	89.06
307.961	101.06
308.191	77.06
308.421	89.06
308.651	101.06
308.881	100.06
309.111	97.06
309.341	88.06
309.571	86.06
309.8	88.06
310.03	84.06
310.26	81.06
310.49	93.06
310.72	91.06
310.949	95.06
311.179	96.06
311.409	89.06
311.639	95.06
311.868	92.06
312.098	86.06
312.328	97.06
312.557	101.06
312.787	92.06
313.017	79.06
313.246	83.06
313.476	100.06
313.706	87.06
313.935	79.06
314.165	81.06
314.394	89.06
314.624	82.06
314.853	95.06
315.083	104.06
315.312	96.06
315.542	102.06
315.771	88.06
316.001	106.06
316.23	101.06
316.46	100.06
316.689	102.06
316.919	92.06
317.148	101.06
317.377	101.06
317.607	100.06
317.836	83.06
318.065	99.06
318.295	89.06
318.524	83.06
318.753	97.06
318.983	84.06
319.212	107.06
319.441	96.06
319.67	90.06
319.9	81.06
320.129	100.06
320.358	88.06
320.587	96.06
320.816	100.06
321.046	86.06
321.275	77.06
321.504	91.06
321.733	97.06
321.962	108.06
322.191	94.06
322.42	92.06
322.649	73.06
322.878	88.06
323.108	88.06
323.337	97.06
323.566	96.06
323.795	97.06
324.024	93.06
324.253	103.06
324.482	87.06
324.71	97.06
324.939	97.06
325.168	84.06
325.397	91.06
325.626	87.06
325.855	96.06
326.084	81.06
326.313	96.06
326.542	83.06
326.77	92.06
326.999	96.06
327.228	85.06
327.457	105.06
327.686	90.06
327.914	94.06
328.143	103.06
328.372	90.06
328.6	85.06
328.829	111.06
329.058	84.06
329.287	86.06
329.515	105.06
329.744	96.06
329.972	81.06
330.201	93.06
330.43	90.06
330.658	89.06
330.887	88.06
331.115	90.06
331.344	90.06
331.572	107.06
331.801	90.06
332.03	90.06
332.258	97.06
332.486	91.06
332.715	104.06
332.943	103.06
333.172	95.06
333.4	93.06
333.629	104.06
333.857	100.06
334.085	86.06
334.314	105.06
334.542	91.06
334.771	92.06
334.999	102.06
335.227	86.06
335.455	90.06
335.684	101.06
335.912	104.06
336.14	98.06
336.369	99.06
336.597	94.06
336.825	88.06
337.053	92.06
337.281	105.06
337.51	98.06
337.738	80.06
337.966	89.06
338.194	96.06
338.422	92.06
338.65	84.06
338.878	97.06
339.106	83.06
339.334	88.06
339.562	93.06
339.79	88.06
340.018	92.06
340.246	83.06
340.474	84.06
340.702	101.06
340.93	86.06
341.158	91.06
341.386	91.06
341.614	89.06
341.842	98.06
342.07	83.06
342.298	83.06
342.526	93.06
342.754	81.06
342.981	89.06
343.209	113.06
343.437	90.06
343.665	93.06
343.893	83.06
344.12	109.06
344.348	93.06
344.576	107.06
344.804	81.06
345.031	86.06
345.259	95.06
345.487	98.06
345.714	87.06
345.942	84.06
346.17	82.06
346.397	87.06
346.625	81.06
346.853	89.06
347.08	76.06
347.308	84.06
347.535	92.06
347.763	113.06
347.99	112.06
348.218	94.06
348.445	100.06
348.673	97.06
348.9	106.06
349.128	98.06
349.355	82.06
349.583	98.06
349.81	92.06
350.037	89.06
350.265	97.06
350.492	92.06
350.72	101.06
350.947	100.06
351.174	93.06
351.402	92.06
351.629	83.06
351.856	91.06
352.083	88.06
352.311	93.06
352.538	96.06
352.765	93.06
352.992	98.06
353.22	87.06
353.447	93.06
353.674	98.06
353.901	95.06
354.128	97.06
354.355	97.06
354.583	80.06
354.81	101.06
355.037	91.06
355.264	91.06
355.491	84.06
355.718	85.06
355.945	103.06
356.172	81.06
356.399	93.06
356.626	94.06
356.853	89.06
357.08	99.06
357.307	85.06
357.534	102.06
357.761	105.06
357.988	80.06
358.215	99.06
358.441	105.06
358.668	94.06
358.895	87.06
359.122	92.06
359.349	89.06
359.576	78.06
359.802	91.06
360.029	87.06
360.256	86.06
360.483	88.06
360.709	93.06
360.936	98.06
361.163	98.06
361.39	101.06
361.616	86.06
361.843	90.06
362.07	81.06
362.296	93.06
362.523	92.06
362.749	85.06
362.976	82.06
363.203	90.06
363.429	84.06
363.656	98.06
363.882	94.06
364.109	90.06
364.335	88.06
364.562	93.06
364.788	96.06
365.015	108.06
365.241	101.06
365.468	98.06
365.694	100.06
365.92	84.06
366.147	92.06
366.373	89.06
366.599	80.06
366.826	78.06
367.052	93.06
367.278	105.06
367.505	95.06
367.731	104.06
367.957	89.06
368.184	86.06
368.41	84.06
368.636	95.06
368.862	101.06
369.089	101.06
369.315	93.06
369.541	92.06
369.767	85.06
369.993	89.06
370.219	90.06
370.445	98.06
370.672	78.06
370.898	91.06
371.124	92.06
371.35	101.06
371.576	88.06
371.802	94.06
372.028	93.06
372.254	114.06
372.48	101.06
372.706	81.06
372.932	95.06
373.158	90.06
373.384	87.06
373.61	84.06
373.835	117.06
374.061	89.06
374.287	100.06
374.513	88.06
374.739	92.06
374.965	94.06
375.191	106.06
375.416	98.06
375.642	88.06
375.868	96.06
376.094	101.06
376.319	83.06
376.545	93.06
376.771	94.06
376.997	102.06
377.222	98.06
377.448	93.06
377.674	96.06
377.899	92.06
378.125	97.06
378.35	95.06
378.576	97.06
378.802	84.06
379.027	85.06
379.253	94.06
379.478	88.06
379.704	99.06
379.929	80.06
380.155	90.06
380.38	94.06
380.606	90.06
380.831	92.06
381.057	114.06
381.282	92.06
381.507	96.06
381.733	94.06
381.958	91.06
382.184	100.06
382.409	99.06
382.634	96.06
382.86	100.06
383.085	97.06
383.31	95.06
383.535	101.06
383.761	94.06
383.986	99.06
384.211	112.06
384.436	95.06
384.662	98.06
384.887	109.06
385.112	86.06
385.337	94.06
385.562	89.06
385.787	98.06
386.013	102.06
386.238	117.06
386.463	96.06
386.688	84.06
386.913	98.06
387.138	112.06
387.363	105.06
387.588	107.06
387.813	99.06
388.038	97.06
388.263	92.06
388.488	98.06
388.713	106.06
388.938	98.06
389.163	101.06
389.387	90.06
389.612	114.06
389.837	96.06
390.062	102.06
390.287	95.06
390.512	101.06
390.736	101.06
390.961	107.06
391.186	112.06
391.411	88.06
391.636	98.06
391.86	92.06
392.085	92.06
392.31	105.06
392.534	91.06
392.759	98.06
392.984	107.06
393.208	98.06
393.433	104.06
393.658	100.06
393.882	100.06
394.107	113.06
394.331	102.06
394.556	106.06
394.78	97.06
395.005	108.06
395.229	100.06
395.454	89.06
395.678	101.06
395.903	90.06
396.127	93.06
396.352	87.06
396.576	86.06
396.801	88.06
397.025	97.06
397.249	96.06
397.474	95.06
397.698	105.06
397.922	99.06
398.147	104.06
398.371	107.06
398.595	105.06
398.82	104.06
399.044	118.06
399.268	107.06
399.492	98.06
399.717	110.06
399.941	99.06
400.165	125.06
400.389	91.06
400.613	92.06
400.837	97.06
401.062	104.06
401.286	99.06
401.51	96.06
401.734	85.06
401.958	103.06
402.182	88.06
402.406	95.06
402.63	102.06
402.854	94.06
403.078	94.06
403.302	100.06
403.526	104.06
403.75	102.06
403.974	97.06
404.198	103.06
404.422	104.06
404.645	105.06
404.869	118.06
405.093	113.06
405.317	96.06
405.541	126.06
405.765	118.06
405.988	88.06
406.212	104.06
406.436	108.06
406.66	112.06
406.883	106.06
407.107	118.06
407.331	116.06
407.555	106.06
407.778	87.06
408.002	94.06
408.226	102.06
408.449	91.06
408.673	122.06
408.896	107.06
409.12	86.06
409.344	104.06
409.567	113.06
409.791	104.06
410.014	112.06
410.238	102.06
410.461	100.06
410.685	115.06
410.908	96.06
411.132	100.06
411.355	102.06
411.578	98.06
411.802	112.06
412.025	107.06
412.249	85.06
412.472	120.06
412.695	104.06
412.919	93.06
413.142	100.06
413.365	104.06
413.589	103.06
413.812	116.06
414.035	102.06
414.258	101.06
414.482	107.06
414.705	104.06
414.928	110.06
415.151	106.06
415.374	97.06
415.597	85.06
415.821	113.06
416.044	102.06
416.267	116.06
416.49	95.06
416.713	93.06
416.936	105.06
417.159	97.06
417.382	79.06
417.605	97.06
417.828	96.06
418.051	100.06
418.274	112.06
418.497	108.06
418.72	97.06
418.943	99.06
419.166	100.06
419.389	101.06
419.611	114.06
419.834	112.06
420.057	100.06
420.28	112.06
420.503	90.06
420.726	102.06
420.948	98.06
421.171	90.06
421.394	103.06
421.617	112.06
421.839	94.06
422.062	96.06
422.285	96.06
422.507	97.06
422.73	105.06
422.953	98.06
423.175	103.06
423.398	95.06
423.621	99.06
423.843	72.06
424.066	104.06
424.288	87.06
424.511	102.06
424.733	108.06
424.956	105.06
425.178	82.06
425.401	102.06
425.623	120.06
425.846	109.06
426.068	102.06
426.291	97.06
426.513	97.06
426.735	97.06
426.958	96.06
427.18	107.06
427.402	112.06
427.625	96.06
427.847	102.06
428.069	108.06
428.292	112.06
428.514	106.06
428.736	97.06
428.958	97.06
429.181	104.06
429.403	107.06
429.625	106.06
429.847	108.06
430.069	107.06
430.292	99.06
430.514	97.06
430.736	89.06
430.958	104.06
431.18	94.06
431.402	105.06
431.624	91.06
431.846	96.06
432.068	101.06
432.29	95.06
432.512	101.06
432.734	80.06
432.956	105.06
433.178	94.06
433.4	105.06
433.622	98.06
433.844	100.06
434.066	103.06
434.287	92.06
434.509	102.06
434.731	96.06
434.953	96.06
435.175	98.06
435.397	98.06
435.618	106.06
435.84	98.06
436.062	89.06
436.284	89.06
436.505	99.06
436.727	99.06
436.949	91.06
437.17	102.06
437.392	96.06
437.614	91.06
437.835	87.06
438.057	91.06
438.278	105.06
438.5	117.06
438.721	94.06
438.943	115.06
439.165	97.06
439.386	95.06
439.608	90.06
439.829	101.06
440.05	92.06
440.272	92.06
440.493	107.06
440.715	96.06
440.936	93.06
441.158	96.06
441.379	105.06
441.6	100.06
441.822	94.06
442.043	106.06
442.264	98.06
442.486	94.06
442.707	102.06
442.928	101.06
443.149	108.06
443.371	103.06
443.592	100.06
443.813	103.06
444.034	101.06
444.255	98.06
444.476	95.06
444.698	118.06
444.919	105.06
445.14	210.06
445.361	144.06
445.582	99.06
445.803	96.06
446.024	99.06
446.245	97.06
446.466	100.06
446.687	100.06
446.908	104.06
447.129	93.06
447.35	107.06
447.571	110.06
447.792	102.06
448.013	104.06
448.234	105.06
448.455	96.06
448.675	95.06
448.896	92.06
449.117	106.06
449.338	87.06
449.559	93.06
449.779	98.06
450	96.06
450.221	103.06
450.442	85.06
450.662	92.06
450.883	109.06
451.104	99.06
451.324	81.06
451.545	101.06
451.766	102.06
451.986	115.06
452.207	104.06
452.428	84.06
452.648	100.06
452.869	94.06
453.089	84.06
453.31	99.06
453.53	104.06
453.751	98.06
453.971	88.06
454.192	93.06
454.412	109.06
454.633	90.06
454.853	96.06
455.073	100.06
455.294	82.06
455.514	105.06
455.734	100.06
455.955	91.06
456.175	89.06
456.395	81.06
456.616	96.06
456.836	95.06
457.056	90.06
457.276	97.06
457.497	82.06
457.717	99.06
457.937	89.06
458.157	92.06
458.377	97.06
458.598	99.06
458.818	92.06
459.038	100.06
459.258	83.06
459.478	105.06
459.698	88.06
459.918	115.06
460.138	107.06
460.358	105.06
460.578	105.06
460.798	105.06
461.018	114.06
461.238	107.06
461.458	104.06
461.678	105.06
461.898	100.06
462.118	99.06
462.338	118.06
462.558	106.06
462.777	90.06
462.997	113.06
463.217	99.06
463.437	114.06
463.657	100.06
463.876	120.06
464.096	112.06
464.316	87.06
464.536	110.06
464.755	94.06
464.975	114.06
465.195	105.06
465.414	110.06
465.634	104.06
465.854	97.06
466.073	96.06
466.293	97.06
466.512	109.06
466.732	103.06
466.951	99.06
467.171	110.06
467.391	105.06
467.61	101.06
467.829	94.06
468.049	100.06
468.268	90.06
468.488	117.06
468.707	112.06
468.927	104.06
469.146	98.06
469.365	111.06
469.585	95.06
469.804	92.06
470.023	103.06
470.243	89.06
470.462	103.06
470.681	89.06
470.901	107.06
471.12	107.06
471.339	81.06
471.558	99.06
471.777	107.06
471.997	94.06
472.216	100.06
472.435	100.06
472.654	97.06
472.873	100.06
473.092	88.06
473.311	96.06
473.53	93.06
473.749	105.06
473.968	97.06
474.187	98.06
474.406	117.06
474.625	115.06
474.844	103.06
475.063	100.06
475.282	103.06
475.501	104.06
475.72	86.06
475.939	103.06
476.158	107.06
476.377	91.06
476.596	103.06
476.814	92.06
477.033	100.06
477.252	115.06
477.471	120.06
477.69	119.06
477.908	122.06
478.127	127.06
478.346	120.06
478.564	112.06
478.783	100.06
479.002	96.06
479.22	109.06
479.439	117.06
479.658	109.06
479.876	101.06
480.095	91.06
480.313	119.06
480.532	107.06
480.751	97.06
480.969	104.06
481.188	107.06
481.406	103.06
481.624	115.06
481.843	112.06
482.061	121.06
482.28	112.06
482.498	120.06
482.717	106.06
482.935	112.06
483.153	104.06
483.372	101.06
483.59	110.06
483.808	114.06
484.027	101.06
484.245	122.06
484.463	104.06
484.681	106.06
484.9	109.06
485.118	104.06
485.336	105.06
485.554	110.06
485.772	116.06
485.99	108.06
486.209	100.06
486.427	102.06
486.645	106.06
486.863	106.06
487.081	99.06
487.299	100.06
487.517	112.06
487.735	120.06
487.953	120.06
488.171	123.06
488.389	120.06
488.607	110.06
488.825	101.06
489.043	106.06
489.261	116.06
489.479	106.06
489.696	114.06
489.914	106.06
490.132	124.06
490.35	108.06
490.568	118.06
490.786	115.06
491.003	106.06
491.221	122.06
491.439	116.06
491.657	119.06
491.874	129.06
492.092	120.06
492.31	127.06
492.527	125.06
492.745	133.06
492.963	130.06
493.18	124.06
493.398	114.06
493.615	126.06
493.833	112.06
494.05	124.06
494.268	106.06
494.485	113.06
494.703	113.06
494.92	109.06
495.138	124.06
495.355	106.06
495.573	112.06
495.79	105.06
496.008	119.06
496.225	108.06
496.442	124.06
496.66	124.06
496.877	115.06
497.094	118.06
497.312	125.06
497.529	112.06
497.746	118.06
497.963	124.06
498.181	123.06
498.398	121.06
498.615	135.06
498.832	123.06
499.049	130.06
499.267	126.06
499.484	118.06
499.701	130.06
499.918	135.06
500.135	142.06
500.352	171.06
500.569	161.06
500.786	150.06
501.003	160.06
501.22	164.06
501.437	153.06
501.654	148.06
501.871	128.06
502.088	114.06
502.305	126.06
502.522	122.06
502.739	130.06
502.956	114.06
503.172	114.06
503.389	132.06
503.606	101.06
503.823	124.06
504.04	98.06
504.256	122.06
504.473	112.06
504.69	120.06
504.907	104.06
505.123	121.06
505.34	112.06
505.557	115.06
505.773	106.06
505.99	117.06
506.207	110.06
506.423	118.06
506.64	105.06
506.856	112.06
507.073	114.06
507.289	132.06
507.506	113.06
507.722	101.06
507.939	122.06
508.155	114.06
508.372	118.06
508.588	116.06
508.805	101.06
509.021	101.06
509.238	96.06
509.454	101.06
509.67	112.06
509.887	109.06
510.103	115.06
510.319	107.06
510.536	105.06
510.752	98.06
510.968	100.06
511.184	91.06
511.401	113.06
511.617	109.06
511.833	108.06
512.049	109.06
512.265	92.06
512.481	113.06
512.698	110.06
512.914	105.06
