Data from Location5.07152019.Energy5.Lamp.07192019.3%Agarose_HRD10591_15-38-58-388.txt Node
Date: Fri Jul 19 15:38:58 EDT 2019
User: cochatt
Spectrometer: HR+D1059
Trigger mode: 1
Integration Time (sec): 1.000000E-1
Scans to average: 1
Electric dark correction enabled: true
Nonlinearity correction enabled: false
Boxcar width: 0
XAxis mode: Wavelengths
Number of Pixels in Spectrum: 2048
>>>>>Begin Spectral Data<<<<<
223.165	-12.38
223.4	-12.38
223.635	-12.38
223.869	-17.38
224.104	-18.38
224.338	-20.38
224.573	-9.38
224.808	-6.38
225.042	-9.38
225.277	3.62
225.511	-1.38
225.746	16.62
225.98	-2.38
226.215	6.62
226.449	6.62
226.683	4.62
226.918	32.62
227.152	26.62
227.387	23.62
227.621	33.62
227.856	52.62
228.09	38.62
228.324	56.62
228.559	56.62
228.793	51.62
229.027	56.62
229.262	69.62
229.496	54.62
229.73	63.62
229.964	63.62
230.199	72.62
230.433	70.62
230.667	81.62
230.901	78.62
231.136	78.62
231.37	76.62
231.604	80.62
231.838	80.62
232.072	82.62
232.306	62.62
232.541	79.62
232.775	89.62
233.009	80.62
233.243	58.62
233.477	89.62
233.711	80.62
233.945	92.62
234.179	68.62
234.413	69.62
234.647	73.62
234.881	80.62
235.115	83.62
235.349	74.62
235.583	96.62
235.817	70.62
236.051	89.62
236.285	76.62
236.519	77.62
236.753	92.62
236.987	84.62
237.221	73.62
237.455	76.62
237.689	68.62
237.922	74.62
238.156	66.62
238.39	67.62
238.624	74.62
238.858	84.62
239.091	79.62
239.325	73.62
239.559	77.62
239.793	80.62
240.027	66.62
240.26	62.62
240.494	80.62
240.728	70.62
240.961	69.62
241.195	66.62
241.429	92.62
241.662	84.62
241.896	80.62
242.13	71.62
242.363	74.62
242.597	76.62
242.83	72.62
243.064	89.62
243.298	73.62
243.531	87.62
243.765	75.62
243.998	65.62
244.232	82.62
244.465	71.62
244.699	75.62
244.932	83.62
245.166	73.62
245.399	72.62
245.633	66.62
245.866	83.62
246.099	81.62
246.333	77.62
246.566	72.62
246.8	73.62
247.033	72.62
247.266	79.62
247.5	87.62
247.733	75.62
247.966	66.62
248.2	73.62
248.433	71.62
248.666	79.62
248.899	76.62
249.133	83.62
249.366	69.62
249.599	85.62
249.832	68.62
250.066	77.62
250.299	81.62
250.532	76.62
250.765	72.62
250.998	68.62
251.231	76.62
251.465	82.62
251.698	73.62
251.931	72.62
252.164	86.62
252.397	84.62
252.63	89.62
252.863	70.62
253.096	78.62
253.329	66.62
253.562	73.62
253.795	84.62
254.028	76.62
254.261	70.62
254.494	79.62
254.727	84.62
254.96	84.62
255.193	79.62
255.426	81.62
255.659	69.62
255.892	75.62
256.124	86.62
256.357	68.62
256.59	82.62
256.823	65.62
257.056	70.62
257.289	82.62
257.521	88.62
257.754	72.62
257.987	93.62
258.22	97.62
258.452	84.62
258.685	86.62
258.918	87.62
259.151	66.62
259.383	75.62
259.616	66.62
259.849	80.62
260.081	74.62
260.314	91.62
260.547	66.62
260.779	70.62
261.012	95.62
261.244	74.62
261.477	66.62
261.71	84.62
261.942	71.62
262.175	74.62
262.407	76.62
262.64	75.62
262.872	80.62
263.105	94.62
263.337	79.62
263.57	81.62
263.802	72.62
264.035	74.62
264.267	76.62
264.499	86.62
264.732	100.62
264.964	71.62
265.197	88.62
265.429	88.62
265.661	79.62
265.894	78.62
266.126	95.62
266.358	82.62
266.591	75.62
266.823	71.62
267.055	83.62
267.287	71.62
267.52	85.62
267.752	95.62
267.984	82.62
268.216	71.62
268.448	84.62
268.681	75.62
268.913	84.62
269.145	81.62
269.377	77.62
269.609	71.62
269.841	94.62
270.073	77.62
270.306	73.62
270.538	82.62
270.77	80.62
271.002	79.62
271.234	77.62
271.466	83.62
271.698	79.62
271.93	84.62
272.162	86.62
272.394	81.62
272.626	82.62
272.858	76.62
273.09	94.62
273.322	80.62
273.553	73.62
273.785	82.62
274.017	75.62
274.249	88.62
274.481	77.62
274.713	65.62
274.945	87.62
275.176	81.62
275.408	76.62
275.64	78.62
275.872	69.62
276.104	70.62
276.335	81.62
276.567	82.62
276.799	84.62
277.031	79.62
277.262	78.62
277.494	75.62
277.726	95.62
277.957	85.62
278.189	63.62
278.421	58.62
278.652	77.62
278.884	88.62
279.115	78.62
279.347	86.62
279.579	85.62
279.81	90.62
280.042	83.62
280.273	89.62
280.505	80.62
280.736	80.62
280.968	78.62
281.199	85.62
281.431	78.62
281.662	93.62
281.894	95.62
282.125	83.62
282.356	89.62
282.588	86.62
282.819	80.62
283.051	79.62
283.282	72.62
283.513	89.62
283.745	91.62
283.976	71.62
284.207	82.62
284.439	94.62
284.67	82.62
284.901	88.62
285.132	93.62
285.364	78.62
285.595	85.62
285.826	71.62
286.057	81.62
286.288	80.62
286.52	80.62
286.751	74.62
286.982	70.62
287.213	66.62
287.444	94.62
287.675	87.62
287.906	86.62
288.138	97.62
288.369	74.62
288.6	84.62
288.831	80.62
289.062	82.62
289.293	80.62
289.524	71.62
289.755	91.62
289.986	87.62
290.217	83.62
290.448	91.62
290.679	104.62
290.91	97.62
291.141	86.62
291.371	88.62
291.602	85.62
291.833	66.62
292.064	89.62
292.295	88.62
292.526	89.62
292.757	75.62
292.987	77.62
293.218	76.62
293.449	72.62
293.68	72.62
293.91	72.62
294.141	84.62
294.372	72.62
294.603	72.62
294.833	81.62
295.064	86.62
295.295	100.62
295.525	89.62
295.756	77.62
295.987	75.62
296.217	80.62
296.448	82.62
296.679	76.62
296.909	79.62
297.14	74.62
297.37	84.62
297.601	82.62
297.831	110.62
298.062	90.62
298.292	88.62
298.523	72.62
298.753	81.62
298.984	91.62
299.214	78.62
299.445	87.62
299.675	62.62
299.905	70.62
300.136	91.62
300.366	83.62
300.597	90.62
300.827	83.62
301.057	61.62
301.288	79.62
301.518	86.62
301.748	70.62
301.979	96.62
302.209	86.62
302.439	76.62
302.669	79.62
302.9	78.62
303.13	97.62
303.36	81.62
303.59	64.62
303.82	89.62
304.051	83.62
304.281	82.62
304.511	83.62
304.741	86.62
304.971	86.62
305.201	76.62
305.431	88.62
305.661	90.62
305.891	76.62
306.121	75.62
306.352	84.62
306.582	90.62
306.812	94.62
307.042	90.62
307.272	79.62
307.502	83.62
307.731	81.62
307.961	79.62
308.191	77.62
308.421	94.62
308.651	83.62
308.881	89.62
309.111	73.62
309.341	78.62
309.571	82.62
309.8	105.62
310.03	90.62
310.26	90.62
310.49	80.62
310.72	85.62
310.949	90.62
311.179	83.62
311.409	95.62
311.639	100.62
311.868	72.62
312.098	93.62
312.328	84.62
312.557	96.62
312.787	80.62
313.017	83.62
313.246	82.62
313.476	89.62
313.706	86.62
313.935	96.62
314.165	90.62
314.394	100.62
314.624	78.62
314.853	75.62
315.083	96.62
315.312	95.62
315.542	74.62
315.771	90.62
316.001	97.62
316.23	86.62
316.46	77.62
316.689	75.62
316.919	100.62
317.148	84.62
317.377	84.62
317.607	83.62
317.836	80.62
318.065	97.62
318.295	85.62
318.524	86.62
318.753	81.62
318.983	87.62
319.212	88.62
319.441	88.62
319.67	60.62
319.9	93.62
320.129	78.62
320.358	93.62
320.587	95.62
320.816	80.62
321.046	68.62
321.275	88.62
321.504	84.62
321.733	76.62
321.962	90.62
322.191	74.62
322.42	83.62
322.649	81.62
322.878	102.62
323.108	87.62
323.337	66.62
323.566	80.62
323.795	83.62
324.024	83.62
324.253	80.62
324.482	83.62
324.71	94.62
324.939	83.62
325.168	88.62
325.397	95.62
325.626	90.62
325.855	82.62
326.084	80.62
326.313	83.62
326.542	74.62
326.77	75.62
326.999	65.62
327.228	78.62
327.457	78.62
327.686	88.62
327.914	95.62
328.143	84.62
328.372	95.62
328.6	90.62
328.829	68.62
329.058	75.62
329.287	82.62
329.515	80.62
329.744	78.62
329.972	70.62
330.201	72.62
330.43	89.62
330.658	92.62
330.887	77.62
331.115	85.62
331.344	85.62
331.572	84.62
331.801	88.62
332.03	88.62
332.258	92.62
332.486	94.62
332.715	88.62
332.943	86.62
333.172	81.62
333.4	84.62
333.629	73.62
333.857	76.62
334.085	71.62
334.314	100.62
334.542	71.62
334.771	88.62
334.999	84.62
335.227	73.62
335.455	75.62
335.684	75.62
335.912	85.62
336.14	76.62
336.369	89.62
336.597	83.62
336.825	79.62
337.053	80.62
337.281	90.62
337.51	91.62
337.738	90.62
337.966	78.62
338.194	74.62
338.422	87.62
338.65	86.62
338.878	72.62
339.106	71.62
339.334	76.62
339.562	71.62
339.79	82.62
340.018	93.62
340.246	85.62
340.474	76.62
340.702	78.62
340.93	75.62
341.158	86.62
341.386	79.62
341.614	67.62
341.842	64.62
342.07	85.62
342.298	94.62
342.526	74.62
342.754	72.62
342.981	76.62
343.209	83.62
343.437	80.62
343.665	70.62
343.893	93.62
344.12	74.62
344.348	82.62
344.576	80.62
344.804	83.62
345.031	88.62
345.259	76.62
345.487	98.62
345.714	82.62
345.942	76.62
346.17	92.62
346.397	95.62
346.625	77.62
346.853	88.62
347.08	80.62
347.308	88.62
347.535	77.62
347.763	76.62
347.99	82.62
348.218	90.62
348.445	73.62
348.673	82.62
348.9	75.62
349.128	80.62
349.355	77.62
349.583	87.62
349.81	87.62
350.037	92.62
350.265	88.62
350.492	77.62
350.72	78.62
350.947	67.62
351.174	90.62
351.402	86.62
351.629	81.62
351.856	73.62
352.083	84.62
352.311	76.62
352.538	88.62
352.765	86.62
352.992	70.62
353.22	70.62
353.447	79.62
353.674	87.62
353.901	79.62
354.128	89.62
354.355	80.62
354.583	98.62
354.81	76.62
355.037	80.62
355.264	92.62
355.491	77.62
355.718	92.62
355.945	98.62
356.172	86.62
356.399	89.62
356.626	90.62
356.853	91.62
357.08	79.62
357.307	73.62
357.534	94.62
357.761	84.62
357.988	90.62
358.215	92.62
358.441	90.62
358.668	82.62
358.895	80.62
359.122	75.62
359.349	86.62
359.576	82.62
359.802	73.62
360.029	94.62
360.256	72.62
360.483	77.62
360.709	83.62
360.936	96.62
361.163	99.62
361.39	87.62
361.616	76.62
361.843	92.62
362.07	74.62
362.296	79.62
362.523	82.62
362.749	74.62
362.976	83.62
363.203	66.62
363.429	76.62
363.656	72.62
363.882	88.62
364.109	101.62
364.335	86.62
364.562	91.62
364.788	79.62
365.015	82.62
365.241	86.62
365.468	88.62
365.694	72.62
365.92	86.62
366.147	78.62
366.373	88.62
366.599	92.62
366.826	80.62
367.052	88.62
367.278	84.62
367.505	80.62
367.731	74.62
367.957	77.62
368.184	81.62
368.41	87.62
368.636	81.62
368.862	88.62
369.089	88.62
369.315	91.62
369.541	79.62
369.767	83.62
369.993	87.62
370.219	90.62
370.445	81.62
370.672	79.62
370.898	82.62
371.124	82.62
371.35	74.62
371.576	87.62
371.802	82.62
372.028	80.62
372.254	97.62
372.48	86.62
372.706	76.62
372.932	87.62
373.158	84.62
373.384	77.62
373.61	86.62
373.835	77.62
374.061	87.62
374.287	89.62
374.513	79.62
374.739	66.62
374.965	72.62
375.191	79.62
375.416	87.62
375.642	95.62
375.868	71.62
376.094	87.62
376.319	84.62
376.545	76.62
376.771	85.62
376.997	82.62
377.222	77.62
377.448	84.62
377.674	75.62
377.899	90.62
378.125	84.62
378.35	74.62
378.576	79.62
378.802	80.62
379.027	76.62
379.253	76.62
379.478	87.62
379.704	86.62
379.929	80.62
380.155	87.62
380.38	86.62
380.606	103.62
380.831	98.62
381.057	83.62
381.282	70.62
381.507	80.62
381.733	83.62
381.958	93.62
382.184	81.62
382.409	91.62
382.634	88.62
382.86	82.62
383.085	102.62
383.31	87.62
383.535	85.62
383.761	72.62
383.986	86.62
384.211	75.62
384.436	75.62
384.662	78.62
384.887	88.62
385.112	99.62
385.337	82.62
385.562	82.62
385.787	79.62
386.013	103.62
386.238	94.62
386.463	87.62
386.688	80.62
386.913	82.62
387.138	91.62
387.363	77.62
387.588	79.62
387.813	73.62
388.038	87.62
388.263	86.62
388.488	95.62
388.713	92.62
388.938	78.62
389.163	91.62
389.387	89.62
389.612	90.62
389.837	79.62
390.062	89.62
390.287	78.62
390.512	77.62
390.736	85.62
390.961	85.62
391.186	87.62
391.411	81.62
391.636	89.62
391.86	88.62
392.085	97.62
392.31	86.62
392.534	86.62
392.759	82.62
392.984	95.62
393.208	84.62
393.433	78.62
393.658	100.62
393.882	90.62
394.107	77.62
394.331	81.62
394.556	83.62
394.78	89.62
395.005	80.62
395.229	87.62
395.454	77.62
395.678	106.62
395.903	76.62
396.127	91.62
396.352	92.62
396.576	76.62
396.801	85.62
397.025	89.62
397.249	82.62
397.474	90.62
397.698	94.62
397.922	68.62
398.147	74.62
398.371	79.62
398.595	88.62
398.82	92.62
399.044	94.62
399.268	89.62
399.492	93.62
399.717	88.62
399.941	86.62
400.165	95.62
400.389	81.62
400.613	98.62
400.837	71.62
401.062	94.62
401.286	83.62
401.51	76.62
401.734	75.62
401.958	103.62
402.182	95.62
402.406	89.62
402.63	87.62
402.854	82.62
403.078	84.62
403.302	79.62
403.526	80.62
403.75	88.62
403.974	82.62
404.198	80.62
404.422	76.62
404.645	74.62
404.869	98.62
405.093	91.62
405.317	84.62
405.541	87.62
405.765	89.62
405.988	80.62
406.212	85.62
406.436	88.62
406.66	98.62
406.883	80.62
407.107	90.62
407.331	89.62
407.555	93.62
407.778	98.62
408.002	85.62
408.226	90.62
408.449	87.62
408.673	98.62
408.896	104.62
409.12	107.62
409.344	81.62
409.567	76.62
409.791	97.62
410.014	82.62
410.238	87.62
410.461	97.62
410.685	90.62
410.908	90.62
411.132	87.62
411.355	72.62
411.578	81.62
411.802	87.62
412.025	99.62
412.249	75.62
412.472	82.62
412.695	87.62
412.919	82.62
413.142	81.62
413.365	87.62
413.589	80.62
413.812	93.62
414.035	81.62
414.258	85.62
414.482	89.62
414.705	96.62
414.928	97.62
415.151	90.62
415.374	83.62
415.597	88.62
415.821	102.62
416.044	82.62
416.267	85.62
416.49	77.62
416.713	96.62
416.936	101.62
417.159	87.62
417.382	95.62
417.605	91.62
417.828	85.62
418.051	89.62
418.274	96.62
418.497	84.62
418.72	97.62
418.943	96.62
419.166	96.62
419.389	92.62
419.611	84.62
419.834	86.62
420.057	94.62
420.28	92.62
420.503	97.62
420.726	86.62
420.948	81.62
421.171	89.62
421.394	91.62
421.617	80.62
421.839	90.62
422.062	80.62
422.285	84.62
422.507	106.62
422.73	88.62
422.953	85.62
423.175	91.62
423.398	91.62
423.621	99.62
423.843	102.62
424.066	91.62
424.288	100.62
424.511	91.62
424.733	90.62
424.956	93.62
425.178	94.62
425.401	99.62
425.623	84.62
425.846	94.62
426.068	97.62
426.291	83.62
426.513	79.62
426.735	86.62
426.958	80.62
427.18	78.62
427.402	97.62
427.625	105.62
427.847	95.62
428.069	82.62
428.292	79.62
428.514	71.62
428.736	80.62
428.958	100.62
429.181	93.62
429.403	89.62
429.625	105.62
429.847	92.62
430.069	89.62
430.292	81.62
430.514	88.62
430.736	108.62
430.958	103.62
431.18	93.62
431.402	90.62
431.624	96.62
431.846	86.62
432.068	91.62
432.29	81.62
432.512	96.62
432.734	87.62
432.956	93.62
433.178	102.62
433.4	96.62
433.622	84.62
433.844	90.62
434.066	90.62
434.287	83.62
434.509	78.62
434.731	85.62
434.953	77.62
435.175	94.62
435.397	99.62
435.618	80.62
435.84	85.62
436.062	91.62
436.284	80.62
436.505	87.62
436.727	99.62
436.949	93.62
437.17	99.62
437.392	97.62
437.614	82.62
437.835	98.62
438.057	99.62
438.278	72.62
438.5	83.62
438.721	77.62
438.943	94.62
439.165	92.62
439.386	98.62
439.608	86.62
439.829	88.62
440.05	94.62
440.272	102.62
440.493	94.62
440.715	102.62
440.936	105.62
441.158	95.62
441.379	94.62
441.6	84.62
441.822	98.62
442.043	86.62
442.264	94.62
442.486	94.62
442.707	78.62
442.928	106.62
443.149	115.62
443.371	94.62
443.592	103.62
443.813	98.62
444.034	106.62
444.255	97.62
444.476	94.62
444.698	88.62
444.919	106.62
445.14	201.62
445.361	156.62
445.582	108.62
445.803	96.62
446.024	79.62
446.245	88.62
446.466	83.62
446.687	105.62
446.908	101.62
447.129	98.62
447.35	107.62
447.571	80.62
447.792	91.62
448.013	92.62
448.234	78.62
448.455	73.62
448.675	87.62
448.896	87.62
449.117	88.62
449.338	99.62
449.559	91.62
449.779	90.62
450	112.62
450.221	94.62
450.442	101.62
450.662	98.62
450.883	96.62
451.104	96.62
451.324	97.62
451.545	94.62
451.766	91.62
451.986	103.62
452.207	91.62
452.428	92.62
452.648	109.62
452.869	88.62
453.089	81.62
453.31	91.62
453.53	81.62
453.751	95.62
453.971	92.62
454.192	76.62
454.412	89.62
454.633	97.62
454.853	100.62
455.073	87.62
455.294	99.62
455.514	95.62
455.734	97.62
455.955	89.62
456.175	85.62
456.395	81.62
456.616	81.62
456.836	79.62
457.056	80.62
457.276	89.62
457.497	97.62
457.717	93.62
457.937	96.62
458.157	94.62
458.377	82.62
458.598	80.62
458.818	103.62
459.038	79.62
459.258	75.62
459.478	70.62
459.698	81.62
459.918	78.62
460.138	87.62
460.358	87.62
460.578	80.62
460.798	88.62
461.018	80.62
461.238	88.62
461.458	83.62
461.678	73.62
461.898	87.62
462.118	96.62
462.338	100.62
462.558	86.62
462.777	82.62
462.997	82.62
463.217	94.62
463.437	85.62
463.657	93.62
463.876	76.62
464.096	87.62
464.316	89.62
464.536	75.62
464.755	77.62
464.975	95.62
465.195	92.62
465.414	92.62
465.634	86.62
465.854	82.62
466.073	94.62
466.293	96.62
466.512	86.62
466.732	93.62
466.951	90.62
467.171	90.62
467.391	87.62
467.61	108.62
467.829	77.62
468.049	98.62
468.268	85.62
468.488	89.62
468.707	99.62
468.927	97.62
469.146	98.62
469.365	102.62
469.585	100.62
469.804	97.62
470.023	95.62
470.243	106.62
470.462	101.62
470.681	111.62
470.901	92.62
471.12	93.62
471.339	93.62
471.558	90.62
471.777	91.62
471.997	103.62
472.216	86.62
472.435	87.62
472.654	86.62
472.873	105.62
473.092	82.62
473.311	90.62
473.53	88.62
473.749	92.62
473.968	92.62
474.187	92.62
474.406	81.62
474.625	85.62
474.844	88.62
475.063	85.62
475.282	98.62
475.501	95.62
475.72	89.62
475.939	89.62
476.158	87.62
476.377	92.62
476.596	83.62
476.814	105.62
477.033	89.62
477.252	92.62
477.471	90.62
477.69	88.62
477.908	108.62
478.127	89.62
478.346	80.62
478.564	87.62
478.783	83.62
479.002	100.62
479.22	92.62
479.439	94.62
479.658	79.62
479.876	78.62
480.095	92.62
480.313	103.62
480.532	83.62
480.751	77.62
480.969	72.62
481.188	92.62
481.406	82.62
481.624	73.62
481.843	70.62
482.061	95.62
482.28	84.62
482.498	95.62
482.717	87.62
482.935	92.62
483.153	100.62
483.372	94.62
483.59	104.62
483.808	109.62
484.027	100.62
484.245	99.62
484.463	89.62
484.681	105.62
484.9	93.62
485.118	80.62
485.336	109.62
485.554	77.62
485.772	86.62
485.99	97.62
486.209	94.62
486.427	91.62
486.645	78.62
486.863	88.62
487.081	102.62
487.299	107.62
487.517	104.62
487.735	103.62
487.953	99.62
488.171	114.62
488.389	93.62
488.607	95.62
488.825	90.62
489.043	87.62
489.261	89.62
489.479	100.62
489.696	90.62
489.914	111.62
490.132	101.62
490.35	104.62
490.568	90.62
490.786	102.62
491.003	119.62
491.221	102.62
491.439	116.62
491.657	111.62
491.874	116.62
492.092	118.62
492.31	112.62
492.527	135.62
492.745	123.62
492.963	122.62
493.18	108.62
493.398	105.62
493.615	116.62
493.833	105.62
494.05	100.62
494.268	102.62
494.485	116.62
494.703	104.62
494.92	95.62
495.138	111.62
495.355	109.62
495.573	106.62
495.79	99.62
496.008	92.62
496.225	94.62
496.442	92.62
496.66	95.62
496.877	104.62
497.094	118.62
497.312	92.62
497.529	96.62
497.746	110.62
497.963	94.62
498.181	84.62
498.398	100.62
498.615	91.62
498.832	90.62
499.049	82.62
499.267	83.62
499.484	97.62
499.701	99.62
499.918	100.62
500.135	103.62
500.352	101.62
500.569	97.62
500.786	100.62
501.003	95.62
501.22	98.62
501.437	91.62
501.654	88.62
501.871	83.62
502.088	98.62
502.305	97.62
502.522	99.62
502.739	103.62
502.956	97.62
503.172	88.62
503.389	85.62
503.606	83.62
503.823	78.62
504.04	94.62
504.256	97.62
504.473	94.62
504.69	89.62
504.907	89.62
505.123	88.62
505.34	115.62
505.557	99.62
505.773	99.62
505.99	99.62
506.207	90.62
506.423	84.62
506.64	97.62
506.856	80.62
507.073	90.62
507.289	90.62
507.506	110.62
507.722	95.62
507.939	86.62
508.155	80.62
508.372	112.62
508.588	101.62
508.805	78.62
509.021	75.62
509.238	78.62
509.454	83.62
509.67	88.62
509.887	90.62
510.103	90.62
510.319	89.62
510.536	84.62
510.752	85.62
510.968	90.62
511.184	70.62
511.401	97.62
511.617	82.62
511.833	93.62
512.049	82.62
512.265	89.62
512.481	86.62
512.698	98.62
512.914	86.62
513.13	85.62
513.346	69.62
513.562	87.62
513.778	80.62
513.994	77.62
514.21	83.62
514.426	81.62
514.642	87.62
514.858	87.62
515.074	76.62
515.29	89.62
515.506	75.62
515.721	70.62
515.937	91.62
516.153	90.62
516.369	95.62
516.585	88.62
516.801	80.62
517.016	91.62
517.232	94.62
517.448	97.62
517.664	86.62
517.879	84.62
