Data from Location5.07152019.Energy5.Lamp.07192019.3%Agarose_HRD10591_16-04-54-629.txt Node
Date: Fri Jul 19 16:04:54 EDT 2019
User: cochatt
Spectrometer: HR+D1059
Trigger mode: 1
Integration Time (sec): 1.000000E-1
Scans to average: 1
Electric dark correction enabled: true
Nonlinearity correction enabled: false
Boxcar width: 0
XAxis mode: Wavelengths
Number of Pixels in Spectrum: 2048
>>>>>Begin Spectral Data<<<<<
223.165	-13.25
223.4	-13.25
223.635	-13.25
223.869	-21.25
224.104	-27.25
224.338	-1.25
224.573	-9.25
224.808	-7.25
225.042	-9.25
225.277	2.75
225.511	4.75
225.746	2.75
225.98	8.75
226.215	1.75
226.449	15.75
226.683	9.75
226.918	20.75
227.152	21.75
227.387	24.75
227.621	37.75
227.856	26.75
228.09	31.75
228.324	60.75
228.559	64.75
228.793	39.75
229.027	71.75
229.262	78.75
229.496	83.75
229.73	61.75
229.964	69.75
230.199	71.75
230.433	73.75
230.667	65.75
230.901	83.75
231.136	71.75
231.37	73.75
231.604	73.75
231.838	80.75
232.072	74.75
232.306	78.75
232.541	89.75
232.775	84.75
233.009	85.75
233.243	62.75
233.477	84.75
233.711	82.75
233.945	73.75
234.179	70.75
234.413	89.75
234.647	72.75
234.881	73.75
235.115	71.75
235.349	78.75
235.583	71.75
235.817	74.75
236.051	82.75
236.285	70.75
236.519	75.75
236.753	70.75
236.987	72.75
237.221	73.75
237.455	82.75
237.689	76.75
237.922	71.75
238.156	74.75
238.39	60.75
238.624	59.75
238.858	71.75
239.091	73.75
239.325	63.75
239.559	80.75
239.793	69.75
240.027	69.75
240.26	67.75
240.494	65.75
240.728	78.75
240.961	70.75
241.195	84.75
241.429	87.75
241.662	70.75
241.896	77.75
242.13	88.75
242.363	79.75
242.597	85.75
242.83	83.75
243.064	81.75
243.298	81.75
243.531	77.75
243.765	86.75
243.998	93.75
244.232	83.75
244.465	80.75
244.699	72.75
244.932	80.75
245.166	79.75
245.399	65.75
245.633	77.75
245.866	61.75
246.099	70.75
246.333	84.75
246.566	74.75
246.8	88.75
247.033	66.75
247.266	83.75
247.5	76.75
247.733	72.75
247.966	81.75
248.2	79.75
248.433	88.75
248.666	71.75
248.899	82.75
249.133	84.75
249.366	87.75
249.599	57.75
249.832	83.75
250.066	81.75
250.299	86.75
250.532	70.75
250.765	86.75
250.998	77.75
251.231	88.75
251.465	87.75
251.698	77.75
251.931	74.75
252.164	83.75
252.397	74.75
252.63	72.75
252.863	82.75
253.096	64.75
253.329	88.75
253.562	81.75
253.795	77.75
254.028	66.75
254.261	73.75
254.494	82.75
254.727	97.75
254.96	67.75
255.193	76.75
255.426	77.75
255.659	68.75
255.892	78.75
256.124	64.75
256.357	81.75
256.59	81.75
256.823	83.75
257.056	83.75
257.289	70.75
257.521	85.75
257.754	84.75
257.987	74.75
258.22	75.75
258.452	83.75
258.685	71.75
258.918	83.75
259.151	77.75
259.383	81.75
259.616	88.75
259.849	78.75
260.081	94.75
260.314	86.75
260.547	70.75
260.779	88.75
261.012	93.75
261.244	84.75
261.477	70.75
261.71	85.75
261.942	74.75
262.175	93.75
262.407	80.75
262.64	90.75
262.872	94.75
263.105	90.75
263.337	86.75
263.57	81.75
263.802	78.75
264.035	94.75
264.267	83.75
264.499	87.75
264.732	93.75
264.964	74.75
265.197	79.75
265.429	77.75
265.661	91.75
265.894	85.75
266.126	96.75
266.358	85.75
266.591	80.75
266.823	72.75
267.055	79.75
267.287	80.75
267.52	70.75
267.752	74.75
267.984	90.75
268.216	75.75
268.448	95.75
268.681	79.75
268.913	83.75
269.145	88.75
269.377	77.75
269.609	90.75
269.841	73.75
270.073	91.75
270.306	88.75
270.538	68.75
270.77	97.75
271.002	73.75
271.234	92.75
271.466	94.75
271.698	83.75
271.93	74.75
272.162	86.75
272.394	81.75
272.626	82.75
272.858	79.75
273.09	81.75
273.322	73.75
273.553	82.75
273.785	83.75
274.017	80.75
274.249	81.75
274.481	60.75
274.713	89.75
274.945	80.75
275.176	81.75
275.408	76.75
275.64	80.75
275.872	78.75
276.104	104.75
276.335	81.75
276.567	78.75
276.799	82.75
277.031	87.75
277.262	82.75
277.494	90.75
277.726	82.75
277.957	81.75
278.189	77.75
278.421	96.75
278.652	74.75
278.884	91.75
279.115	98.75
279.347	76.75
279.579	76.75
279.81	54.75
280.042	83.75
280.273	78.75
280.505	95.75
280.736	81.75
280.968	85.75
281.199	86.75
281.431	89.75
281.662	97.75
281.894	85.75
282.125	85.75
282.356	79.75
282.588	70.75
282.819	85.75
283.051	85.75
283.282	88.75
283.513	90.75
283.745	85.75
283.976	84.75
284.207	84.75
284.439	84.75
284.67	110.75
284.901	97.75
285.132	78.75
285.364	78.75
285.595	90.75
285.826	69.75
286.057	83.75
286.288	87.75
286.52	86.75
286.751	75.75
286.982	86.75
287.213	89.75
287.444	98.75
287.675	87.75
287.906	80.75
288.138	92.75
288.369	92.75
288.6	87.75
288.831	80.75
289.062	82.75
289.293	87.75
289.524	89.75
289.755	85.75
289.986	84.75
290.217	75.75
290.448	82.75
290.679	79.75
290.91	96.75
291.141	72.75
291.371	89.75
291.602	92.75
291.833	70.75
292.064	83.75
292.295	96.75
292.526	89.75
292.757	93.75
292.987	88.75
293.218	88.75
293.449	102.75
293.68	85.75
293.91	76.75
294.141	85.75
294.372	89.75
294.603	95.75
294.833	89.75
295.064	89.75
295.295	82.75
295.525	93.75
295.756	76.75
295.987	83.75
296.217	95.75
296.448	86.75
296.679	87.75
296.909	74.75
297.14	81.75
297.37	95.75
297.601	87.75
297.831	92.75
298.062	78.75
298.292	90.75
298.523	95.75
298.753	98.75
298.984	86.75
299.214	82.75
299.445	93.75
299.675	87.75
299.905	85.75
300.136	96.75
300.366	75.75
300.597	96.75
300.827	81.75
301.057	96.75
301.288	88.75
301.518	89.75
301.748	90.75
301.979	89.75
302.209	77.75
302.439	81.75
302.669	86.75
302.9	73.75
303.13	82.75
303.36	103.75
303.59	90.75
303.82	93.75
304.051	93.75
304.281	87.75
304.511	102.75
304.741	102.75
304.971	87.75
305.201	77.75
305.431	96.75
305.661	89.75
305.891	88.75
306.121	91.75
306.352	95.75
306.582	83.75
306.812	82.75
307.042	94.75
307.272	91.75
307.502	90.75
307.731	89.75
307.961	92.75
308.191	96.75
308.421	93.75
308.651	92.75
308.881	89.75
309.111	89.75
309.341	97.75
309.571	83.75
309.8	78.75
310.03	83.75
310.26	92.75
310.49	83.75
310.72	86.75
310.949	85.75
311.179	93.75
311.409	84.75
311.639	87.75
311.868	97.75
312.098	82.75
312.328	85.75
312.557	90.75
312.787	84.75
313.017	82.75
313.246	108.75
313.476	92.75
313.706	97.75
313.935	86.75
314.165	74.75
314.394	87.75
314.624	96.75
314.853	83.75
315.083	100.75
315.312	87.75
315.542	88.75
315.771	77.75
316.001	87.75
316.23	89.75
316.46	92.75
316.689	89.75
316.919	92.75
317.148	102.75
317.377	91.75
317.607	86.75
317.836	86.75
318.065	95.75
318.295	88.75
318.524	84.75
318.753	80.75
318.983	79.75
319.212	87.75
319.441	91.75
319.67	88.75
319.9	83.75
320.129	77.75
320.358	82.75
320.587	82.75
320.816	77.75
321.046	84.75
321.275	80.75
321.504	88.75
321.733	100.75
321.962	94.75
322.191	92.75
322.42	102.75
322.649	95.75
322.878	102.75
323.108	101.75
323.337	79.75
323.566	96.75
323.795	90.75
324.024	76.75
324.253	78.75
324.482	90.75
324.71	84.75
324.939	93.75
325.168	88.75
325.397	91.75
325.626	86.75
325.855	80.75
326.084	80.75
326.313	84.75
326.542	86.75
326.77	90.75
326.999	92.75
327.228	109.75
327.457	72.75
327.686	92.75
327.914	84.75
328.143	95.75
328.372	81.75
328.6	92.75
328.829	84.75
329.058	95.75
329.287	84.75
329.515	96.75
329.744	89.75
329.972	77.75
330.201	87.75
330.43	91.75
330.658	93.75
330.887	90.75
331.115	84.75
331.344	82.75
331.572	99.75
331.801	103.75
332.03	72.75
332.258	106.75
332.486	81.75
332.715	91.75
332.943	92.75
333.172	100.75
333.4	97.75
333.629	100.75
333.857	99.75
334.085	98.75
334.314	103.75
334.542	98.75
334.771	86.75
334.999	88.75
335.227	82.75
335.455	88.75
335.684	86.75
335.912	98.75
336.14	96.75
336.369	89.75
336.597	91.75
336.825	88.75
337.053	91.75
337.281	105.75
337.51	86.75
337.738	80.75
337.966	85.75
338.194	72.75
338.422	90.75
338.65	96.75
338.878	84.75
339.106	81.75
339.334	88.75
339.562	80.75
339.79	87.75
340.018	83.75
340.246	91.75
340.474	90.75
340.702	86.75
340.93	104.75
341.158	93.75
341.386	83.75
341.614	90.75
341.842	76.75
342.07	84.75
342.298	95.75
342.526	86.75
342.754	87.75
342.981	89.75
343.209	92.75
343.437	92.75
343.665	85.75
343.893	78.75
344.12	89.75
344.348	80.75
344.576	76.75
344.804	92.75
345.031	84.75
345.259	95.75
345.487	83.75
345.714	97.75
345.942	81.75
346.17	77.75
346.397	85.75
346.625	90.75
346.853	79.75
347.08	80.75
347.308	87.75
347.535	86.75
347.763	90.75
347.99	86.75
348.218	91.75
348.445	88.75
348.673	81.75
348.9	83.75
349.128	95.75
349.355	99.75
349.583	72.75
349.81	85.75
350.037	95.75
350.265	88.75
350.492	79.75
350.72	108.75
350.947	100.75
351.174	87.75
351.402	99.75
351.629	99.75
351.856	81.75
352.083	77.75
352.311	84.75
352.538	81.75
352.765	83.75
352.992	80.75
353.22	79.75
353.447	74.75
353.674	88.75
353.901	77.75
354.128	83.75
354.355	95.75
354.583	85.75
354.81	91.75
355.037	99.75
355.264	79.75
355.491	81.75
355.718	79.75
355.945	85.75
356.172	88.75
356.399	89.75
356.626	86.75
356.853	76.75
357.08	87.75
357.307	84.75
357.534	110.75
357.761	83.75
357.988	98.75
358.215	96.75
358.441	89.75
358.668	90.75
358.895	77.75
359.122	78.75
359.349	77.75
359.576	97.75
359.802	87.75
360.029	83.75
360.256	76.75
360.483	93.75
360.709	83.75
360.936	89.75
361.163	89.75
361.39	76.75
361.616	94.75
361.843	91.75
362.07	86.75
362.296	93.75
362.523	93.75
362.749	77.75
362.976	86.75
363.203	92.75
363.429	93.75
363.656	74.75
363.882	84.75
364.109	91.75
364.335	74.75
364.562	83.75
364.788	89.75
365.015	81.75
365.241	83.75
365.468	80.75
365.694	84.75
365.92	99.75
366.147	97.75
366.373	99.75
366.599	88.75
366.826	100.75
367.052	99.75
367.278	88.75
367.505	91.75
367.731	88.75
367.957	81.75
368.184	77.75
368.41	88.75
368.636	79.75
368.862	83.75
369.089	73.75
369.315	81.75
369.541	86.75
369.767	84.75
369.993	79.75
370.219	94.75
370.445	90.75
370.672	88.75
370.898	92.75
371.124	94.75
371.35	98.75
371.576	85.75
371.802	88.75
372.028	92.75
372.254	90.75
372.48	89.75
372.706	78.75
372.932	98.75
373.158	87.75
373.384	88.75
373.61	117.75
373.835	110.75
374.061	102.75
374.287	83.75
374.513	92.75
374.739	83.75
374.965	85.75
375.191	75.75
375.416	94.75
375.642	93.75
375.868	97.75
376.094	88.75
376.319	89.75
376.545	84.75
376.771	88.75
376.997	95.75
377.222	76.75
377.448	73.75
377.674	93.75
377.899	89.75
378.125	80.75
378.35	90.75
378.576	88.75
378.802	78.75
379.027	84.75
379.253	96.75
379.478	96.75
379.704	79.75
379.929	84.75
380.155	92.75
380.38	82.75
380.606	84.75
380.831	92.75
381.057	91.75
381.282	99.75
381.507	81.75
381.733	103.75
381.958	88.75
382.184	78.75
382.409	88.75
382.634	79.75
382.86	80.75
383.085	92.75
383.31	92.75
383.535	90.75
383.761	91.75
383.986	107.75
384.211	88.75
384.436	98.75
384.662	82.75
384.887	90.75
385.112	82.75
385.337	96.75
385.562	77.75
385.787	86.75
386.013	88.75
386.238	99.75
386.463	93.75
386.688	98.75
386.913	98.75
387.138	102.75
387.363	80.75
387.588	102.75
387.813	85.75
388.038	81.75
388.263	92.75
388.488	88.75
388.713	85.75
388.938	82.75
389.163	86.75
389.387	80.75
389.612	102.75
389.837	79.75
390.062	101.75
390.287	102.75
390.512	91.75
390.736	83.75
390.961	100.75
391.186	96.75
391.411	83.75
391.636	104.75
391.86	92.75
392.085	92.75
392.31	83.75
392.534	77.75
392.759	80.75
392.984	86.75
393.208	89.75
393.433	91.75
393.658	80.75
393.882	82.75
394.107	92.75
394.331	86.75
394.556	94.75
394.78	80.75
395.005	88.75
395.229	89.75
395.454	99.75
395.678	89.75
395.903	94.75
396.127	88.75
396.352	97.75
396.576	85.75
396.801	87.75
397.025	85.75
397.249	93.75
397.474	94.75
397.698	85.75
397.922	103.75
398.147	92.75
398.371	98.75
398.595	93.75
398.82	97.75
399.044	87.75
399.268	93.75
399.492	93.75
399.717	97.75
399.941	112.75
400.165	96.75
400.389	106.75
400.613	79.75
400.837	95.75
401.062	85.75
401.286	83.75
401.51	87.75
401.734	79.75
401.958	87.75
402.182	97.75
402.406	96.75
402.63	92.75
402.854	103.75
403.078	96.75
403.302	91.75
403.526	93.75
403.75	87.75
403.974	107.75
404.198	92.75
404.422	94.75
404.645	94.75
404.869	101.75
405.093	98.75
405.317	98.75
405.541	101.75
405.765	91.75
405.988	98.75
406.212	97.75
406.436	106.75
406.66	94.75
406.883	90.75
407.107	100.75
407.331	99.75
407.555	112.75
407.778	94.75
408.002	89.75
408.226	86.75
408.449	95.75
408.673	95.75
408.896	105.75
409.12	96.75
409.344	84.75
409.567	97.75
409.791	86.75
410.014	88.75
410.238	85.75
410.461	89.75
410.685	97.75
410.908	96.75
411.132	94.75
411.355	93.75
411.578	100.75
411.802	95.75
412.025	101.75
412.249	94.75
412.472	95.75
412.695	92.75
412.919	92.75
413.142	112.75
413.365	110.75
413.589	94.75
413.812	87.75
414.035	94.75
414.258	102.75
414.482	90.75
414.705	96.75
414.928	87.75
415.151	96.75
415.374	83.75
415.597	104.75
415.821	88.75
416.044	92.75
416.267	104.75
416.49	87.75
416.713	87.75
416.936	87.75
417.159	89.75
417.382	89.75
417.605	86.75
417.828	100.75
418.051	89.75
418.274	87.75
418.497	96.75
418.72	97.75
418.943	105.75
419.166	82.75
419.389	78.75
419.611	89.75
419.834	92.75
420.057	95.75
420.28	100.75
420.503	91.75
420.726	104.75
420.948	99.75
421.171	94.75
421.394	95.75
421.617	100.75
421.839	99.75
422.062	93.75
422.285	110.75
422.507	77.75
422.73	83.75
422.953	95.75
423.175	100.75
423.398	87.75
423.621	92.75
423.843	108.75
424.066	104.75
424.288	94.75
424.511	85.75
424.733	85.75
424.956	98.75
425.178	94.75
425.401	85.75
425.623	104.75
425.846	103.75
426.068	98.75
426.291	84.75
426.513	101.75
426.735	90.75
426.958	101.75
427.18	91.75
427.402	92.75
427.625	97.75
427.847	88.75
428.069	86.75
428.292	78.75
428.514	99.75
428.736	86.75
428.958	90.75
429.181	87.75
429.403	98.75
429.625	93.75
429.847	88.75
430.069	84.75
430.292	95.75
430.514	98.75
430.736	91.75
430.958	82.75
431.18	95.75
431.402	82.75
431.624	97.75
431.846	83.75
432.068	86.75
432.29	88.75
432.512	102.75
432.734	93.75
432.956	92.75
433.178	90.75
433.4	96.75
433.622	86.75
433.844	89.75
434.066	95.75
434.287	87.75
434.509	100.75
434.731	93.75
434.953	96.75
435.175	97.75
435.397	99.75
435.618	78.75
435.84	89.75
436.062	91.75
436.284	85.75
436.505	94.75
436.727	86.75
436.949	82.75
437.17	90.75
437.392	85.75
437.614	90.75
437.835	92.75
438.057	85.75
438.278	94.75
438.5	87.75
438.721	89.75
438.943	87.75
439.165	98.75
439.386	95.75
439.608	88.75
439.829	91.75
440.05	100.75
440.272	98.75
440.493	96.75
440.715	88.75
440.936	78.75
441.158	81.75
441.379	108.75
441.6	97.75
441.822	121.75
442.043	89.75
442.264	86.75
442.486	91.75
442.707	95.75
442.928	85.75
443.149	110.75
443.371	100.75
443.592	93.75
443.813	90.75
444.034	99.75
444.255	93.75
444.476	102.75
444.698	93.75
444.919	94.75
445.14	217.75
445.361	161.75
445.582	98.75
445.803	94.75
446.024	100.75
446.245	94.75
446.466	85.75
446.687	98.75
446.908	89.75
447.129	96.75
447.35	88.75
447.571	88.75
447.792	89.75
448.013	78.75
448.234	97.75
448.455	90.75
448.675	97.75
448.896	81.75
449.117	90.75
449.338	103.75
449.559	84.75
449.779	81.75
450	84.75
450.221	81.75
450.442	97.75
450.662	96.75
450.883	84.75
451.104	94.75
451.324	89.75
451.545	100.75
451.766	95.75
451.986	83.75
452.207	104.75
452.428	94.75
452.648	94.75
452.869	91.75
453.089	87.75
453.31	80.75
453.53	90.75
453.751	90.75
453.971	95.75
454.192	101.75
454.412	81.75
454.633	75.75
454.853	96.75
455.073	98.75
455.294	108.75
455.514	96.75
455.734	99.75
455.955	96.75
456.175	94.75
456.395	78.75
456.616	89.75
456.836	78.75
457.056	99.75
457.276	88.75
457.497	93.75
457.717	105.75
457.937	96.75
458.157	85.75
458.377	86.75
458.598	94.75
458.818	78.75
459.038	88.75
459.258	82.75
459.478	97.75
459.698	84.75
459.918	101.75
460.138	106.75
460.358	104.75
460.578	82.75
460.798	92.75
461.018	97.75
461.238	98.75
461.458	97.75
461.678	101.75
461.898	102.75
462.118	101.75
462.338	110.75
462.558	103.75
462.777	100.75
462.997	89.75
463.217	105.75
463.437	91.75
463.657	91.75
463.876	87.75
464.096	90.75
464.316	97.75
464.536	98.75
464.755	113.75
464.975	89.75
465.195	99.75
465.414	93.75
465.634	103.75
465.854	92.75
466.073	90.75
466.293	97.75
466.512	82.75
466.732	102.75
466.951	101.75
467.171	85.75
467.391	92.75
467.61	92.75
467.829	90.75
468.049	86.75
468.268	99.75
468.488	77.75
468.707	88.75
468.927	79.75
469.146	93.75
469.365	90.75
469.585	80.75
469.804	94.75
470.023	98.75
470.243	100.75
470.462	101.75
470.681	101.75
470.901	101.75
471.12	96.75
471.339	98.75
471.558	87.75
471.777	95.75
471.997	85.75
472.216	91.75
472.435	90.75
472.654	89.75
472.873	90.75
473.092	85.75
473.311	93.75
473.53	94.75
473.749	101.75
473.968	85.75
474.187	94.75
474.406	94.75
474.625	90.75
474.844	111.75
475.063	95.75
475.282	92.75
475.501	86.75
475.72	99.75
475.939	90.75
476.158	96.75
476.377	90.75
476.596	102.75
476.814	94.75
477.033	99.75
477.252	100.75
477.471	105.75
477.69	109.75
477.908	86.75
478.127	94.75
478.346	101.75
478.564	100.75
478.783	93.75
479.002	105.75
479.22	103.75
479.439	101.75
479.658	97.75
479.876	104.75
480.095	106.75
480.313	97.75
480.532	105.75
480.751	108.75
480.969	108.75
481.188	83.75
481.406	102.75
481.624	89.75
481.843	99.75
482.061	97.75
482.28	92.75
482.498	99.75
482.717	93.75
482.935	92.75
483.153	102.75
483.372	97.75
483.59	104.75
483.808	86.75
484.027	103.75
484.245	90.75
484.463	92.75
484.681	104.75
484.9	90.75
485.118	109.75
485.336	99.75
485.554	90.75
485.772	94.75
485.99	93.75
486.209	102.75
486.427	89.75
486.645	93.75
486.863	94.75
487.081	102.75
487.299	105.75
487.517	118.75
487.735	86.75
487.953	99.75
488.171	102.75
488.389	101.75
488.607	105.75
488.825	93.75
489.043	87.75
489.261	109.75
489.479	98.75
489.696	110.75
489.914	93.75
490.132	112.75
490.35	99.75
490.568	97.75
490.786	113.75
491.003	106.75
491.221	101.75
491.439	118.75
491.657	107.75
491.874	112.75
492.092	114.75
492.31	100.75
492.527	120.75
492.745	103.75
492.963	110.75
493.18	110.75
493.398	104.75
493.615	123.75
493.833	97.75
494.05	118.75
494.268	108.75
494.485	104.75
494.703	97.75
494.92	112.75
495.138	110.75
495.355	111.75
495.573	108.75
495.79	110.75
496.008	105.75
496.225	98.75
496.442	105.75
496.66	98.75
496.877	103.75
497.094	101.75
497.312	119.75
497.529	123.75
497.746	110.75
497.963	107.75
498.181	112.75
498.398	102.75
498.615	116.75
498.832	101.75
499.049	93.75
499.267	120.75
499.484	112.75
499.701	118.75
499.918	147.75
500.135	130.75
500.352	149.75
500.569	152.75
500.786	161.75
501.003	153.75
501.22	143.75
501.437	133.75
501.654	111.75
501.871	120.75
502.088	116.75
502.305	113.75
502.522	117.75
502.739	121.75
502.956	118.75
503.172	107.75
503.389	102.75
503.606	101.75
503.823	92.75
504.04	86.75
504.256	97.75
504.473	99.75
504.69	114.75
504.907	103.75
505.123	102.75
505.34	113.75
505.557	101.75
505.773	116.75
505.99	105.75
506.207	111.75
506.423	94.75
506.64	100.75
506.856	114.75
507.073	94.75
507.289	108.75
507.506	111.75
507.722	100.75
507.939	96.75
508.155	99.75
508.372	101.75
508.588	103.75
508.805	110.75
509.021	74.75
509.238	72.75
509.454	90.75
509.67	108.75
509.887	108.75
510.103	97.75
510.319	91.75
510.536	112.75
510.752	94.75
510.968	90.75
511.184	100.75
511.401	99.75
511.617	90.75
511.833	99.75
512.049	98.75
512.265	99.75
512.481	94.75
512.698	100.75
512.914	97.75
513.13	74.75
513.346	105.75
513.562	88.75
513.778	97.75
513.994	105.75
514.21	82.75
514.426	84.75
514.642	88.75
514.858	102.75
515.074	87.75
515.29	101.75
515.506	94.75
515.721	97.75
515.937	95.75
516.153	93.75
516.369	103.75
516.585	82.75
