Data from Location5.07152019.Energy5.Lamp.07192019.3%Agarose_HRD10591_16-05-28-629.txt Node
Date: Fri Jul 19 16:05:28 EDT 2019
User: cochatt
Spectrometer: HR+D1059
Trigger mode: 1
Integration Time (sec): 1.000000E-1
Scans to average: 1
Electric dark correction enabled: true
Nonlinearity correction enabled: false
Boxcar width: 0
XAxis mode: Wavelengths
Number of Pixels in Spectrum: 2048
>>>>>Begin Spectral Data<<<<<
223.165	-11.56
223.4	-11.56
223.635	-11.56
223.869	-8.56
224.104	-15.56
224.338	-13.56
224.573	-11.56
224.808	-11.56
225.042	-9.56
225.277	-15.56
225.511	-11.56
225.746	12.44
225.98	6.44
226.215	13.44
226.449	25.44
226.683	7.44
226.918	26.44
227.152	17.44
227.387	35.44
227.621	37.44
227.856	54.44
228.09	55.44
228.324	49.44
228.559	58.44
228.793	69.44
229.027	64.44
229.262	63.44
229.496	65.44
229.73	85.44
229.964	84.44
230.199	61.44
230.433	75.44
230.667	84.44
230.901	79.44
231.136	85.44
231.37	77.44
231.604	74.44
231.838	80.44
232.072	75.44
232.306	83.44
232.541	78.44
232.775	69.44
233.009	81.44
233.243	76.44
233.477	76.44
233.711	82.44
233.945	89.44
234.179	88.44
234.413	86.44
234.647	78.44
234.881	80.44
235.115	82.44
235.349	99.44
235.583	87.44
235.817	79.44
236.051	84.44
236.285	89.44
236.519	76.44
236.753	70.44
236.987	74.44
237.221	80.44
237.455	71.44
237.689	83.44
237.922	78.44
238.156	67.44
238.39	69.44
238.624	79.44
238.858	77.44
239.091	85.44
239.325	90.44
239.559	87.44
239.793	77.44
240.027	89.44
240.26	91.44
240.494	77.44
240.728	71.44
240.961	67.44
241.195	75.44
241.429	89.44
241.662	79.44
241.896	87.44
242.13	65.44
242.363	83.44
242.597	91.44
242.83	70.44
243.064	75.44
243.298	63.44
243.531	97.44
243.765	95.44
243.998	66.44
244.232	83.44
244.465	87.44
244.699	83.44
244.932	68.44
245.166	79.44
245.399	69.44
245.633	83.44
245.866	81.44
246.099	76.44
246.333	72.44
246.566	72.44
246.8	79.44
247.033	75.44
247.266	77.44
247.5	68.44
247.733	81.44
247.966	71.44
248.2	70.44
248.433	85.44
248.666	86.44
248.899	87.44
249.133	80.44
249.366	83.44
249.599	105.44
249.832	87.44
250.066	86.44
250.299	88.44
250.532	87.44
250.765	70.44
250.998	73.44
251.231	75.44
251.465	63.44
251.698	79.44
251.931	81.44
252.164	87.44
252.397	85.44
252.63	75.44
252.863	92.44
253.096	83.44
253.329	84.44
253.562	76.44
253.795	93.44
254.028	92.44
254.261	86.44
254.494	89.44
254.727	77.44
254.96	82.44
255.193	77.44
255.426	75.44
255.659	83.44
255.892	83.44
256.124	96.44
256.357	79.44
256.59	91.44
256.823	72.44
257.056	83.44
257.289	76.44
257.521	81.44
257.754	85.44
257.987	84.44
258.22	70.44
258.452	85.44
258.685	76.44
258.918	83.44
259.151	98.44
259.383	91.44
259.616	79.44
259.849	76.44
260.081	83.44
260.314	88.44
260.547	79.44
260.779	89.44
261.012	85.44
261.244	87.44
261.477	90.44
261.71	77.44
261.942	96.44
262.175	91.44
262.407	92.44
262.64	81.44
262.872	83.44
263.105	74.44
263.337	90.44
263.57	75.44
263.802	83.44
264.035	79.44
264.267	79.44
264.499	81.44
264.732	80.44
264.964	74.44
265.197	87.44
265.429	89.44
265.661	91.44
265.894	79.44
266.126	86.44
266.358	72.44
266.591	76.44
266.823	92.44
267.055	93.44
267.287	87.44
267.52	81.44
267.752	93.44
267.984	88.44
268.216	90.44
268.448	70.44
268.681	95.44
268.913	84.44
269.145	89.44
269.377	90.44
269.609	72.44
269.841	102.44
270.073	90.44
270.306	83.44
270.538	77.44
270.77	86.44
271.002	96.44
271.234	83.44
271.466	88.44
271.698	88.44
271.93	79.44
272.162	88.44
272.394	90.44
272.626	97.44
272.858	83.44
273.09	78.44
273.322	68.44
273.553	83.44
273.785	86.44
274.017	78.44
274.249	78.44
274.481	76.44
274.713	101.44
274.945	92.44
275.176	93.44
275.408	77.44
275.64	81.44
275.872	96.44
276.104	78.44
276.335	98.44
276.567	78.44
276.799	86.44
277.031	88.44
277.262	76.44
277.494	84.44
277.726	71.44
277.957	84.44
278.189	81.44
278.421	96.44
278.652	100.44
278.884	96.44
279.115	79.44
279.347	89.44
279.579	72.44
279.81	82.44
280.042	77.44
280.273	80.44
280.505	78.44
280.736	80.44
280.968	76.44
281.199	85.44
281.431	75.44
281.662	87.44
281.894	95.44
282.125	84.44
282.356	81.44
282.588	82.44
282.819	96.44
283.051	94.44
283.282	83.44
283.513	93.44
283.745	70.44
283.976	70.44
284.207	81.44
284.439	95.44
284.67	84.44
284.901	81.44
285.132	92.44
285.364	82.44
285.595	86.44
285.826	104.44
286.057	92.44
286.288	76.44
286.52	97.44
286.751	95.44
286.982	85.44
287.213	76.44
287.444	85.44
287.675	89.44
287.906	96.44
288.138	90.44
288.369	92.44
288.6	91.44
288.831	85.44
289.062	92.44
289.293	98.44
289.524	98.44
289.755	87.44
289.986	101.44
290.217	87.44
290.448	83.44
290.679	92.44
290.91	98.44
291.141	92.44
291.371	87.44
291.602	81.44
291.833	94.44
292.064	84.44
292.295	72.44
292.526	84.44
292.757	84.44
292.987	82.44
293.218	81.44
293.449	84.44
293.68	94.44
293.91	98.44
294.141	94.44
294.372	103.44
294.603	75.44
294.833	92.44
295.064	92.44
295.295	101.44
295.525	77.44
295.756	86.44
295.987	94.44
296.217	74.44
296.448	97.44
296.679	92.44
296.909	85.44
297.14	93.44
297.37	80.44
297.601	78.44
297.831	91.44
298.062	90.44
298.292	91.44
298.523	97.44
298.753	98.44
298.984	88.44
299.214	82.44
299.445	107.44
299.675	99.44
299.905	101.44
300.136	91.44
300.366	90.44
300.597	84.44
300.827	97.44
301.057	104.44
301.288	81.44
301.518	94.44
301.748	103.44
301.979	86.44
302.209	80.44
302.439	95.44
302.669	85.44
302.9	87.44
303.13	88.44
303.36	95.44
303.59	93.44
303.82	88.44
304.051	97.44
304.281	86.44
304.511	83.44
304.741	84.44
304.971	106.44
305.201	91.44
305.431	83.44
305.661	85.44
305.891	90.44
306.121	87.44
306.352	101.44
306.582	85.44
306.812	86.44
307.042	89.44
307.272	97.44
307.502	103.44
307.731	100.44
307.961	84.44
308.191	82.44
308.421	89.44
308.651	91.44
308.881	100.44
309.111	90.44
309.341	90.44
309.571	96.44
309.8	77.44
310.03	78.44
310.26	90.44
310.49	75.44
310.72	90.44
310.949	99.44
311.179	96.44
311.409	93.44
311.639	81.44
311.868	82.44
312.098	96.44
312.328	83.44
312.557	80.44
312.787	85.44
313.017	99.44
313.246	89.44
313.476	97.44
313.706	99.44
313.935	85.44
314.165	90.44
314.394	67.44
314.624	91.44
314.853	79.44
315.083	95.44
315.312	88.44
315.542	94.44
315.771	82.44
316.001	100.44
316.23	89.44
316.46	86.44
316.689	80.44
316.919	87.44
317.148	91.44
317.377	83.44
317.607	97.44
317.836	93.44
318.065	77.44
318.295	82.44
318.524	81.44
318.753	98.44
318.983	92.44
319.212	102.44
319.441	82.44
319.67	94.44
319.9	84.44
320.129	78.44
320.358	95.44
320.587	85.44
320.816	79.44
321.046	103.44
321.275	88.44
321.504	88.44
321.733	94.44
321.962	84.44
322.191	91.44
322.42	89.44
322.649	91.44
322.878	95.44
323.108	99.44
323.337	93.44
323.566	102.44
323.795	85.44
324.024	85.44
324.253	97.44
324.482	92.44
324.71	86.44
324.939	105.44
325.168	98.44
325.397	97.44
325.626	102.44
325.855	91.44
326.084	84.44
326.313	78.44
326.542	87.44
326.77	93.44
326.999	82.44
327.228	84.44
327.457	104.44
327.686	91.44
327.914	102.44
328.143	91.44
328.372	85.44
328.6	80.44
328.829	96.44
329.058	90.44
329.287	84.44
329.515	88.44
329.744	96.44
329.972	80.44
330.201	84.44
330.43	76.44
330.658	91.44
330.887	88.44
331.115	88.44
331.344	72.44
331.572	90.44
331.801	92.44
332.03	95.44
332.258	76.44
332.486	87.44
332.715	76.44
332.943	88.44
333.172	79.44
333.4	103.44
333.629	95.44
333.857	77.44
334.085	100.44
334.314	95.44
334.542	87.44
334.771	98.44
334.999	98.44
335.227	89.44
335.455	101.44
335.684	109.44
335.912	100.44
336.14	93.44
336.369	101.44
336.597	86.44
336.825	102.44
337.053	95.44
337.281	88.44
337.51	95.44
337.738	96.44
337.966	105.44
338.194	95.44
338.422	98.44
338.65	89.44
338.878	85.44
339.106	97.44
339.334	86.44
339.562	95.44
339.79	87.44
340.018	92.44
340.246	78.44
340.474	92.44
340.702	91.44
340.93	86.44
341.158	83.44
341.386	81.44
341.614	78.44
341.842	89.44
342.07	100.44
342.298	84.44
342.526	97.44
342.754	83.44
342.981	99.44
343.209	102.44
343.437	104.44
343.665	96.44
343.893	96.44
344.12	86.44
344.348	100.44
344.576	100.44
344.804	82.44
345.031	75.44
345.259	98.44
345.487	91.44
345.714	77.44
345.942	104.44
346.17	89.44
346.397	99.44
346.625	83.44
346.853	91.44
347.08	101.44
347.308	94.44
347.535	91.44
347.763	98.44
347.99	78.44
348.218	84.44
348.445	82.44
348.673	82.44
348.9	87.44
349.128	85.44
349.355	90.44
349.583	74.44
349.81	84.44
350.037	81.44
350.265	86.44
350.492	87.44
350.72	89.44
350.947	89.44
351.174	86.44
351.402	104.44
351.629	103.44
351.856	93.44
352.083	87.44
352.311	85.44
352.538	82.44
352.765	94.44
352.992	94.44
353.22	90.44
353.447	89.44
353.674	88.44
353.901	101.44
354.128	101.44
354.355	98.44
354.583	101.44
354.81	98.44
355.037	96.44
355.264	89.44
355.491	94.44
355.718	101.44
355.945	91.44
356.172	87.44
356.399	95.44
356.626	84.44
356.853	84.44
357.08	82.44
357.307	71.44
357.534	89.44
357.761	84.44
357.988	92.44
358.215	99.44
358.441	89.44
358.668	98.44
358.895	92.44
359.122	109.44
359.349	87.44
359.576	91.44
359.802	85.44
360.029	92.44
360.256	95.44
360.483	99.44
360.709	82.44
360.936	90.44
361.163	84.44
361.39	92.44
361.616	96.44
361.843	97.44
362.07	92.44
362.296	90.44
362.523	88.44
362.749	89.44
362.976	86.44
363.203	99.44
363.429	89.44
363.656	86.44
363.882	82.44
364.109	99.44
364.335	77.44
364.562	85.44
364.788	83.44
365.015	88.44
365.241	90.44
365.468	101.44
365.694	94.44
365.92	103.44
366.147	89.44
366.373	77.44
366.599	90.44
366.826	103.44
367.052	91.44
367.278	83.44
367.505	101.44
367.731	82.44
367.957	90.44
368.184	102.44
368.41	91.44
368.636	96.44
368.862	99.44
369.089	99.44
369.315	83.44
369.541	88.44
369.767	88.44
369.993	91.44
370.219	89.44
370.445	69.44
370.672	97.44
370.898	77.44
371.124	89.44
371.35	92.44
371.576	104.44
371.802	85.44
372.028	87.44
372.254	94.44
372.48	81.44
372.706	81.44
372.932	88.44
373.158	88.44
373.384	89.44
373.61	85.44
373.835	83.44
374.061	81.44
374.287	94.44
374.513	89.44
374.739	88.44
374.965	96.44
375.191	93.44
375.416	87.44
375.642	88.44
375.868	87.44
376.094	93.44
376.319	89.44
376.545	91.44
376.771	95.44
376.997	89.44
377.222	88.44
377.448	87.44
377.674	88.44
377.899	88.44
378.125	100.44
378.35	81.44
378.576	83.44
378.802	86.44
379.027	93.44
379.253	89.44
379.478	95.44
379.704	85.44
379.929	90.44
380.155	81.44
380.38	100.44
380.606	96.44
380.831	90.44
381.057	89.44
381.282	108.44
381.507	91.44
381.733	90.44
381.958	73.44
382.184	103.44
382.409	82.44
382.634	96.44
382.86	92.44
383.085	84.44
383.31	89.44
383.535	88.44
383.761	103.44
383.986	100.44
384.211	89.44
384.436	92.44
384.662	101.44
384.887	98.44
385.112	88.44
385.337	89.44
385.562	93.44
385.787	90.44
386.013	99.44
386.238	97.44
386.463	96.44
386.688	92.44
386.913	101.44
387.138	101.44
387.363	87.44
387.588	91.44
387.813	101.44
388.038	83.44
388.263	90.44
388.488	89.44
388.713	107.44
388.938	77.44
389.163	98.44
389.387	91.44
389.612	83.44
389.837	86.44
390.062	88.44
390.287	99.44
390.512	88.44
390.736	98.44
390.961	95.44
391.186	94.44
391.411	94.44
391.636	97.44
391.86	110.44
392.085	111.44
392.31	87.44
392.534	92.44
392.759	94.44
392.984	93.44
393.208	86.44
393.433	89.44
393.658	84.44
393.882	94.44
394.107	80.44
394.331	83.44
394.556	90.44
394.78	84.44
395.005	102.44
395.229	85.44
395.454	94.44
395.678	83.44
395.903	94.44
396.127	80.44
396.352	89.44
396.576	86.44
396.801	98.44
397.025	95.44
397.249	91.44
397.474	99.44
397.698	86.44
397.922	101.44
398.147	99.44
398.371	98.44
398.595	80.44
398.82	92.44
399.044	84.44
399.268	95.44
399.492	96.44
399.717	89.44
399.941	92.44
400.165	96.44
400.389	105.44
400.613	104.44
400.837	91.44
401.062	83.44
401.286	101.44
401.51	100.44
401.734	99.44
401.958	93.44
402.182	101.44
402.406	91.44
402.63	85.44
402.854	100.44
403.078	105.44
403.302	88.44
403.526	93.44
403.75	87.44
403.974	103.44
404.198	109.44
404.422	95.44
404.645	81.44
404.869	98.44
405.093	86.44
405.317	94.44
405.541	82.44
405.765	105.44
405.988	105.44
406.212	105.44
406.436	103.44
406.66	92.44
406.883	91.44
407.107	110.44
407.331	93.44
407.555	93.44
407.778	98.44
408.002	99.44
408.226	98.44
408.449	91.44
408.673	100.44
408.896	87.44
409.12	97.44
409.344	96.44
409.567	95.44
409.791	71.44
410.014	102.44
410.238	101.44
410.461	99.44
410.685	104.44
410.908	90.44
411.132	96.44
411.355	76.44
411.578	100.44
411.802	87.44
412.025	89.44
412.249	98.44
412.472	96.44
412.695	100.44
412.919	95.44
413.142	104.44
413.365	84.44
413.589	98.44
413.812	99.44
414.035	103.44
414.258	89.44
414.482	84.44
414.705	99.44
414.928	89.44
415.151	106.44
415.374	91.44
415.597	90.44
415.821	88.44
416.044	83.44
416.267	99.44
416.49	73.44
416.713	97.44
416.936	90.44
417.159	97.44
417.382	91.44
417.605	90.44
417.828	90.44
418.051	91.44
418.274	105.44
418.497	97.44
418.72	85.44
418.943	96.44
419.166	93.44
419.389	94.44
419.611	90.44
419.834	84.44
420.057	112.44
420.28	98.44
420.503	107.44
420.726	89.44
420.948	111.44
421.171	78.44
421.394	101.44
421.617	94.44
421.839	92.44
422.062	100.44
422.285	95.44
422.507	83.44
422.73	86.44
422.953	95.44
423.175	86.44
423.398	75.44
423.621	91.44
423.843	94.44
424.066	98.44
424.288	85.44
424.511	71.44
424.733	97.44
424.956	105.44
425.178	94.44
425.401	86.44
425.623	101.44
425.846	88.44
426.068	105.44
426.291	85.44
426.513	93.44
426.735	111.44
426.958	95.44
427.18	95.44
427.402	82.44
427.625	88.44
427.847	75.44
428.069	84.44
428.292	76.44
428.514	74.44
428.736	84.44
428.958	93.44
429.181	88.44
429.403	78.44
429.625	83.44
429.847	89.44
430.069	96.44
430.292	99.44
430.514	88.44
430.736	87.44
430.958	89.44
431.18	84.44
431.402	89.44
431.624	88.44
431.846	96.44
432.068	90.44
432.29	108.44
432.512	113.44
432.734	89.44
432.956	84.44
433.178	99.44
433.4	92.44
433.622	95.44
433.844	93.44
434.066	90.44
434.287	88.44
434.509	113.44
434.731	95.44
434.953	95.44
435.175	102.44
435.397	92.44
435.618	105.44
435.84	97.44
436.062	76.44
436.284	84.44
436.505	97.44
436.727	87.44
436.949	101.44
437.17	87.44
437.392	86.44
437.614	89.44
437.835	81.44
438.057	90.44
438.278	93.44
438.5	80.44
438.721	90.44
438.943	99.44
439.165	77.44
439.386	90.44
439.608	88.44
439.829	100.44
440.05	101.44
440.272	88.44
440.493	102.44
440.715	102.44
440.936	100.44
441.158	93.44
441.379	85.44
441.6	88.44
441.822	97.44
442.043	90.44
442.264	83.44
442.486	84.44
442.707	100.44
442.928	85.44
443.149	87.44
443.371	90.44
443.592	71.44
443.813	95.44
444.034	86.44
444.255	93.44
444.476	103.44
444.698	95.44
444.919	98.44
445.14	213.44
445.361	131.44
445.582	90.44
445.803	87.44
446.024	83.44
446.245	89.44
446.466	111.44
446.687	105.44
446.908	107.44
447.129	109.44
447.35	88.44
447.571	83.44
447.792	92.44
448.013	88.44
448.234	96.44
448.455	91.44
448.675	103.44
448.896	96.44
449.117	103.44
449.338	92.44
449.559	86.44
449.779	97.44
450	92.44
450.221	82.44
450.442	89.44
450.662	80.44
450.883	99.44
451.104	93.44
451.324	90.44
451.545	91.44
451.766	97.44
451.986	87.44
452.207	80.44
452.428	82.44
452.648	92.44
452.869	88.44
453.089	76.44
453.31	90.44
453.53	91.44
453.751	86.44
453.971	94.44
454.192	86.44
454.412	77.44
454.633	98.44
454.853	103.44
455.073	87.44
455.294	92.44
455.514	84.44
455.734	92.44
455.955	102.44
456.175	100.44
456.395	97.44
456.616	98.44
456.836	70.44
457.056	65.44
457.276	88.44
457.497	89.44
457.717	85.44
457.937	97.44
458.157	92.44
458.377	86.44
458.598	74.44
458.818	88.44
459.038	89.44
459.258	81.44
459.478	91.44
459.698	96.44
459.918	97.44
460.138	89.44
460.358	89.44
460.578	106.44
460.798	98.44
461.018	102.44
461.238	110.44
461.458	96.44
461.678	96.44
461.898	96.44
462.118	93.44
462.338	87.44
462.558	90.44
462.777	98.44
462.997	96.44
463.217	98.44
463.437	87.44
463.657	115.44
463.876	95.44
464.096	98.44
464.316	87.44
464.536	89.44
464.755	101.44
464.975	106.44
465.195	108.44
465.414	109.44
465.634	85.44
465.854	100.44
466.073	91.44
466.293	88.44
466.512	100.44
466.732	95.44
466.951	101.44
467.171	90.44
467.391	83.44
467.61	97.44
467.829	98.44
468.049	91.44
468.268	106.44
468.488	102.44
468.707	104.44
468.927	85.44
469.146	89.44
469.365	94.44
469.585	93.44
469.804	101.44
470.023	90.44
470.243	104.44
470.462	99.44
470.681	100.44
470.901	116.44
471.12	98.44
471.339	102.44
471.558	99.44
471.777	103.44
471.997	85.44
472.216	102.44
472.435	93.44
472.654	83.44
472.873	107.44
473.092	91.44
473.311	83.44
473.53	105.44
473.749	97.44
473.968	86.44
474.187	91.44
474.406	86.44
474.625	113.44
474.844	108.44
475.063	90.44
475.282	102.44
475.501	93.44
475.72	96.44
475.939	97.44
476.158	103.44
476.377	102.44
476.596	108.44
476.814	114.44
477.033	103.44
477.252	101.44
477.471	99.44
477.69	106.44
477.908	95.44
478.127	117.44
478.346	101.44
478.564	106.44
478.783	109.44
479.002	101.44
479.22	108.44
479.439	99.44
479.658	100.44
479.876	87.44
480.095	104.44
480.313	92.44
480.532	101.44
480.751	97.44
480.969	92.44
481.188	84.44
481.406	105.44
481.624	87.44
481.843	82.44
482.061	97.44
482.28	96.44
482.498	98.44
482.717	84.44
482.935	90.44
483.153	103.44
483.372	93.44
483.59	92.44
483.808	104.44
484.027	98.44
484.245	122.44
484.463	88.44
484.681	118.44
484.9	99.44
485.118	105.44
485.336	98.44
485.554	84.44
485.772	86.44
485.99	113.44
486.209	88.44
486.427	100.44
486.645	99.44
486.863	94.44
487.081	94.44
487.299	117.44
487.517	104.44
487.735	99.44
487.953	101.44
488.171	107.44
488.389	106.44
488.607	98.44
488.825	105.44
489.043	96.44
489.261	110.44
489.479	103.44
489.696	97.44
489.914	107.44
490.132	104.44
490.35	95.44
490.568	97.44
490.786	107.44
491.003	93.44
491.221	107.44
491.439	107.44
491.657	101.44
491.874	104.44
492.092	95.44
492.31	109.44
492.527	115.44
492.745	100.44
492.963	111.44
493.18	103.44
493.398	117.44
493.615	110.44
493.833	109.44
494.05	116.44
494.268	101.44
494.485	105.44
494.703	113.44
494.92	104.44
495.138	106.44
495.355	114.44
495.573	97.44
495.79	111.44
496.008	113.44
496.225	118.44
496.442	96.44
496.66	101.44
496.877	113.44
497.094	110.44
497.312	110.44
497.529	110.44
497.746	114.44
497.963	105.44
498.181	97.44
498.398	106.44
498.615	96.44
498.832	114.44
499.049	101.44
499.267	116.44
499.484	124.44
499.701	129.44
499.918	138.44
500.135	122.44
500.352	139.44
500.569	132.44
500.786	142.44
501.003	155.44
501.22	134.44
501.437	131.44
501.654	119.44
501.871	113.44
502.088	107.44
502.305	112.44
502.522	123.44
502.739	126.44
502.956	111.44
503.172	119.44
503.389	101.44
503.606	111.44
503.823	112.44
504.04	95.44
504.256	99.44
504.473	94.44
504.69	107.44
504.907	113.44
505.123	118.44
505.34	113.44
505.557	120.44
505.773	118.44
505.99	105.44
506.207	98.44
506.423	91.44
506.64	93.44
506.856	106.44
507.073	104.44
507.289	104.44
507.506	95.44
507.722	107.44
507.939	114.44
508.155	99.44
508.372	91.44
508.588	101.44
508.805	86.44
509.021	86.44
509.238	90.44
509.454	111.44
509.67	100.44
509.887	107.44
510.103	94.44
510.319	103.44
510.536	100.44
510.752	100.44
510.968	102.44
511.184	106.44
511.401	87.44
511.617	82.44
511.833	104.44
512.049	105.44
512.265	85.44
512.481	92.44
512.698	103.44
512.914	99.44
513.13	96.44
513.346	103.44
513.562	89.44
513.778	104.44
513.994	91.44
514.21	106.44
514.426	104.44
514.642	101.44
514.858	96.44
515.074	101.44
515.29	100.44
515.506	100.44
