Data from Location5.07152019.Energy5.Lamp.07192019.3%Agarose_HRD10591_16-05-18-629.txt Node
Date: Fri Jul 19 16:05:18 EDT 2019
User: cochatt
Spectrometer: HR+D1059
Trigger mode: 1
Integration Time (sec): 1.000000E-1
Scans to average: 1
Electric dark correction enabled: true
Nonlinearity correction enabled: false
Boxcar width: 0
XAxis mode: Wavelengths
Number of Pixels in Spectrum: 2048
>>>>>Begin Spectral Data<<<<<
223.165	-9.94
223.4	-9.94
223.635	-9.94
223.869	-23.94
224.104	-23.94
224.338	-16.94
224.573	-25.94
224.808	0.06
225.042	-1.94
225.277	14.06
225.511	-10.94
225.746	3.06
225.98	6.06
226.215	8.06
226.449	18.06
226.683	22.06
226.918	25.06
227.152	17.06
227.387	34.06
227.621	47.06
227.856	57.06
228.09	41.06
228.324	67.06
228.559	58.06
228.793	55.06
229.027	59.06
229.262	58.06
229.496	63.06
229.73	75.06
229.964	63.06
230.199	66.06
230.433	83.06
230.667	72.06
230.901	73.06
231.136	86.06
231.37	75.06
231.604	76.06
231.838	74.06
232.072	93.06
232.306	88.06
232.541	82.06
232.775	94.06
233.009	92.06
233.243	72.06
233.477	85.06
233.711	89.06
233.945	73.06
234.179	77.06
234.413	85.06
234.647	86.06
234.881	81.06
235.115	82.06
235.349	70.06
235.583	72.06
235.817	83.06
236.051	81.06
236.285	65.06
236.519	70.06
236.753	87.06
236.987	88.06
237.221	81.06
237.455	82.06
237.689	69.06
237.922	82.06
238.156	79.06
238.39	70.06
238.624	77.06
238.858	85.06
239.091	76.06
239.325	94.06
239.559	73.06
239.793	95.06
240.027	83.06
240.26	70.06
240.494	89.06
240.728	78.06
240.961	68.06
241.195	78.06
241.429	80.06
241.662	71.06
241.896	76.06
242.13	76.06
242.363	83.06
242.597	66.06
242.83	83.06
243.064	64.06
243.298	86.06
243.531	84.06
243.765	88.06
243.998	86.06
244.232	73.06
244.465	68.06
244.699	70.06
244.932	70.06
245.166	84.06
245.399	90.06
245.633	79.06
245.866	78.06
246.099	81.06
246.333	78.06
246.566	66.06
246.8	79.06
247.033	71.06
247.266	64.06
247.5	81.06
247.733	85.06
247.966	78.06
248.2	71.06
248.433	90.06
248.666	83.06
248.899	89.06
249.133	83.06
249.366	71.06
249.599	82.06
249.832	91.06
250.066	96.06
250.299	72.06
250.532	83.06
250.765	83.06
250.998	65.06
251.231	80.06
251.465	86.06
251.698	86.06
251.931	74.06
252.164	85.06
252.397	80.06
252.63	84.06
252.863	85.06
253.096	78.06
253.329	95.06
253.562	75.06
253.795	88.06
254.028	77.06
254.261	83.06
254.494	84.06
254.727	74.06
254.96	82.06
255.193	94.06
255.426	59.06
255.659	68.06
255.892	80.06
256.124	82.06
256.357	87.06
256.59	91.06
256.823	76.06
257.056	75.06
257.289	80.06
257.521	76.06
257.754	77.06
257.987	95.06
258.22	56.06
258.452	74.06
258.685	92.06
258.918	90.06
259.151	74.06
259.383	81.06
259.616	72.06
259.849	78.06
260.081	80.06
260.314	86.06
260.547	89.06
260.779	84.06
261.012	83.06
261.244	71.06
261.477	92.06
261.71	87.06
261.942	88.06
262.175	73.06
262.407	64.06
262.64	90.06
262.872	76.06
263.105	88.06
263.337	76.06
263.57	82.06
263.802	81.06
264.035	100.06
264.267	93.06
264.499	91.06
264.732	91.06
264.964	92.06
265.197	84.06
265.429	90.06
265.661	78.06
265.894	72.06
266.126	85.06
266.358	82.06
266.591	83.06
266.823	88.06
267.055	81.06
267.287	89.06
267.52	77.06
267.752	90.06
267.984	98.06
268.216	82.06
268.448	92.06
268.681	88.06
268.913	75.06
269.145	89.06
269.377	91.06
269.609	83.06
269.841	75.06
270.073	83.06
270.306	86.06
270.538	94.06
270.77	80.06
271.002	92.06
271.234	105.06
271.466	85.06
271.698	82.06
271.93	74.06
272.162	90.06
272.394	87.06
272.626	88.06
272.858	90.06
273.09	76.06
273.322	85.06
273.553	87.06
273.785	71.06
274.017	71.06
274.249	79.06
274.481	79.06
274.713	91.06
274.945	86.06
275.176	71.06
275.408	86.06
275.64	90.06
275.872	80.06
276.104	80.06
276.335	93.06
276.567	94.06
276.799	69.06
277.031	72.06
277.262	90.06
277.494	98.06
277.726	98.06
277.957	96.06
278.189	100.06
278.421	89.06
278.652	89.06
278.884	86.06
279.115	88.06
279.347	74.06
279.579	91.06
279.81	94.06
280.042	96.06
280.273	94.06
280.505	98.06
280.736	81.06
280.968	104.06
281.199	84.06
281.431	101.06
281.662	84.06
281.894	85.06
282.125	88.06
282.356	83.06
282.588	89.06
282.819	88.06
283.051	80.06
283.282	73.06
283.513	74.06
283.745	80.06
283.976	90.06
284.207	95.06
284.439	90.06
284.67	88.06
284.901	90.06
285.132	99.06
285.364	89.06
285.595	80.06
285.826	92.06
286.057	97.06
286.288	93.06
286.52	88.06
286.751	79.06
286.982	82.06
287.213	94.06
287.444	98.06
287.675	89.06
287.906	94.06
288.138	97.06
288.369	79.06
288.6	72.06
288.831	86.06
289.062	82.06
289.293	91.06
289.524	96.06
289.755	85.06
289.986	88.06
290.217	76.06
290.448	84.06
290.679	85.06
290.91	85.06
291.141	77.06
291.371	86.06
291.602	92.06
291.833	86.06
292.064	96.06
292.295	83.06
292.526	91.06
292.757	80.06
292.987	90.06
293.218	93.06
293.449	72.06
293.68	84.06
293.91	93.06
294.141	81.06
294.372	83.06
294.603	76.06
294.833	87.06
295.064	74.06
295.295	83.06
295.525	98.06
295.756	118.06
295.987	91.06
296.217	95.06
296.448	86.06
296.679	87.06
296.909	82.06
297.14	89.06
297.37	78.06
297.601	104.06
297.831	98.06
298.062	85.06
298.292	81.06
298.523	79.06
298.753	74.06
298.984	89.06
299.214	85.06
299.445	86.06
299.675	83.06
299.905	79.06
300.136	83.06
300.366	84.06
300.597	82.06
300.827	91.06
301.057	91.06
301.288	94.06
301.518	89.06
301.748	85.06
301.979	92.06
302.209	77.06
302.439	82.06
302.669	79.06
302.9	88.06
303.13	73.06
303.36	77.06
303.59	90.06
303.82	72.06
304.051	79.06
304.281	92.06
304.511	99.06
304.741	96.06
304.971	86.06
305.201	86.06
305.431	83.06
305.661	86.06
305.891	91.06
306.121	81.06
306.352	83.06
306.582	88.06
306.812	94.06
307.042	82.06
307.272	82.06
307.502	93.06
307.731	95.06
307.961	85.06
308.191	76.06
308.421	85.06
308.651	81.06
308.881	82.06
309.111	89.06
309.341	87.06
309.571	83.06
309.8	93.06
310.03	86.06
310.26	99.06
310.49	96.06
310.72	87.06
310.949	101.06
311.179	79.06
311.409	80.06
311.639	119.06
311.868	86.06
312.098	97.06
312.328	82.06
312.557	87.06
312.787	95.06
313.017	98.06
313.246	87.06
313.476	99.06
313.706	91.06
313.935	86.06
314.165	88.06
314.394	83.06
314.624	89.06
314.853	89.06
315.083	96.06
315.312	81.06
315.542	74.06
315.771	80.06
316.001	88.06
316.23	93.06
316.46	88.06
316.689	80.06
316.919	92.06
317.148	82.06
317.377	91.06
317.607	91.06
317.836	87.06
318.065	75.06
318.295	95.06
318.524	84.06
318.753	103.06
318.983	88.06
319.212	86.06
319.441	82.06
319.67	88.06
319.9	89.06
320.129	81.06
320.358	89.06
320.587	82.06
320.816	84.06
321.046	96.06
321.275	85.06
321.504	82.06
321.733	79.06
321.962	87.06
322.191	86.06
322.42	89.06
322.649	94.06
322.878	93.06
323.108	92.06
323.337	79.06
323.566	92.06
323.795	86.06
324.024	80.06
324.253	87.06
324.482	85.06
324.71	78.06
324.939	93.06
325.168	87.06
325.397	86.06
325.626	89.06
325.855	95.06
326.084	101.06
326.313	77.06
326.542	102.06
326.77	87.06
326.999	95.06
327.228	81.06
327.457	108.06
327.686	89.06
327.914	92.06
328.143	96.06
328.372	91.06
328.6	87.06
328.829	94.06
329.058	95.06
329.287	80.06
329.515	88.06
329.744	90.06
329.972	94.06
330.201	100.06
330.43	99.06
330.658	85.06
330.887	93.06
331.115	88.06
331.344	93.06
331.572	84.06
331.801	94.06
332.03	88.06
332.258	81.06
332.486	95.06
332.715	89.06
332.943	90.06
333.172	99.06
333.4	85.06
333.629	88.06
333.857	89.06
334.085	91.06
334.314	89.06
334.542	93.06
334.771	94.06
334.999	93.06
335.227	83.06
335.455	94.06
335.684	95.06
335.912	97.06
336.14	103.06
336.369	94.06
336.597	86.06
336.825	89.06
337.053	91.06
337.281	89.06
337.51	91.06
337.738	80.06
337.966	90.06
338.194	86.06
338.422	80.06
338.65	90.06
338.878	90.06
339.106	85.06
339.334	86.06
339.562	87.06
339.79	85.06
340.018	81.06
340.246	71.06
340.474	81.06
340.702	97.06
340.93	89.06
341.158	87.06
341.386	79.06
341.614	70.06
341.842	91.06
342.07	99.06
342.298	81.06
342.526	98.06
342.754	85.06
342.981	81.06
343.209	101.06
343.437	90.06
343.665	83.06
343.893	88.06
344.12	96.06
344.348	86.06
344.576	98.06
344.804	91.06
345.031	79.06
345.259	84.06
345.487	84.06
345.714	98.06
345.942	86.06
346.17	85.06
346.397	85.06
346.625	88.06
346.853	98.06
347.08	84.06
347.308	85.06
347.535	96.06
347.763	91.06
347.99	92.06
348.218	84.06
348.445	79.06
348.673	81.06
348.9	94.06
349.128	88.06
349.355	80.06
349.583	90.06
349.81	90.06
350.037	75.06
350.265	96.06
350.492	91.06
350.72	92.06
350.947	94.06
351.174	102.06
351.402	86.06
351.629	92.06
351.856	95.06
352.083	83.06
352.311	75.06
352.538	92.06
352.765	101.06
352.992	99.06
353.22	95.06
353.447	71.06
353.674	101.06
353.901	81.06
354.128	93.06
354.355	83.06
354.583	67.06
354.81	82.06
355.037	76.06
355.264	82.06
355.491	74.06
355.718	99.06
355.945	84.06
356.172	86.06
356.399	92.06
356.626	100.06
356.853	89.06
357.08	85.06
357.307	86.06
357.534	93.06
357.761	90.06
357.988	116.06
358.215	91.06
358.441	84.06
358.668	83.06
358.895	97.06
359.122	83.06
359.349	85.06
359.576	83.06
359.802	83.06
360.029	92.06
360.256	88.06
360.483	86.06
360.709	83.06
360.936	80.06
361.163	97.06
361.39	86.06
361.616	86.06
361.843	86.06
362.07	94.06
362.296	74.06
362.523	80.06
362.749	86.06
362.976	98.06
363.203	99.06
363.429	89.06
363.656	91.06
363.882	102.06
364.109	99.06
364.335	99.06
364.562	92.06
364.788	102.06
365.015	87.06
365.241	73.06
365.468	83.06
365.694	96.06
365.92	98.06
366.147	98.06
366.373	83.06
366.599	96.06
366.826	94.06
367.052	93.06
367.278	97.06
367.505	87.06
367.731	100.06
367.957	87.06
368.184	86.06
368.41	103.06
368.636	92.06
368.862	87.06
369.089	92.06
369.315	105.06
369.541	84.06
369.767	94.06
369.993	105.06
370.219	88.06
370.445	85.06
370.672	83.06
370.898	94.06
371.124	79.06
371.35	88.06
371.576	91.06
371.802	88.06
372.028	90.06
372.254	77.06
372.48	70.06
372.706	72.06
372.932	88.06
373.158	87.06
373.384	94.06
373.61	86.06
373.835	106.06
374.061	91.06
374.287	83.06
374.513	82.06
374.739	89.06
374.965	90.06
375.191	92.06
375.416	89.06
375.642	83.06
375.868	88.06
376.094	105.06
376.319	83.06
376.545	85.06
376.771	95.06
376.997	115.06
377.222	90.06
377.448	96.06
377.674	81.06
377.899	78.06
378.125	89.06
378.35	98.06
378.576	90.06
378.802	103.06
379.027	85.06
379.253	90.06
379.478	84.06
379.704	87.06
379.929	103.06
380.155	94.06
380.38	97.06
380.606	112.06
380.831	76.06
381.057	96.06
381.282	97.06
381.507	98.06
381.733	87.06
381.958	76.06
382.184	85.06
382.409	75.06
382.634	91.06
382.86	88.06
383.085	82.06
383.31	87.06
383.535	85.06
383.761	96.06
383.986	95.06
384.211	88.06
384.436	94.06
384.662	83.06
384.887	95.06
385.112	79.06
385.337	80.06
385.562	79.06
385.787	83.06
386.013	92.06
386.238	86.06
386.463	96.06
386.688	88.06
386.913	104.06
387.138	94.06
387.363	94.06
387.588	95.06
387.813	82.06
388.038	105.06
388.263	94.06
388.488	86.06
388.713	94.06
388.938	90.06
389.163	94.06
389.387	88.06
389.612	71.06
389.837	84.06
390.062	94.06
390.287	89.06
390.512	95.06
390.736	100.06
390.961	91.06
391.186	94.06
391.411	81.06
391.636	89.06
391.86	83.06
392.085	93.06
392.31	90.06
392.534	98.06
392.759	93.06
392.984	90.06
393.208	91.06
393.433	88.06
393.658	96.06
393.882	104.06
394.107	100.06
394.331	91.06
394.556	84.06
394.78	83.06
395.005	94.06
395.229	83.06
395.454	94.06
395.678	103.06
395.903	86.06
396.127	78.06
396.352	104.06
396.576	99.06
396.801	90.06
397.025	87.06
397.249	92.06
397.474	77.06
397.698	80.06
397.922	83.06
398.147	85.06
398.371	90.06
398.595	92.06
398.82	112.06
399.044	114.06
399.268	87.06
399.492	106.06
399.717	105.06
399.941	104.06
400.165	100.06
400.389	100.06
400.613	80.06
400.837	101.06
401.062	84.06
401.286	83.06
401.51	93.06
401.734	93.06
401.958	86.06
402.182	87.06
402.406	82.06
402.63	94.06
402.854	107.06
403.078	91.06
403.302	96.06
403.526	102.06
403.75	89.06
403.974	96.06
404.198	95.06
404.422	105.06
404.645	106.06
404.869	93.06
405.093	75.06
405.317	96.06
405.541	84.06
405.765	79.06
405.988	90.06
406.212	89.06
406.436	89.06
406.66	97.06
406.883	94.06
407.107	100.06
407.331	99.06
407.555	89.06
407.778	91.06
408.002	92.06
408.226	81.06
408.449	90.06
408.673	106.06
408.896	102.06
409.12	99.06
409.344	94.06
409.567	80.06
409.791	81.06
410.014	92.06
410.238	88.06
410.461	97.06
410.685	107.06
410.908	86.06
411.132	99.06
411.355	99.06
411.578	82.06
411.802	78.06
412.025	97.06
412.249	102.06
412.472	98.06
412.695	100.06
412.919	108.06
413.142	89.06
413.365	86.06
413.589	96.06
413.812	91.06
414.035	79.06
414.258	83.06
414.482	81.06
414.705	96.06
414.928	97.06
415.151	86.06
415.374	77.06
415.597	97.06
415.821	102.06
416.044	71.06
416.267	112.06
416.49	98.06
416.713	105.06
416.936	91.06
417.159	91.06
417.382	95.06
417.605	90.06
417.828	107.06
418.051	102.06
418.274	87.06
418.497	98.06
418.72	95.06
418.943	85.06
419.166	83.06
419.389	93.06
419.611	103.06
419.834	102.06
420.057	97.06
420.28	99.06
420.503	88.06
420.726	81.06
420.948	87.06
421.171	99.06
421.394	97.06
421.617	88.06
421.839	98.06
422.062	82.06
422.285	89.06
422.507	97.06
422.73	98.06
422.953	96.06
423.175	82.06
423.398	112.06
423.621	99.06
423.843	86.06
424.066	94.06
424.288	88.06
424.511	101.06
424.733	97.06
424.956	91.06
425.178	96.06
425.401	98.06
425.623	100.06
425.846	85.06
426.068	85.06
426.291	86.06
426.513	86.06
426.735	76.06
426.958	86.06
427.18	92.06
427.402	83.06
427.625	91.06
427.847	84.06
428.069	94.06
428.292	96.06
428.514	97.06
428.736	98.06
428.958	93.06
429.181	91.06
429.403	80.06
429.625	90.06
429.847	93.06
430.069	96.06
430.292	94.06
430.514	99.06
430.736	96.06
430.958	83.06
431.18	86.06
431.402	96.06
431.624	82.06
431.846	98.06
432.068	90.06
432.29	103.06
432.512	103.06
432.734	80.06
432.956	85.06
433.178	72.06
433.4	112.06
433.622	103.06
433.844	90.06
434.066	83.06
434.287	75.06
434.509	82.06
434.731	94.06
434.953	88.06
435.175	90.06
435.397	96.06
435.618	104.06
435.84	87.06
436.062	87.06
436.284	98.06
436.505	90.06
436.727	89.06
436.949	79.06
437.17	97.06
437.392	92.06
437.614	89.06
437.835	94.06
438.057	110.06
438.278	101.06
438.5	83.06
438.721	108.06
438.943	90.06
439.165	84.06
439.386	95.06
439.608	96.06
439.829	98.06
440.05	103.06
440.272	95.06
440.493	85.06
440.715	95.06
440.936	105.06
441.158	86.06
441.379	83.06
441.6	82.06
441.822	96.06
442.043	96.06
442.264	94.06
442.486	80.06
442.707	87.06
442.928	84.06
443.149	96.06
443.371	101.06
443.592	106.06
443.813	101.06
444.034	100.06
444.255	93.06
444.476	92.06
444.698	79.06
444.919	81.06
445.14	217.06
445.361	146.06
445.582	106.06
445.803	90.06
446.024	87.06
446.245	103.06
446.466	98.06
446.687	96.06
446.908	97.06
447.129	87.06
447.35	89.06
447.571	88.06
447.792	95.06
448.013	89.06
448.234	86.06
448.455	95.06
448.675	90.06
448.896	90.06
449.117	73.06
449.338	82.06
449.559	84.06
449.779	84.06
450	98.06
450.221	95.06
450.442	87.06
450.662	87.06
450.883	93.06
451.104	96.06
451.324	100.06
451.545	87.06
451.766	93.06
451.986	92.06
452.207	71.06
452.428	89.06
452.648	95.06
452.869	97.06
453.089	90.06
453.31	97.06
453.53	91.06
453.751	86.06
453.971	80.06
454.192	82.06
454.412	83.06
454.633	83.06
454.853	94.06
455.073	94.06
455.294	83.06
455.514	89.06
455.734	94.06
455.955	83.06
456.175	94.06
456.395	92.06
456.616	84.06
456.836	100.06
457.056	92.06
457.276	99.06
457.497	94.06
457.717	79.06
457.937	75.06
458.157	83.06
458.377	86.06
458.598	81.06
458.818	92.06
459.038	93.06
459.258	95.06
459.478	90.06
459.698	87.06
459.918	71.06
460.138	96.06
460.358	94.06
460.578	85.06
460.798	95.06
461.018	102.06
461.238	112.06
461.458	97.06
461.678	86.06
461.898	82.06
462.118	91.06
462.338	89.06
462.558	79.06
462.777	87.06
462.997	94.06
463.217	102.06
463.437	94.06
463.657	102.06
463.876	101.06
464.096	97.06
464.316	110.06
464.536	97.06
464.755	105.06
464.975	95.06
465.195	104.06
465.414	85.06
465.634	91.06
465.854	100.06
466.073	96.06
466.293	86.06
466.512	90.06
466.732	88.06
466.951	80.06
467.171	88.06
467.391	83.06
467.61	89.06
467.829	88.06
468.049	98.06
468.268	79.06
468.488	98.06
468.707	99.06
468.927	81.06
469.146	79.06
469.365	96.06
469.585	95.06
469.804	95.06
470.023	95.06
470.243	91.06
470.462	88.06
470.681	113.06
470.901	92.06
471.12	95.06
471.339	104.06
471.558	95.06
471.777	92.06
471.997	91.06
472.216	109.06
472.435	93.06
472.654	95.06
472.873	90.06
473.092	92.06
473.311	84.06
473.53	87.06
473.749	101.06
473.968	92.06
474.187	102.06
474.406	84.06
474.625	100.06
474.844	94.06
475.063	80.06
475.282	91.06
475.501	87.06
475.72	105.06
475.939	87.06
476.158	83.06
476.377	87.06
476.596	84.06
476.814	93.06
477.033	83.06
477.252	97.06
477.471	87.06
477.69	95.06
477.908	87.06
478.127	106.06
478.346	103.06
478.564	83.06
478.783	83.06
479.002	99.06
479.22	99.06
479.439	100.06
479.658	102.06
479.876	92.06
480.095	91.06
480.313	110.06
480.532	110.06
480.751	100.06
480.969	103.06
481.188	102.06
481.406	82.06
481.624	88.06
481.843	99.06
482.061	96.06
482.28	100.06
482.498	100.06
482.717	90.06
482.935	102.06
483.153	116.06
483.372	84.06
483.59	94.06
483.808	106.06
484.027	103.06
484.245	97.06
484.463	88.06
484.681	115.06
484.9	105.06
485.118	90.06
485.336	107.06
485.554	93.06
485.772	93.06
485.99	91.06
486.209	83.06
486.427	102.06
486.645	87.06
486.863	99.06
487.081	97.06
487.299	96.06
487.517	97.06
487.735	109.06
487.953	98.06
488.171	105.06
488.389	114.06
488.607	112.06
488.825	95.06
489.043	96.06
489.261	103.06
489.479	102.06
489.696	84.06
489.914	97.06
490.132	92.06
490.35	103.06
490.568	97.06
490.786	106.06
491.003	99.06
491.221	110.06
491.439	92.06
491.657	107.06
491.874	122.06
492.092	114.06
492.31	108.06
492.527	120.06
492.745	114.06
492.963	101.06
493.18	96.06
493.398	99.06
493.615	107.06
493.833	114.06
494.05	114.06
494.268	106.06
494.485	112.06
494.703	112.06
494.92	110.06
495.138	116.06
495.355	99.06
495.573	115.06
495.79	103.06
496.008	115.06
496.225	112.06
496.442	96.06
496.66	110.06
496.877	104.06
497.094	114.06
497.312	101.06
497.529	101.06
497.746	101.06
497.963	113.06
498.181	104.06
498.398	107.06
498.615	103.06
498.832	125.06
499.049	117.06
499.267	110.06
499.484	111.06
499.701	131.06
499.918	132.06
500.135	131.06
500.352	125.06
500.569	138.06
500.786	155.06
501.003	131.06
501.22	135.06
501.437	119.06
501.654	109.06
501.871	115.06
502.088	112.06
502.305	108.06
502.522	110.06
502.739	123.06
502.956	108.06
503.172	114.06
503.389	108.06
503.606	102.06
503.823	107.06
504.04	111.06
504.256	120.06
504.473	110.06
504.69	102.06
504.907	107.06
505.123	110.06
505.34	108.06
505.557	102.06
505.773	113.06
505.99	92.06
506.207	108.06
506.423	96.06
506.64	102.06
506.856	116.06
507.073	105.06
507.289	101.06
507.506	95.06
507.722	87.06
507.939	81.06
508.155	103.06
508.372	99.06
508.588	116.06
508.805	100.06
509.021	107.06
509.238	95.06
509.454	93.06
509.67	95.06
509.887	97.06
510.103	88.06
510.319	90.06
510.536	112.06
510.752	115.06
510.968	106.06
511.184	98.06
511.401	97.06
511.617	107.06
511.833	93.06
512.049	79.06
512.265	90.06
512.481	94.06
512.698	94.06
512.914	105.06
513.13	105.06
513.346	97.06
513.562	92.06
513.778	79.06
513.994	97.06
514.21	97.06
514.426	98.06
514.642	104.06
514.858	97.06
515.074	105.06
515.29	111.06
515.506	103.06
515.721	95.06
515.937	99.06
516.153	104.06
516.369	111.06
516.585	98.06
