Data from Location5.07152019.Energy5.Lamp.07192019.3%Agarose_HRD10591_15-38-37-388.txt Node
Date: Fri Jul 19 15:38:37 EDT 2019
User: cochatt
Spectrometer: HR+D1059
Trigger mode: 1
Integration Time (sec): 1.000000E-1
Scans to average: 1
Electric dark correction enabled: true
Nonlinearity correction enabled: false
Boxcar width: 0
XAxis mode: Wavelengths
Number of Pixels in Spectrum: 2048
>>>>>Begin Spectral Data<<<<<
223.165	-28.19
223.4	-28.19
223.635	-28.19
223.869	-13.19
224.104	-18.19
224.338	-30.19
224.573	-27.19
224.808	1.81
225.042	-0.19
225.277	-3.19
225.511	-5.19
225.746	13.81
225.98	3.81
226.215	11.81
226.449	6.81
226.683	24.81
226.918	25.81
227.152	36.81
227.387	52.81
227.621	32.81
227.856	47.81
228.09	60.81
228.324	48.81
228.559	46.81
228.793	50.81
229.027	48.81
229.262	74.81
229.496	57.81
229.73	66.81
229.964	77.81
230.199	75.81
230.433	86.81
230.667	78.81
230.901	59.81
231.136	79.81
231.37	76.81
231.604	80.81
231.838	67.81
232.072	59.81
232.306	76.81
232.541	81.81
232.775	81.81
233.009	85.81
233.243	101.81
233.477	82.81
233.711	75.81
233.945	83.81
234.179	86.81
234.413	72.81
234.647	64.81
234.881	69.81
235.115	66.81
235.349	75.81
235.583	73.81
235.817	84.81
236.051	87.81
236.285	76.81
236.519	64.81
236.753	72.81
236.987	81.81
237.221	66.81
237.455	61.81
237.689	75.81
237.922	68.81
238.156	72.81
238.39	70.81
238.624	81.81
238.858	85.81
239.091	82.81
239.325	59.81
239.559	76.81
239.793	74.81
240.027	79.81
240.26	75.81
240.494	64.81
240.728	77.81
240.961	73.81
241.195	89.81
241.429	82.81
241.662	93.81
241.896	71.81
242.13	66.81
242.363	74.81
242.597	84.81
242.83	78.81
243.064	77.81
243.298	73.81
243.531	89.81
243.765	59.81
243.998	80.81
244.232	73.81
244.465	77.81
244.699	82.81
244.932	69.81
245.166	79.81
245.399	71.81
245.633	67.81
245.866	81.81
246.099	80.81
246.333	70.81
246.566	72.81
246.8	77.81
247.033	54.81
247.266	90.81
247.5	76.81
247.733	71.81
247.966	75.81
248.2	84.81
248.433	67.81
248.666	82.81
248.899	82.81
249.133	79.81
249.366	80.81
249.599	90.81
249.832	79.81
250.066	84.81
250.299	65.81
250.532	83.81
250.765	72.81
250.998	74.81
251.231	73.81
251.465	75.81
251.698	92.81
251.931	85.81
252.164	72.81
252.397	72.81
252.63	75.81
252.863	76.81
253.096	72.81
253.329	76.81
253.562	89.81
253.795	74.81
254.028	76.81
254.261	96.81
254.494	78.81
254.727	98.81
254.96	80.81
255.193	84.81
255.426	69.81
255.659	78.81
255.892	68.81
256.124	80.81
256.357	77.81
256.59	66.81
256.823	90.81
257.056	89.81
257.289	83.81
257.521	76.81
257.754	79.81
257.987	86.81
258.22	70.81
258.452	89.81
258.685	90.81
258.918	68.81
259.151	86.81
259.383	86.81
259.616	72.81
259.849	96.81
260.081	90.81
260.314	90.81
260.547	87.81
260.779	96.81
261.012	93.81
261.244	78.81
261.477	77.81
261.71	71.81
261.942	93.81
262.175	86.81
262.407	80.81
262.64	75.81
262.872	88.81
263.105	84.81
263.337	95.81
263.57	86.81
263.802	84.81
264.035	85.81
264.267	80.81
264.499	81.81
264.732	80.81
264.964	71.81
265.197	63.81
265.429	87.81
265.661	90.81
265.894	70.81
266.126	81.81
266.358	72.81
266.591	93.81
266.823	75.81
267.055	84.81
267.287	78.81
267.52	82.81
267.752	79.81
267.984	85.81
268.216	81.81
268.448	67.81
268.681	93.81
268.913	77.81
269.145	86.81
269.377	83.81
269.609	80.81
269.841	64.81
270.073	96.81
270.306	74.81
270.538	81.81
270.77	69.81
271.002	78.81
271.234	80.81
271.466	79.81
271.698	84.81
271.93	92.81
272.162	86.81
272.394	72.81
272.626	76.81
272.858	79.81
273.09	69.81
273.322	86.81
273.553	77.81
273.785	88.81
274.017	81.81
274.249	76.81
274.481	80.81
274.713	94.81
274.945	79.81
275.176	92.81
275.408	83.81
275.64	83.81
275.872	77.81
276.104	81.81
276.335	98.81
276.567	73.81
276.799	76.81
277.031	87.81
277.262	76.81
277.494	85.81
277.726	97.81
277.957	83.81
278.189	83.81
278.421	90.81
278.652	72.81
278.884	87.81
279.115	75.81
279.347	84.81
279.579	84.81
279.81	83.81
280.042	81.81
280.273	78.81
280.505	66.81
280.736	75.81
280.968	80.81
281.199	72.81
281.431	82.81
281.662	84.81
281.894	88.81
282.125	82.81
282.356	67.81
282.588	86.81
282.819	83.81
283.051	80.81
283.282	73.81
283.513	83.81
283.745	86.81
283.976	81.81
284.207	87.81
284.439	79.81
284.67	80.81
284.901	79.81
285.132	75.81
285.364	96.81
285.595	75.81
285.826	90.81
286.057	86.81
286.288	74.81
286.52	92.81
286.751	94.81
286.982	90.81
287.213	88.81
287.444	67.81
287.675	96.81
287.906	90.81
288.138	85.81
288.369	78.81
288.6	95.81
288.831	94.81
289.062	85.81
289.293	71.81
289.524	80.81
289.755	73.81
289.986	83.81
290.217	84.81
290.448	80.81
290.679	72.81
290.91	83.81
291.141	70.81
291.371	83.81
291.602	88.81
291.833	74.81
292.064	82.81
292.295	87.81
292.526	81.81
292.757	96.81
292.987	80.81
293.218	85.81
293.449	90.81
293.68	82.81
293.91	86.81
294.141	91.81
294.372	79.81
294.603	87.81
294.833	82.81
295.064	82.81
295.295	94.81
295.525	84.81
295.756	96.81
295.987	86.81
296.217	71.81
296.448	73.81
296.679	81.81
296.909	64.81
297.14	78.81
297.37	83.81
297.601	68.81
297.831	65.81
298.062	79.81
298.292	83.81
298.523	89.81
298.753	81.81
298.984	80.81
299.214	94.81
299.445	88.81
299.675	89.81
299.905	93.81
300.136	90.81
300.366	74.81
300.597	97.81
300.827	87.81
301.057	80.81
301.288	92.81
301.518	89.81
301.748	88.81
301.979	95.81
302.209	102.81
302.439	72.81
302.669	97.81
302.9	90.81
303.13	70.81
303.36	86.81
303.59	70.81
303.82	90.81
304.051	87.81
304.281	87.81
304.511	80.81
304.741	68.81
304.971	91.81
305.201	83.81
305.431	78.81
305.661	83.81
305.891	82.81
306.121	88.81
306.352	77.81
306.582	80.81
306.812	80.81
307.042	76.81
307.272	92.81
307.502	98.81
307.731	71.81
307.961	90.81
308.191	91.81
308.421	80.81
308.651	79.81
308.881	87.81
309.111	82.81
309.341	79.81
309.571	65.81
309.8	76.81
310.03	80.81
310.26	69.81
310.49	90.81
310.72	84.81
310.949	70.81
311.179	88.81
311.409	85.81
311.639	73.81
311.868	85.81
312.098	74.81
312.328	84.81
312.557	73.81
312.787	92.81
313.017	75.81
313.246	90.81
313.476	78.81
313.706	86.81
313.935	78.81
314.165	90.81
314.394	82.81
314.624	83.81
314.853	75.81
315.083	83.81
315.312	86.81
315.542	87.81
315.771	89.81
316.001	73.81
316.23	86.81
316.46	77.81
316.689	86.81
316.919	75.81
317.148	105.81
317.377	90.81
317.607	82.81
317.836	72.81
318.065	78.81
318.295	74.81
318.524	91.81
318.753	76.81
318.983	89.81
319.212	73.81
319.441	76.81
319.67	80.81
319.9	88.81
320.129	76.81
320.358	87.81
320.587	75.81
320.816	80.81
321.046	74.81
321.275	80.81
321.504	76.81
321.733	80.81
321.962	81.81
322.191	83.81
322.42	89.81
322.649	83.81
322.878	72.81
323.108	77.81
323.337	87.81
323.566	89.81
323.795	92.81
324.024	92.81
324.253	82.81
324.482	96.81
324.71	80.81
324.939	93.81
325.168	77.81
325.397	90.81
325.626	90.81
325.855	87.81
326.084	67.81
326.313	90.81
326.542	82.81
326.77	70.81
326.999	89.81
327.228	77.81
327.457	85.81
327.686	85.81
327.914	87.81
328.143	95.81
328.372	81.81
328.6	87.81
328.829	82.81
329.058	70.81
329.287	76.81
329.515	76.81
329.744	87.81
329.972	66.81
330.201	70.81
330.43	75.81
330.658	82.81
330.887	87.81
331.115	90.81
331.344	84.81
331.572	90.81
331.801	62.81
332.03	77.81
332.258	85.81
332.486	87.81
332.715	79.81
332.943	72.81
333.172	86.81
333.4	77.81
333.629	77.81
333.857	82.81
334.085	75.81
334.314	97.81
334.542	90.81
334.771	86.81
334.999	95.81
335.227	103.81
335.455	79.81
335.684	78.81
335.912	75.81
336.14	72.81
336.369	82.81
336.597	89.81
336.825	75.81
337.053	89.81
337.281	77.81
337.51	72.81
337.738	75.81
337.966	91.81
338.194	83.81
338.422	88.81
338.65	114.81
338.878	81.81
339.106	65.81
339.334	86.81
339.562	86.81
339.79	86.81
340.018	91.81
340.246	80.81
340.474	80.81
340.702	79.81
340.93	77.81
341.158	77.81
341.386	76.81
341.614	85.81
341.842	70.81
342.07	91.81
342.298	79.81
342.526	85.81
342.754	73.81
342.981	82.81
343.209	79.81
343.437	86.81
343.665	79.81
343.893	73.81
344.12	79.81
344.348	84.81
344.576	79.81
344.804	94.81
345.031	80.81
345.259	87.81
345.487	87.81
345.714	75.81
345.942	74.81
346.17	79.81
346.397	86.81
346.625	88.81
346.853	85.81
347.08	87.81
347.308	79.81
347.535	80.81
347.763	94.81
347.99	83.81
348.218	73.81
348.445	71.81
348.673	96.81
348.9	82.81
349.128	91.81
349.355	73.81
349.583	69.81
349.81	73.81
350.037	95.81
350.265	81.81
350.492	69.81
350.72	79.81
350.947	65.81
351.174	79.81
351.402	75.81
351.629	78.81
351.856	81.81
352.083	87.81
352.311	85.81
352.538	78.81
352.765	80.81
352.992	81.81
353.22	79.81
353.447	72.81
353.674	81.81
353.901	82.81
354.128	63.81
354.355	77.81
354.583	81.81
354.81	78.81
355.037	88.81
355.264	76.81
355.491	89.81
355.718	87.81
355.945	82.81
356.172	83.81
356.399	89.81
356.626	64.81
356.853	75.81
357.08	80.81
357.307	94.81
357.534	93.81
357.761	83.81
357.988	74.81
358.215	85.81
358.441	80.81
358.668	79.81
358.895	78.81
359.122	88.81
359.349	90.81
359.576	79.81
359.802	77.81
360.029	79.81
360.256	74.81
360.483	86.81
360.709	79.81
360.936	83.81
361.163	95.81
361.39	92.81
361.616	90.81
361.843	87.81
362.07	71.81
362.296	75.81
362.523	78.81
362.749	74.81
362.976	93.81
363.203	81.81
363.429	76.81
363.656	80.81
363.882	90.81
364.109	98.81
364.335	82.81
364.562	88.81
364.788	82.81
365.015	86.81
365.241	74.81
365.468	79.81
365.694	82.81
365.92	90.81
366.147	81.81
366.373	78.81
366.599	88.81
366.826	81.81
367.052	93.81
367.278	82.81
367.505	101.81
367.731	81.81
367.957	85.81
368.184	87.81
368.41	81.81
368.636	62.81
368.862	97.81
369.089	93.81
369.315	80.81
369.541	75.81
369.767	91.81
369.993	86.81
370.219	91.81
370.445	89.81
370.672	85.81
370.898	88.81
371.124	86.81
371.35	94.81
371.576	80.81
371.802	89.81
372.028	73.81
372.254	76.81
372.48	81.81
372.706	87.81
372.932	76.81
373.158	78.81
373.384	87.81
373.61	84.81
373.835	86.81
374.061	86.81
374.287	93.81
374.513	90.81
374.739	73.81
374.965	79.81
375.191	72.81
375.416	73.81
375.642	97.81
375.868	87.81
376.094	83.81
376.319	79.81
376.545	90.81
376.771	102.81
376.997	87.81
377.222	81.81
377.448	89.81
377.674	89.81
377.899	86.81
378.125	93.81
378.35	84.81
378.576	84.81
378.802	82.81
379.027	84.81
379.253	78.81
379.478	88.81
379.704	84.81
379.929	86.81
380.155	76.81
380.38	85.81
380.606	83.81
380.831	81.81
381.057	78.81
381.282	79.81
381.507	62.81
381.733	81.81
381.958	82.81
382.184	80.81
382.409	81.81
382.634	80.81
382.86	80.81
383.085	81.81
383.31	91.81
383.535	80.81
383.761	76.81
383.986	101.81
384.211	89.81
384.436	80.81
384.662	79.81
384.887	88.81
385.112	81.81
385.337	63.81
385.562	78.81
385.787	95.81
386.013	92.81
386.238	84.81
386.463	77.81
386.688	86.81
386.913	94.81
387.138	97.81
387.363	79.81
387.588	99.81
387.813	82.81
388.038	69.81
388.263	73.81
388.488	79.81
388.713	86.81
388.938	84.81
389.163	87.81
389.387	78.81
389.612	91.81
389.837	88.81
390.062	85.81
390.287	94.81
390.512	73.81
390.736	76.81
390.961	89.81
391.186	71.81
391.411	81.81
391.636	94.81
391.86	89.81
392.085	77.81
392.31	88.81
392.534	102.81
392.759	85.81
392.984	70.81
393.208	75.81
393.433	86.81
393.658	86.81
393.882	95.81
394.107	84.81
394.331	81.81
394.556	84.81
394.78	85.81
395.005	86.81
395.229	97.81
395.454	71.81
395.678	79.81
395.903	87.81
396.127	80.81
396.352	71.81
396.576	76.81
396.801	91.81
397.025	86.81
397.249	86.81
397.474	93.81
397.698	87.81
397.922	92.81
398.147	82.81
398.371	84.81
398.595	91.81
398.82	85.81
399.044	81.81
399.268	90.81
399.492	91.81
399.717	91.81
399.941	84.81
400.165	88.81
400.389	85.81
400.613	89.81
400.837	76.81
401.062	65.81
401.286	97.81
401.51	96.81
401.734	92.81
401.958	83.81
402.182	96.81
402.406	79.81
402.63	80.81
402.854	80.81
403.078	90.81
403.302	83.81
403.526	81.81
403.75	87.81
403.974	84.81
404.198	86.81
404.422	88.81
404.645	88.81
404.869	81.81
405.093	95.81
405.317	85.81
405.541	80.81
405.765	79.81
405.988	83.81
406.212	86.81
406.436	93.81
406.66	87.81
406.883	87.81
407.107	84.81
407.331	87.81
407.555	89.81
407.778	95.81
408.002	82.81
408.226	90.81
408.449	94.81
408.673	84.81
408.896	86.81
409.12	89.81
409.344	80.81
409.567	90.81
409.791	80.81
410.014	75.81
410.238	87.81
410.461	83.81
410.685	83.81
410.908	77.81
411.132	92.81
411.355	105.81
411.578	91.81
411.802	81.81
412.025	80.81
412.249	84.81
412.472	81.81
412.695	79.81
412.919	98.81
413.142	83.81
413.365	94.81
413.589	88.81
413.812	77.81
414.035	83.81
414.258	76.81
414.482	95.81
414.705	89.81
414.928	96.81
415.151	81.81
415.374	102.81
415.597	95.81
415.821	83.81
416.044	90.81
416.267	91.81
416.49	85.81
416.713	102.81
416.936	86.81
417.159	101.81
417.382	88.81
417.605	103.81
417.828	105.81
418.051	101.81
418.274	88.81
418.497	93.81
418.72	86.81
418.943	85.81
419.166	93.81
419.389	96.81
419.611	85.81
419.834	100.81
420.057	81.81
420.28	88.81
420.503	93.81
420.726	101.81
420.948	85.81
421.171	99.81
421.394	99.81
421.617	79.81
421.839	85.81
422.062	91.81
422.285	98.81
422.507	98.81
422.73	82.81
422.953	87.81
423.175	94.81
423.398	85.81
423.621	102.81
423.843	89.81
424.066	85.81
424.288	81.81
424.511	99.81
424.733	90.81
424.956	94.81
425.178	82.81
425.401	94.81
425.623	85.81
425.846	93.81
426.068	87.81
426.291	84.81
426.513	91.81
426.735	93.81
426.958	96.81
427.18	88.81
427.402	99.81
427.625	96.81
427.847	70.81
428.069	83.81
428.292	76.81
428.514	96.81
428.736	95.81
428.958	102.81
429.181	99.81
429.403	85.81
429.625	87.81
429.847	91.81
430.069	88.81
430.292	86.81
430.514	83.81
430.736	105.81
430.958	90.81
431.18	107.81
431.402	96.81
431.624	75.81
431.846	86.81
432.068	89.81
432.29	84.81
432.512	88.81
432.734	90.81
432.956	109.81
433.178	103.81
433.4	96.81
433.622	90.81
433.844	94.81
434.066	99.81
434.287	89.81
434.509	74.81
434.731	84.81
434.953	86.81
435.175	81.81
435.397	80.81
435.618	97.81
435.84	83.81
436.062	103.81
436.284	91.81
436.505	93.81
436.727	93.81
436.949	78.81
437.17	101.81
437.392	111.81
437.614	88.81
437.835	79.81
438.057	79.81
438.278	81.81
438.5	86.81
438.721	95.81
438.943	94.81
439.165	94.81
439.386	94.81
439.608	92.81
439.829	85.81
440.05	101.81
440.272	97.81
440.493	95.81
440.715	81.81
440.936	91.81
441.158	96.81
441.379	107.81
441.6	110.81
441.822	89.81
442.043	98.81
442.264	95.81
442.486	106.81
442.707	106.81
442.928	86.81
443.149	84.81
443.371	113.81
443.592	96.81
443.813	103.81
444.034	106.81
444.255	99.81
444.476	93.81
444.698	98.81
444.919	89.81
445.14	204.81
445.361	138.81
445.582	102.81
445.803	96.81
446.024	100.81
446.245	93.81
446.466	94.81
446.687	103.81
446.908	89.81
447.129	101.81
447.35	91.81
447.571	101.81
447.792	90.81
448.013	91.81
448.234	99.81
448.455	112.81
448.675	101.81
448.896	107.81
449.117	86.81
449.338	102.81
449.559	89.81
449.779	94.81
450	74.81
450.221	101.81
450.442	81.81
450.662	99.81
450.883	97.81
451.104	87.81
451.324	92.81
451.545	90.81
451.766	99.81
451.986	88.81
452.207	74.81
452.428	86.81
452.648	96.81
452.869	82.81
453.089	93.81
453.31	94.81
453.53	97.81
453.751	94.81
453.971	83.81
454.192	91.81
454.412	82.81
454.633	86.81
454.853	93.81
455.073	87.81
455.294	83.81
455.514	86.81
455.734	90.81
455.955	90.81
456.175	89.81
456.395	79.81
456.616	76.81
456.836	92.81
457.056	102.81
457.276	93.81
457.497	82.81
457.717	78.81
457.937	102.81
458.157	83.81
458.377	82.81
458.598	75.81
458.818	82.81
459.038	83.81
459.258	81.81
459.478	76.81
459.698	78.81
459.918	74.81
460.138	83.81
460.358	87.81
460.578	72.81
460.798	86.81
461.018	72.81
461.238	87.81
461.458	96.81
461.678	88.81
461.898	83.81
462.118	92.81
462.338	86.81
462.558	97.81
462.777	95.81
462.997	96.81
463.217	91.81
463.437	99.81
463.657	86.81
463.876	82.81
464.096	83.81
464.316	83.81
464.536	88.81
464.755	87.81
464.975	84.81
465.195	76.81
465.414	91.81
465.634	96.81
465.854	94.81
466.073	90.81
466.293	96.81
466.512	101.81
466.732	92.81
466.951	88.81
467.171	73.81
467.391	91.81
467.61	102.81
467.829	101.81
468.049	100.81
468.268	91.81
468.488	93.81
468.707	103.81
468.927	97.81
469.146	100.81
469.365	89.81
469.585	90.81
469.804	100.81
470.023	95.81
470.243	91.81
470.462	102.81
470.681	93.81
470.901	81.81
471.12	87.81
471.339	104.81
471.558	97.81
471.777	98.81
471.997	93.81
472.216	96.81
472.435	99.81
472.654	88.81
472.873	82.81
473.092	102.81
473.311	96.81
473.53	88.81
473.749	89.81
473.968	88.81
474.187	89.81
474.406	91.81
474.625	92.81
474.844	114.81
475.063	91.81
475.282	85.81
475.501	72.81
475.72	93.81
475.939	87.81
476.158	91.81
476.377	92.81
476.596	90.81
476.814	86.81
477.033	80.81
477.252	100.81
477.471	83.81
477.69	94.81
477.908	94.81
478.127	87.81
478.346	98.81
478.564	93.81
478.783	103.81
479.002	104.81
479.22	90.81
479.439	93.81
479.658	100.81
479.876	88.81
480.095	78.81
480.313	87.81
480.532	89.81
480.751	95.81
480.969	80.81
481.188	83.81
481.406	84.81
481.624	63.81
481.843	74.81
482.061	69.81
482.28	97.81
482.498	87.81
482.717	94.81
482.935	83.81
483.153	114.81
483.372	110.81
483.59	91.81
483.808	86.81
484.027	101.81
484.245	98.81
484.463	102.81
484.681	101.81
484.9	102.81
485.118	80.81
485.336	101.81
485.554	97.81
485.772	93.81
485.99	89.81
486.209	90.81
486.427	81.81
486.645	92.81
486.863	88.81
487.081	86.81
487.299	98.81
487.517	89.81
487.735	92.81
487.953	91.81
488.171	100.81
488.389	84.81
488.607	103.81
488.825	99.81
489.043	107.81
489.261	92.81
489.479	94.81
489.696	96.81
489.914	99.81
490.132	99.81
490.35	83.81
490.568	106.81
490.786	102.81
491.003	112.81
491.221	92.81
491.439	101.81
491.657	111.81
491.874	98.81
492.092	127.81
492.31	113.81
492.527	119.81
492.745	116.81
492.963	114.81
493.18	105.81
493.398	98.81
493.615	99.81
493.833	113.81
494.05	107.81
494.268	106.81
494.485	94.81
494.703	97.81
494.92	94.81
495.138	90.81
495.355	107.81
495.573	103.81
495.79	95.81
496.008	109.81
496.225	113.81
496.442	103.81
496.66	106.81
496.877	101.81
497.094	96.81
497.312	103.81
497.529	97.81
497.746	97.81
497.963	104.81
498.181	107.81
498.398	88.81
498.615	93.81
498.832	99.81
499.049	97.81
499.267	100.81
499.484	90.81
499.701	90.81
499.918	104.81
500.135	87.81
500.352	94.81
500.569	106.81
500.786	93.81
501.003	89.81
501.22	100.81
501.437	85.81
501.654	89.81
501.871	95.81
502.088	90.81
502.305	91.81
502.522	91.81
502.739	87.81
502.956	97.81
503.172	100.81
503.389	96.81
503.606	109.81
503.823	84.81
504.04	93.81
504.256	94.81
504.473	102.81
504.69	106.81
504.907	98.81
505.123	87.81
505.34	98.81
505.557	88.81
505.773	91.81
505.99	99.81
506.207	90.81
506.423	90.81
506.64	74.81
506.856	97.81
507.073	74.81
507.289	96.81
507.506	101.81
507.722	104.81
507.939	89.81
508.155	97.81
508.372	86.81
508.588	87.81
508.805	85.81
509.021	86.81
509.238	86.81
509.454	82.81
509.67	76.81
509.887	86.81
510.103	83.81
510.319	86.81
510.536	85.81
510.752	81.81
510.968	72.81
511.184	81.81
511.401	79.81
511.617	88.81
511.833	71.81
512.049	81.81
512.265	83.81
512.481	81.81
512.698	87.81
512.914	84.81
513.13	83.81
513.346	73.81
513.562	97.81
513.778	88.81
513.994	90.81
514.21	87.81
514.426	93.81
514.642	72.81
514.858	85.81
515.074	99.81
515.29	93.81
515.506	84.81
515.721	86.81
515.937	90.81
516.153	85.81
516.369	75.81
516.585	79.81
516.801	89.81
517.016	82.81
517.232	77.81
517.448	86.81
517.664	63.81
517.879	92.81
518.095	69.81
