Data from Location5.07152019.Energy5.Lamp.07192019.3%Agarose_HRD10591_15-36-34-388.txt Node
Date: Fri Jul 19 15:36:34 EDT 2019
User: cochatt
Spectrometer: HR+D1059
Trigger mode: 1
Integration Time (sec): 1.000000E-1
Scans to average: 1
Electric dark correction enabled: true
Nonlinearity correction enabled: false
Boxcar width: 0
XAxis mode: Wavelengths
Number of Pixels in Spectrum: 2048
>>>>>Begin Spectral Data<<<<<
223.165	-13.06
223.4	-13.06
223.635	-13.06
223.869	-11.06
224.104	-25.06
224.338	-12.06
224.573	-18.06
224.808	-20.06
225.042	-13.06
225.277	10.94
225.511	-11.06
225.746	7.94
225.98	5.94
226.215	7.94
226.449	8.94
226.683	21.94
226.918	24.94
227.152	34.94
227.387	21.94
227.621	27.94
227.856	45.94
228.09	42.94
228.324	39.94
228.559	63.94
228.793	68.94
229.027	52.94
229.262	71.94
229.496	70.94
229.73	65.94
229.964	58.94
230.199	98.94
230.433	82.94
230.667	59.94
230.901	73.94
231.136	86.94
231.37	77.94
231.604	81.94
231.838	86.94
232.072	90.94
232.306	74.94
232.541	74.94
232.775	74.94
233.009	71.94
233.243	74.94
233.477	70.94
233.711	74.94
233.945	84.94
234.179	88.94
234.413	87.94
234.647	82.94
234.881	66.94
235.115	65.94
235.349	77.94
235.583	81.94
235.817	75.94
236.051	80.94
236.285	73.94
236.519	82.94
236.753	71.94
236.987	89.94
237.221	88.94
237.455	73.94
237.689	90.94
237.922	72.94
238.156	77.94
238.39	70.94
238.624	77.94
238.858	72.94
239.091	83.94
239.325	89.94
239.559	74.94
239.793	69.94
240.027	74.94
240.26	79.94
240.494	73.94
240.728	75.94
240.961	76.94
241.195	77.94
241.429	81.94
241.662	63.94
241.896	64.94
242.13	62.94
242.363	61.94
242.597	81.94
242.83	74.94
243.064	64.94
243.298	81.94
243.531	74.94
243.765	79.94
243.998	72.94
244.232	70.94
244.465	64.94
244.699	75.94
244.932	79.94
245.166	65.94
245.399	65.94
245.633	82.94
245.866	86.94
246.099	80.94
246.333	75.94
246.566	77.94
246.8	66.94
247.033	76.94
247.266	55.94
247.5	83.94
247.733	68.94
247.966	89.94
248.2	75.94
248.433	79.94
248.666	87.94
248.899	78.94
249.133	73.94
249.366	85.94
249.599	82.94
249.832	61.94
250.066	84.94
250.299	71.94
250.532	80.94
250.765	75.94
250.998	79.94
251.231	83.94
251.465	83.94
251.698	66.94
251.931	88.94
252.164	71.94
252.397	71.94
252.63	75.94
252.863	76.94
253.096	80.94
253.329	80.94
253.562	65.94
253.795	84.94
254.028	89.94
254.261	69.94
254.494	77.94
254.727	78.94
254.96	86.94
255.193	87.94
255.426	81.94
255.659	66.94
255.892	81.94
256.124	88.94
256.357	83.94
256.59	86.94
256.823	74.94
257.056	77.94
257.289	83.94
257.521	81.94
257.754	82.94
257.987	73.94
258.22	71.94
258.452	66.94
258.685	81.94
258.918	63.94
259.151	83.94
259.383	98.94
259.616	91.94
259.849	81.94
260.081	84.94
260.314	72.94
260.547	86.94
260.779	71.94
261.012	79.94
261.244	80.94
261.477	73.94
261.71	81.94
261.942	75.94
262.175	72.94
262.407	71.94
262.64	67.94
262.872	65.94
263.105	75.94
263.337	82.94
263.57	81.94
263.802	94.94
264.035	70.94
264.267	81.94
264.499	79.94
264.732	78.94
264.964	81.94
265.197	93.94
265.429	83.94
265.661	90.94
265.894	84.94
266.126	84.94
266.358	84.94
266.591	77.94
266.823	83.94
267.055	77.94
267.287	82.94
267.52	81.94
267.752	81.94
267.984	88.94
268.216	85.94
268.448	84.94
268.681	76.94
268.913	85.94
269.145	83.94
269.377	81.94
269.609	77.94
269.841	73.94
270.073	90.94
270.306	83.94
270.538	86.94
270.77	82.94
271.002	90.94
271.234	82.94
271.466	80.94
271.698	84.94
271.93	86.94
272.162	80.94
272.394	93.94
272.626	80.94
272.858	102.94
273.09	80.94
273.322	80.94
273.553	74.94
273.785	77.94
274.017	75.94
274.249	78.94
274.481	79.94
274.713	73.94
274.945	95.94
275.176	93.94
275.408	80.94
275.64	95.94
275.872	84.94
276.104	91.94
276.335	76.94
276.567	82.94
276.799	87.94
277.031	82.94
277.262	79.94
277.494	86.94
277.726	74.94
277.957	79.94
278.189	71.94
278.421	73.94
278.652	77.94
278.884	75.94
279.115	86.94
279.347	78.94
279.579	82.94
279.81	82.94
280.042	69.94
280.273	83.94
280.505	79.94
280.736	84.94
280.968	86.94
281.199	83.94
281.431	72.94
281.662	83.94
281.894	88.94
282.125	73.94
282.356	84.94
282.588	86.94
282.819	82.94
283.051	77.94
283.282	80.94
283.513	86.94
283.745	85.94
283.976	88.94
284.207	79.94
284.439	73.94
284.67	81.94
284.901	94.94
285.132	81.94
285.364	82.94
285.595	94.94
285.826	78.94
286.057	82.94
286.288	79.94
286.52	79.94
286.751	74.94
286.982	80.94
287.213	91.94
287.444	85.94
287.675	86.94
287.906	79.94
288.138	86.94
288.369	82.94
288.6	79.94
288.831	89.94
289.062	86.94
289.293	93.94
289.524	87.94
289.755	84.94
289.986	95.94
290.217	85.94
290.448	88.94
290.679	86.94
290.91	78.94
291.141	91.94
291.371	83.94
291.602	81.94
291.833	85.94
292.064	88.94
292.295	68.94
292.526	88.94
292.757	83.94
292.987	98.94
293.218	91.94
293.449	77.94
293.68	81.94
293.91	71.94
294.141	95.94
294.372	69.94
294.603	81.94
294.833	76.94
295.064	78.94
295.295	82.94
295.525	74.94
295.756	95.94
295.987	85.94
296.217	81.94
296.448	89.94
296.679	85.94
296.909	58.94
297.14	83.94
297.37	84.94
297.601	81.94
297.831	82.94
298.062	80.94
298.292	99.94
298.523	78.94
298.753	95.94
298.984	93.94
299.214	89.94
299.445	84.94
299.675	102.94
299.905	88.94
300.136	71.94
300.366	79.94
300.597	93.94
300.827	89.94
301.057	81.94
301.288	75.94
301.518	84.94
301.748	90.94
301.979	75.94
302.209	81.94
302.439	91.94
302.669	91.94
302.9	91.94
303.13	84.94
303.36	83.94
303.59	85.94
303.82	93.94
304.051	89.94
304.281	85.94
304.511	94.94
304.741	73.94
304.971	90.94
305.201	91.94
305.431	78.94
305.661	80.94
305.891	77.94
306.121	91.94
306.352	87.94
306.582	85.94
306.812	90.94
307.042	83.94
307.272	87.94
307.502	82.94
307.731	93.94
307.961	88.94
308.191	65.94
308.421	89.94
308.651	82.94
308.881	87.94
309.111	80.94
309.341	89.94
309.571	82.94
309.8	79.94
310.03	77.94
310.26	70.94
310.49	79.94
310.72	73.94
310.949	89.94
311.179	86.94
311.409	91.94
311.639	80.94
311.868	96.94
312.098	72.94
312.328	93.94
312.557	97.94
312.787	70.94
313.017	70.94
313.246	80.94
313.476	81.94
313.706	81.94
313.935	72.94
314.165	75.94
314.394	70.94
314.624	71.94
314.853	99.94
315.083	93.94
315.312	93.94
315.542	97.94
315.771	90.94
316.001	69.94
316.23	83.94
316.46	82.94
316.689	79.94
316.919	92.94
317.148	86.94
317.377	88.94
317.607	81.94
317.836	94.94
318.065	87.94
318.295	75.94
318.524	71.94
318.753	77.94
318.983	77.94
319.212	94.94
319.441	89.94
319.67	91.94
319.9	82.94
320.129	87.94
320.358	85.94
320.587	80.94
320.816	92.94
321.046	86.94
321.275	95.94
321.504	79.94
321.733	93.94
321.962	94.94
322.191	100.94
322.42	90.94
322.649	79.94
322.878	91.94
323.108	84.94
323.337	80.94
323.566	86.94
323.795	93.94
324.024	79.94
324.253	90.94
324.482	71.94
324.71	77.94
324.939	81.94
325.168	78.94
325.397	77.94
325.626	91.94
325.855	81.94
326.084	90.94
326.313	85.94
326.542	69.94
326.77	84.94
326.999	84.94
327.228	82.94
327.457	91.94
327.686	81.94
327.914	73.94
328.143	96.94
328.372	87.94
328.6	99.94
328.829	95.94
329.058	74.94
329.287	79.94
329.515	75.94
329.744	80.94
329.972	86.94
330.201	86.94
330.43	76.94
330.658	79.94
330.887	89.94
331.115	83.94
331.344	101.94
331.572	87.94
331.801	63.94
332.03	92.94
332.258	89.94
332.486	81.94
332.715	89.94
332.943	68.94
333.172	78.94
333.4	71.94
333.629	68.94
333.857	79.94
334.085	77.94
334.314	82.94
334.542	97.94
334.771	86.94
334.999	82.94
335.227	76.94
335.455	87.94
335.684	74.94
335.912	72.94
336.14	79.94
336.369	81.94
336.597	81.94
336.825	84.94
337.053	88.94
337.281	89.94
337.51	88.94
337.738	80.94
337.966	89.94
338.194	83.94
338.422	87.94
338.65	79.94
338.878	80.94
339.106	74.94
339.334	86.94
339.562	87.94
339.79	99.94
340.018	79.94
340.246	84.94
340.474	75.94
340.702	87.94
340.93	78.94
341.158	84.94
341.386	77.94
341.614	88.94
341.842	79.94
342.07	85.94
342.298	74.94
342.526	70.94
342.754	79.94
342.981	103.94
343.209	75.94
343.437	79.94
343.665	72.94
343.893	82.94
344.12	84.94
344.348	89.94
344.576	87.94
344.804	65.94
345.031	87.94
345.259	68.94
345.487	64.94
345.714	82.94
345.942	85.94
346.17	69.94
346.397	80.94
346.625	80.94
346.853	89.94
347.08	90.94
347.308	80.94
347.535	83.94
347.763	77.94
347.99	75.94
348.218	89.94
348.445	93.94
348.673	80.94
348.9	96.94
349.128	90.94
349.355	75.94
349.583	75.94
349.81	80.94
350.037	83.94
350.265	78.94
350.492	84.94
350.72	80.94
350.947	80.94
351.174	90.94
351.402	72.94
351.629	83.94
351.856	85.94
352.083	83.94
352.311	87.94
352.538	86.94
352.765	63.94
352.992	75.94
353.22	105.94
353.447	76.94
353.674	94.94
353.901	77.94
354.128	79.94
354.355	73.94
354.583	74.94
354.81	83.94
355.037	88.94
355.264	75.94
355.491	81.94
355.718	77.94
355.945	76.94
356.172	83.94
356.399	80.94
356.626	84.94
356.853	84.94
357.08	88.94
357.307	78.94
357.534	88.94
357.761	84.94
357.988	74.94
358.215	67.94
358.441	76.94
358.668	81.94
358.895	73.94
359.122	93.94
359.349	78.94
359.576	79.94
359.802	82.94
360.029	95.94
360.256	87.94
360.483	73.94
360.709	74.94
360.936	90.94
361.163	68.94
361.39	79.94
361.616	91.94
361.843	80.94
362.07	75.94
362.296	85.94
362.523	102.94
362.749	89.94
362.976	88.94
363.203	91.94
363.429	66.94
363.656	83.94
363.882	95.94
364.109	83.94
364.335	85.94
364.562	79.94
364.788	82.94
365.015	81.94
365.241	77.94
365.468	84.94
365.694	80.94
365.92	80.94
366.147	75.94
366.373	75.94
366.599	76.94
366.826	88.94
367.052	84.94
367.278	87.94
367.505	76.94
367.731	92.94
367.957	86.94
368.184	85.94
368.41	81.94
368.636	98.94
368.862	80.94
369.089	84.94
369.315	72.94
369.541	83.94
369.767	90.94
369.993	88.94
370.219	83.94
370.445	85.94
370.672	83.94
370.898	76.94
371.124	94.94
371.35	92.94
371.576	90.94
371.802	84.94
372.028	95.94
372.254	80.94
372.48	104.94
372.706	78.94
372.932	88.94
373.158	84.94
373.384	82.94
373.61	83.94
373.835	82.94
374.061	73.94
374.287	77.94
374.513	85.94
374.739	84.94
374.965	93.94
375.191	81.94
375.416	81.94
375.642	79.94
375.868	81.94
376.094	91.94
376.319	91.94
376.545	81.94
376.771	75.94
376.997	77.94
377.222	83.94
377.448	81.94
377.674	80.94
377.899	84.94
378.125	78.94
378.35	90.94
378.576	91.94
378.802	85.94
379.027	89.94
379.253	88.94
379.478	88.94
379.704	81.94
379.929	66.94
380.155	77.94
380.38	79.94
380.606	91.94
380.831	80.94
381.057	86.94
381.282	72.94
381.507	70.94
381.733	81.94
381.958	82.94
382.184	89.94
382.409	90.94
382.634	82.94
382.86	81.94
383.085	91.94
383.31	79.94
383.535	88.94
383.761	79.94
383.986	91.94
384.211	83.94
384.436	87.94
384.662	85.94
384.887	98.94
385.112	90.94
385.337	74.94
385.562	87.94
385.787	90.94
386.013	95.94
386.238	102.94
386.463	83.94
386.688	80.94
386.913	95.94
387.138	88.94
387.363	91.94
387.588	84.94
387.813	92.94
388.038	98.94
388.263	77.94
388.488	82.94
388.713	86.94
388.938	91.94
389.163	79.94
389.387	75.94
389.612	71.94
389.837	81.94
390.062	99.94
390.287	89.94
390.512	76.94
390.736	86.94
390.961	93.94
391.186	77.94
391.411	95.94
391.636	71.94
391.86	81.94
392.085	85.94
392.31	82.94
392.534	83.94
392.759	91.94
392.984	86.94
393.208	71.94
393.433	88.94
393.658	96.94
393.882	81.94
394.107	82.94
394.331	86.94
394.556	74.94
394.78	86.94
395.005	78.94
395.229	103.94
395.454	74.94
395.678	90.94
395.903	96.94
396.127	98.94
396.352	84.94
396.576	92.94
396.801	83.94
397.025	76.94
397.249	90.94
397.474	79.94
397.698	85.94
397.922	84.94
398.147	99.94
398.371	67.94
398.595	98.94
398.82	89.94
399.044	98.94
399.268	91.94
399.492	91.94
399.717	88.94
399.941	92.94
400.165	73.94
400.389	88.94
400.613	80.94
400.837	82.94
401.062	79.94
401.286	85.94
401.51	96.94
401.734	95.94
401.958	81.94
402.182	96.94
402.406	78.94
402.63	75.94
402.854	76.94
403.078	88.94
403.302	75.94
403.526	82.94
403.75	84.94
403.974	88.94
404.198	90.94
404.422	76.94
404.645	87.94
404.869	73.94
405.093	89.94
405.317	100.94
405.541	98.94
405.765	80.94
405.988	90.94
406.212	80.94
406.436	79.94
406.66	83.94
406.883	81.94
407.107	61.94
407.331	90.94
407.555	81.94
407.778	81.94
408.002	90.94
408.226	98.94
408.449	79.94
408.673	91.94
408.896	91.94
409.12	91.94
409.344	83.94
409.567	90.94
409.791	77.94
410.014	89.94
410.238	88.94
410.461	101.94
410.685	83.94
410.908	81.94
411.132	79.94
411.355	97.94
411.578	92.94
411.802	95.94
412.025	83.94
412.249	88.94
412.472	101.94
412.695	103.94
412.919	89.94
413.142	89.94
413.365	101.94
413.589	88.94
413.812	90.94
414.035	102.94
414.258	83.94
414.482	93.94
414.705	95.94
414.928	78.94
415.151	88.94
415.374	102.94
415.597	80.94
415.821	89.94
416.044	84.94
416.267	88.94
416.49	96.94
416.713	90.94
416.936	100.94
417.159	92.94
417.382	85.94
417.605	91.94
417.828	92.94
418.051	81.94
418.274	99.94
418.497	95.94
418.72	82.94
418.943	85.94
419.166	78.94
419.389	100.94
419.611	87.94
419.834	93.94
420.057	81.94
420.28	87.94
420.503	87.94
420.726	89.94
420.948	85.94
421.171	86.94
421.394	89.94
421.617	91.94
421.839	95.94
422.062	92.94
422.285	70.94
422.507	89.94
422.73	81.94
422.953	91.94
423.175	106.94
423.398	92.94
423.621	83.94
423.843	80.94
424.066	94.94
424.288	95.94
424.511	96.94
424.733	94.94
424.956	102.94
425.178	104.94
425.401	85.94
425.623	99.94
425.846	97.94
426.068	90.94
426.291	91.94
426.513	88.94
426.735	99.94
426.958	85.94
427.18	109.94
427.402	101.94
427.625	92.94
427.847	94.94
428.069	88.94
428.292	88.94
428.514	90.94
428.736	85.94
428.958	78.94
429.181	101.94
429.403	79.94
429.625	83.94
429.847	98.94
430.069	89.94
430.292	81.94
430.514	89.94
430.736	88.94
430.958	78.94
431.18	84.94
431.402	67.94
431.624	101.94
431.846	85.94
432.068	85.94
432.29	89.94
432.512	94.94
432.734	82.94
432.956	88.94
433.178	104.94
433.4	76.94
433.622	95.94
433.844	85.94
434.066	93.94
434.287	91.94
434.509	81.94
434.731	88.94
434.953	98.94
435.175	69.94
435.397	86.94
435.618	96.94
435.84	81.94
436.062	87.94
436.284	100.94
436.505	84.94
436.727	84.94
436.949	95.94
437.17	98.94
437.392	92.94
437.614	85.94
437.835	90.94
438.057	104.94
438.278	88.94
438.5	98.94
438.721	104.94
438.943	104.94
439.165	98.94
439.386	90.94
439.608	88.94
439.829	88.94
440.05	90.94
440.272	88.94
440.493	94.94
440.715	95.94
440.936	103.94
441.158	97.94
441.379	94.94
441.6	95.94
441.822	91.94
442.043	85.94
442.264	97.94
442.486	81.94
442.707	90.94
442.928	89.94
443.149	89.94
443.371	104.94
443.592	104.94
443.813	81.94
444.034	90.94
444.255	105.94
444.476	101.94
444.698	100.94
444.919	93.94
445.14	235.94
445.361	153.94
445.582	94.94
445.803	83.94
446.024	107.94
446.245	107.94
446.466	94.94
446.687	80.94
446.908	99.94
447.129	92.94
447.35	99.94
447.571	101.94
447.792	94.94
448.013	110.94
448.234	98.94
448.455	90.94
448.675	98.94
448.896	105.94
449.117	98.94
449.338	103.94
449.559	96.94
449.779	104.94
450	90.94
450.221	84.94
450.442	102.94
450.662	91.94
450.883	86.94
451.104	109.94
451.324	89.94
451.545	90.94
451.766	86.94
451.986	96.94
452.207	105.94
452.428	97.94
452.648	103.94
452.869	78.94
453.089	93.94
453.31	98.94
453.53	100.94
453.751	96.94
453.971	89.94
454.192	93.94
454.412	88.94
454.633	98.94
454.853	86.94
455.073	84.94
455.294	94.94
455.514	102.94
455.734	85.94
455.955	96.94
456.175	87.94
456.395	109.94
456.616	82.94
456.836	92.94
457.056	89.94
457.276	79.94
457.497	86.94
457.717	98.94
457.937	99.94
458.157	83.94
458.377	91.94
458.598	84.94
458.818	80.94
459.038	87.94
459.258	81.94
459.478	87.94
459.698	80.94
459.918	83.94
460.138	93.94
460.358	98.94
460.578	98.94
460.798	81.94
461.018	91.94
461.238	90.94
461.458	81.94
461.678	90.94
461.898	71.94
462.118	95.94
462.338	93.94
462.558	80.94
462.777	91.94
462.997	86.94
463.217	78.94
463.437	97.94
463.657	82.94
463.876	80.94
464.096	85.94
464.316	84.94
464.536	88.94
464.755	79.94
464.975	76.94
465.195	84.94
465.414	88.94
465.634	88.94
465.854	82.94
466.073	93.94
466.293	89.94
466.512	75.94
466.732	102.94
466.951	96.94
467.171	91.94
467.391	83.94
467.61	96.94
467.829	111.94
468.049	96.94
468.268	84.94
468.488	88.94
468.707	90.94
468.927	102.94
469.146	85.94
469.365	105.94
469.585	91.94
469.804	98.94
470.023	100.94
470.243	96.94
470.462	101.94
470.681	102.94
470.901	91.94
471.12	90.94
471.339	103.94
471.558	82.94
471.777	105.94
471.997	97.94
472.216	89.94
472.435	77.94
472.654	89.94
472.873	90.94
473.092	82.94
473.311	90.94
473.53	106.94
473.749	94.94
473.968	102.94
474.187	83.94
474.406	92.94
474.625	88.94
474.844	88.94
475.063	73.94
475.282	90.94
475.501	85.94
475.72	106.94
475.939	85.94
476.158	83.94
476.377	84.94
476.596	96.94
476.814	82.94
477.033	94.94
477.252	93.94
477.471	87.94
477.69	92.94
477.908	85.94
478.127	108.94
478.346	105.94
478.564	86.94
478.783	107.94
479.002	89.94
479.22	91.94
479.439	77.94
479.658	90.94
479.876	104.94
480.095	82.94
480.313	98.94
480.532	80.94
480.751	87.94
480.969	80.94
481.188	81.94
481.406	78.94
481.624	85.94
481.843	94.94
482.061	74.94
482.28	99.94
482.498	83.94
482.717	92.94
482.935	85.94
483.153	71.94
483.372	103.94
483.59	99.94
483.808	98.94
484.027	97.94
484.245	89.94
484.463	93.94
484.681	96.94
484.9	94.94
485.118	81.94
485.336	90.94
485.554	98.94
485.772	78.94
485.99	84.94
486.209	84.94
486.427	97.94
486.645	86.94
486.863	86.94
487.081	97.94
487.299	103.94
487.517	105.94
487.735	104.94
487.953	112.94
488.171	121.94
488.389	117.94
488.607	101.94
488.825	96.94
489.043	92.94
489.261	99.94
489.479	97.94
489.696	85.94
489.914	87.94
490.132	103.94
490.35	105.94
490.568	102.94
490.786	120.94
491.003	106.94
491.221	101.94
491.439	100.94
491.657	109.94
491.874	109.94
492.092	118.94
492.31	120.94
492.527	116.94
492.745	127.94
492.963	125.94
493.18	102.94
493.398	111.94
493.615	119.94
493.833	102.94
494.05	99.94
494.268	105.94
494.485	115.94
494.703	95.94
494.92	107.94
495.138	99.94
495.355	103.94
495.573	112.94
495.79	104.94
496.008	101.94
496.225	103.94
496.442	123.94
496.66	109.94
496.877	101.94
497.094	99.94
497.312	95.94
497.529	102.94
497.746	103.94
497.963	94.94
498.181	106.94
498.398	84.94
498.615	94.94
498.832	93.94
499.049	91.94
499.267	78.94
499.484	77.94
499.701	88.94
499.918	100.94
500.135	86.94
500.352	107.94
500.569	110.94
500.786	97.94
501.003	94.94
501.22	99.94
501.437	98.94
501.654	98.94
501.871	102.94
502.088	89.94
502.305	94.94
502.522	95.94
502.739	99.94
502.956	96.94
503.172	87.94
503.389	79.94
503.606	90.94
503.823	87.94
504.04	88.94
504.256	99.94
504.473	94.94
504.69	88.94
504.907	97.94
505.123	95.94
505.34	106.94
505.557	88.94
505.773	89.94
505.99	88.94
506.207	86.94
506.423	94.94
506.64	89.94
506.856	91.94
507.073	87.94
507.289	100.94
507.506	98.94
507.722	89.94
507.939	92.94
508.155	100.94
508.372	95.94
508.588	95.94
508.805	82.94
509.021	81.94
509.238	78.94
509.454	81.94
509.67	96.94
509.887	74.94
510.103	80.94
510.319	86.94
510.536	110.94
510.752	75.94
510.968	80.94
511.184	85.94
511.401	83.94
511.617	78.94
511.833	88.94
512.049	80.94
512.265	77.94
512.481	86.94
512.698	89.94
512.914	91.94
513.13	78.94
513.346	74.94
513.562	85.94
513.778	86.94
513.994	76.94
514.21	89.94
514.426	94.94
514.642	75.94
514.858	89.94
515.074	88.94
515.29	85.94
515.506	87.94
515.721	77.94
515.937	98.94
516.153	87.94
516.369	82.94
516.585	100.94
516.801	87.94
517.016	75.94
517.232	77.94
517.448	84.94
517.664	96.94
517.879	93.94
