Data from Location5.07152019.Energy5.Lamp.07192019.3%Agarose_HRD10591_15-36-55-387.txt Node
Date: Fri Jul 19 15:36:55 EDT 2019
User: cochatt
Spectrometer: HR+D1059
Trigger mode: 1
Integration Time (sec): 1.000000E-1
Scans to average: 1
Electric dark correction enabled: true
Nonlinearity correction enabled: false
Boxcar width: 0
XAxis mode: Wavelengths
Number of Pixels in Spectrum: 2048
>>>>>Begin Spectral Data<<<<<
223.165	-14.44
223.4	-14.44
223.635	-14.44
223.869	-21.44
224.104	-22.44
224.338	-20.44
224.573	-10.44
224.808	0.56
225.042	-4.44
225.277	3.56
225.511	-4.44
225.746	9.56
225.98	6.56
226.215	4.56
226.449	16.56
226.683	14.56
226.918	21.56
227.152	20.56
227.387	35.56
227.621	36.56
227.856	45.56
228.09	41.56
228.324	60.56
228.559	65.56
228.793	53.56
229.027	59.56
229.262	59.56
229.496	74.56
229.73	72.56
229.964	76.56
230.199	73.56
230.433	70.56
230.667	67.56
230.901	78.56
231.136	81.56
231.37	83.56
231.604	88.56
231.838	97.56
232.072	80.56
232.306	67.56
232.541	76.56
232.775	77.56
233.009	75.56
233.243	78.56
233.477	99.56
233.711	74.56
233.945	79.56
234.179	68.56
234.413	92.56
234.647	103.56
234.881	84.56
235.115	81.56
235.349	86.56
235.583	92.56
235.817	93.56
236.051	82.56
236.285	77.56
236.519	77.56
236.753	72.56
236.987	67.56
237.221	92.56
237.455	80.56
237.689	89.56
237.922	80.56
238.156	76.56
238.39	97.56
238.624	81.56
238.858	73.56
239.091	83.56
239.325	70.56
239.559	85.56
239.793	72.56
240.027	84.56
240.26	60.56
240.494	74.56
240.728	85.56
240.961	75.56
241.195	78.56
241.429	83.56
241.662	69.56
241.896	66.56
242.13	80.56
242.363	71.56
242.597	79.56
242.83	73.56
243.064	91.56
243.298	83.56
243.531	71.56
243.765	70.56
243.998	82.56
244.232	85.56
244.465	87.56
244.699	93.56
244.932	79.56
245.166	74.56
245.399	75.56
245.633	84.56
245.866	69.56
246.099	75.56
246.333	85.56
246.566	76.56
246.8	78.56
247.033	77.56
247.266	82.56
247.5	79.56
247.733	83.56
247.966	96.56
248.2	75.56
248.433	75.56
248.666	73.56
248.899	73.56
249.133	83.56
249.366	91.56
249.599	76.56
249.832	87.56
250.066	80.56
250.299	82.56
250.532	63.56
250.765	85.56
250.998	86.56
251.231	85.56
251.465	83.56
251.698	77.56
251.931	72.56
252.164	87.56
252.397	76.56
252.63	80.56
252.863	88.56
253.096	80.56
253.329	87.56
253.562	83.56
253.795	84.56
254.028	79.56
254.261	80.56
254.494	91.56
254.727	64.56
254.96	76.56
255.193	74.56
255.426	76.56
255.659	98.56
255.892	91.56
256.124	92.56
256.357	78.56
256.59	70.56
256.823	71.56
257.056	73.56
257.289	85.56
257.521	89.56
257.754	82.56
257.987	103.56
258.22	86.56
258.452	71.56
258.685	87.56
258.918	85.56
259.151	77.56
259.383	83.56
259.616	81.56
259.849	73.56
260.081	79.56
260.314	82.56
260.547	98.56
260.779	77.56
261.012	83.56
261.244	88.56
261.477	95.56
261.71	90.56
261.942	81.56
262.175	85.56
262.407	88.56
262.64	71.56
262.872	75.56
263.105	79.56
263.337	76.56
263.57	84.56
263.802	88.56
264.035	89.56
264.267	80.56
264.499	83.56
264.732	83.56
264.964	78.56
265.197	80.56
265.429	88.56
265.661	88.56
265.894	78.56
266.126	89.56
266.358	87.56
266.591	61.56
266.823	87.56
267.055	74.56
267.287	80.56
267.52	89.56
267.752	84.56
267.984	83.56
268.216	90.56
268.448	79.56
268.681	71.56
268.913	89.56
269.145	85.56
269.377	77.56
269.609	94.56
269.841	89.56
270.073	67.56
270.306	88.56
270.538	80.56
270.77	86.56
271.002	81.56
271.234	88.56
271.466	77.56
271.698	87.56
271.93	84.56
272.162	84.56
272.394	91.56
272.626	93.56
272.858	84.56
273.09	88.56
273.322	92.56
273.553	96.56
273.785	80.56
274.017	82.56
274.249	81.56
274.481	89.56
274.713	84.56
274.945	97.56
275.176	95.56
275.408	71.56
275.64	78.56
275.872	91.56
276.104	78.56
276.335	87.56
276.567	87.56
276.799	67.56
277.031	83.56
277.262	85.56
277.494	75.56
277.726	89.56
277.957	71.56
278.189	84.56
278.421	90.56
278.652	80.56
278.884	96.56
279.115	87.56
279.347	83.56
279.579	92.56
279.81	86.56
280.042	92.56
280.273	84.56
280.505	75.56
280.736	75.56
280.968	67.56
281.199	80.56
281.431	88.56
281.662	88.56
281.894	85.56
282.125	82.56
282.356	89.56
282.588	93.56
282.819	92.56
283.051	84.56
283.282	96.56
283.513	104.56
283.745	80.56
283.976	86.56
284.207	83.56
284.439	75.56
284.67	93.56
284.901	80.56
285.132	67.56
285.364	90.56
285.595	79.56
285.826	87.56
286.057	85.56
286.288	79.56
286.52	88.56
286.751	85.56
286.982	76.56
287.213	76.56
287.444	82.56
287.675	89.56
287.906	90.56
288.138	62.56
288.369	95.56
288.6	75.56
288.831	79.56
289.062	92.56
289.293	84.56
289.524	76.56
289.755	107.56
289.986	88.56
290.217	87.56
290.448	76.56
290.679	91.56
290.91	79.56
291.141	88.56
291.371	91.56
291.602	98.56
291.833	82.56
292.064	84.56
292.295	92.56
292.526	89.56
292.757	87.56
292.987	69.56
293.218	88.56
293.449	73.56
293.68	85.56
293.91	77.56
294.141	71.56
294.372	90.56
294.603	92.56
294.833	74.56
295.064	97.56
295.295	91.56
295.525	78.56
295.756	90.56
295.987	82.56
296.217	94.56
296.448	87.56
296.679	81.56
296.909	71.56
297.14	93.56
297.37	90.56
297.601	98.56
297.831	83.56
298.062	81.56
298.292	77.56
298.523	83.56
298.753	83.56
298.984	78.56
299.214	92.56
299.445	92.56
299.675	73.56
299.905	94.56
300.136	95.56
300.366	75.56
300.597	88.56
300.827	82.56
301.057	92.56
301.288	81.56
301.518	83.56
301.748	81.56
301.979	79.56
302.209	92.56
302.439	101.56
302.669	71.56
302.9	80.56
303.13	83.56
303.36	86.56
303.59	90.56
303.82	94.56
304.051	93.56
304.281	91.56
304.511	81.56
304.741	90.56
304.971	72.56
305.201	86.56
305.431	81.56
305.661	70.56
305.891	82.56
306.121	90.56
306.352	87.56
306.582	93.56
306.812	79.56
307.042	94.56
307.272	76.56
307.502	79.56
307.731	101.56
307.961	95.56
308.191	89.56
308.421	93.56
308.651	82.56
308.881	80.56
309.111	88.56
309.341	84.56
309.571	87.56
309.8	73.56
310.03	91.56
310.26	85.56
310.49	87.56
310.72	88.56
310.949	91.56
311.179	76.56
311.409	75.56
311.639	78.56
311.868	97.56
312.098	82.56
312.328	75.56
312.557	70.56
312.787	83.56
313.017	84.56
313.246	83.56
313.476	95.56
313.706	91.56
313.935	98.56
314.165	85.56
314.394	85.56
314.624	90.56
314.853	80.56
315.083	74.56
315.312	84.56
315.542	82.56
315.771	77.56
316.001	78.56
316.23	89.56
316.46	75.56
316.689	82.56
316.919	73.56
317.148	96.56
317.377	94.56
317.607	84.56
317.836	85.56
318.065	98.56
318.295	95.56
318.524	79.56
318.753	70.56
318.983	74.56
319.212	88.56
319.441	89.56
319.67	93.56
319.9	97.56
320.129	91.56
320.358	86.56
320.587	72.56
320.816	82.56
321.046	91.56
321.275	97.56
321.504	86.56
321.733	82.56
321.962	90.56
322.191	83.56
322.42	83.56
322.649	93.56
322.878	97.56
323.108	85.56
323.337	93.56
323.566	93.56
323.795	85.56
324.024	90.56
324.253	75.56
324.482	97.56
324.71	79.56
324.939	98.56
325.168	83.56
325.397	100.56
325.626	92.56
325.855	104.56
326.084	76.56
326.313	67.56
326.542	90.56
326.77	87.56
326.999	84.56
327.228	83.56
327.457	76.56
327.686	86.56
327.914	87.56
328.143	88.56
328.372	85.56
328.6	87.56
328.829	83.56
329.058	89.56
329.287	75.56
329.515	77.56
329.744	97.56
329.972	91.56
330.201	83.56
330.43	83.56
330.658	81.56
330.887	81.56
331.115	86.56
331.344	73.56
331.572	76.56
331.801	90.56
332.03	83.56
332.258	78.56
332.486	95.56
332.715	89.56
332.943	80.56
333.172	77.56
333.4	78.56
333.629	79.56
333.857	105.56
334.085	85.56
334.314	93.56
334.542	85.56
334.771	84.56
334.999	87.56
335.227	96.56
335.455	93.56
335.684	82.56
335.912	91.56
336.14	90.56
336.369	78.56
336.597	84.56
336.825	90.56
337.053	93.56
337.281	91.56
337.51	83.56
337.738	89.56
337.966	80.56
338.194	88.56
338.422	87.56
338.65	91.56
338.878	82.56
339.106	86.56
339.334	83.56
339.562	91.56
339.79	91.56
340.018	85.56
340.246	95.56
340.474	79.56
340.702	83.56
340.93	74.56
341.158	90.56
341.386	66.56
341.614	80.56
341.842	81.56
342.07	81.56
342.298	102.56
342.526	83.56
342.754	87.56
342.981	82.56
343.209	82.56
343.437	95.56
343.665	85.56
343.893	89.56
344.12	100.56
344.348	87.56
344.576	91.56
344.804	93.56
345.031	80.56
345.259	103.56
345.487	79.56
345.714	81.56
345.942	98.56
346.17	75.56
346.397	75.56
346.625	73.56
346.853	81.56
347.08	76.56
347.308	81.56
347.535	87.56
347.763	74.56
347.99	89.56
348.218	80.56
348.445	89.56
348.673	76.56
348.9	99.56
349.128	86.56
349.355	92.56
349.583	86.56
349.81	93.56
350.037	79.56
350.265	92.56
350.492	86.56
350.72	84.56
350.947	88.56
351.174	94.56
351.402	81.56
351.629	76.56
351.856	77.56
352.083	79.56
352.311	76.56
352.538	72.56
352.765	81.56
352.992	90.56
353.22	92.56
353.447	92.56
353.674	90.56
353.901	89.56
354.128	90.56
354.355	78.56
354.583	89.56
354.81	73.56
355.037	75.56
355.264	87.56
355.491	87.56
355.718	84.56
355.945	75.56
356.172	97.56
356.399	87.56
356.626	87.56
356.853	76.56
357.08	85.56
357.307	87.56
357.534	82.56
357.761	84.56
357.988	101.56
358.215	73.56
358.441	75.56
358.668	76.56
358.895	97.56
359.122	85.56
359.349	67.56
359.576	80.56
359.802	94.56
360.029	83.56
360.256	73.56
360.483	92.56
360.709	88.56
360.936	96.56
361.163	109.56
361.39	90.56
361.616	89.56
361.843	80.56
362.07	81.56
362.296	88.56
362.523	84.56
362.749	93.56
362.976	88.56
363.203	90.56
363.429	72.56
363.656	79.56
363.882	79.56
364.109	101.56
364.335	84.56
364.562	75.56
364.788	81.56
365.015	84.56
365.241	77.56
365.468	85.56
365.694	75.56
365.92	85.56
366.147	83.56
366.373	83.56
366.599	74.56
366.826	79.56
367.052	87.56
367.278	81.56
367.505	94.56
367.731	100.56
367.957	80.56
368.184	80.56
368.41	81.56
368.636	87.56
368.862	75.56
369.089	70.56
369.315	73.56
369.541	89.56
369.767	81.56
369.993	74.56
370.219	90.56
370.445	92.56
370.672	87.56
370.898	82.56
371.124	74.56
371.35	80.56
371.576	84.56
371.802	83.56
372.028	89.56
372.254	96.56
372.48	82.56
372.706	87.56
372.932	98.56
373.158	77.56
373.384	96.56
373.61	88.56
373.835	92.56
374.061	86.56
374.287	72.56
374.513	80.56
374.739	102.56
374.965	81.56
375.191	85.56
375.416	78.56
375.642	81.56
375.868	79.56
376.094	85.56
376.319	89.56
376.545	76.56
376.771	99.56
376.997	85.56
377.222	84.56
377.448	72.56
377.674	92.56
377.899	75.56
378.125	97.56
378.35	91.56
378.576	73.56
378.802	100.56
379.027	89.56
379.253	78.56
379.478	77.56
379.704	65.56
379.929	82.56
380.155	72.56
380.38	82.56
380.606	100.56
380.831	92.56
381.057	90.56
381.282	89.56
381.507	68.56
381.733	91.56
381.958	82.56
382.184	97.56
382.409	81.56
382.634	100.56
382.86	100.56
383.085	85.56
383.31	112.56
383.535	86.56
383.761	92.56
383.986	90.56
384.211	84.56
384.436	73.56
384.662	97.56
384.887	83.56
385.112	92.56
385.337	88.56
385.562	83.56
385.787	95.56
386.013	96.56
386.238	85.56
386.463	85.56
386.688	98.56
386.913	94.56
387.138	100.56
387.363	86.56
387.588	86.56
387.813	85.56
388.038	84.56
388.263	85.56
388.488	80.56
388.713	83.56
388.938	88.56
389.163	85.56
389.387	96.56
389.612	84.56
389.837	81.56
390.062	102.56
390.287	91.56
390.512	91.56
390.736	90.56
390.961	85.56
391.186	77.56
391.411	91.56
391.636	95.56
391.86	106.56
392.085	95.56
392.31	84.56
392.534	83.56
392.759	80.56
392.984	77.56
393.208	94.56
393.433	85.56
393.658	86.56
393.882	83.56
394.107	100.56
394.331	83.56
394.556	81.56
394.78	82.56
395.005	81.56
395.229	96.56
395.454	87.56
395.678	84.56
395.903	93.56
396.127	77.56
396.352	90.56
396.576	101.56
396.801	99.56
397.025	74.56
397.249	60.56
397.474	93.56
397.698	91.56
397.922	87.56
398.147	98.56
398.371	77.56
398.595	89.56
398.82	89.56
399.044	94.56
399.268	80.56
399.492	82.56
399.717	90.56
399.941	89.56
400.165	85.56
400.389	93.56
400.613	93.56
400.837	87.56
401.062	92.56
401.286	85.56
401.51	103.56
401.734	83.56
401.958	101.56
402.182	93.56
402.406	97.56
402.63	87.56
402.854	77.56
403.078	88.56
403.302	91.56
403.526	85.56
403.75	83.56
403.974	87.56
404.198	86.56
404.422	75.56
404.645	79.56
404.869	95.56
405.093	90.56
405.317	91.56
405.541	89.56
405.765	92.56
405.988	86.56
406.212	67.56
406.436	99.56
406.66	97.56
406.883	83.56
407.107	85.56
407.331	104.56
407.555	96.56
407.778	78.56
408.002	80.56
408.226	91.56
408.449	88.56
408.673	84.56
408.896	91.56
409.12	83.56
409.344	87.56
409.567	87.56
409.791	98.56
410.014	101.56
410.238	95.56
410.461	97.56
410.685	92.56
410.908	97.56
411.132	93.56
411.355	90.56
411.578	89.56
411.802	93.56
412.025	81.56
412.249	82.56
412.472	98.56
412.695	108.56
412.919	92.56
413.142	87.56
413.365	91.56
413.589	84.56
413.812	80.56
414.035	100.56
414.258	85.56
414.482	90.56
414.705	83.56
414.928	96.56
415.151	85.56
415.374	96.56
415.597	87.56
415.821	91.56
416.044	88.56
416.267	96.56
416.49	85.56
416.713	101.56
416.936	99.56
417.159	80.56
417.382	90.56
417.605	99.56
417.828	90.56
418.051	90.56
418.274	93.56
418.497	101.56
418.72	82.56
418.943	98.56
419.166	86.56
419.389	91.56
419.611	96.56
419.834	79.56
420.057	91.56
420.28	87.56
420.503	105.56
420.726	93.56
420.948	81.56
421.171	101.56
421.394	85.56
421.617	95.56
421.839	108.56
422.062	90.56
422.285	91.56
422.507	94.56
422.73	98.56
422.953	92.56
423.175	90.56
423.398	83.56
423.621	92.56
423.843	97.56
424.066	96.56
424.288	91.56
424.511	92.56
424.733	91.56
424.956	92.56
425.178	87.56
425.401	92.56
425.623	91.56
425.846	94.56
426.068	93.56
426.291	95.56
426.513	93.56
426.735	83.56
426.958	85.56
427.18	86.56
427.402	104.56
427.625	88.56
427.847	82.56
428.069	73.56
428.292	83.56
428.514	83.56
428.736	92.56
428.958	82.56
429.181	83.56
429.403	96.56
429.625	101.56
429.847	93.56
430.069	89.56
430.292	84.56
430.514	91.56
430.736	97.56
430.958	104.56
431.18	87.56
431.402	81.56
431.624	104.56
431.846	83.56
432.068	64.56
432.29	77.56
432.512	85.56
432.734	73.56
432.956	86.56
433.178	87.56
433.4	88.56
433.622	101.56
433.844	83.56
434.066	93.56
434.287	80.56
434.509	88.56
434.731	94.56
434.953	93.56
435.175	89.56
435.397	102.56
435.618	86.56
435.84	85.56
436.062	86.56
436.284	87.56
436.505	86.56
436.727	96.56
436.949	87.56
437.17	97.56
437.392	106.56
437.614	91.56
437.835	97.56
438.057	75.56
438.278	88.56
438.5	93.56
438.721	93.56
438.943	98.56
439.165	101.56
439.386	89.56
439.608	91.56
439.829	118.56
440.05	99.56
440.272	100.56
440.493	101.56
440.715	97.56
440.936	92.56
441.158	101.56
441.379	90.56
441.6	106.56
441.822	92.56
442.043	95.56
442.264	98.56
442.486	95.56
442.707	99.56
442.928	105.56
443.149	103.56
443.371	94.56
443.592	87.56
443.813	94.56
444.034	96.56
444.255	87.56
444.476	84.56
444.698	85.56
444.919	89.56
445.14	169.56
445.361	146.56
445.582	111.56
445.803	103.56
446.024	92.56
446.245	104.56
446.466	84.56
446.687	100.56
446.908	113.56
447.129	114.56
447.35	102.56
447.571	101.56
447.792	101.56
448.013	100.56
448.234	105.56
448.455	99.56
448.675	108.56
448.896	88.56
449.117	100.56
449.338	88.56
449.559	90.56
449.779	82.56
450	101.56
450.221	87.56
450.442	80.56
450.662	96.56
450.883	97.56
451.104	92.56
451.324	91.56
451.545	97.56
451.766	102.56
451.986	91.56
452.207	86.56
452.428	81.56
452.648	83.56
452.869	90.56
453.089	91.56
453.31	73.56
453.53	88.56
453.751	81.56
453.971	91.56
454.192	97.56
454.412	96.56
454.633	89.56
454.853	92.56
455.073	101.56
455.294	94.56
455.514	85.56
455.734	90.56
455.955	80.56
456.175	81.56
456.395	82.56
456.616	76.56
456.836	91.56
457.056	91.56
457.276	74.56
457.497	94.56
457.717	91.56
457.937	90.56
458.157	88.56
458.377	87.56
458.598	85.56
458.818	77.56
459.038	93.56
459.258	82.56
459.478	92.56
459.698	69.56
459.918	79.56
460.138	77.56
460.358	91.56
460.578	97.56
460.798	93.56
461.018	87.56
461.238	80.56
461.458	87.56
461.678	93.56
461.898	82.56
462.118	74.56
462.338	97.56
462.558	86.56
462.777	88.56
462.997	89.56
463.217	94.56
463.437	80.56
463.657	79.56
463.876	98.56
464.096	85.56
464.316	95.56
464.536	81.56
464.755	104.56
464.975	95.56
465.195	98.56
465.414	90.56
465.634	91.56
465.854	88.56
466.073	94.56
466.293	90.56
466.512	93.56
466.732	96.56
466.951	88.56
467.171	108.56
467.391	101.56
467.61	103.56
467.829	89.56
468.049	94.56
468.268	104.56
468.488	105.56
468.707	90.56
468.927	106.56
469.146	91.56
469.365	105.56
469.585	100.56
469.804	90.56
470.023	91.56
470.243	93.56
470.462	99.56
470.681	98.56
470.901	115.56
471.12	98.56
471.339	104.56
471.558	101.56
471.777	104.56
471.997	91.56
472.216	105.56
472.435	90.56
472.654	90.56
472.873	79.56
473.092	95.56
473.311	106.56
473.53	102.56
473.749	89.56
473.968	97.56
474.187	91.56
474.406	87.56
474.625	102.56
474.844	97.56
475.063	75.56
475.282	95.56
475.501	83.56
475.72	96.56
475.939	95.56
476.158	92.56
476.377	99.56
476.596	87.56
476.814	78.56
477.033	88.56
477.252	85.56
477.471	96.56
477.69	110.56
477.908	80.56
478.127	99.56
478.346	96.56
478.564	96.56
478.783	86.56
479.002	90.56
479.22	117.56
479.439	97.56
479.658	89.56
479.876	92.56
480.095	80.56
480.313	89.56
480.532	89.56
480.751	93.56
480.969	89.56
481.188	88.56
481.406	90.56
481.624	98.56
481.843	87.56
482.061	95.56
482.28	83.56
482.498	87.56
482.717	98.56
482.935	91.56
483.153	91.56
483.372	90.56
483.59	99.56
483.808	105.56
484.027	113.56
484.245	83.56
484.463	101.56
484.681	111.56
484.9	83.56
485.118	99.56
485.336	88.56
485.554	91.56
485.772	77.56
485.99	82.56
486.209	81.56
486.427	99.56
486.645	104.56
486.863	96.56
487.081	124.56
487.299	92.56
487.517	100.56
487.735	96.56
487.953	118.56
488.171	111.56
488.389	101.56
488.607	98.56
488.825	106.56
489.043	104.56
489.261	100.56
489.479	102.56
489.696	95.56
489.914	97.56
490.132	103.56
490.35	102.56
490.568	97.56
490.786	100.56
491.003	96.56
491.221	114.56
491.439	106.56
491.657	97.56
491.874	117.56
492.092	129.56
492.31	120.56
492.527	124.56
492.745	131.56
492.963	124.56
493.18	105.56
493.398	111.56
493.615	114.56
493.833	101.56
494.05	92.56
494.268	95.56
494.485	96.56
494.703	103.56
494.92	102.56
495.138	98.56
495.355	110.56
495.573	109.56
495.79	115.56
496.008	104.56
496.225	100.56
496.442	116.56
496.66	117.56
496.877	111.56
497.094	105.56
497.312	96.56
497.529	98.56
497.746	104.56
497.963	113.56
498.181	77.56
498.398	92.56
498.615	95.56
498.832	104.56
499.049	91.56
499.267	105.56
499.484	85.56
499.701	115.56
499.918	109.56
500.135	82.56
500.352	97.56
500.569	101.56
500.786	101.56
501.003	92.56
501.22	111.56
501.437	98.56
501.654	105.56
501.871	102.56
502.088	106.56
502.305	103.56
502.522	91.56
502.739	99.56
502.956	94.56
503.172	88.56
503.389	102.56
503.606	77.56
503.823	94.56
504.04	76.56
504.256	96.56
504.473	93.56
504.69	93.56
504.907	94.56
505.123	87.56
505.34	91.56
505.557	100.56
505.773	87.56
505.99	91.56
506.207	76.56
506.423	96.56
506.64	84.56
506.856	93.56
507.073	91.56
507.289	95.56
507.506	85.56
507.722	84.56
507.939	90.56
508.155	83.56
508.372	92.56
508.588	98.56
508.805	94.56
509.021	96.56
509.238	86.56
509.454	92.56
509.67	87.56
509.887	93.56
510.103	72.56
510.319	86.56
510.536	94.56
510.752	85.56
510.968	93.56
511.184	86.56
511.401	73.56
511.617	90.56
511.833	90.56
512.049	88.56
512.265	86.56
512.481	85.56
512.698	72.56
512.914	83.56
513.13	91.56
513.346	86.56
513.562	92.56
513.778	84.56
513.994	104.56
514.21	87.56
514.426	98.56
514.642	91.56
514.858	100.56
515.074	85.56
515.29	98.56
515.506	96.56
515.721	78.56
515.937	75.56
516.153	86.56
516.369	69.56
516.585	79.56
516.801	71.56
517.016	96.56
517.232	91.56
517.448	80.56
