Data from Location5.07152019.Energy5.Lamp.07192019.3%Agarose_HRD10591_16-02-53-628.txt Node
Date: Fri Jul 19 16:02:53 EDT 2019
User: cochatt
Spectrometer: HR+D1059
Trigger mode: 1
Integration Time (sec): 1.000000E-1
Scans to average: 1
Electric dark correction enabled: true
Nonlinearity correction enabled: false
Boxcar width: 0
XAxis mode: Wavelengths
Number of Pixels in Spectrum: 2048
>>>>>Begin Spectral Data<<<<<
223.165	-9.88
223.4	-9.88
223.635	-9.88
223.869	-14.88
224.104	-14.88
224.338	-19.88
224.573	-21.88
224.808	-11.88
225.042	-8.88
225.277	11.12
225.511	-9.88
225.746	-3.88
225.98	5.12
226.215	29.12
226.449	11.12
226.683	13.12
226.918	20.12
227.152	26.12
227.387	42.12
227.621	26.12
227.856	51.12
228.09	43.12
228.324	56.12
228.559	63.12
228.793	61.12
229.027	67.12
229.262	69.12
229.496	70.12
229.73	79.12
229.964	75.12
230.199	61.12
230.433	71.12
230.667	70.12
230.901	79.12
231.136	75.12
231.37	79.12
231.604	81.12
231.838	78.12
232.072	75.12
232.306	74.12
232.541	82.12
232.775	76.12
233.009	82.12
233.243	95.12
233.477	86.12
233.711	99.12
233.945	88.12
234.179	85.12
234.413	87.12
234.647	85.12
234.881	77.12
235.115	73.12
235.349	67.12
235.583	90.12
235.817	72.12
236.051	79.12
236.285	81.12
236.519	74.12
236.753	91.12
236.987	83.12
237.221	79.12
237.455	78.12
237.689	81.12
237.922	81.12
238.156	71.12
238.39	89.12
238.624	71.12
238.858	79.12
239.091	71.12
239.325	83.12
239.559	87.12
239.793	82.12
240.027	81.12
240.26	89.12
240.494	74.12
240.728	87.12
240.961	87.12
241.195	96.12
241.429	84.12
241.662	69.12
241.896	65.12
242.13	91.12
242.363	81.12
242.597	83.12
242.83	98.12
243.064	77.12
243.298	71.12
243.531	98.12
243.765	83.12
243.998	93.12
244.232	71.12
244.465	95.12
244.699	80.12
244.932	75.12
245.166	85.12
245.399	70.12
245.633	76.12
245.866	101.12
246.099	68.12
246.333	82.12
246.566	76.12
246.8	76.12
247.033	87.12
247.266	81.12
247.5	82.12
247.733	85.12
247.966	83.12
248.2	85.12
248.433	76.12
248.666	87.12
248.899	73.12
249.133	91.12
249.366	86.12
249.599	90.12
249.832	76.12
250.066	83.12
250.299	87.12
250.532	93.12
250.765	81.12
250.998	77.12
251.231	86.12
251.465	83.12
251.698	63.12
251.931	82.12
252.164	92.12
252.397	83.12
252.63	80.12
252.863	84.12
253.096	85.12
253.329	62.12
253.562	73.12
253.795	91.12
254.028	94.12
254.261	85.12
254.494	97.12
254.727	75.12
254.96	84.12
255.193	97.12
255.426	94.12
255.659	90.12
255.892	98.12
256.124	88.12
256.357	84.12
256.59	79.12
256.823	74.12
257.056	79.12
257.289	90.12
257.521	91.12
257.754	65.12
257.987	87.12
258.22	100.12
258.452	83.12
258.685	83.12
258.918	73.12
259.151	79.12
259.383	95.12
259.616	92.12
259.849	82.12
260.081	75.12
260.314	88.12
260.547	84.12
260.779	83.12
261.012	83.12
261.244	82.12
261.477	89.12
261.71	92.12
261.942	94.12
262.175	86.12
262.407	80.12
262.64	87.12
262.872	91.12
263.105	84.12
263.337	79.12
263.57	85.12
263.802	89.12
264.035	97.12
264.267	76.12
264.499	92.12
264.732	94.12
264.964	89.12
265.197	79.12
265.429	81.12
265.661	80.12
265.894	83.12
266.126	84.12
266.358	87.12
266.591	76.12
266.823	82.12
267.055	68.12
267.287	87.12
267.52	82.12
267.752	89.12
267.984	92.12
268.216	85.12
268.448	99.12
268.681	85.12
268.913	85.12
269.145	90.12
269.377	89.12
269.609	93.12
269.841	91.12
270.073	87.12
270.306	94.12
270.538	95.12
270.77	96.12
271.002	80.12
271.234	80.12
271.466	87.12
271.698	82.12
271.93	86.12
272.162	102.12
272.394	90.12
272.626	93.12
272.858	77.12
273.09	87.12
273.322	90.12
273.553	97.12
273.785	89.12
274.017	90.12
274.249	92.12
274.481	91.12
274.713	92.12
274.945	97.12
275.176	81.12
275.408	74.12
275.64	93.12
275.872	98.12
276.104	106.12
276.335	102.12
276.567	93.12
276.799	93.12
277.031	98.12
277.262	85.12
277.494	107.12
277.726	90.12
277.957	76.12
278.189	92.12
278.421	84.12
278.652	93.12
278.884	91.12
279.115	85.12
279.347	87.12
279.579	82.12
279.81	94.12
280.042	96.12
280.273	89.12
280.505	86.12
280.736	93.12
280.968	89.12
281.199	90.12
281.431	96.12
281.662	87.12
281.894	83.12
282.125	97.12
282.356	91.12
282.588	82.12
282.819	83.12
283.051	77.12
283.282	81.12
283.513	86.12
283.745	93.12
283.976	89.12
284.207	101.12
284.439	94.12
284.67	95.12
284.901	105.12
285.132	93.12
285.364	103.12
285.595	110.12
285.826	107.12
286.057	89.12
286.288	93.12
286.52	93.12
286.751	95.12
286.982	88.12
287.213	90.12
287.444	89.12
287.675	98.12
287.906	91.12
288.138	92.12
288.369	97.12
288.6	85.12
288.831	90.12
289.062	79.12
289.293	92.12
289.524	86.12
289.755	92.12
289.986	87.12
290.217	94.12
290.448	85.12
290.679	87.12
290.91	87.12
291.141	89.12
291.371	113.12
291.602	85.12
291.833	96.12
292.064	89.12
292.295	96.12
292.526	91.12
292.757	94.12
292.987	83.12
293.218	65.12
293.449	90.12
293.68	89.12
293.91	83.12
294.141	89.12
294.372	98.12
294.603	95.12
294.833	87.12
295.064	97.12
295.295	92.12
295.525	103.12
295.756	98.12
295.987	104.12
296.217	95.12
296.448	102.12
296.679	98.12
296.909	103.12
297.14	94.12
297.37	97.12
297.601	89.12
297.831	97.12
298.062	106.12
298.292	113.12
298.523	81.12
298.753	107.12
298.984	83.12
299.214	93.12
299.445	98.12
299.675	100.12
299.905	92.12
300.136	98.12
300.366	99.12
300.597	91.12
300.827	85.12
301.057	96.12
301.288	102.12
301.518	91.12
301.748	91.12
301.979	94.12
302.209	101.12
302.439	86.12
302.669	98.12
302.9	87.12
303.13	94.12
303.36	101.12
303.59	98.12
303.82	83.12
304.051	90.12
304.281	82.12
304.511	103.12
304.741	83.12
304.971	109.12
305.201	104.12
305.431	109.12
305.661	100.12
305.891	105.12
306.121	85.12
306.352	87.12
306.582	101.12
306.812	97.12
307.042	106.12
307.272	94.12
307.502	91.12
307.731	80.12
307.961	86.12
308.191	77.12
308.421	100.12
308.651	94.12
308.881	87.12
309.111	88.12
309.341	92.12
309.571	90.12
309.8	89.12
310.03	91.12
310.26	103.12
310.49	102.12
310.72	98.12
310.949	97.12
311.179	89.12
311.409	102.12
311.639	99.12
311.868	84.12
312.098	85.12
312.328	91.12
312.557	98.12
312.787	83.12
313.017	95.12
313.246	99.12
313.476	86.12
313.706	85.12
313.935	90.12
314.165	99.12
314.394	102.12
314.624	86.12
314.853	86.12
315.083	86.12
315.312	90.12
315.542	105.12
315.771	99.12
316.001	78.12
316.23	85.12
316.46	101.12
316.689	89.12
316.919	96.12
317.148	90.12
317.377	88.12
317.607	109.12
317.836	96.12
318.065	100.12
318.295	109.12
318.524	107.12
318.753	92.12
318.983	91.12
319.212	93.12
319.441	89.12
319.67	90.12
319.9	105.12
320.129	99.12
320.358	96.12
320.587	101.12
320.816	86.12
321.046	87.12
321.275	92.12
321.504	84.12
321.733	100.12
321.962	90.12
322.191	92.12
322.42	105.12
322.649	81.12
322.878	94.12
323.108	100.12
323.337	99.12
323.566	116.12
323.795	97.12
324.024	81.12
324.253	92.12
324.482	102.12
324.71	91.12
324.939	95.12
325.168	112.12
325.397	108.12
325.626	99.12
325.855	90.12
326.084	90.12
326.313	85.12
326.542	97.12
326.77	101.12
326.999	98.12
327.228	102.12
327.457	103.12
327.686	90.12
327.914	97.12
328.143	84.12
328.372	99.12
328.6	101.12
328.829	90.12
329.058	91.12
329.287	93.12
329.515	96.12
329.744	92.12
329.972	105.12
330.201	92.12
330.43	98.12
330.658	119.12
330.887	95.12
331.115	103.12
331.344	102.12
331.572	100.12
331.801	101.12
332.03	98.12
332.258	96.12
332.486	84.12
332.715	92.12
332.943	89.12
333.172	90.12
333.4	101.12
333.629	92.12
333.857	100.12
334.085	112.12
334.314	103.12
334.542	85.12
334.771	101.12
334.999	101.12
335.227	103.12
335.455	107.12
335.684	110.12
335.912	105.12
336.14	107.12
336.369	84.12
336.597	101.12
336.825	91.12
337.053	92.12
337.281	92.12
337.51	90.12
337.738	94.12
337.966	98.12
338.194	106.12
338.422	88.12
338.65	104.12
338.878	102.12
339.106	108.12
339.334	84.12
339.562	102.12
339.79	84.12
340.018	106.12
340.246	94.12
340.474	98.12
340.702	97.12
340.93	94.12
341.158	95.12
341.386	89.12
341.614	103.12
341.842	97.12
342.07	85.12
342.298	98.12
342.526	90.12
342.754	85.12
342.981	98.12
343.209	113.12
343.437	94.12
343.665	102.12
343.893	98.12
344.12	99.12
344.348	90.12
344.576	97.12
344.804	103.12
345.031	94.12
345.259	89.12
345.487	97.12
345.714	91.12
345.942	95.12
346.17	94.12
346.397	93.12
346.625	82.12
346.853	91.12
347.08	103.12
347.308	115.12
347.535	105.12
347.763	85.12
347.99	95.12
348.218	101.12
348.445	116.12
348.673	90.12
348.9	85.12
349.128	105.12
349.355	99.12
349.583	104.12
349.81	115.12
350.037	104.12
350.265	87.12
350.492	97.12
350.72	94.12
350.947	97.12
351.174	87.12
351.402	90.12
351.629	93.12
351.856	91.12
352.083	90.12
352.311	103.12
352.538	99.12
352.765	97.12
352.992	103.12
353.22	92.12
353.447	100.12
353.674	100.12
353.901	90.12
354.128	101.12
354.355	99.12
354.583	104.12
354.81	115.12
355.037	111.12
355.264	91.12
355.491	102.12
355.718	91.12
355.945	97.12
356.172	98.12
356.399	95.12
356.626	86.12
356.853	109.12
357.08	93.12
357.307	91.12
357.534	89.12
357.761	88.12
357.988	90.12
358.215	100.12
358.441	98.12
358.668	97.12
358.895	97.12
359.122	106.12
359.349	89.12
359.576	100.12
359.802	95.12
360.029	106.12
360.256	89.12
360.483	100.12
360.709	93.12
360.936	98.12
361.163	98.12
361.39	104.12
361.616	106.12
361.843	87.12
362.07	106.12
362.296	95.12
362.523	90.12
362.749	94.12
362.976	88.12
363.203	101.12
363.429	96.12
363.656	99.12
363.882	104.12
364.109	97.12
364.335	92.12
364.562	84.12
364.788	104.12
365.015	108.12
365.241	90.12
365.468	89.12
365.694	88.12
365.92	102.12
366.147	86.12
366.373	88.12
366.599	90.12
366.826	101.12
367.052	90.12
367.278	99.12
367.505	93.12
367.731	91.12
367.957	95.12
368.184	105.12
368.41	102.12
368.636	102.12
368.862	96.12
369.089	97.12
369.315	89.12
369.541	105.12
369.767	94.12
369.993	91.12
370.219	86.12
370.445	92.12
370.672	93.12
370.898	99.12
371.124	87.12
371.35	96.12
371.576	78.12
371.802	96.12
372.028	104.12
372.254	100.12
372.48	89.12
372.706	94.12
372.932	98.12
373.158	102.12
373.384	93.12
373.61	92.12
373.835	99.12
374.061	94.12
374.287	96.12
374.513	102.12
374.739	81.12
374.965	83.12
375.191	97.12
375.416	105.12
375.642	94.12
375.868	90.12
376.094	97.12
376.319	105.12
376.545	94.12
376.771	92.12
376.997	107.12
377.222	101.12
377.448	89.12
377.674	84.12
377.899	86.12
378.125	84.12
378.35	98.12
378.576	100.12
378.802	95.12
379.027	99.12
379.253	99.12
379.478	96.12
379.704	92.12
379.929	83.12
380.155	93.12
380.38	105.12
380.606	86.12
380.831	105.12
381.057	103.12
381.282	112.12
381.507	103.12
381.733	95.12
381.958	99.12
382.184	106.12
382.409	92.12
382.634	115.12
382.86	95.12
383.085	90.12
383.31	94.12
383.535	98.12
383.761	105.12
383.986	89.12
384.211	99.12
384.436	91.12
384.662	91.12
384.887	99.12
385.112	94.12
385.337	100.12
385.562	99.12
385.787	95.12
386.013	93.12
386.238	100.12
386.463	81.12
386.688	99.12
386.913	102.12
387.138	93.12
387.363	103.12
387.588	107.12
387.813	101.12
388.038	105.12
388.263	92.12
388.488	95.12
388.713	89.12
388.938	95.12
389.163	80.12
389.387	93.12
389.612	93.12
389.837	97.12
390.062	97.12
390.287	99.12
390.512	91.12
390.736	98.12
390.961	118.12
391.186	94.12
391.411	97.12
391.636	89.12
391.86	103.12
392.085	96.12
392.31	84.12
392.534	102.12
392.759	86.12
392.984	90.12
393.208	93.12
393.433	90.12
393.658	90.12
393.882	95.12
394.107	92.12
394.331	101.12
394.556	95.12
394.78	89.12
395.005	96.12
395.229	97.12
395.454	94.12
395.678	94.12
395.903	104.12
396.127	96.12
396.352	100.12
396.576	100.12
396.801	106.12
397.025	93.12
397.249	101.12
397.474	104.12
397.698	92.12
397.922	107.12
398.147	111.12
398.371	103.12
398.595	94.12
398.82	105.12
399.044	90.12
399.268	107.12
399.492	114.12
399.717	113.12
399.941	113.12
400.165	87.12
400.389	110.12
400.613	110.12
400.837	103.12
401.062	108.12
401.286	111.12
401.51	99.12
401.734	90.12
401.958	103.12
402.182	100.12
402.406	99.12
402.63	93.12
402.854	103.12
403.078	107.12
403.302	105.12
403.526	94.12
403.75	102.12
403.974	105.12
404.198	106.12
404.422	100.12
404.645	99.12
404.869	104.12
405.093	102.12
405.317	95.12
405.541	100.12
405.765	100.12
405.988	101.12
406.212	95.12
406.436	98.12
406.66	111.12
406.883	90.12
407.107	79.12
407.331	114.12
407.555	106.12
407.778	101.12
408.002	123.12
408.226	101.12
408.449	104.12
408.673	102.12
408.896	113.12
409.12	102.12
409.344	100.12
409.567	95.12
409.791	94.12
410.014	102.12
410.238	97.12
410.461	98.12
410.685	107.12
410.908	106.12
411.132	98.12
411.355	97.12
411.578	95.12
411.802	99.12
412.025	87.12
412.249	93.12
412.472	91.12
412.695	108.12
412.919	94.12
413.142	105.12
413.365	91.12
413.589	85.12
413.812	95.12
414.035	98.12
414.258	103.12
414.482	115.12
414.705	119.12
414.928	109.12
415.151	92.12
415.374	113.12
415.597	89.12
415.821	102.12
416.044	93.12
416.267	108.12
416.49	93.12
416.713	101.12
416.936	100.12
417.159	105.12
417.382	92.12
417.605	95.12
417.828	95.12
418.051	105.12
418.274	104.12
418.497	98.12
418.72	101.12
418.943	110.12
419.166	102.12
419.389	116.12
419.611	89.12
419.834	104.12
420.057	80.12
420.28	109.12
420.503	98.12
420.726	109.12
420.948	99.12
421.171	106.12
421.394	94.12
421.617	100.12
421.839	97.12
422.062	108.12
422.285	99.12
422.507	106.12
422.73	102.12
422.953	79.12
423.175	98.12
423.398	90.12
423.621	103.12
423.843	94.12
424.066	96.12
424.288	92.12
424.511	98.12
424.733	108.12
424.956	100.12
425.178	88.12
425.401	110.12
425.623	110.12
425.846	89.12
426.068	88.12
426.291	88.12
426.513	101.12
426.735	105.12
426.958	89.12
427.18	104.12
427.402	94.12
427.625	99.12
427.847	92.12
428.069	97.12
428.292	103.12
428.514	106.12
428.736	101.12
428.958	92.12
429.181	98.12
429.403	90.12
429.625	93.12
429.847	109.12
430.069	100.12
430.292	94.12
430.514	102.12
430.736	115.12
430.958	106.12
431.18	110.12
431.402	102.12
431.624	95.12
431.846	91.12
432.068	99.12
432.29	94.12
432.512	106.12
432.734	105.12
432.956	87.12
433.178	108.12
433.4	103.12
433.622	87.12
433.844	106.12
434.066	90.12
434.287	99.12
434.509	105.12
434.731	99.12
434.953	98.12
435.175	98.12
435.397	98.12
435.618	91.12
435.84	101.12
436.062	111.12
436.284	108.12
436.505	99.12
436.727	85.12
436.949	102.12
437.17	94.12
437.392	94.12
437.614	102.12
437.835	102.12
438.057	94.12
438.278	107.12
438.5	96.12
438.721	97.12
438.943	101.12
439.165	98.12
439.386	97.12
439.608	105.12
439.829	105.12
440.05	113.12
440.272	107.12
440.493	89.12
440.715	99.12
440.936	107.12
441.158	98.12
441.379	101.12
441.6	96.12
441.822	91.12
442.043	99.12
442.264	106.12
442.486	99.12
442.707	107.12
442.928	99.12
443.149	104.12
443.371	97.12
443.592	100.12
443.813	106.12
444.034	103.12
444.255	96.12
444.476	108.12
444.698	96.12
444.919	103.12
445.14	212.12
445.361	155.12
445.582	106.12
445.803	97.12
446.024	96.12
446.245	106.12
446.466	87.12
446.687	95.12
446.908	102.12
447.129	98.12
447.35	93.12
447.571	93.12
447.792	94.12
448.013	83.12
448.234	98.12
448.455	91.12
448.675	92.12
448.896	110.12
449.117	99.12
449.338	93.12
449.559	104.12
449.779	87.12
450	106.12
450.221	101.12
450.442	91.12
450.662	105.12
450.883	98.12
451.104	89.12
451.324	103.12
451.545	101.12
451.766	89.12
451.986	93.12
452.207	90.12
452.428	93.12
452.648	101.12
452.869	100.12
453.089	84.12
453.31	89.12
453.53	92.12
453.751	92.12
453.971	111.12
454.192	103.12
454.412	88.12
454.633	97.12
454.853	89.12
455.073	98.12
455.294	103.12
455.514	92.12
455.734	82.12
455.955	95.12
456.175	97.12
456.395	98.12
456.616	90.12
456.836	103.12
457.056	99.12
457.276	101.12
457.497	90.12
457.717	106.12
457.937	99.12
458.157	92.12
458.377	88.12
458.598	97.12
458.818	102.12
459.038	82.12
459.258	93.12
459.478	82.12
459.698	99.12
459.918	101.12
460.138	105.12
460.358	114.12
460.578	103.12
460.798	110.12
461.018	90.12
461.238	89.12
461.458	102.12
461.678	106.12
461.898	93.12
462.118	106.12
462.338	90.12
462.558	116.12
462.777	117.12
462.997	114.12
463.217	105.12
463.437	93.12
463.657	92.12
463.876	99.12
464.096	92.12
464.316	96.12
464.536	105.12
464.755	118.12
464.975	115.12
465.195	103.12
465.414	122.12
465.634	102.12
465.854	102.12
466.073	102.12
466.293	89.12
466.512	101.12
466.732	94.12
466.951	102.12
467.171	89.12
467.391	100.12
467.61	92.12
467.829	110.12
468.049	108.12
468.268	101.12
468.488	98.12
468.707	93.12
468.927	102.12
469.146	97.12
469.365	101.12
469.585	94.12
469.804	103.12
470.023	100.12
470.243	102.12
470.462	100.12
470.681	95.12
470.901	99.12
471.12	80.12
471.339	93.12
471.558	106.12
471.777	103.12
471.997	87.12
472.216	92.12
472.435	97.12
472.654	95.12
472.873	96.12
473.092	94.12
473.311	96.12
473.53	100.12
473.749	107.12
473.968	97.12
474.187	106.12
474.406	93.12
474.625	98.12
474.844	110.12
475.063	93.12
475.282	103.12
475.501	110.12
475.72	108.12
475.939	108.12
476.158	114.12
476.377	101.12
476.596	107.12
476.814	95.12
477.033	103.12
477.252	99.12
477.471	112.12
477.69	92.12
477.908	94.12
478.127	114.12
478.346	93.12
478.564	95.12
478.783	102.12
479.002	98.12
479.22	97.12
479.439	102.12
479.658	115.12
479.876	129.12
480.095	104.12
480.313	103.12
480.532	110.12
480.751	107.12
480.969	111.12
481.188	105.12
481.406	104.12
481.624	103.12
481.843	97.12
482.061	103.12
482.28	115.12
482.498	106.12
482.717	101.12
482.935	110.12
483.153	111.12
483.372	107.12
483.59	105.12
483.808	107.12
484.027	94.12
484.245	111.12
484.463	103.12
484.681	93.12
484.9	98.12
485.118	103.12
485.336	100.12
485.554	115.12
485.772	94.12
485.99	119.12
486.209	111.12
486.427	104.12
486.645	118.12
486.863	110.12
487.081	102.12
487.299	105.12
487.517	118.12
487.735	116.12
487.953	113.12
488.171	107.12
488.389	117.12
488.607	99.12
488.825	105.12
489.043	109.12
489.261	115.12
489.479	114.12
489.696	115.12
489.914	119.12
490.132	100.12
490.35	113.12
490.568	111.12
490.786	109.12
491.003	107.12
491.221	103.12
491.439	94.12
491.657	115.12
491.874	129.12
492.092	116.12
492.31	117.12
492.527	119.12
492.745	129.12
492.963	122.12
493.18	130.12
493.398	121.12
493.615	118.12
493.833	117.12
494.05	110.12
494.268	119.12
494.485	113.12
494.703	107.12
494.92	119.12
495.138	105.12
495.355	116.12
495.573	119.12
495.79	119.12
496.008	106.12
496.225	110.12
496.442	108.12
496.66	110.12
496.877	119.12
497.094	114.12
497.312	103.12
497.529	113.12
497.746	118.12
497.963	118.12
498.181	121.12
498.398	129.12
498.615	97.12
498.832	121.12
499.049	118.12
499.267	133.12
499.484	125.12
499.701	147.12
499.918	161.12
500.135	161.12
500.352	161.12
500.569	162.12
500.786	191.12
501.003	145.12
501.22	162.12
501.437	142.12
501.654	149.12
501.871	125.12
502.088	126.12
502.305	115.12
502.522	129.12
502.739	122.12
502.956	124.12
503.172	111.12
503.389	107.12
503.606	110.12
503.823	109.12
504.04	121.12
504.256	107.12
504.473	105.12
504.69	120.12
504.907	129.12
505.123	118.12
505.34	114.12
505.557	111.12
505.773	121.12
505.99	106.12
506.207	117.12
506.423	110.12
506.64	120.12
506.856	108.12
507.073	90.12
507.289	108.12
507.506	104.12
507.722	102.12
507.939	108.12
508.155	103.12
508.372	99.12
508.588	97.12
508.805	97.12
509.021	115.12
509.238	109.12
509.454	102.12
509.67	99.12
509.887	99.12
510.103	100.12
510.319	106.12
510.536	119.12
510.752	102.12
510.968	123.12
511.184	121.12
511.401	116.12
511.617	104.12
511.833	105.12
512.049	85.12
512.265	110.12
512.481	116.12
512.698	98.12
