Data from Location5.07152019.Energy5.Lamp.07192019.3%Agarose_HRD10591_16-03-39-628.txt Node
Date: Fri Jul 19 16:03:39 EDT 2019
User: cochatt
Spectrometer: HR+D1059
Trigger mode: 1
Integration Time (sec): 1.000000E-1
Scans to average: 1
Electric dark correction enabled: true
Nonlinearity correction enabled: false
Boxcar width: 0
XAxis mode: Wavelengths
Number of Pixels in Spectrum: 2048
>>>>>Begin Spectral Data<<<<<
223.165	-17.44
223.4	-17.44
223.635	-17.44
223.869	-13.44
224.104	-17.44
224.338	-18.44
224.573	-24.44
224.808	-9.44
225.042	-7.44
225.277	2.56
225.511	3.56
225.746	-2.44
225.98	12.56
226.215	3.56
226.449	17.56
226.683	12.56
226.918	28.56
227.152	29.56
227.387	31.56
227.621	36.56
227.856	46.56
228.09	37.56
228.324	47.56
228.559	47.56
228.793	55.56
229.027	67.56
229.262	77.56
229.496	64.56
229.73	68.56
229.964	76.56
230.199	66.56
230.433	80.56
230.667	78.56
230.901	66.56
231.136	76.56
231.37	83.56
231.604	74.56
231.838	70.56
232.072	86.56
232.306	81.56
232.541	86.56
232.775	92.56
233.009	91.56
233.243	84.56
233.477	84.56
233.711	87.56
233.945	87.56
234.179	72.56
234.413	87.56
234.647	76.56
234.881	87.56
235.115	71.56
235.349	69.56
235.583	78.56
235.817	76.56
236.051	80.56
236.285	71.56
236.519	85.56
236.753	76.56
236.987	74.56
237.221	76.56
237.455	89.56
237.689	76.56
237.922	76.56
238.156	72.56
238.39	76.56
238.624	74.56
238.858	79.56
239.091	76.56
239.325	63.56
239.559	63.56
239.793	82.56
240.027	83.56
240.26	68.56
240.494	79.56
240.728	76.56
240.961	80.56
241.195	92.56
241.429	79.56
241.662	84.56
241.896	74.56
242.13	71.56
242.363	84.56
242.597	76.56
242.83	74.56
243.064	89.56
243.298	74.56
243.531	88.56
243.765	69.56
243.998	73.56
244.232	79.56
244.465	90.56
244.699	76.56
244.932	74.56
245.166	80.56
245.399	83.56
245.633	69.56
245.866	75.56
246.099	68.56
246.333	83.56
246.566	81.56
246.8	70.56
247.033	78.56
247.266	81.56
247.5	86.56
247.733	81.56
247.966	82.56
248.2	74.56
248.433	66.56
248.666	71.56
248.899	80.56
249.133	82.56
249.366	74.56
249.599	66.56
249.832	87.56
250.066	71.56
250.299	77.56
250.532	88.56
250.765	76.56
250.998	91.56
251.231	72.56
251.465	86.56
251.698	78.56
251.931	83.56
252.164	83.56
252.397	84.56
252.63	75.56
252.863	87.56
253.096	94.56
253.329	88.56
253.562	91.56
253.795	87.56
254.028	88.56
254.261	89.56
254.494	85.56
254.727	88.56
254.96	84.56
255.193	71.56
255.426	80.56
255.659	78.56
255.892	91.56
256.124	79.56
256.357	75.56
256.59	80.56
256.823	72.56
257.056	83.56
257.289	89.56
257.521	81.56
257.754	88.56
257.987	80.56
258.22	81.56
258.452	70.56
258.685	90.56
258.918	72.56
259.151	86.56
259.383	91.56
259.616	81.56
259.849	81.56
260.081	79.56
260.314	88.56
260.547	95.56
260.779	73.56
261.012	79.56
261.244	93.56
261.477	87.56
261.71	75.56
261.942	84.56
262.175	89.56
262.407	72.56
262.64	82.56
262.872	75.56
263.105	71.56
263.337	81.56
263.57	81.56
263.802	79.56
264.035	85.56
264.267	81.56
264.499	81.56
264.732	81.56
264.964	93.56
265.197	93.56
265.429	82.56
265.661	84.56
265.894	73.56
266.126	76.56
266.358	86.56
266.591	108.56
266.823	80.56
267.055	76.56
267.287	85.56
267.52	89.56
267.752	96.56
267.984	72.56
268.216	82.56
268.448	83.56
268.681	100.56
268.913	106.56
269.145	68.56
269.377	90.56
269.609	82.56
269.841	82.56
270.073	87.56
270.306	90.56
270.538	90.56
270.77	85.56
271.002	87.56
271.234	84.56
271.466	94.56
271.698	92.56
271.93	76.56
272.162	75.56
272.394	91.56
272.626	78.56
272.858	78.56
273.09	87.56
273.322	82.56
273.553	85.56
273.785	80.56
274.017	83.56
274.249	78.56
274.481	88.56
274.713	82.56
274.945	89.56
275.176	86.56
275.408	90.56
275.64	83.56
275.872	79.56
276.104	82.56
276.335	82.56
276.567	92.56
276.799	82.56
277.031	88.56
277.262	93.56
277.494	96.56
277.726	79.56
277.957	92.56
278.189	81.56
278.421	72.56
278.652	96.56
278.884	82.56
279.115	99.56
279.347	93.56
279.579	91.56
279.81	105.56
280.042	81.56
280.273	90.56
280.505	78.56
280.736	83.56
280.968	94.56
281.199	86.56
281.431	96.56
281.662	87.56
281.894	87.56
282.125	89.56
282.356	94.56
282.588	94.56
282.819	88.56
283.051	91.56
283.282	94.56
283.513	89.56
283.745	91.56
283.976	84.56
284.207	92.56
284.439	107.56
284.67	88.56
284.901	83.56
285.132	103.56
285.364	88.56
285.595	87.56
285.826	80.56
286.057	93.56
286.288	92.56
286.52	105.56
286.751	87.56
286.982	83.56
287.213	87.56
287.444	90.56
287.675	81.56
287.906	101.56
288.138	81.56
288.369	99.56
288.6	81.56
288.831	76.56
289.062	112.56
289.293	96.56
289.524	96.56
289.755	95.56
289.986	83.56
290.217	80.56
290.448	86.56
290.679	92.56
290.91	103.56
291.141	89.56
291.371	93.56
291.602	82.56
291.833	102.56
292.064	88.56
292.295	102.56
292.526	83.56
292.757	77.56
292.987	103.56
293.218	83.56
293.449	92.56
293.68	110.56
293.91	82.56
294.141	82.56
294.372	95.56
294.603	90.56
294.833	89.56
295.064	83.56
295.295	85.56
295.525	90.56
295.756	88.56
295.987	94.56
296.217	95.56
296.448	86.56
296.679	88.56
296.909	102.56
297.14	94.56
297.37	82.56
297.601	97.56
297.831	95.56
298.062	103.56
298.292	99.56
298.523	84.56
298.753	96.56
298.984	101.56
299.214	87.56
299.445	99.56
299.675	85.56
299.905	101.56
300.136	87.56
300.366	80.56
300.597	82.56
300.827	100.56
301.057	88.56
301.288	84.56
301.518	77.56
301.748	110.56
301.979	89.56
302.209	79.56
302.439	86.56
302.669	101.56
302.9	98.56
303.13	89.56
303.36	101.56
303.59	87.56
303.82	86.56
304.051	91.56
304.281	81.56
304.511	99.56
304.741	103.56
304.971	81.56
305.201	92.56
305.431	85.56
305.661	102.56
305.891	79.56
306.121	95.56
306.352	91.56
306.582	84.56
306.812	92.56
307.042	96.56
307.272	96.56
307.502	95.56
307.731	81.56
307.961	101.56
308.191	90.56
308.421	103.56
308.651	100.56
308.881	107.56
309.111	95.56
309.341	92.56
309.571	102.56
309.8	102.56
310.03	86.56
310.26	89.56
310.49	104.56
310.72	90.56
310.949	92.56
311.179	91.56
311.409	85.56
311.639	91.56
311.868	94.56
312.098	96.56
312.328	97.56
312.557	83.56
312.787	81.56
313.017	89.56
313.246	93.56
313.476	83.56
313.706	95.56
313.935	86.56
314.165	98.56
314.394	112.56
314.624	82.56
314.853	97.56
315.083	94.56
315.312	84.56
315.542	96.56
315.771	97.56
316.001	94.56
316.23	98.56
316.46	94.56
316.689	102.56
316.919	104.56
317.148	92.56
317.377	93.56
317.607	102.56
317.836	87.56
318.065	90.56
318.295	96.56
318.524	80.56
318.753	86.56
318.983	103.56
319.212	97.56
319.441	78.56
319.67	87.56
319.9	96.56
320.129	79.56
320.358	86.56
320.587	91.56
320.816	80.56
321.046	100.56
321.275	90.56
321.504	96.56
321.733	100.56
321.962	91.56
322.191	89.56
322.42	96.56
322.649	99.56
322.878	82.56
323.108	96.56
323.337	96.56
323.566	80.56
323.795	88.56
324.024	94.56
324.253	85.56
324.482	85.56
324.71	100.56
324.939	98.56
325.168	95.56
325.397	90.56
325.626	98.56
325.855	88.56
326.084	99.56
326.313	94.56
326.542	87.56
326.77	101.56
326.999	84.56
327.228	101.56
327.457	98.56
327.686	80.56
327.914	96.56
328.143	91.56
328.372	106.56
328.6	102.56
328.829	84.56
329.058	101.56
329.287	84.56
329.515	100.56
329.744	94.56
329.972	99.56
330.201	100.56
330.43	87.56
330.658	102.56
330.887	103.56
331.115	111.56
331.344	99.56
331.572	90.56
331.801	108.56
332.03	100.56
332.258	102.56
332.486	85.56
332.715	75.56
332.943	100.56
333.172	98.56
333.4	102.56
333.629	83.56
333.857	86.56
334.085	88.56
334.314	96.56
334.542	113.56
334.771	82.56
334.999	107.56
335.227	107.56
335.455	98.56
335.684	104.56
335.912	89.56
336.14	94.56
336.369	91.56
336.597	91.56
336.825	89.56
337.053	91.56
337.281	85.56
337.51	76.56
337.738	101.56
337.966	90.56
338.194	90.56
338.422	79.56
338.65	83.56
338.878	104.56
339.106	102.56
339.334	97.56
339.562	79.56
339.79	81.56
340.018	100.56
340.246	95.56
340.474	94.56
340.702	110.56
340.93	89.56
341.158	90.56
341.386	94.56
341.614	93.56
341.842	80.56
342.07	82.56
342.298	106.56
342.526	87.56
342.754	86.56
342.981	80.56
343.209	95.56
343.437	101.56
343.665	92.56
343.893	102.56
344.12	114.56
344.348	86.56
344.576	99.56
344.804	77.56
345.031	85.56
345.259	97.56
345.487	87.56
345.714	91.56
345.942	89.56
346.17	106.56
346.397	88.56
346.625	98.56
346.853	93.56
347.08	102.56
347.308	90.56
347.535	96.56
347.763	93.56
347.99	82.56
348.218	104.56
348.445	87.56
348.673	90.56
348.9	96.56
349.128	93.56
349.355	97.56
349.583	101.56
349.81	95.56
350.037	96.56
350.265	96.56
350.492	87.56
350.72	102.56
350.947	97.56
351.174	98.56
351.402	81.56
351.629	88.56
351.856	99.56
352.083	101.56
352.311	90.56
352.538	105.56
352.765	86.56
352.992	91.56
353.22	103.56
353.447	94.56
353.674	96.56
353.901	88.56
354.128	83.56
354.355	81.56
354.583	89.56
354.81	92.56
355.037	80.56
355.264	86.56
355.491	99.56
355.718	92.56
355.945	96.56
356.172	90.56
356.399	83.56
356.626	91.56
356.853	85.56
357.08	90.56
357.307	100.56
357.534	92.56
357.761	73.56
357.988	87.56
358.215	103.56
358.441	89.56
358.668	88.56
358.895	86.56
359.122	85.56
359.349	95.56
359.576	102.56
359.802	90.56
360.029	86.56
360.256	92.56
360.483	77.56
360.709	86.56
360.936	92.56
361.163	92.56
361.39	93.56
361.616	103.56
361.843	94.56
362.07	106.56
362.296	99.56
362.523	97.56
362.749	102.56
362.976	89.56
363.203	80.56
363.429	103.56
363.656	98.56
363.882	107.56
364.109	91.56
364.335	110.56
364.562	95.56
364.788	105.56
365.015	93.56
365.241	88.56
365.468	84.56
365.694	81.56
365.92	89.56
366.147	103.56
366.373	110.56
366.599	106.56
366.826	85.56
367.052	86.56
367.278	94.56
367.505	85.56
367.731	90.56
367.957	91.56
368.184	87.56
368.41	106.56
368.636	89.56
368.862	79.56
369.089	94.56
369.315	89.56
369.541	86.56
369.767	102.56
369.993	91.56
370.219	87.56
370.445	91.56
370.672	97.56
370.898	84.56
371.124	92.56
371.35	73.56
371.576	85.56
371.802	86.56
372.028	100.56
372.254	85.56
372.48	85.56
372.706	91.56
372.932	87.56
373.158	90.56
373.384	95.56
373.61	96.56
373.835	101.56
374.061	90.56
374.287	87.56
374.513	81.56
374.739	102.56
374.965	118.56
375.191	107.56
375.416	85.56
375.642	94.56
375.868	104.56
376.094	89.56
376.319	88.56
376.545	80.56
376.771	92.56
376.997	92.56
377.222	89.56
377.448	97.56
377.674	96.56
377.899	85.56
378.125	95.56
378.35	91.56
378.576	87.56
378.802	93.56
379.027	91.56
379.253	99.56
379.478	99.56
379.704	82.56
379.929	95.56
380.155	88.56
380.38	98.56
380.606	88.56
380.831	87.56
381.057	89.56
381.282	106.56
381.507	96.56
381.733	101.56
381.958	100.56
382.184	93.56
382.409	94.56
382.634	85.56
382.86	94.56
383.085	99.56
383.31	82.56
383.535	86.56
383.761	87.56
383.986	85.56
384.211	115.56
384.436	115.56
384.662	93.56
384.887	90.56
385.112	88.56
385.337	97.56
385.562	86.56
385.787	106.56
386.013	107.56
386.238	106.56
386.463	109.56
386.688	100.56
386.913	99.56
387.138	100.56
387.363	82.56
387.588	106.56
387.813	94.56
388.038	76.56
388.263	105.56
388.488	92.56
388.713	91.56
388.938	88.56
389.163	104.56
389.387	86.56
389.612	88.56
389.837	88.56
390.062	99.56
390.287	87.56
390.512	96.56
390.736	99.56
390.961	104.56
391.186	91.56
391.411	90.56
391.636	94.56
391.86	99.56
392.085	95.56
392.31	95.56
392.534	100.56
392.759	96.56
392.984	110.56
393.208	97.56
393.433	91.56
393.658	94.56
393.882	107.56
394.107	91.56
394.331	87.56
394.556	104.56
394.78	102.56
395.005	92.56
395.229	98.56
395.454	90.56
395.678	102.56
395.903	97.56
396.127	88.56
396.352	102.56
396.576	91.56
396.801	103.56
397.025	83.56
397.249	80.56
397.474	102.56
397.698	102.56
397.922	100.56
398.147	88.56
398.371	87.56
398.595	103.56
398.82	96.56
399.044	86.56
399.268	111.56
399.492	114.56
399.717	111.56
399.941	113.56
400.165	116.56
400.389	110.56
400.613	90.56
400.837	91.56
401.062	95.56
401.286	96.56
401.51	107.56
401.734	91.56
401.958	88.56
402.182	89.56
402.406	89.56
402.63	84.56
402.854	98.56
403.078	88.56
403.302	98.56
403.526	95.56
403.75	124.56
403.974	94.56
404.198	118.56
404.422	104.56
404.645	96.56
404.869	107.56
405.093	101.56
405.317	110.56
405.541	99.56
405.765	98.56
405.988	103.56
406.212	106.56
406.436	121.56
406.66	101.56
406.883	111.56
407.107	94.56
407.331	96.56
407.555	107.56
407.778	102.56
408.002	106.56
408.226	103.56
408.449	97.56
408.673	100.56
408.896	94.56
409.12	98.56
409.344	104.56
409.567	95.56
409.791	95.56
410.014	101.56
410.238	102.56
410.461	101.56
410.685	98.56
410.908	111.56
411.132	96.56
411.355	96.56
411.578	110.56
411.802	97.56
412.025	90.56
412.249	104.56
412.472	96.56
412.695	102.56
412.919	88.56
413.142	105.56
413.365	98.56
413.589	101.56
413.812	84.56
414.035	94.56
414.258	103.56
414.482	96.56
414.705	94.56
414.928	97.56
415.151	99.56
415.374	102.56
415.597	77.56
415.821	99.56
416.044	89.56
416.267	94.56
416.49	100.56
416.713	118.56
416.936	105.56
417.159	90.56
417.382	96.56
417.605	101.56
417.828	88.56
418.051	92.56
418.274	91.56
418.497	83.56
418.72	107.56
418.943	106.56
419.166	88.56
419.389	101.56
419.611	107.56
419.834	98.56
420.057	91.56
420.28	100.56
420.503	115.56
420.726	71.56
420.948	96.56
421.171	99.56
421.394	90.56
421.617	96.56
421.839	90.56
422.062	88.56
422.285	95.56
422.507	98.56
422.73	96.56
422.953	80.56
423.175	88.56
423.398	95.56
423.621	116.56
423.843	100.56
424.066	99.56
424.288	111.56
424.511	98.56
424.733	96.56
424.956	106.56
425.178	95.56
425.401	88.56
425.623	94.56
425.846	102.56
426.068	85.56
426.291	100.56
426.513	103.56
426.735	88.56
426.958	97.56
427.18	103.56
427.402	92.56
427.625	97.56
427.847	96.56
428.069	95.56
428.292	85.56
428.514	95.56
428.736	82.56
428.958	92.56
429.181	89.56
429.403	92.56
429.625	90.56
429.847	107.56
430.069	107.56
430.292	90.56
430.514	85.56
430.736	100.56
430.958	107.56
431.18	91.56
431.402	91.56
431.624	100.56
431.846	97.56
432.068	98.56
432.29	95.56
432.512	81.56
432.734	88.56
432.956	111.56
433.178	115.56
433.4	99.56
433.622	102.56
433.844	106.56
434.066	97.56
434.287	95.56
434.509	106.56
434.731	97.56
434.953	104.56
435.175	94.56
435.397	106.56
435.618	82.56
435.84	88.56
436.062	98.56
436.284	95.56
436.505	101.56
436.727	79.56
436.949	99.56
437.17	93.56
437.392	89.56
437.614	94.56
437.835	109.56
438.057	94.56
438.278	80.56
438.5	108.56
438.721	97.56
438.943	98.56
439.165	94.56
439.386	84.56
439.608	99.56
439.829	101.56
440.05	112.56
440.272	105.56
440.493	92.56
440.715	98.56
440.936	97.56
441.158	85.56
441.379	102.56
441.6	111.56
441.822	91.56
442.043	87.56
442.264	94.56
442.486	97.56
442.707	86.56
442.928	78.56
443.149	101.56
443.371	86.56
443.592	92.56
443.813	90.56
444.034	98.56
444.255	103.56
444.476	97.56
444.698	91.56
444.919	83.56
445.14	195.56
445.361	156.56
445.582	106.56
445.803	94.56
446.024	101.56
446.245	94.56
446.466	76.56
446.687	99.56
446.908	90.56
447.129	88.56
447.35	90.56
447.571	105.56
447.792	86.56
448.013	104.56
448.234	99.56
448.455	93.56
448.675	87.56
448.896	96.56
449.117	89.56
449.338	78.56
449.559	102.56
449.779	78.56
450	87.56
450.221	89.56
450.442	98.56
450.662	93.56
450.883	90.56
451.104	84.56
451.324	90.56
451.545	83.56
451.766	104.56
451.986	87.56
452.207	102.56
452.428	94.56
452.648	95.56
452.869	91.56
453.089	97.56
453.31	74.56
453.53	96.56
453.751	94.56
453.971	93.56
454.192	88.56
454.412	95.56
454.633	81.56
454.853	93.56
455.073	90.56
455.294	94.56
455.514	86.56
455.734	95.56
455.955	94.56
456.175	89.56
456.395	102.56
456.616	70.56
456.836	91.56
457.056	82.56
457.276	86.56
457.497	89.56
457.717	94.56
457.937	100.56
458.157	109.56
458.377	90.56
458.598	88.56
458.818	91.56
459.038	100.56
459.258	96.56
459.478	81.56
459.698	99.56
459.918	112.56
460.138	106.56
460.358	95.56
460.578	96.56
460.798	103.56
461.018	103.56
461.238	102.56
461.458	102.56
461.678	103.56
461.898	106.56
462.118	102.56
462.338	92.56
462.558	106.56
462.777	107.56
462.997	109.56
463.217	119.56
463.437	97.56
463.657	107.56
463.876	112.56
464.096	106.56
464.316	97.56
464.536	98.56
464.755	86.56
464.975	94.56
465.195	100.56
465.414	107.56
465.634	81.56
465.854	101.56
466.073	96.56
466.293	86.56
466.512	96.56
466.732	95.56
466.951	80.56
467.171	86.56
467.391	73.56
467.61	89.56
467.829	105.56
468.049	93.56
468.268	96.56
468.488	99.56
468.707	104.56
468.927	96.56
469.146	102.56
469.365	79.56
469.585	89.56
469.804	118.56
470.023	110.56
470.243	96.56
470.462	94.56
470.681	94.56
470.901	121.56
471.12	91.56
471.339	105.56
471.558	106.56
471.777	100.56
471.997	101.56
472.216	96.56
472.435	101.56
472.654	112.56
472.873	101.56
473.092	101.56
473.311	97.56
473.53	116.56
473.749	107.56
473.968	96.56
474.187	92.56
474.406	107.56
474.625	89.56
474.844	98.56
475.063	82.56
475.282	95.56
475.501	98.56
475.72	99.56
475.939	94.56
476.158	90.56
476.377	94.56
476.596	77.56
476.814	104.56
477.033	90.56
477.252	96.56
477.471	98.56
477.69	91.56
477.908	104.56
478.127	104.56
478.346	103.56
478.564	100.56
478.783	116.56
479.002	107.56
479.22	105.56
479.439	92.56
479.658	97.56
479.876	95.56
480.095	93.56
480.313	83.56
480.532	108.56
480.751	85.56
480.969	103.56
481.188	102.56
481.406	110.56
481.624	107.56
481.843	85.56
482.061	102.56
482.28	95.56
482.498	89.56
482.717	97.56
482.935	99.56
483.153	96.56
483.372	91.56
483.59	115.56
483.808	98.56
484.027	116.56
484.245	93.56
484.463	113.56
484.681	107.56
484.9	96.56
485.118	114.56
485.336	105.56
485.554	96.56
485.772	104.56
485.99	99.56
486.209	95.56
486.427	98.56
486.645	117.56
486.863	91.56
487.081	96.56
487.299	110.56
487.517	122.56
487.735	115.56
487.953	115.56
488.171	114.56
488.389	114.56
488.607	103.56
488.825	105.56
489.043	111.56
489.261	103.56
489.479	117.56
489.696	112.56
489.914	101.56
490.132	119.56
490.35	98.56
490.568	97.56
490.786	101.56
491.003	98.56
491.221	101.56
491.439	114.56
491.657	107.56
491.874	110.56
492.092	106.56
492.31	118.56
492.527	104.56
492.745	102.56
492.963	98.56
493.18	115.56
493.398	112.56
493.615	120.56
493.833	111.56
494.05	104.56
494.268	120.56
494.485	112.56
494.703	117.56
494.92	107.56
495.138	107.56
495.355	96.56
495.573	107.56
495.79	98.56
496.008	106.56
496.225	116.56
496.442	107.56
496.66	119.56
496.877	96.56
497.094	120.56
497.312	99.56
497.529	114.56
497.746	113.56
497.963	107.56
498.181	104.56
498.398	128.56
498.615	111.56
498.832	119.56
499.049	118.56
499.267	119.56
499.484	124.56
499.701	137.56
499.918	130.56
500.135	144.56
500.352	149.56
500.569	168.56
500.786	162.56
501.003	138.56
501.22	140.56
501.437	136.56
501.654	123.56
501.871	132.56
502.088	124.56
502.305	120.56
502.522	105.56
502.739	118.56
502.956	115.56
503.172	115.56
503.389	110.56
503.606	116.56
503.823	123.56
504.04	118.56
504.256	112.56
504.473	97.56
504.69	118.56
504.907	100.56
505.123	107.56
505.34	103.56
505.557	104.56
505.773	92.56
505.99	99.56
506.207	110.56
506.423	119.56
506.64	113.56
506.856	102.56
507.073	87.56
507.289	88.56
507.506	106.56
507.722	113.56
507.939	96.56
508.155	105.56
508.372	101.56
508.588	103.56
508.805	99.56
509.021	101.56
509.238	96.56
509.454	98.56
509.67	90.56
509.887	111.56
510.103	100.56
510.319	110.56
510.536	91.56
510.752	102.56
510.968	94.56
511.184	101.56
511.401	107.56
511.617	112.56
511.833	91.56
512.049	100.56
512.265	102.56
512.481	112.56
512.698	100.56
512.914	110.56
513.13	94.56
513.346	95.56
513.562	100.56
513.778	89.56
513.994	106.56
514.21	94.56
