Data from Location5.07152019.Energy5.Lamp.07192019.3%Agarose_HRD10591_16-02-25-628.txt Node
Date: Fri Jul 19 16:02:25 EDT 2019
User: cochatt
Spectrometer: HR+D1059
Trigger mode: 1
Integration Time (sec): 1.000000E-1
Scans to average: 1
Electric dark correction enabled: true
Nonlinearity correction enabled: false
Boxcar width: 0
XAxis mode: Wavelengths
Number of Pixels in Spectrum: 2048
>>>>>Begin Spectral Data<<<<<
223.165	-8.88
223.4	-8.88
223.635	-8.88
223.869	-2.88
224.104	-22.88
224.338	-8.88
224.573	-12.88
224.808	-14.88
225.042	-13.88
225.277	-8.88
225.511	-9.88
225.746	7.12
225.98	8.12
226.215	11.12
226.449	2.12
226.683	22.12
226.918	26.12
227.152	27.12
227.387	24.12
227.621	40.12
227.856	38.12
228.09	29.12
228.324	33.12
228.559	48.12
228.793	52.12
229.027	56.12
229.262	65.12
229.496	71.12
229.73	73.12
229.964	64.12
230.199	60.12
230.433	86.12
230.667	81.12
230.901	70.12
231.136	83.12
231.37	63.12
231.604	79.12
231.838	70.12
232.072	75.12
232.306	84.12
232.541	75.12
232.775	81.12
233.009	83.12
233.243	77.12
233.477	71.12
233.711	85.12
233.945	91.12
234.179	80.12
234.413	78.12
234.647	85.12
234.881	77.12
235.115	89.12
235.349	82.12
235.583	84.12
235.817	85.12
236.051	80.12
236.285	79.12
236.519	82.12
236.753	82.12
236.987	77.12
237.221	75.12
237.455	86.12
237.689	73.12
237.922	72.12
238.156	70.12
238.39	88.12
238.624	81.12
238.858	77.12
239.091	64.12
239.325	71.12
239.559	71.12
239.793	80.12
240.027	74.12
240.26	76.12
240.494	85.12
240.728	70.12
240.961	65.12
241.195	92.12
241.429	78.12
241.662	74.12
241.896	74.12
242.13	69.12
242.363	63.12
242.597	78.12
242.83	90.12
243.064	73.12
243.298	71.12
243.531	75.12
243.765	82.12
243.998	70.12
244.232	76.12
244.465	74.12
244.699	74.12
244.932	73.12
245.166	87.12
245.399	74.12
245.633	67.12
245.866	73.12
246.099	88.12
246.333	65.12
246.566	81.12
246.8	74.12
247.033	58.12
247.266	68.12
247.5	77.12
247.733	79.12
247.966	74.12
248.2	74.12
248.433	68.12
248.666	77.12
248.899	70.12
249.133	70.12
249.366	74.12
249.599	72.12
249.832	72.12
250.066	68.12
250.299	71.12
250.532	80.12
250.765	69.12
250.998	63.12
251.231	85.12
251.465	75.12
251.698	70.12
251.931	82.12
252.164	75.12
252.397	72.12
252.63	76.12
252.863	88.12
253.096	84.12
253.329	78.12
253.562	89.12
253.795	81.12
254.028	72.12
254.261	87.12
254.494	81.12
254.727	78.12
254.96	88.12
255.193	84.12
255.426	86.12
255.659	72.12
255.892	83.12
256.124	67.12
256.357	83.12
256.59	87.12
256.823	82.12
257.056	77.12
257.289	88.12
257.521	92.12
257.754	97.12
257.987	85.12
258.22	75.12
258.452	87.12
258.685	79.12
258.918	79.12
259.151	85.12
259.383	81.12
259.616	60.12
259.849	81.12
260.081	71.12
260.314	84.12
260.547	74.12
260.779	85.12
261.012	93.12
261.244	87.12
261.477	85.12
261.71	87.12
261.942	72.12
262.175	81.12
262.407	85.12
262.64	79.12
262.872	79.12
263.105	80.12
263.337	81.12
263.57	84.12
263.802	72.12
264.035	82.12
264.267	91.12
264.499	92.12
264.732	86.12
264.964	77.12
265.197	85.12
265.429	87.12
265.661	82.12
265.894	85.12
266.126	89.12
266.358	83.12
266.591	82.12
266.823	86.12
267.055	76.12
267.287	81.12
267.52	79.12
267.752	91.12
267.984	100.12
268.216	80.12
268.448	80.12
268.681	85.12
268.913	85.12
269.145	78.12
269.377	79.12
269.609	92.12
269.841	94.12
270.073	90.12
270.306	84.12
270.538	74.12
270.77	79.12
271.002	92.12
271.234	85.12
271.466	79.12
271.698	74.12
271.93	90.12
272.162	95.12
272.394	88.12
272.626	81.12
272.858	85.12
273.09	96.12
273.322	79.12
273.553	88.12
273.785	91.12
274.017	82.12
274.249	88.12
274.481	88.12
274.713	74.12
274.945	85.12
275.176	105.12
275.408	91.12
275.64	86.12
275.872	78.12
276.104	86.12
276.335	72.12
276.567	93.12
276.799	79.12
277.031	77.12
277.262	90.12
277.494	96.12
277.726	87.12
277.957	91.12
278.189	99.12
278.421	83.12
278.652	94.12
278.884	91.12
279.115	90.12
279.347	73.12
279.579	90.12
279.81	94.12
280.042	93.12
280.273	101.12
280.505	84.12
280.736	90.12
280.968	89.12
281.199	94.12
281.431	87.12
281.662	86.12
281.894	85.12
282.125	80.12
282.356	83.12
282.588	87.12
282.819	85.12
283.051	79.12
283.282	93.12
283.513	83.12
283.745	89.12
283.976	85.12
284.207	81.12
284.439	85.12
284.67	90.12
284.901	90.12
285.132	97.12
285.364	93.12
285.595	95.12
285.826	75.12
286.057	86.12
286.288	83.12
286.52	87.12
286.751	86.12
286.982	95.12
287.213	78.12
287.444	97.12
287.675	86.12
287.906	67.12
288.138	92.12
288.369	78.12
288.6	92.12
288.831	89.12
289.062	106.12
289.293	101.12
289.524	84.12
289.755	90.12
289.986	79.12
290.217	86.12
290.448	88.12
290.679	95.12
290.91	89.12
291.141	93.12
291.371	85.12
291.602	86.12
291.833	99.12
292.064	95.12
292.295	102.12
292.526	88.12
292.757	85.12
292.987	78.12
293.218	95.12
293.449	104.12
293.68	79.12
293.91	87.12
294.141	81.12
294.372	81.12
294.603	89.12
294.833	93.12
295.064	89.12
295.295	96.12
295.525	91.12
295.756	93.12
295.987	92.12
296.217	91.12
296.448	87.12
296.679	96.12
296.909	90.12
297.14	91.12
297.37	88.12
297.601	101.12
297.831	89.12
298.062	104.12
298.292	90.12
298.523	89.12
298.753	94.12
298.984	85.12
299.214	105.12
299.445	94.12
299.675	76.12
299.905	89.12
300.136	78.12
300.366	87.12
300.597	94.12
300.827	90.12
301.057	87.12
301.288	88.12
301.518	93.12
301.748	79.12
301.979	83.12
302.209	70.12
302.439	84.12
302.669	77.12
302.9	89.12
303.13	95.12
303.36	95.12
303.59	87.12
303.82	101.12
304.051	94.12
304.281	96.12
304.511	97.12
304.741	97.12
304.971	88.12
305.201	97.12
305.431	87.12
305.661	94.12
305.891	88.12
306.121	93.12
306.352	82.12
306.582	93.12
306.812	79.12
307.042	90.12
307.272	86.12
307.502	109.12
307.731	102.12
307.961	87.12
308.191	83.12
308.421	94.12
308.651	86.12
308.881	89.12
309.111	91.12
309.341	98.12
309.571	80.12
309.8	76.12
310.03	86.12
310.26	88.12
310.49	100.12
310.72	76.12
310.949	84.12
311.179	89.12
311.409	74.12
311.639	90.12
311.868	88.12
312.098	98.12
312.328	89.12
312.557	119.12
312.787	85.12
313.017	93.12
313.246	97.12
313.476	91.12
313.706	87.12
313.935	86.12
314.165	99.12
314.394	112.12
314.624	90.12
314.853	96.12
315.083	97.12
315.312	100.12
315.542	83.12
315.771	78.12
316.001	94.12
316.23	89.12
316.46	90.12
316.689	76.12
316.919	89.12
317.148	79.12
317.377	100.12
317.607	99.12
317.836	86.12
318.065	73.12
318.295	88.12
318.524	94.12
318.753	87.12
318.983	102.12
319.212	91.12
319.441	95.12
319.67	107.12
319.9	94.12
320.129	99.12
320.358	84.12
320.587	96.12
320.816	97.12
321.046	83.12
321.275	103.12
321.504	96.12
321.733	87.12
321.962	85.12
322.191	81.12
322.42	85.12
322.649	99.12
322.878	98.12
323.108	101.12
323.337	100.12
323.566	84.12
323.795	90.12
324.024	93.12
324.253	93.12
324.482	88.12
324.71	98.12
324.939	86.12
325.168	97.12
325.397	100.12
325.626	105.12
325.855	95.12
326.084	101.12
326.313	93.12
326.542	82.12
326.77	92.12
326.999	91.12
327.228	94.12
327.457	104.12
327.686	90.12
327.914	101.12
328.143	95.12
328.372	95.12
328.6	78.12
328.829	103.12
329.058	87.12
329.287	110.12
329.515	121.12
329.744	92.12
329.972	85.12
330.201	101.12
330.43	96.12
330.658	81.12
330.887	80.12
331.115	79.12
331.344	99.12
331.572	87.12
331.801	87.12
332.03	97.12
332.258	98.12
332.486	94.12
332.715	94.12
332.943	105.12
333.172	90.12
333.4	98.12
333.629	94.12
333.857	95.12
334.085	96.12
334.314	86.12
334.542	95.12
334.771	102.12
334.999	104.12
335.227	95.12
335.455	102.12
335.684	106.12
335.912	93.12
336.14	93.12
336.369	90.12
336.597	96.12
336.825	96.12
337.053	101.12
337.281	87.12
337.51	102.12
337.738	89.12
337.966	96.12
338.194	98.12
338.422	96.12
338.65	99.12
338.878	89.12
339.106	88.12
339.334	88.12
339.562	79.12
339.79	105.12
340.018	86.12
340.246	98.12
340.474	97.12
340.702	84.12
340.93	98.12
341.158	97.12
341.386	92.12
341.614	93.12
341.842	81.12
342.07	81.12
342.298	88.12
342.526	93.12
342.754	88.12
342.981	96.12
343.209	112.12
343.437	96.12
343.665	105.12
343.893	104.12
344.12	97.12
344.348	90.12
344.576	90.12
344.804	84.12
345.031	105.12
345.259	105.12
345.487	94.12
345.714	104.12
345.942	77.12
346.17	102.12
346.397	95.12
346.625	111.12
346.853	74.12
347.08	103.12
347.308	96.12
347.535	86.12
347.763	88.12
347.99	104.12
348.218	89.12
348.445	90.12
348.673	102.12
348.9	99.12
349.128	97.12
349.355	84.12
349.583	85.12
349.81	96.12
350.037	95.12
350.265	94.12
350.492	95.12
350.72	95.12
350.947	89.12
351.174	100.12
351.402	95.12
351.629	82.12
351.856	91.12
352.083	81.12
352.311	106.12
352.538	100.12
352.765	89.12
352.992	94.12
353.22	102.12
353.447	90.12
353.674	88.12
353.901	89.12
354.128	103.12
354.355	102.12
354.583	95.12
354.81	95.12
355.037	74.12
355.264	83.12
355.491	86.12
355.718	95.12
355.945	99.12
356.172	90.12
356.399	89.12
356.626	97.12
356.853	85.12
357.08	96.12
357.307	93.12
357.534	98.12
357.761	85.12
357.988	85.12
358.215	86.12
358.441	89.12
358.668	101.12
358.895	96.12
359.122	81.12
359.349	80.12
359.576	89.12
359.802	87.12
360.029	86.12
360.256	100.12
360.483	89.12
360.709	92.12
360.936	97.12
361.163	90.12
361.39	94.12
361.616	113.12
361.843	92.12
362.07	99.12
362.296	83.12
362.523	85.12
362.749	90.12
362.976	92.12
363.203	90.12
363.429	90.12
363.656	94.12
363.882	89.12
364.109	93.12
364.335	96.12
364.562	94.12
364.788	83.12
365.015	99.12
365.241	86.12
365.468	91.12
365.694	101.12
365.92	83.12
366.147	99.12
366.373	94.12
366.599	85.12
366.826	81.12
367.052	83.12
367.278	86.12
367.505	90.12
367.731	99.12
367.957	95.12
368.184	99.12
368.41	80.12
368.636	97.12
368.862	85.12
369.089	74.12
369.315	86.12
369.541	85.12
369.767	94.12
369.993	103.12
370.219	104.12
370.445	82.12
370.672	88.12
370.898	83.12
371.124	79.12
371.35	97.12
371.576	82.12
371.802	80.12
372.028	83.12
372.254	80.12
372.48	95.12
372.706	83.12
372.932	73.12
373.158	91.12
373.384	84.12
373.61	86.12
373.835	98.12
374.061	102.12
374.287	89.12
374.513	87.12
374.739	89.12
374.965	81.12
375.191	99.12
375.416	87.12
375.642	77.12
375.868	105.12
376.094	99.12
376.319	85.12
376.545	93.12
376.771	102.12
376.997	87.12
377.222	95.12
377.448	81.12
377.674	90.12
377.899	93.12
378.125	91.12
378.35	83.12
378.576	81.12
378.802	81.12
379.027	91.12
379.253	100.12
379.478	92.12
379.704	78.12
379.929	98.12
380.155	84.12
380.38	97.12
380.606	94.12
380.831	102.12
381.057	93.12
381.282	84.12
381.507	94.12
381.733	89.12
381.958	97.12
382.184	88.12
382.409	96.12
382.634	102.12
382.86	92.12
383.085	95.12
383.31	89.12
383.535	99.12
383.761	91.12
383.986	102.12
384.211	103.12
384.436	80.12
384.662	106.12
384.887	101.12
385.112	74.12
385.337	102.12
385.562	89.12
385.787	109.12
386.013	115.12
386.238	84.12
386.463	82.12
386.688	98.12
386.913	97.12
387.138	97.12
387.363	103.12
387.588	83.12
387.813	87.12
388.038	90.12
388.263	100.12
388.488	88.12
388.713	102.12
388.938	101.12
389.163	85.12
389.387	88.12
389.612	85.12
389.837	94.12
390.062	100.12
390.287	96.12
390.512	95.12
390.736	103.12
390.961	98.12
391.186	117.12
391.411	102.12
391.636	102.12
391.86	83.12
392.085	93.12
392.31	93.12
392.534	112.12
392.759	105.12
392.984	104.12
393.208	97.12
393.433	101.12
393.658	98.12
393.882	98.12
394.107	98.12
394.331	89.12
394.556	86.12
394.78	99.12
395.005	88.12
395.229	90.12
395.454	96.12
395.678	90.12
395.903	95.12
396.127	90.12
396.352	97.12
396.576	101.12
396.801	101.12
397.025	97.12
397.249	113.12
397.474	97.12
397.698	101.12
397.922	113.12
398.147	98.12
398.371	104.12
398.595	100.12
398.82	101.12
399.044	103.12
399.268	84.12
399.492	105.12
399.717	117.12
399.941	112.12
400.165	99.12
400.389	95.12
400.613	104.12
400.837	100.12
401.062	90.12
401.286	100.12
401.51	91.12
401.734	110.12
401.958	98.12
402.182	91.12
402.406	96.12
402.63	91.12
402.854	87.12
403.078	105.12
403.302	96.12
403.526	101.12
403.75	106.12
403.974	90.12
404.198	94.12
404.422	96.12
404.645	106.12
404.869	93.12
405.093	110.12
405.317	90.12
405.541	103.12
405.765	86.12
405.988	99.12
406.212	115.12
406.436	108.12
406.66	106.12
406.883	101.12
407.107	105.12
407.331	124.12
407.555	103.12
407.778	95.12
408.002	102.12
408.226	107.12
408.449	95.12
408.673	103.12
408.896	110.12
409.12	99.12
409.344	106.12
409.567	92.12
409.791	96.12
410.014	102.12
410.238	94.12
410.461	97.12
410.685	89.12
410.908	93.12
411.132	116.12
411.355	105.12
411.578	100.12
411.802	107.12
412.025	97.12
412.249	106.12
412.472	110.12
412.695	84.12
412.919	101.12
413.142	87.12
413.365	84.12
413.589	89.12
413.812	95.12
414.035	81.12
414.258	91.12
414.482	103.12
414.705	101.12
414.928	109.12
415.151	96.12
415.374	94.12
415.597	89.12
415.821	91.12
416.044	93.12
416.267	87.12
416.49	93.12
416.713	88.12
416.936	102.12
417.159	98.12
417.382	88.12
417.605	99.12
417.828	103.12
418.051	98.12
418.274	100.12
418.497	104.12
418.72	90.12
418.943	104.12
419.166	111.12
419.389	107.12
419.611	102.12
419.834	102.12
420.057	110.12
420.28	99.12
420.503	96.12
420.726	103.12
420.948	91.12
421.171	90.12
421.394	96.12
421.617	108.12
421.839	92.12
422.062	108.12
422.285	96.12
422.507	85.12
422.73	89.12
422.953	95.12
423.175	81.12
423.398	97.12
423.621	113.12
423.843	100.12
424.066	86.12
424.288	107.12
424.511	99.12
424.733	94.12
424.956	96.12
425.178	91.12
425.401	104.12
425.623	110.12
425.846	95.12
426.068	98.12
426.291	97.12
426.513	82.12
426.735	103.12
426.958	100.12
427.18	77.12
427.402	83.12
427.625	102.12
427.847	86.12
428.069	98.12
428.292	103.12
428.514	93.12
428.736	104.12
428.958	94.12
429.181	98.12
429.403	112.12
429.625	99.12
429.847	92.12
430.069	83.12
430.292	93.12
430.514	91.12
430.736	97.12
430.958	91.12
431.18	93.12
431.402	94.12
431.624	110.12
431.846	99.12
432.068	76.12
432.29	98.12
432.512	101.12
432.734	87.12
432.956	95.12
433.178	87.12
433.4	82.12
433.622	88.12
433.844	86.12
434.066	106.12
434.287	96.12
434.509	96.12
434.731	101.12
434.953	80.12
435.175	98.12
435.397	101.12
435.618	117.12
435.84	98.12
436.062	98.12
436.284	106.12
436.505	96.12
436.727	93.12
436.949	92.12
437.17	108.12
437.392	94.12
437.614	93.12
437.835	86.12
438.057	90.12
438.278	88.12
438.5	95.12
438.721	99.12
438.943	89.12
439.165	102.12
439.386	107.12
439.608	88.12
439.829	103.12
440.05	100.12
440.272	94.12
440.493	98.12
440.715	95.12
440.936	100.12
441.158	103.12
441.379	81.12
441.6	96.12
441.822	102.12
442.043	98.12
442.264	94.12
442.486	90.12
442.707	85.12
442.928	87.12
443.149	95.12
443.371	88.12
443.592	89.12
443.813	91.12
444.034	91.12
444.255	96.12
444.476	112.12
444.698	101.12
444.919	106.12
445.14	217.12
445.361	155.12
445.582	106.12
445.803	102.12
446.024	100.12
446.245	107.12
446.466	92.12
446.687	80.12
446.908	88.12
447.129	100.12
447.35	98.12
447.571	105.12
447.792	79.12
448.013	83.12
448.234	92.12
448.455	95.12
448.675	95.12
448.896	80.12
449.117	89.12
449.338	88.12
449.559	97.12
449.779	94.12
450	91.12
450.221	84.12
450.442	88.12
450.662	87.12
450.883	100.12
451.104	92.12
451.324	85.12
451.545	87.12
451.766	81.12
451.986	87.12
452.207	104.12
452.428	88.12
452.648	84.12
452.869	99.12
453.089	87.12
453.31	84.12
453.53	95.12
453.751	83.12
453.971	98.12
454.192	96.12
454.412	87.12
454.633	97.12
454.853	99.12
455.073	97.12
455.294	88.12
455.514	83.12
455.734	82.12
455.955	85.12
456.175	95.12
456.395	98.12
456.616	83.12
456.836	94.12
457.056	90.12
457.276	88.12
457.497	86.12
457.717	87.12
457.937	93.12
458.157	98.12
458.377	96.12
458.598	87.12
458.818	94.12
459.038	89.12
459.258	104.12
459.478	88.12
459.698	104.12
459.918	88.12
460.138	94.12
460.358	100.12
460.578	96.12
460.798	86.12
461.018	87.12
461.238	114.12
461.458	90.12
461.678	89.12
461.898	88.12
462.118	94.12
462.338	97.12
462.558	93.12
462.777	106.12
462.997	104.12
463.217	98.12
463.437	109.12
463.657	101.12
463.876	102.12
464.096	86.12
464.316	98.12
464.536	99.12
464.755	83.12
464.975	113.12
465.195	104.12
465.414	105.12
465.634	110.12
465.854	83.12
466.073	90.12
466.293	82.12
466.512	79.12
466.732	90.12
466.951	112.12
467.171	96.12
467.391	83.12
467.61	87.12
467.829	89.12
468.049	95.12
468.268	104.12
468.488	79.12
468.707	88.12
468.927	88.12
469.146	96.12
469.365	101.12
469.585	107.12
469.804	107.12
470.023	88.12
470.243	97.12
470.462	102.12
470.681	103.12
470.901	93.12
471.12	99.12
471.339	99.12
471.558	110.12
471.777	94.12
471.997	104.12
472.216	96.12
472.435	94.12
472.654	93.12
472.873	107.12
473.092	104.12
473.311	94.12
473.53	95.12
473.749	87.12
473.968	97.12
474.187	109.12
474.406	97.12
474.625	88.12
474.844	84.12
475.063	100.12
475.282	88.12
475.501	91.12
475.72	99.12
475.939	98.12
476.158	101.12
476.377	86.12
476.596	97.12
476.814	106.12
477.033	96.12
477.252	95.12
477.471	100.12
477.69	102.12
477.908	94.12
478.127	113.12
478.346	93.12
478.564	99.12
478.783	103.12
479.002	102.12
479.22	98.12
479.439	98.12
479.658	100.12
479.876	104.12
480.095	96.12
480.313	101.12
480.532	106.12
480.751	98.12
480.969	99.12
481.188	98.12
481.406	96.12
481.624	97.12
481.843	100.12
482.061	103.12
482.28	109.12
482.498	113.12
482.717	104.12
482.935	98.12
483.153	103.12
483.372	109.12
483.59	115.12
483.808	103.12
484.027	99.12
484.245	112.12
484.463	95.12
484.681	115.12
484.9	99.12
485.118	106.12
485.336	102.12
485.554	103.12
485.772	98.12
485.99	106.12
486.209	109.12
486.427	115.12
486.645	119.12
486.863	108.12
487.081	93.12
487.299	99.12
487.517	115.12
487.735	114.12
487.953	121.12
488.171	114.12
488.389	124.12
488.607	106.12
488.825	114.12
489.043	112.12
489.261	99.12
489.479	111.12
489.696	110.12
489.914	104.12
490.132	115.12
490.35	97.12
490.568	103.12
490.786	113.12
491.003	117.12
491.221	113.12
491.439	110.12
491.657	102.12
491.874	118.12
492.092	119.12
492.31	122.12
492.527	113.12
492.745	137.12
492.963	105.12
493.18	120.12
493.398	107.12
493.615	111.12
493.833	114.12
494.05	119.12
494.268	115.12
494.485	120.12
494.703	123.12
494.92	118.12
495.138	126.12
495.355	113.12
495.573	112.12
495.79	119.12
496.008	112.12
496.225	121.12
496.442	116.12
496.66	115.12
496.877	121.12
497.094	117.12
497.312	121.12
497.529	117.12
497.746	115.12
497.963	120.12
498.181	114.12
498.398	119.12
498.615	113.12
498.832	118.12
499.049	126.12
499.267	110.12
499.484	114.12
499.701	142.12
499.918	146.12
500.135	146.12
500.352	170.12
500.569	164.12
500.786	157.12
501.003	148.12
501.22	162.12
501.437	140.12
501.654	142.12
501.871	143.12
502.088	122.12
502.305	121.12
502.522	126.12
502.739	129.12
502.956	112.12
503.172	106.12
503.389	110.12
503.606	100.12
503.823	109.12
504.04	123.12
504.256	106.12
504.473	114.12
504.69	124.12
504.907	112.12
505.123	117.12
505.34	110.12
505.557	104.12
505.773	105.12
505.99	119.12
506.207	106.12
506.423	123.12
506.64	121.12
506.856	103.12
507.073	113.12
507.289	109.12
507.506	115.12
507.722	98.12
507.939	103.12
508.155	104.12
508.372	119.12
508.588	113.12
508.805	103.12
509.021	94.12
509.238	105.12
509.454	106.12
509.67	110.12
509.887	82.12
510.103	84.12
510.319	107.12
510.536	110.12
510.752	94.12
510.968	105.12
511.184	100.12
511.401	110.12
511.617	93.12
511.833	98.12
512.049	114.12
512.265	113.12
512.481	110.12
512.698	101.12
512.914	102.12
513.13	90.12
513.346	87.12
513.562	93.12
513.778	100.12
513.994	106.12
514.21	98.12
514.426	110.12
