Data from Location5.07152019.Energy5.Lamp.07192019.3%Agarose_HRD10591_16-02-24-628.txt Node
Date: Fri Jul 19 16:02:24 EDT 2019
User: cochatt
Spectrometer: HR+D1059
Trigger mode: 1
Integration Time (sec): 1.000000E-1
Scans to average: 1
Electric dark correction enabled: true
Nonlinearity correction enabled: false
Boxcar width: 0
XAxis mode: Wavelengths
Number of Pixels in Spectrum: 2048
>>>>>Begin Spectral Data<<<<<
223.165	-17.06
223.4	-17.06
223.635	-17.06
223.869	-12.06
224.104	-20.06
224.338	-24.06
224.573	-22.06
224.808	-10.06
225.042	-6.06
225.277	-17.06
225.511	7.94
225.746	4.94
225.98	18.94
226.215	14.94
226.449	12.94
226.683	16.94
226.918	13.94
227.152	37.94
227.387	33.94
227.621	36.94
227.856	44.94
228.09	48.94
228.324	59.94
228.559	65.94
228.793	54.94
229.027	64.94
229.262	52.94
229.496	61.94
229.73	50.94
229.964	88.94
230.199	73.94
230.433	70.94
230.667	81.94
230.901	75.94
231.136	74.94
231.37	68.94
231.604	75.94
231.838	82.94
232.072	83.94
232.306	82.94
232.541	85.94
232.775	82.94
233.009	68.94
233.243	67.94
233.477	87.94
233.711	74.94
233.945	89.94
234.179	77.94
234.413	83.94
234.647	80.94
234.881	86.94
235.115	72.94
235.349	78.94
235.583	84.94
235.817	80.94
236.051	80.94
236.285	77.94
236.519	86.94
236.753	83.94
236.987	83.94
237.221	86.94
237.455	76.94
237.689	84.94
237.922	70.94
238.156	76.94
238.39	84.94
238.624	66.94
238.858	83.94
239.091	76.94
239.325	72.94
239.559	76.94
239.793	73.94
240.027	92.94
240.26	92.94
240.494	83.94
240.728	66.94
240.961	83.94
241.195	79.94
241.429	87.94
241.662	83.94
241.896	85.94
242.13	95.94
242.363	76.94
242.597	84.94
242.83	77.94
243.064	82.94
243.298	75.94
243.531	75.94
243.765	80.94
243.998	88.94
244.232	91.94
244.465	76.94
244.699	76.94
244.932	85.94
245.166	82.94
245.399	91.94
245.633	91.94
245.866	85.94
246.099	73.94
246.333	79.94
246.566	87.94
246.8	72.94
247.033	82.94
247.266	86.94
247.5	87.94
247.733	73.94
247.966	96.94
248.2	103.94
248.433	74.94
248.666	80.94
248.899	89.94
249.133	82.94
249.366	85.94
249.599	82.94
249.832	69.94
250.066	88.94
250.299	93.94
250.532	84.94
250.765	99.94
250.998	84.94
251.231	77.94
251.465	82.94
251.698	81.94
251.931	72.94
252.164	81.94
252.397	75.94
252.63	87.94
252.863	86.94
253.096	71.94
253.329	74.94
253.562	95.94
253.795	89.94
254.028	84.94
254.261	86.94
254.494	71.94
254.727	79.94
254.96	70.94
255.193	92.94
255.426	77.94
255.659	79.94
255.892	70.94
256.124	80.94
256.357	73.94
256.59	87.94
256.823	95.94
257.056	86.94
257.289	80.94
257.521	76.94
257.754	89.94
257.987	75.94
258.22	94.94
258.452	82.94
258.685	79.94
258.918	86.94
259.151	97.94
259.383	79.94
259.616	97.94
259.849	79.94
260.081	82.94
260.314	79.94
260.547	94.94
260.779	99.94
261.012	89.94
261.244	73.94
261.477	82.94
261.71	77.94
261.942	70.94
262.175	93.94
262.407	86.94
262.64	73.94
262.872	90.94
263.105	82.94
263.337	87.94
263.57	88.94
263.802	77.94
264.035	93.94
264.267	84.94
264.499	91.94
264.732	84.94
264.964	84.94
265.197	79.94
265.429	79.94
265.661	79.94
265.894	85.94
266.126	84.94
266.358	78.94
266.591	88.94
266.823	104.94
267.055	91.94
267.287	95.94
267.52	89.94
267.752	93.94
267.984	82.94
268.216	83.94
268.448	79.94
268.681	82.94
268.913	103.94
269.145	75.94
269.377	88.94
269.609	86.94
269.841	98.94
270.073	76.94
270.306	91.94
270.538	84.94
270.77	95.94
271.002	95.94
271.234	85.94
271.466	80.94
271.698	97.94
271.93	82.94
272.162	82.94
272.394	78.94
272.626	90.94
272.858	83.94
273.09	79.94
273.322	76.94
273.553	92.94
273.785	83.94
274.017	95.94
274.249	94.94
274.481	91.94
274.713	87.94
274.945	116.94
275.176	86.94
275.408	91.94
275.64	86.94
275.872	90.94
276.104	81.94
276.335	96.94
276.567	90.94
276.799	102.94
277.031	82.94
277.262	93.94
277.494	84.94
277.726	89.94
277.957	87.94
278.189	80.94
278.421	88.94
278.652	90.94
278.884	100.94
279.115	87.94
279.347	81.94
279.579	85.94
279.81	90.94
280.042	97.94
280.273	89.94
280.505	84.94
280.736	104.94
280.968	97.94
281.199	79.94
281.431	92.94
281.662	86.94
281.894	87.94
282.125	99.94
282.356	87.94
282.588	71.94
282.819	85.94
283.051	89.94
283.282	94.94
283.513	80.94
283.745	78.94
283.976	76.94
284.207	95.94
284.439	85.94
284.67	80.94
284.901	96.94
285.132	89.94
285.364	91.94
285.595	88.94
285.826	99.94
286.057	96.94
286.288	88.94
286.52	80.94
286.751	86.94
286.982	72.94
287.213	96.94
287.444	91.94
287.675	87.94
287.906	97.94
288.138	87.94
288.369	83.94
288.6	83.94
288.831	86.94
289.062	83.94
289.293	90.94
289.524	87.94
289.755	71.94
289.986	105.94
290.217	91.94
290.448	93.94
290.679	87.94
290.91	95.94
291.141	99.94
291.371	85.94
291.602	102.94
291.833	84.94
292.064	79.94
292.295	90.94
292.526	88.94
292.757	84.94
292.987	99.94
293.218	94.94
293.449	102.94
293.68	99.94
293.91	96.94
294.141	77.94
294.372	102.94
294.603	85.94
294.833	102.94
295.064	98.94
295.295	90.94
295.525	98.94
295.756	94.94
295.987	87.94
296.217	85.94
296.448	89.94
296.679	88.94
296.909	76.94
297.14	81.94
297.37	80.94
297.601	95.94
297.831	91.94
298.062	95.94
298.292	90.94
298.523	82.94
298.753	115.94
298.984	95.94
299.214	88.94
299.445	98.94
299.675	90.94
299.905	94.94
300.136	96.94
300.366	91.94
300.597	97.94
300.827	100.94
301.057	91.94
301.288	90.94
301.518	99.94
301.748	104.94
301.979	99.94
302.209	102.94
302.439	78.94
302.669	97.94
302.9	86.94
303.13	76.94
303.36	89.94
303.59	105.94
303.82	79.94
304.051	96.94
304.281	92.94
304.511	98.94
304.741	88.94
304.971	99.94
305.201	81.94
305.431	97.94
305.661	95.94
305.891	101.94
306.121	94.94
306.352	96.94
306.582	95.94
306.812	94.94
307.042	88.94
307.272	89.94
307.502	105.94
307.731	82.94
307.961	94.94
308.191	111.94
308.421	89.94
308.651	103.94
308.881	101.94
309.111	76.94
309.341	99.94
309.571	96.94
309.8	82.94
310.03	83.94
310.26	97.94
310.49	87.94
310.72	103.94
310.949	89.94
311.179	93.94
311.409	106.94
311.639	99.94
311.868	98.94
312.098	93.94
312.328	83.94
312.557	103.94
312.787	84.94
313.017	95.94
313.246	93.94
313.476	103.94
313.706	106.94
313.935	91.94
314.165	98.94
314.394	97.94
314.624	99.94
314.853	93.94
315.083	103.94
315.312	87.94
315.542	95.94
315.771	83.94
316.001	79.94
316.23	96.94
316.46	85.94
316.689	91.94
316.919	99.94
317.148	99.94
317.377	97.94
317.607	92.94
317.836	87.94
318.065	86.94
318.295	69.94
318.524	86.94
318.753	80.94
318.983	82.94
319.212	92.94
319.441	91.94
319.67	100.94
319.9	92.94
320.129	97.94
320.358	74.94
320.587	94.94
320.816	99.94
321.046	85.94
321.275	96.94
321.504	105.94
321.733	91.94
321.962	111.94
322.191	96.94
322.42	81.94
322.649	98.94
322.878	106.94
323.108	90.94
323.337	89.94
323.566	94.94
323.795	96.94
324.024	106.94
324.253	92.94
324.482	87.94
324.71	95.94
324.939	85.94
325.168	114.94
325.397	96.94
325.626	98.94
325.855	98.94
326.084	91.94
326.313	86.94
326.542	99.94
326.77	103.94
326.999	86.94
327.228	107.94
327.457	96.94
327.686	92.94
327.914	88.94
328.143	87.94
328.372	99.94
328.6	91.94
328.829	101.94
329.058	89.94
329.287	87.94
329.515	90.94
329.744	97.94
329.972	87.94
330.201	96.94
330.43	98.94
330.658	95.94
330.887	89.94
331.115	90.94
331.344	86.94
331.572	92.94
331.801	95.94
332.03	90.94
332.258	98.94
332.486	94.94
332.715	93.94
332.943	92.94
333.172	108.94
333.4	108.94
333.629	98.94
333.857	111.94
334.085	93.94
334.314	96.94
334.542	91.94
334.771	92.94
334.999	111.94
335.227	108.94
335.455	85.94
335.684	90.94
335.912	90.94
336.14	102.94
336.369	95.94
336.597	96.94
336.825	95.94
337.053	95.94
337.281	96.94
337.51	102.94
337.738	99.94
337.966	90.94
338.194	93.94
338.422	99.94
338.65	92.94
338.878	95.94
339.106	93.94
339.334	110.94
339.562	101.94
339.79	96.94
340.018	96.94
340.246	83.94
340.474	76.94
340.702	94.94
340.93	99.94
341.158	91.94
341.386	99.94
341.614	101.94
341.842	97.94
342.07	80.94
342.298	93.94
342.526	100.94
342.754	85.94
342.981	99.94
343.209	84.94
343.437	88.94
343.665	86.94
343.893	94.94
344.12	100.94
344.348	97.94
344.576	83.94
344.804	90.94
345.031	100.94
345.259	90.94
345.487	98.94
345.714	100.94
345.942	95.94
346.17	101.94
346.397	98.94
346.625	79.94
346.853	82.94
347.08	102.94
347.308	87.94
347.535	97.94
347.763	84.94
347.99	80.94
348.218	98.94
348.445	116.94
348.673	101.94
348.9	105.94
349.128	102.94
349.355	102.94
349.583	99.94
349.81	91.94
350.037	107.94
350.265	104.94
350.492	104.94
350.72	88.94
350.947	107.94
351.174	95.94
351.402	85.94
351.629	91.94
351.856	80.94
352.083	89.94
352.311	87.94
352.538	88.94
352.765	97.94
352.992	94.94
353.22	87.94
353.447	88.94
353.674	84.94
353.901	102.94
354.128	105.94
354.355	95.94
354.583	107.94
354.81	82.94
355.037	80.94
355.264	100.94
355.491	99.94
355.718	102.94
355.945	110.94
356.172	96.94
356.399	86.94
356.626	91.94
356.853	90.94
357.08	105.94
357.307	117.94
357.534	91.94
357.761	89.94
357.988	95.94
358.215	103.94
358.441	88.94
358.668	100.94
358.895	78.94
359.122	98.94
359.349	95.94
359.576	75.94
359.802	84.94
360.029	99.94
360.256	92.94
360.483	82.94
360.709	89.94
360.936	97.94
361.163	91.94
361.39	87.94
361.616	96.94
361.843	78.94
362.07	112.94
362.296	104.94
362.523	94.94
362.749	101.94
362.976	82.94
363.203	94.94
363.429	91.94
363.656	94.94
363.882	88.94
364.109	92.94
364.335	86.94
364.562	85.94
364.788	93.94
365.015	90.94
365.241	91.94
365.468	91.94
365.694	90.94
365.92	87.94
366.147	122.94
366.373	107.94
366.599	89.94
366.826	90.94
367.052	103.94
367.278	98.94
367.505	87.94
367.731	91.94
367.957	85.94
368.184	93.94
368.41	72.94
368.636	95.94
368.862	91.94
369.089	97.94
369.315	99.94
369.541	112.94
369.767	91.94
369.993	104.94
370.219	108.94
370.445	97.94
370.672	94.94
370.898	99.94
371.124	90.94
371.35	98.94
371.576	92.94
371.802	84.94
372.028	95.94
372.254	96.94
372.48	84.94
372.706	91.94
372.932	92.94
373.158	105.94
373.384	104.94
373.61	94.94
373.835	96.94
374.061	98.94
374.287	99.94
374.513	86.94
374.739	98.94
374.965	79.94
375.191	100.94
375.416	103.94
375.642	100.94
375.868	98.94
376.094	88.94
376.319	96.94
376.545	93.94
376.771	96.94
376.997	85.94
377.222	94.94
377.448	104.94
377.674	79.94
377.899	95.94
378.125	102.94
378.35	94.94
378.576	89.94
378.802	96.94
379.027	99.94
379.253	101.94
379.478	89.94
379.704	98.94
379.929	79.94
380.155	105.94
380.38	96.94
380.606	109.94
380.831	82.94
381.057	107.94
381.282	96.94
381.507	99.94
381.733	85.94
381.958	96.94
382.184	100.94
382.409	107.94
382.634	114.94
382.86	92.94
383.085	106.94
383.31	96.94
383.535	89.94
383.761	102.94
383.986	92.94
384.211	101.94
384.436	107.94
384.662	96.94
384.887	91.94
385.112	86.94
385.337	98.94
385.562	97.94
385.787	95.94
386.013	103.94
386.238	96.94
386.463	89.94
386.688	101.94
386.913	104.94
387.138	97.94
387.363	97.94
387.588	88.94
387.813	85.94
388.038	92.94
388.263	98.94
388.488	91.94
388.713	91.94
388.938	94.94
389.163	102.94
389.387	100.94
389.612	101.94
389.837	122.94
390.062	92.94
390.287	89.94
390.512	84.94
390.736	102.94
390.961	95.94
391.186	115.94
391.411	94.94
391.636	88.94
391.86	102.94
392.085	107.94
392.31	95.94
392.534	102.94
392.759	101.94
392.984	103.94
393.208	95.94
393.433	94.94
393.658	103.94
393.882	103.94
394.107	104.94
394.331	97.94
394.556	94.94
394.78	100.94
395.005	98.94
395.229	92.94
395.454	103.94
395.678	111.94
395.903	96.94
396.127	96.94
396.352	107.94
396.576	86.94
396.801	100.94
397.025	106.94
397.249	99.94
397.474	88.94
397.698	115.94
397.922	97.94
398.147	105.94
398.371	91.94
398.595	90.94
398.82	89.94
399.044	106.94
399.268	100.94
399.492	114.94
399.717	117.94
399.941	107.94
400.165	103.94
400.389	102.94
400.613	103.94
400.837	100.94
401.062	106.94
401.286	106.94
401.51	98.94
401.734	99.94
401.958	103.94
402.182	100.94
402.406	110.94
402.63	96.94
402.854	116.94
403.078	103.94
403.302	96.94
403.526	92.94
403.75	101.94
403.974	92.94
404.198	102.94
404.422	110.94
404.645	94.94
404.869	101.94
405.093	106.94
405.317	100.94
405.541	96.94
405.765	105.94
405.988	110.94
406.212	102.94
406.436	90.94
406.66	105.94
406.883	111.94
407.107	103.94
407.331	95.94
407.555	101.94
407.778	103.94
408.002	98.94
408.226	110.94
408.449	102.94
408.673	103.94
408.896	105.94
409.12	110.94
409.344	92.94
409.567	101.94
409.791	113.94
410.014	109.94
410.238	117.94
410.461	87.94
410.685	98.94
410.908	98.94
411.132	98.94
411.355	96.94
411.578	112.94
411.802	99.94
412.025	87.94
412.249	107.94
412.472	115.94
412.695	114.94
412.919	101.94
413.142	93.94
413.365	98.94
413.589	96.94
413.812	100.94
414.035	105.94
414.258	100.94
414.482	96.94
414.705	107.94
414.928	90.94
415.151	96.94
415.374	96.94
415.597	94.94
415.821	85.94
416.044	99.94
416.267	90.94
416.49	91.94
416.713	106.94
416.936	104.94
417.159	114.94
417.382	107.94
417.605	104.94
417.828	111.94
418.051	93.94
418.274	95.94
418.497	92.94
418.72	89.94
418.943	111.94
419.166	98.94
419.389	94.94
419.611	92.94
419.834	91.94
420.057	97.94
420.28	100.94
420.503	96.94
420.726	92.94
420.948	97.94
421.171	106.94
421.394	99.94
421.617	101.94
421.839	96.94
422.062	99.94
422.285	98.94
422.507	108.94
422.73	113.94
422.953	99.94
423.175	104.94
423.398	99.94
423.621	104.94
423.843	88.94
424.066	94.94
424.288	104.94
424.511	101.94
424.733	109.94
424.956	81.94
425.178	87.94
425.401	103.94
425.623	106.94
425.846	96.94
426.068	93.94
426.291	90.94
426.513	97.94
426.735	90.94
426.958	113.94
427.18	98.94
427.402	99.94
427.625	99.94
427.847	99.94
428.069	91.94
428.292	91.94
428.514	91.94
428.736	86.94
428.958	88.94
429.181	99.94
429.403	97.94
429.625	103.94
429.847	89.94
430.069	101.94
430.292	90.94
430.514	103.94
430.736	105.94
430.958	95.94
431.18	76.94
431.402	94.94
431.624	86.94
431.846	101.94
432.068	91.94
432.29	98.94
432.512	108.94
432.734	98.94
432.956	119.94
433.178	103.94
433.4	107.94
433.622	91.94
433.844	89.94
434.066	101.94
434.287	80.94
434.509	94.94
434.731	92.94
434.953	112.94
435.175	106.94
435.397	110.94
435.618	106.94
435.84	100.94
436.062	89.94
436.284	83.94
436.505	99.94
436.727	93.94
436.949	94.94
437.17	103.94
437.392	101.94
437.614	95.94
437.835	91.94
438.057	102.94
438.278	83.94
438.5	106.94
438.721	92.94
438.943	100.94
439.165	94.94
439.386	96.94
439.608	94.94
439.829	110.94
440.05	105.94
440.272	94.94
440.493	89.94
440.715	91.94
440.936	94.94
441.158	99.94
441.379	97.94
441.6	111.94
441.822	106.94
442.043	98.94
442.264	104.94
442.486	107.94
442.707	96.94
442.928	107.94
443.149	98.94
443.371	99.94
443.592	99.94
443.813	95.94
444.034	107.94
444.255	99.94
444.476	103.94
444.698	105.94
444.919	104.94
445.14	201.94
445.361	151.94
445.582	106.94
445.803	96.94
446.024	114.94
446.245	84.94
446.466	95.94
446.687	90.94
446.908	100.94
447.129	95.94
447.35	91.94
447.571	88.94
447.792	102.94
448.013	81.94
448.234	96.94
448.455	87.94
448.675	97.94
448.896	95.94
449.117	92.94
449.338	99.94
449.559	95.94
449.779	92.94
450	90.94
450.221	101.94
450.442	86.94
450.662	94.94
450.883	105.94
451.104	83.94
451.324	111.94
451.545	92.94
451.766	88.94
451.986	95.94
452.207	92.94
452.428	101.94
452.648	92.94
452.869	89.94
453.089	92.94
453.31	87.94
453.53	100.94
453.751	104.94
453.971	92.94
454.192	99.94
454.412	88.94
454.633	100.94
454.853	86.94
455.073	105.94
455.294	84.94
455.514	104.94
455.734	98.94
455.955	95.94
456.175	96.94
456.395	103.94
456.616	101.94
456.836	85.94
457.056	96.94
457.276	83.94
457.497	99.94
457.717	99.94
457.937	95.94
458.157	89.94
458.377	93.94
458.598	95.94
458.818	104.94
459.038	104.94
459.258	96.94
459.478	87.94
459.698	91.94
459.918	87.94
460.138	99.94
460.358	90.94
460.578	95.94
460.798	107.94
461.018	95.94
461.238	104.94
461.458	102.94
461.678	95.94
461.898	95.94
462.118	114.94
462.338	94.94
462.558	95.94
462.777	98.94
462.997	89.94
463.217	97.94
463.437	115.94
463.657	121.94
463.876	111.94
464.096	108.94
464.316	117.94
464.536	116.94
464.755	94.94
464.975	98.94
465.195	103.94
465.414	94.94
465.634	89.94
465.854	119.94
466.073	103.94
466.293	119.94
466.512	96.94
466.732	84.94
466.951	99.94
467.171	93.94
467.391	99.94
467.61	107.94
467.829	100.94
468.049	98.94
468.268	96.94
468.488	100.94
468.707	103.94
468.927	98.94
469.146	93.94
469.365	104.94
469.585	103.94
469.804	95.94
470.023	114.94
470.243	104.94
470.462	103.94
470.681	101.94
470.901	94.94
471.12	96.94
471.339	105.94
471.558	117.94
471.777	103.94
471.997	101.94
472.216	113.94
472.435	97.94
472.654	97.94
472.873	96.94
473.092	96.94
473.311	108.94
473.53	97.94
473.749	96.94
473.968	87.94
474.187	114.94
474.406	105.94
474.625	114.94
474.844	99.94
475.063	98.94
475.282	105.94
475.501	91.94
475.72	110.94
475.939	109.94
476.158	106.94
476.377	113.94
476.596	114.94
476.814	108.94
477.033	100.94
477.252	101.94
477.471	106.94
477.69	101.94
477.908	96.94
478.127	87.94
478.346	110.94
478.564	103.94
478.783	102.94
479.002	106.94
479.22	96.94
479.439	106.94
479.658	100.94
479.876	86.94
480.095	106.94
480.313	103.94
480.532	106.94
480.751	114.94
480.969	115.94
481.188	99.94
481.406	112.94
481.624	101.94
481.843	110.94
482.061	112.94
482.28	99.94
482.498	108.94
482.717	98.94
482.935	101.94
483.153	103.94
483.372	105.94
483.59	103.94
483.808	105.94
484.027	111.94
484.245	102.94
484.463	106.94
484.681	98.94
484.9	104.94
485.118	102.94
485.336	94.94
485.554	107.94
485.772	110.94
485.99	102.94
486.209	75.94
486.427	98.94
486.645	109.94
486.863	106.94
487.081	119.94
487.299	101.94
487.517	102.94
487.735	125.94
487.953	101.94
488.171	126.94
488.389	112.94
488.607	97.94
488.825	107.94
489.043	105.94
489.261	97.94
489.479	91.94
489.696	102.94
489.914	96.94
490.132	96.94
490.35	114.94
490.568	118.94
490.786	107.94
491.003	103.94
491.221	110.94
491.439	120.94
491.657	120.94
491.874	117.94
492.092	113.94
492.31	115.94
492.527	120.94
492.745	120.94
492.963	116.94
493.18	116.94
493.398	111.94
493.615	108.94
493.833	104.94
494.05	114.94
494.268	94.94
494.485	114.94
494.703	128.94
494.92	123.94
495.138	116.94
495.355	116.94
495.573	108.94
495.79	106.94
496.008	120.94
496.225	128.94
496.442	114.94
496.66	114.94
496.877	113.94
497.094	108.94
497.312	119.94
497.529	122.94
497.746	107.94
497.963	101.94
498.181	117.94
498.398	124.94
498.615	127.94
498.832	118.94
499.049	124.94
499.267	107.94
499.484	132.94
499.701	125.94
499.918	147.94
500.135	158.94
500.352	163.94
500.569	166.94
500.786	176.94
501.003	166.94
501.22	157.94
501.437	140.94
501.654	137.94
501.871	128.94
502.088	114.94
502.305	129.94
502.522	121.94
502.739	131.94
502.956	118.94
503.172	114.94
503.389	120.94
503.606	108.94
503.823	109.94
504.04	110.94
504.256	114.94
504.473	119.94
504.69	111.94
504.907	121.94
505.123	118.94
505.34	104.94
505.557	110.94
505.773	93.94
505.99	100.94
506.207	104.94
506.423	112.94
506.64	115.94
506.856	100.94
507.073	108.94
507.289	111.94
507.506	97.94
507.722	101.94
507.939	93.94
508.155	112.94
508.372	106.94
508.588	110.94
508.805	100.94
509.021	101.94
509.238	116.94
509.454	111.94
509.67	94.94
509.887	115.94
510.103	121.94
510.319	98.94
510.536	98.94
510.752	101.94
510.968	86.94
511.184	117.94
511.401	100.94
511.617	107.94
511.833	108.94
512.049	91.94
512.265	104.94
512.481	92.94
512.698	96.94
512.914	107.94
513.13	99.94
513.346	111.94
