Data from Location5.07152019.Energy5.Lamp.07192019.3%Agarose_HRD10591_15-39-19-388.txt Node
Date: Fri Jul 19 15:39:19 EDT 2019
User: cochatt
Spectrometer: HR+D1059
Trigger mode: 1
Integration Time (sec): 1.000000E-1
Scans to average: 1
Electric dark correction enabled: true
Nonlinearity correction enabled: false
Boxcar width: 0
XAxis mode: Wavelengths
Number of Pixels in Spectrum: 2048
>>>>>Begin Spectral Data<<<<<
223.165	-6.19
223.4	-6.19
223.635	-6.19
223.869	-14.19
224.104	-22.19
224.338	-27.19
224.573	-23.19
224.808	0.81
225.042	-13.19
225.277	-0.19
225.511	-4.19
225.746	1.81
225.98	0.81
226.215	5.81
226.449	15.81
226.683	30.81
226.918	29.81
227.152	24.81
227.387	31.81
227.621	33.81
227.856	55.81
228.09	38.81
228.324	45.81
228.559	41.81
228.793	56.81
229.027	61.81
229.262	50.81
229.496	55.81
229.73	69.81
229.964	56.81
230.199	63.81
230.433	69.81
230.667	85.81
230.901	80.81
231.136	73.81
231.37	75.81
231.604	81.81
231.838	90.81
232.072	71.81
232.306	83.81
232.541	78.81
232.775	73.81
233.009	81.81
233.243	80.81
233.477	88.81
233.711	76.81
233.945	89.81
234.179	81.81
234.413	67.81
234.647	60.81
234.881	82.81
235.115	72.81
235.349	73.81
235.583	73.81
235.817	74.81
236.051	87.81
236.285	77.81
236.519	66.81
236.753	71.81
236.987	80.81
237.221	70.81
237.455	75.81
237.689	82.81
237.922	72.81
238.156	71.81
238.39	83.81
238.624	81.81
238.858	72.81
239.091	73.81
239.325	63.81
239.559	82.81
239.793	77.81
240.027	75.81
240.26	68.81
240.494	80.81
240.728	60.81
240.961	74.81
241.195	93.81
241.429	60.81
241.662	61.81
241.896	64.81
242.13	73.81
242.363	76.81
242.597	72.81
242.83	66.81
243.064	73.81
243.298	78.81
243.531	76.81
243.765	65.81
243.998	76.81
244.232	76.81
244.465	79.81
244.699	87.81
244.932	73.81
245.166	89.81
245.399	70.81
245.633	66.81
245.866	70.81
246.099	72.81
246.333	70.81
246.566	79.81
246.8	78.81
247.033	79.81
247.266	72.81
247.5	76.81
247.733	75.81
247.966	77.81
248.2	80.81
248.433	91.81
248.666	78.81
248.899	73.81
249.133	71.81
249.366	72.81
249.599	83.81
249.832	77.81
250.066	88.81
250.299	55.81
250.532	81.81
250.765	76.81
250.998	87.81
251.231	87.81
251.465	78.81
251.698	65.81
251.931	83.81
252.164	77.81
252.397	66.81
252.63	76.81
252.863	79.81
253.096	68.81
253.329	67.81
253.562	79.81
253.795	82.81
254.028	71.81
254.261	73.81
254.494	94.81
254.727	83.81
254.96	64.81
255.193	78.81
255.426	70.81
255.659	76.81
255.892	82.81
256.124	88.81
256.357	79.81
256.59	80.81
256.823	87.81
257.056	80.81
257.289	70.81
257.521	81.81
257.754	75.81
257.987	72.81
258.22	93.81
258.452	78.81
258.685	89.81
258.918	92.81
259.151	70.81
259.383	76.81
259.616	73.81
259.849	80.81
260.081	74.81
260.314	75.81
260.547	88.81
260.779	87.81
261.012	80.81
261.244	89.81
261.477	87.81
261.71	79.81
261.942	77.81
262.175	86.81
262.407	84.81
262.64	86.81
262.872	74.81
263.105	77.81
263.337	92.81
263.57	77.81
263.802	81.81
264.035	86.81
264.267	75.81
264.499	70.81
264.732	84.81
264.964	69.81
265.197	69.81
265.429	87.81
265.661	80.81
265.894	72.81
266.126	77.81
266.358	81.81
266.591	88.81
266.823	65.81
267.055	70.81
267.287	73.81
267.52	92.81
267.752	76.81
267.984	81.81
268.216	77.81
268.448	85.81
268.681	77.81
268.913	81.81
269.145	90.81
269.377	79.81
269.609	78.81
269.841	101.81
270.073	88.81
270.306	71.81
270.538	77.81
270.77	91.81
271.002	80.81
271.234	78.81
271.466	79.81
271.698	80.81
271.93	71.81
272.162	89.81
272.394	82.81
272.626	96.81
272.858	86.81
273.09	79.81
273.322	62.81
273.553	55.81
273.785	77.81
274.017	79.81
274.249	95.81
274.481	77.81
274.713	94.81
274.945	87.81
275.176	68.81
275.408	96.81
275.64	86.81
275.872	83.81
276.104	85.81
276.335	91.81
276.567	101.81
276.799	86.81
277.031	63.81
277.262	81.81
277.494	93.81
277.726	77.81
277.957	75.81
278.189	76.81
278.421	83.81
278.652	92.81
278.884	90.81
279.115	85.81
279.347	87.81
279.579	63.81
279.81	79.81
280.042	94.81
280.273	76.81
280.505	77.81
280.736	73.81
280.968	67.81
281.199	83.81
281.431	92.81
281.662	82.81
281.894	68.81
282.125	82.81
282.356	73.81
282.588	78.81
282.819	78.81
283.051	82.81
283.282	87.81
283.513	83.81
283.745	92.81
283.976	76.81
284.207	72.81
284.439	95.81
284.67	83.81
284.901	100.81
285.132	72.81
285.364	79.81
285.595	70.81
285.826	88.81
286.057	85.81
286.288	82.81
286.52	86.81
286.751	81.81
286.982	70.81
287.213	71.81
287.444	85.81
287.675	80.81
287.906	73.81
288.138	82.81
288.369	85.81
288.6	99.81
288.831	84.81
289.062	63.81
289.293	73.81
289.524	77.81
289.755	83.81
289.986	73.81
290.217	77.81
290.448	73.81
290.679	93.81
290.91	82.81
291.141	92.81
291.371	84.81
291.602	92.81
291.833	85.81
292.064	92.81
292.295	89.81
292.526	84.81
292.757	93.81
292.987	83.81
293.218	76.81
293.449	89.81
293.68	73.81
293.91	89.81
294.141	86.81
294.372	91.81
294.603	88.81
294.833	88.81
295.064	90.81
295.295	88.81
295.525	93.81
295.756	78.81
295.987	68.81
296.217	81.81
296.448	74.81
296.679	85.81
296.909	77.81
297.14	91.81
297.37	92.81
297.601	80.81
297.831	93.81
298.062	83.81
298.292	87.81
298.523	95.81
298.753	75.81
298.984	76.81
299.214	83.81
299.445	73.81
299.675	63.81
299.905	83.81
300.136	78.81
300.366	72.81
300.597	78.81
300.827	84.81
301.057	59.81
301.288	78.81
301.518	79.81
301.748	76.81
301.979	95.81
302.209	80.81
302.439	77.81
302.669	68.81
302.9	87.81
303.13	79.81
303.36	78.81
303.59	83.81
303.82	79.81
304.051	80.81
304.281	93.81
304.511	104.81
304.741	84.81
304.971	75.81
305.201	91.81
305.431	78.81
305.661	74.81
305.891	87.81
306.121	81.81
306.352	79.81
306.582	90.81
306.812	79.81
307.042	89.81
307.272	85.81
307.502	71.81
307.731	72.81
307.961	95.81
308.191	86.81
308.421	80.81
308.651	89.81
308.881	79.81
309.111	84.81
309.341	68.81
309.571	72.81
309.8	79.81
310.03	83.81
310.26	69.81
310.49	88.81
310.72	79.81
310.949	79.81
311.179	85.81
311.409	87.81
311.639	64.81
311.868	81.81
312.098	84.81
312.328	76.81
312.557	91.81
312.787	82.81
313.017	71.81
313.246	89.81
313.476	86.81
313.706	60.81
313.935	87.81
314.165	81.81
314.394	85.81
314.624	82.81
314.853	84.81
315.083	103.81
315.312	83.81
315.542	84.81
315.771	75.81
316.001	80.81
316.23	79.81
316.46	77.81
316.689	65.81
316.919	84.81
317.148	81.81
317.377	91.81
317.607	83.81
317.836	99.81
318.065	82.81
318.295	94.81
318.524	77.81
318.753	71.81
318.983	78.81
319.212	80.81
319.441	75.81
319.67	90.81
319.9	74.81
320.129	79.81
320.358	93.81
320.587	94.81
320.816	90.81
321.046	83.81
321.275	82.81
321.504	75.81
321.733	79.81
321.962	88.81
322.191	88.81
322.42	88.81
322.649	72.81
322.878	79.81
323.108	95.81
323.337	70.81
323.566	70.81
323.795	73.81
324.024	77.81
324.253	85.81
324.482	86.81
324.71	76.81
324.939	95.81
325.168	81.81
325.397	73.81
325.626	77.81
325.855	68.81
326.084	92.81
326.313	84.81
326.542	73.81
326.77	84.81
326.999	90.81
327.228	83.81
327.457	88.81
327.686	82.81
327.914	89.81
328.143	88.81
328.372	78.81
328.6	94.81
328.829	83.81
329.058	74.81
329.287	91.81
329.515	86.81
329.744	78.81
329.972	73.81
330.201	77.81
330.43	85.81
330.658	72.81
330.887	79.81
331.115	76.81
331.344	92.81
331.572	96.81
331.801	91.81
332.03	96.81
332.258	73.81
332.486	77.81
332.715	91.81
332.943	70.81
333.172	91.81
333.4	85.81
333.629	83.81
333.857	82.81
334.085	83.81
334.314	78.81
334.542	81.81
334.771	87.81
334.999	80.81
335.227	84.81
335.455	92.81
335.684	85.81
335.912	72.81
336.14	72.81
336.369	84.81
336.597	83.81
336.825	83.81
337.053	77.81
337.281	84.81
337.51	82.81
337.738	86.81
337.966	68.81
338.194	84.81
338.422	67.81
338.65	89.81
338.878	78.81
339.106	79.81
339.334	77.81
339.562	76.81
339.79	84.81
340.018	88.81
340.246	80.81
340.474	63.81
340.702	81.81
340.93	89.81
341.158	80.81
341.386	81.81
341.614	84.81
341.842	78.81
342.07	88.81
342.298	88.81
342.526	81.81
342.754	86.81
342.981	85.81
343.209	75.81
343.437	85.81
343.665	83.81
343.893	77.81
344.12	68.81
344.348	83.81
344.576	78.81
344.804	79.81
345.031	77.81
345.259	87.81
345.487	83.81
345.714	66.81
345.942	55.81
346.17	77.81
346.397	85.81
346.625	93.81
346.853	78.81
347.08	78.81
347.308	73.81
347.535	80.81
347.763	84.81
347.99	75.81
348.218	75.81
348.445	81.81
348.673	76.81
348.9	77.81
349.128	76.81
349.355	83.81
349.583	70.81
349.81	72.81
350.037	89.81
350.265	73.81
350.492	75.81
350.72	84.81
350.947	80.81
351.174	91.81
351.402	82.81
351.629	81.81
351.856	85.81
352.083	87.81
352.311	70.81
352.538	67.81
352.765	73.81
352.992	84.81
353.22	75.81
353.447	80.81
353.674	88.81
353.901	83.81
354.128	91.81
354.355	84.81
354.583	77.81
354.81	72.81
355.037	82.81
355.264	77.81
355.491	77.81
355.718	92.81
355.945	86.81
356.172	99.81
356.399	99.81
356.626	80.81
356.853	77.81
357.08	89.81
357.307	84.81
357.534	85.81
357.761	83.81
357.988	91.81
358.215	71.81
358.441	81.81
358.668	67.81
358.895	89.81
359.122	93.81
359.349	78.81
359.576	87.81
359.802	88.81
360.029	84.81
360.256	83.81
360.483	77.81
360.709	94.81
360.936	89.81
361.163	70.81
361.39	85.81
361.616	95.81
361.843	84.81
362.07	87.81
362.296	75.81
362.523	80.81
362.749	86.81
362.976	80.81
363.203	87.81
363.429	64.81
363.656	83.81
363.882	66.81
364.109	84.81
364.335	69.81
364.562	78.81
364.788	77.81
365.015	79.81
365.241	87.81
365.468	96.81
365.694	77.81
365.92	89.81
366.147	84.81
366.373	76.81
366.599	105.81
366.826	89.81
367.052	103.81
367.278	79.81
367.505	80.81
367.731	68.81
367.957	78.81
368.184	79.81
368.41	77.81
368.636	76.81
368.862	89.81
369.089	68.81
369.315	59.81
369.541	78.81
369.767	72.81
369.993	73.81
370.219	89.81
370.445	72.81
370.672	77.81
370.898	75.81
371.124	74.81
371.35	78.81
371.576	90.81
371.802	83.81
372.028	85.81
372.254	100.81
372.48	72.81
372.706	83.81
372.932	79.81
373.158	77.81
373.384	80.81
373.61	73.81
373.835	77.81
374.061	81.81
374.287	72.81
374.513	95.81
374.739	79.81
374.965	84.81
375.191	84.81
375.416	90.81
375.642	84.81
375.868	84.81
376.094	70.81
376.319	87.81
376.545	72.81
376.771	81.81
376.997	77.81
377.222	80.81
377.448	77.81
377.674	90.81
377.899	95.81
378.125	91.81
378.35	83.81
378.576	92.81
378.802	80.81
379.027	86.81
379.253	93.81
379.478	74.81
379.704	77.81
379.929	72.81
380.155	85.81
380.38	78.81
380.606	73.81
380.831	79.81
381.057	94.81
381.282	79.81
381.507	79.81
381.733	71.81
381.958	83.81
382.184	84.81
382.409	84.81
382.634	78.81
382.86	81.81
383.085	74.81
383.31	70.81
383.535	93.81
383.761	77.81
383.986	79.81
384.211	80.81
384.436	91.81
384.662	87.81
384.887	77.81
385.112	93.81
385.337	86.81
385.562	85.81
385.787	66.81
386.013	93.81
386.238	86.81
386.463	86.81
386.688	92.81
386.913	84.81
387.138	79.81
387.363	78.81
387.588	88.81
387.813	84.81
388.038	76.81
388.263	68.81
388.488	63.81
388.713	81.81
388.938	80.81
389.163	98.81
389.387	87.81
389.612	86.81
389.837	76.81
390.062	92.81
390.287	86.81
390.512	73.81
390.736	75.81
390.961	86.81
391.186	89.81
391.411	85.81
391.636	76.81
391.86	89.81
392.085	74.81
392.31	83.81
392.534	92.81
392.759	87.81
392.984	91.81
393.208	79.81
393.433	85.81
393.658	84.81
393.882	82.81
394.107	79.81
394.331	80.81
394.556	87.81
394.78	68.81
395.005	79.81
395.229	85.81
395.454	93.81
395.678	79.81
395.903	87.81
396.127	84.81
396.352	80.81
396.576	69.81
396.801	90.81
397.025	83.81
397.249	91.81
397.474	104.81
397.698	75.81
397.922	86.81
398.147	84.81
398.371	75.81
398.595	85.81
398.82	77.81
399.044	95.81
399.268	80.81
399.492	84.81
399.717	82.81
399.941	99.81
400.165	68.81
400.389	91.81
400.613	86.81
400.837	83.81
401.062	90.81
401.286	83.81
401.51	84.81
401.734	87.81
401.958	86.81
402.182	84.81
402.406	75.81
402.63	77.81
402.854	79.81
403.078	92.81
403.302	76.81
403.526	88.81
403.75	91.81
403.974	82.81
404.198	88.81
404.422	81.81
404.645	80.81
404.869	99.81
405.093	72.81
405.317	80.81
405.541	73.81
405.765	95.81
405.988	81.81
406.212	92.81
406.436	77.81
406.66	78.81
406.883	82.81
407.107	85.81
407.331	87.81
407.555	93.81
407.778	86.81
408.002	86.81
408.226	88.81
408.449	77.81
408.673	85.81
408.896	71.81
409.12	93.81
409.344	92.81
409.567	84.81
409.791	81.81
410.014	76.81
410.238	85.81
410.461	83.81
410.685	86.81
410.908	81.81
411.132	86.81
411.355	81.81
411.578	86.81
411.802	70.81
412.025	79.81
412.249	85.81
412.472	79.81
412.695	84.81
412.919	95.81
413.142	75.81
413.365	85.81
413.589	92.81
413.812	91.81
414.035	82.81
414.258	81.81
414.482	84.81
414.705	98.81
414.928	97.81
415.151	91.81
415.374	74.81
415.597	96.81
415.821	101.81
416.044	96.81
416.267	93.81
416.49	79.81
416.713	85.81
416.936	83.81
417.159	78.81
417.382	93.81
417.605	99.81
417.828	87.81
418.051	87.81
418.274	75.81
418.497	100.81
418.72	92.81
418.943	77.81
419.166	88.81
419.389	69.81
419.611	83.81
419.834	90.81
420.057	96.81
420.28	88.81
420.503	88.81
420.726	88.81
420.948	88.81
421.171	82.81
421.394	85.81
421.617	98.81
421.839	91.81
422.062	91.81
422.285	88.81
422.507	82.81
422.73	87.81
422.953	96.81
423.175	89.81
423.398	87.81
423.621	99.81
423.843	89.81
424.066	92.81
424.288	97.81
424.511	89.81
424.733	84.81
424.956	101.81
425.178	76.81
425.401	90.81
425.623	96.81
425.846	87.81
426.068	93.81
426.291	78.81
426.513	85.81
426.735	100.81
426.958	89.81
427.18	84.81
427.402	86.81
427.625	83.81
427.847	83.81
428.069	85.81
428.292	88.81
428.514	90.81
428.736	97.81
428.958	92.81
429.181	82.81
429.403	85.81
429.625	93.81
429.847	84.81
430.069	93.81
430.292	92.81
430.514	77.81
430.736	87.81
430.958	99.81
431.18	100.81
431.402	100.81
431.624	81.81
431.846	96.81
432.068	66.81
432.29	87.81
432.512	107.81
432.734	81.81
432.956	104.81
433.178	80.81
433.4	91.81
433.622	104.81
433.844	87.81
434.066	81.81
434.287	96.81
434.509	95.81
434.731	79.81
434.953	83.81
435.175	69.81
435.397	93.81
435.618	88.81
435.84	86.81
436.062	80.81
436.284	92.81
436.505	92.81
436.727	93.81
436.949	99.81
437.17	104.81
437.392	89.81
437.614	82.81
437.835	79.81
438.057	83.81
438.278	83.81
438.5	72.81
438.721	91.81
438.943	85.81
439.165	81.81
439.386	98.81
439.608	80.81
439.829	81.81
440.05	115.81
440.272	88.81
440.493	96.81
440.715	92.81
440.936	93.81
441.158	88.81
441.379	85.81
441.6	92.81
441.822	84.81
442.043	90.81
442.264	100.81
442.486	83.81
442.707	86.81
442.928	97.81
443.149	88.81
443.371	83.81
443.592	73.81
443.813	90.81
444.034	98.81
444.255	97.81
444.476	95.81
444.698	94.81
444.919	95.81
445.14	208.81
445.361	142.81
445.582	93.81
445.803	94.81
446.024	100.81
446.245	102.81
446.466	104.81
446.687	98.81
446.908	102.81
447.129	103.81
447.35	85.81
447.571	93.81
447.792	100.81
448.013	104.81
448.234	102.81
448.455	98.81
448.675	83.81
448.896	101.81
449.117	91.81
449.338	95.81
449.559	93.81
449.779	73.81
450	74.81
450.221	88.81
450.442	92.81
450.662	93.81
450.883	89.81
451.104	100.81
451.324	89.81
451.545	93.81
451.766	90.81
451.986	80.81
452.207	90.81
452.428	92.81
452.648	95.81
452.869	96.81
453.089	82.81
453.31	83.81
453.53	80.81
453.751	73.81
453.971	84.81
454.192	74.81
454.412	85.81
454.633	92.81
454.853	74.81
455.073	103.81
455.294	76.81
455.514	91.81
455.734	75.81
455.955	89.81
456.175	65.81
456.395	72.81
456.616	88.81
456.836	86.81
457.056	82.81
457.276	82.81
457.497	92.81
457.717	87.81
457.937	95.81
458.157	83.81
458.377	73.81
458.598	79.81
458.818	55.81
459.038	77.81
459.258	79.81
459.478	77.81
459.698	90.81
459.918	81.81
460.138	69.81
460.358	82.81
460.578	85.81
460.798	79.81
461.018	80.81
461.238	93.81
461.458	81.81
461.678	81.81
461.898	93.81
462.118	88.81
462.338	87.81
462.558	99.81
462.777	92.81
462.997	87.81
463.217	70.81
463.437	81.81
463.657	75.81
463.876	73.81
464.096	88.81
464.316	91.81
464.536	88.81
464.755	95.81
464.975	84.81
465.195	83.81
465.414	88.81
465.634	83.81
465.854	83.81
466.073	102.81
466.293	84.81
466.512	102.81
466.732	76.81
466.951	94.81
467.171	86.81
467.391	83.81
467.61	78.81
467.829	92.81
468.049	88.81
468.268	97.81
468.488	80.81
468.707	89.81
468.927	79.81
469.146	84.81
469.365	88.81
469.585	83.81
469.804	88.81
470.023	98.81
470.243	108.81
470.462	100.81
470.681	102.81
470.901	101.81
471.12	87.81
471.339	99.81
471.558	90.81
471.777	87.81
471.997	74.81
472.216	98.81
472.435	86.81
472.654	79.81
472.873	88.81
473.092	85.81
473.311	89.81
473.53	87.81
473.749	90.81
473.968	79.81
474.187	90.81
474.406	89.81
474.625	85.81
474.844	108.81
475.063	79.81
475.282	93.81
475.501	95.81
475.72	98.81
475.939	89.81
476.158	85.81
476.377	83.81
476.596	105.81
476.814	85.81
477.033	73.81
477.252	79.81
477.471	91.81
477.69	81.81
477.908	91.81
478.127	88.81
478.346	85.81
478.564	108.81
478.783	100.81
479.002	96.81
479.22	107.81
479.439	105.81
479.658	101.81
479.876	89.81
480.095	79.81
480.313	80.81
480.532	82.81
480.751	87.81
480.969	81.81
481.188	68.81
481.406	68.81
481.624	75.81
481.843	77.81
482.061	76.81
482.28	96.81
482.498	82.81
482.717	69.81
482.935	83.81
483.153	100.81
483.372	88.81
483.59	96.81
483.808	94.81
484.027	103.81
484.245	76.81
484.463	79.81
484.681	98.81
484.9	100.81
485.118	96.81
485.336	87.81
485.554	92.81
485.772	83.81
485.99	88.81
486.209	68.81
486.427	84.81
486.645	91.81
486.863	84.81
487.081	105.81
487.299	99.81
487.517	91.81
487.735	104.81
487.953	105.81
488.171	103.81
488.389	97.81
488.607	81.81
488.825	92.81
489.043	91.81
489.261	102.81
489.479	104.81
489.696	93.81
489.914	102.81
490.132	86.81
490.35	89.81
490.568	97.81
490.786	106.81
491.003	107.81
491.221	105.81
491.439	94.81
491.657	113.81
491.874	107.81
492.092	101.81
492.31	113.81
492.527	131.81
492.745	99.81
492.963	93.81
493.18	113.81
493.398	106.81
493.615	102.81
493.833	101.81
494.05	98.81
494.268	113.81
494.485	119.81
494.703	112.81
494.92	115.81
495.138	100.81
495.355	101.81
495.573	104.81
495.79	86.81
496.008	105.81
496.225	102.81
496.442	85.81
496.66	112.81
496.877	108.81
497.094	92.81
497.312	86.81
497.529	97.81
497.746	100.81
497.963	107.81
498.181	91.81
498.398	103.81
498.615	87.81
498.832	68.81
499.049	73.81
499.267	94.81
499.484	87.81
499.701	102.81
499.918	81.81
500.135	98.81
500.352	88.81
500.569	93.81
500.786	101.81
501.003	113.81
501.22	91.81
501.437	87.81
501.654	80.81
501.871	97.81
502.088	102.81
502.305	87.81
502.522	94.81
502.739	94.81
502.956	87.81
503.172	103.81
503.389	108.81
503.606	95.81
503.823	89.81
504.04	96.81
504.256	96.81
504.473	89.81
504.69	78.81
504.907	97.81
505.123	98.81
505.34	90.81
505.557	98.81
505.773	92.81
505.99	91.81
506.207	95.81
506.423	89.81
506.64	89.81
506.856	85.81
507.073	81.81
507.289	95.81
507.506	69.81
507.722	89.81
507.939	84.81
508.155	80.81
508.372	91.81
508.588	88.81
508.805	98.81
509.021	83.81
509.238	85.81
509.454	91.81
509.67	83.81
509.887	91.81
510.103	106.81
510.319	77.81
510.536	86.81
510.752	79.81
510.968	83.81
511.184	98.81
511.401	83.81
511.617	85.81
511.833	84.81
512.049	69.81
512.265	87.81
512.481	90.81
512.698	81.81
512.914	81.81
513.13	89.81
513.346	82.81
513.562	86.81
513.778	80.81
513.994	84.81
514.21	74.81
514.426	87.81
514.642	80.81
514.858	80.81
515.074	68.81
515.29	88.81
515.506	75.81
515.721	75.81
515.937	80.81
516.153	77.81
516.369	72.81
516.585	78.81
516.801	88.81
517.016	73.81
517.232	92.81
517.448	79.81
517.664	85.81
517.879	81.81
518.095	81.81
518.311	77.81
