Data from Location5.07152019.Energy5.Lamp.07192019.3%Agarose_HRD10591_16-03-59-628.txt Node
Date: Fri Jul 19 16:03:59 EDT 2019
User: cochatt
Spectrometer: HR+D1059
Trigger mode: 1
Integration Time (sec): 1.000000E-1
Scans to average: 1
Electric dark correction enabled: true
Nonlinearity correction enabled: false
Boxcar width: 0
XAxis mode: Wavelengths
Number of Pixels in Spectrum: 2048
>>>>>Begin Spectral Data<<<<<
223.165	-12
223.4	-12
223.635	-12
223.869	3
224.104	-29
224.338	-32
224.573	-9
224.808	-5
225.042	-8
225.277	-7
225.511	1
225.746	-2
225.98	11
226.215	2
226.449	13
226.683	26
226.918	31
227.152	17
227.387	33
227.621	51
227.856	42
228.09	53
228.324	39
228.559	41
228.793	63
229.027	68
229.262	69
229.496	61
229.73	67
229.964	69
230.199	67
230.433	77
230.667	90
230.901	68
231.136	77
231.37	73
231.604	80
231.838	82
232.072	69
232.306	66
232.541	88
232.775	75
233.009	74
233.243	90
233.477	84
233.711	91
233.945	72
234.179	93
234.413	77
234.647	77
234.881	68
235.115	70
235.349	74
235.583	86
235.817	77
236.051	75
236.285	76
236.519	75
236.753	78
236.987	78
237.221	71
237.455	83
237.689	97
237.922	83
238.156	78
238.39	67
238.624	69
238.858	79
239.091	86
239.325	73
239.559	88
239.793	78
240.027	79
240.26	85
240.494	83
240.728	82
240.961	89
241.195	73
241.429	70
241.662	80
241.896	87
242.13	71
242.363	85
242.597	72
242.83	87
243.064	78
243.298	82
243.531	78
243.765	76
243.998	81
244.232	91
244.465	96
244.699	79
244.932	85
245.166	82
245.399	78
245.633	73
245.866	77
246.099	70
246.333	71
246.566	79
246.8	69
247.033	85
247.266	74
247.5	75
247.733	83
247.966	87
248.2	81
248.433	76
248.666	87
248.899	80
249.133	81
249.366	82
249.599	77
249.832	73
250.066	83
250.299	65
250.532	85
250.765	88
250.998	80
251.231	80
251.465	89
251.698	92
251.931	86
252.164	96
252.397	83
252.63	89
252.863	74
253.096	87
253.329	88
253.562	87
253.795	76
254.028	91
254.261	99
254.494	70
254.727	93
254.96	91
255.193	83
255.426	80
255.659	77
255.892	83
256.124	95
256.357	97
256.59	87
256.823	83
257.056	78
257.289	83
257.521	76
257.754	81
257.987	85
258.22	91
258.452	75
258.685	76
258.918	98
259.151	79
259.383	81
259.616	85
259.849	85
260.081	84
260.314	88
260.547	80
260.779	82
261.012	81
261.244	81
261.477	91
261.71	78
261.942	95
262.175	82
262.407	87
262.64	84
262.872	81
263.105	89
263.337	90
263.57	85
263.802	82
264.035	78
264.267	80
264.499	88
264.732	81
264.964	83
265.197	79
265.429	73
265.661	83
265.894	96
266.126	86
266.358	91
266.591	76
266.823	83
267.055	81
267.287	92
267.52	81
267.752	101
267.984	85
268.216	80
268.448	89
268.681	85
268.913	92
269.145	90
269.377	79
269.609	92
269.841	87
270.073	81
270.306	79
270.538	90
270.77	86
271.002	86
271.234	78
271.466	94
271.698	93
271.93	90
272.162	97
272.394	90
272.626	92
272.858	88
273.09	95
273.322	92
273.553	81
273.785	94
274.017	95
274.249	92
274.481	90
274.713	83
274.945	75
275.176	98
275.408	86
275.64	79
275.872	96
276.104	91
276.335	85
276.567	83
276.799	81
277.031	88
277.262	86
277.494	90
277.726	97
277.957	81
278.189	94
278.421	97
278.652	99
278.884	77
279.115	83
279.347	99
279.579	80
279.81	103
280.042	96
280.273	88
280.505	74
280.736	90
280.968	102
281.199	87
281.431	88
281.662	92
281.894	84
282.125	90
282.356	83
282.588	90
282.819	76
283.051	92
283.282	94
283.513	85
283.745	92
283.976	92
284.207	100
284.439	92
284.67	92
284.901	72
285.132	87
285.364	84
285.595	90
285.826	104
286.057	95
286.288	95
286.52	93
286.751	94
286.982	96
287.213	82
287.444	78
287.675	90
287.906	103
288.138	98
288.369	89
288.6	87
288.831	81
289.062	92
289.293	81
289.524	93
289.755	88
289.986	85
290.217	95
290.448	85
290.679	92
290.91	95
291.141	100
291.371	83
291.602	90
291.833	89
292.064	81
292.295	103
292.526	87
292.757	79
292.987	102
293.218	73
293.449	95
293.68	99
293.91	86
294.141	87
294.372	97
294.603	98
294.833	86
295.064	90
295.295	106
295.525	93
295.756	90
295.987	80
296.217	87
296.448	84
296.679	92
296.909	90
297.14	101
297.37	89
297.601	76
297.831	95
298.062	108
298.292	89
298.523	84
298.753	96
298.984	98
299.214	106
299.445	85
299.675	74
299.905	76
300.136	88
300.366	92
300.597	88
300.827	77
301.057	83
301.288	84
301.518	94
301.748	92
301.979	80
302.209	81
302.439	95
302.669	100
302.9	85
303.13	98
303.36	70
303.59	90
303.82	91
304.051	100
304.281	95
304.511	97
304.741	84
304.971	85
305.201	88
305.431	74
305.661	91
305.891	90
306.121	91
306.352	81
306.582	94
306.812	92
307.042	101
307.272	88
307.502	98
307.731	105
307.961	94
308.191	94
308.421	86
308.651	107
308.881	109
309.111	103
309.341	95
309.571	91
309.8	89
310.03	84
310.26	93
310.49	95
310.72	94
310.949	79
311.179	85
311.409	89
311.639	91
311.868	85
312.098	101
312.328	102
312.557	75
312.787	88
313.017	84
313.246	90
313.476	87
313.706	88
313.935	101
314.165	90
314.394	101
314.624	82
314.853	100
315.083	95
315.312	98
315.542	83
315.771	79
316.001	78
316.23	82
316.46	84
316.689	90
316.919	98
317.148	96
317.377	90
317.607	76
317.836	97
318.065	102
318.295	100
318.524	98
318.753	92
318.983	89
319.212	91
319.441	86
319.67	77
319.9	94
320.129	101
320.358	93
320.587	106
320.816	93
321.046	95
321.275	112
321.504	89
321.733	81
321.962	97
322.191	99
322.42	87
322.649	103
322.878	99
323.108	94
323.337	84
323.566	100
323.795	92
324.024	99
324.253	93
324.482	97
324.71	86
324.939	92
325.168	93
325.397	95
325.626	89
325.855	100
326.084	90
326.313	80
326.542	94
326.77	91
326.999	89
327.228	94
327.457	93
327.686	91
327.914	91
328.143	105
328.372	91
328.6	90
328.829	88
329.058	81
329.287	89
329.515	91
329.744	95
329.972	101
330.201	88
330.43	91
330.658	90
330.887	91
331.115	81
331.344	94
331.572	100
331.801	89
332.03	92
332.258	84
332.486	89
332.715	103
332.943	92
333.172	88
333.4	101
333.629	103
333.857	93
334.085	76
334.314	90
334.542	80
334.771	97
334.999	94
335.227	92
335.455	92
335.684	85
335.912	97
336.14	100
336.369	95
336.597	100
336.825	89
337.053	98
337.281	97
337.51	82
337.738	92
337.966	82
338.194	90
338.422	94
338.65	90
338.878	96
339.106	103
339.334	93
339.562	92
339.79	95
340.018	99
340.246	112
340.474	97
340.702	83
340.93	99
341.158	102
341.386	88
341.614	101
341.842	81
342.07	94
342.298	93
342.526	83
342.754	96
342.981	100
343.209	101
343.437	95
343.665	92
343.893	108
344.12	97
344.348	92
344.576	98
344.804	94
345.031	86
345.259	84
345.487	86
345.714	94
345.942	85
346.17	93
346.397	108
346.625	97
346.853	98
347.08	104
347.308	99
347.535	94
347.763	95
347.99	83
348.218	91
348.445	96
348.673	96
348.9	97
349.128	95
349.355	90
349.583	104
349.81	87
350.037	93
350.265	80
350.492	95
350.72	92
350.947	100
351.174	96
351.402	77
351.629	94
351.856	93
352.083	89
352.311	97
352.538	82
352.765	96
352.992	90
353.22	77
353.447	90
353.674	93
353.901	100
354.128	94
354.355	90
354.583	96
354.81	90
355.037	100
355.264	91
355.491	104
355.718	98
355.945	87
356.172	99
356.399	86
356.626	104
356.853	104
357.08	92
357.307	94
357.534	93
357.761	85
357.988	97
358.215	100
358.441	91
358.668	91
358.895	104
359.122	91
359.349	84
359.576	89
359.802	100
360.029	105
360.256	96
360.483	92
360.709	93
360.936	79
361.163	99
361.39	95
361.616	96
361.843	98
362.07	99
362.296	109
362.523	83
362.749	86
362.976	92
363.203	87
363.429	83
363.656	91
363.882	91
364.109	90
364.335	84
364.562	103
364.788	83
365.015	79
365.241	105
365.468	91
365.694	97
365.92	104
366.147	89
366.373	85
366.599	93
366.826	96
367.052	81
367.278	91
367.505	95
367.731	79
367.957	96
368.184	99
368.41	100
368.636	84
368.862	67
369.089	97
369.315	97
369.541	83
369.767	78
369.993	89
370.219	99
370.445	91
370.672	99
370.898	103
371.124	90
371.35	92
371.576	87
371.802	98
372.028	82
372.254	94
372.48	88
372.706	81
372.932	94
373.158	93
373.384	92
373.61	91
373.835	87
374.061	78
374.287	98
374.513	95
374.739	90
374.965	100
375.191	103
375.416	98
375.642	93
375.868	101
376.094	93
376.319	89
376.545	96
376.771	97
376.997	114
377.222	92
377.448	85
377.674	88
377.899	102
378.125	96
378.35	93
378.576	98
378.802	79
379.027	82
379.253	87
379.478	87
379.704	90
379.929	94
380.155	86
380.38	88
380.606	85
380.831	98
381.057	88
381.282	86
381.507	101
381.733	98
381.958	86
382.184	93
382.409	96
382.634	97
382.86	106
383.085	94
383.31	79
383.535	95
383.761	104
383.986	105
384.211	93
384.436	75
384.662	79
384.887	90
385.112	105
385.337	90
385.562	104
385.787	96
386.013	97
386.238	111
386.463	90
386.688	88
386.913	101
387.138	104
387.363	97
387.588	99
387.813	100
388.038	98
388.263	95
388.488	88
388.713	98
388.938	98
389.163	99
389.387	107
389.612	94
389.837	108
390.062	115
390.287	87
390.512	83
390.736	82
390.961	98
391.186	97
391.411	93
391.636	91
391.86	114
392.085	98
392.31	100
392.534	100
392.759	107
392.984	91
393.208	96
393.433	101
393.658	109
393.882	94
394.107	104
394.331	94
394.556	102
394.78	76
395.005	105
395.229	100
395.454	100
395.678	90
395.903	95
396.127	97
396.352	98
396.576	104
396.801	99
397.025	106
397.249	99
397.474	85
397.698	93
397.922	97
398.147	92
398.371	95
398.595	92
398.82	100
399.044	92
399.268	103
399.492	107
399.717	110
399.941	116
400.165	102
400.389	88
400.613	104
400.837	83
401.062	109
401.286	104
401.51	97
401.734	87
401.958	106
402.182	100
402.406	89
402.63	94
402.854	110
403.078	98
403.302	93
403.526	102
403.75	90
403.974	99
404.198	89
404.422	106
404.645	98
404.869	106
405.093	104
405.317	105
405.541	98
405.765	101
405.988	97
406.212	95
406.436	80
406.66	96
406.883	107
407.107	107
407.331	115
407.555	113
407.778	100
408.002	101
408.226	106
408.449	89
408.673	111
408.896	104
409.12	97
409.344	95
409.567	99
409.791	100
410.014	98
410.238	91
410.461	104
410.685	94
410.908	96
411.132	112
411.355	100
411.578	90
411.802	95
412.025	94
412.249	89
412.472	104
412.695	100
412.919	91
413.142	101
413.365	104
413.589	83
413.812	113
414.035	87
414.258	91
414.482	77
414.705	96
414.928	86
415.151	98
415.374	98
415.597	100
415.821	111
416.044	95
416.267	103
416.49	83
416.713	96
416.936	99
417.159	104
417.382	89
417.605	104
417.828	97
418.051	99
418.274	83
418.497	92
418.72	101
418.943	101
419.166	111
419.389	113
419.611	97
419.834	97
420.057	107
420.28	90
420.503	105
420.726	117
420.948	105
421.171	102
421.394	103
421.617	108
421.839	108
422.062	101
422.285	97
422.507	114
422.73	89
422.953	104
423.175	87
423.398	105
423.621	104
423.843	92
424.066	106
424.288	89
424.511	91
424.733	95
424.956	99
425.178	86
425.401	114
425.623	97
425.846	103
426.068	82
426.291	99
426.513	88
426.735	93
426.958	98
427.18	88
427.402	91
427.625	106
427.847	92
428.069	91
428.292	92
428.514	103
428.736	109
428.958	98
429.181	92
429.403	97
429.625	93
429.847	94
430.069	94
430.292	100
430.514	90
430.736	84
430.958	80
431.18	108
431.402	105
431.624	99
431.846	89
432.068	90
432.29	89
432.512	90
432.734	97
432.956	84
433.178	91
433.4	105
433.622	95
433.844	96
434.066	99
434.287	107
434.509	89
434.731	102
434.953	117
435.175	97
435.397	99
435.618	104
435.84	98
436.062	103
436.284	105
436.505	107
436.727	100
436.949	92
437.17	86
437.392	98
437.614	95
437.835	92
438.057	98
438.278	88
438.5	91
438.721	96
438.943	89
439.165	93
439.386	108
439.608	85
439.829	94
440.05	99
440.272	95
440.493	97
440.715	94
440.936	88
441.158	107
441.379	102
441.6	107
441.822	108
442.043	115
442.264	95
442.486	88
442.707	92
442.928	89
443.149	95
443.371	100
443.592	91
443.813	84
444.034	100
444.255	110
444.476	99
444.698	97
444.919	114
445.14	193
445.361	129
445.582	96
445.803	84
446.024	92
446.245	101
446.466	104
446.687	94
446.908	89
447.129	90
447.35	91
447.571	105
447.792	100
448.013	100
448.234	84
448.455	101
448.675	102
448.896	88
449.117	84
449.338	84
449.559	96
449.779	90
450	87
450.221	100
450.442	93
450.662	101
450.883	89
451.104	87
451.324	97
451.545	101
451.766	102
451.986	86
452.207	102
452.428	92
452.648	87
452.869	89
453.089	92
453.31	102
453.53	105
453.751	95
453.971	88
454.192	104
454.412	93
454.633	87
454.853	88
455.073	86
455.294	84
455.514	98
455.734	97
455.955	104
456.175	96
456.395	96
456.616	107
456.836	86
457.056	102
457.276	98
457.497	98
457.717	83
457.937	95
458.157	96
458.377	95
458.598	75
458.818	99
459.038	107
459.258	98
459.478	99
459.698	93
459.918	87
460.138	98
460.358	92
460.578	89
460.798	85
461.018	106
461.238	103
461.458	98
461.678	92
461.898	97
462.118	101
462.338	97
462.558	95
462.777	100
462.997	114
463.217	95
463.437	105
463.657	100
463.876	111
464.096	96
464.316	93
464.536	126
464.755	104
464.975	98
465.195	105
465.414	103
465.634	105
465.854	111
466.073	106
466.293	96
466.512	113
466.732	104
466.951	100
467.171	88
467.391	111
467.61	99
467.829	99
468.049	104
468.268	100
468.488	96
468.707	86
468.927	86
469.146	98
469.365	97
469.585	92
469.804	95
470.023	80
470.243	102
470.462	93
470.681	100
470.901	118
471.12	87
471.339	95
471.558	90
471.777	88
471.997	113
472.216	103
472.435	86
472.654	99
472.873	90
473.092	95
473.311	113
473.53	103
473.749	101
473.968	107
474.187	107
474.406	85
474.625	100
474.844	94
475.063	100
475.282	100
475.501	109
475.72	97
475.939	104
476.158	89
476.377	98
476.596	93
476.814	111
477.033	102
477.252	106
477.471	96
477.69	87
477.908	114
478.127	106
478.346	105
478.564	119
478.783	91
479.002	106
479.22	89
479.439	97
479.658	93
479.876	106
480.095	109
480.313	113
480.532	111
480.751	93
480.969	97
481.188	98
481.406	93
481.624	124
481.843	103
482.061	117
482.28	91
482.498	89
482.717	104
482.935	108
483.153	100
483.372	108
483.59	97
483.808	104
484.027	108
484.245	107
484.463	104
484.681	103
484.9	109
485.118	108
485.336	91
485.554	87
485.772	94
485.99	125
486.209	109
486.427	101
486.645	111
486.863	112
487.081	114
487.299	104
487.517	102
487.735	112
487.953	119
488.171	100
488.389	125
488.607	103
488.825	113
489.043	111
489.261	106
489.479	120
489.696	101
489.914	114
490.132	104
490.35	113
490.568	117
490.786	116
491.003	131
491.221	103
491.439	117
491.657	118
491.874	112
492.092	112
492.31	124
492.527	118
492.745	107
492.963	141
493.18	119
493.398	105
493.615	115
493.833	103
494.05	102
494.268	115
494.485	113
494.703	130
494.92	121
495.138	114
495.355	115
495.573	119
495.79	121
496.008	109
496.225	112
496.442	111
496.66	107
496.877	118
497.094	119
497.312	117
497.529	112
497.746	117
497.963	99
498.181	114
498.398	123
498.615	114
498.832	105
499.049	121
499.267	115
499.484	127
499.701	142
499.918	160
500.135	138
500.352	149
500.569	161
500.786	163
501.003	168
501.22	153
501.437	140
501.654	140
501.871	117
502.088	123
502.305	124
502.522	130
502.739	111
502.956	121
503.172	122
503.389	110
503.606	100
503.823	99
504.04	93
504.256	107
504.473	115
504.69	113
504.907	119
505.123	112
505.34	113
505.557	95
505.773	117
505.99	101
506.207	104
506.423	111
506.64	112
506.856	116
507.073	123
507.289	129
507.506	107
507.722	81
507.939	102
508.155	101
508.372	101
508.588	119
508.805	84
509.021	101
509.238	106
509.454	88
509.67	96
509.887	90
510.103	81
510.319	99
510.536	98
510.752	99
510.968	100
511.184	100
511.401	103
511.617	98
511.833	86
512.049	97
512.265	101
512.481	95
512.698	97
512.914	114
513.13	103
513.346	107
513.562	97
513.778	99
513.994	92
514.21	100
514.426	105
514.642	104
514.858	110
515.074	113
515.29	105
515.506	113
515.721	104
515.937	110
516.153	109
516.369	102
516.585	109
516.801	107
517.016	96
517.232	99
517.448	101
517.664	104
517.879	117
518.095	103
518.311	106
518.527	114
518.742	91
518.958	100
519.173	109
519.389	100
519.605	112
519.82	92
520.036	115
520.251	111
520.467	100
520.682	113
520.898	114
521.113	96
521.329	90
521.544	98
521.76	107
521.975	96
522.19	99
522.406	92
522.621	88
522.836	92
523.052	107
523.267	104
523.482	91
523.698	120
523.913	104
524.128	92
524.343	96
524.559	108
524.774	99
524.989	101
525.204	102
525.419	113
525.634	87
525.849	97
526.064	93
526.28	87
526.495	101
526.71	115
526.925	108
527.14	92
527.355	104
527.57	102
527.785	106
527.999	99
528.214	97
528.429	104
528.644	99
528.859	98
529.074	99
529.289	106
529.503	103
529.718	89
529.933	103
530.148	96
530.363	95
530.577	90
530.792	109
531.007	95
531.221	88
531.436	96
531.651	98
531.865	100
532.08	113
532.295	106
532.509	101
532.724	73
532.938	103
533.153	106
533.367	97
533.582	96
533.796	108
534.011	82
534.225	100
534.44	82
534.654	96
534.868	93
535.083	104
535.297	104
535.511	114
535.726	103
535.94	95
536.154	105
536.369	99
536.583	105
536.797	113
537.011	111
537.225	100
537.44	87
537.654	105
537.868	93
538.082	89
538.296	88
538.51	99
538.724	99
538.938	112
539.153	92
539.367	104
539.581	99
539.795	97
540.009	102
540.222	103
540.436	104
540.65	107
540.864	86
541.078	91
541.292	91
541.506	105
541.72	104
541.934	102
542.147	95
542.361	116
542.575	101
542.789	108
543.002	99
543.216	102
543.43	104
543.644	119
543.857	107
544.071	106
544.285	102
544.498	104
544.712	111
544.925	100
545.139	107
545.352	104
545.566	113
545.779	103
545.993	99
546.206	103
546.42	110
546.633	111
546.847	106
547.06	90
547.274	115
547.487	111
547.7	121
547.914	111
548.127	119
548.34	108
548.554	114
548.767	104
548.98	111
549.193	111
549.407	105
549.62	108
549.833	115
550.046	93
550.259	108
550.473	111
550.686	95
550.899	115
551.112	102
551.325	116
551.538	105
551.751	90
551.964	96
552.177	106
552.39	108
552.603	107
552.816	112
553.029	102
553.242	97
553.455	119
553.667	123
553.88	101
554.093	111
554.306	120
554.519	103
554.732	85
554.944	109
555.157	99
555.37	100
555.583	90
555.795	93
556.008	89
556.221	101
556.433	105
556.646	103
556.859	96
557.071	111
557.284	108
557.496	94
557.709	118
557.921	93
558.134	88
558.346	106
558.559	100
558.771	104
558.984	110
559.196	106
559.409	95
559.621	87
559.833	98
560.046	93
560.258	94
560.47	90
560.683	90
560.895	104
561.107	103
561.32	95
561.532	94
561.744	90
561.956	109
562.168	113
562.381	108
562.593	91
562.805	93
563.017	99
563.229	102
563.441	92
563.653	96
563.865	96
564.077	105
564.289	108
564.501	101
564.713	113
564.925	99
565.137	113
565.349	113
565.561	102
565.773	113
565.985	87
566.197	106
566.408	117
566.62	101
566.832	106
567.044	105
567.255	104
567.467	105
567.679	116
567.891	111
568.102	106
568.314	116
568.526	105
568.737	117
568.949	93
569.161	100
569.372	92
569.584	101
569.795	93
570.007	92
570.218	89
570.43	103
570.641	91
570.853	74
571.064	105
571.276	101
571.487	102
571.698	91
571.91	96
572.121	93
572.333	98
572.544	97
572.755	89
572.966	94
573.178	103
573.389	91
573.6	90
573.811	102
574.023	100
574.234	101
574.445	92
574.656	85
574.867	95
575.078	77
575.289	91
575.501	90
575.712	91
575.923	85
576.134	99
576.345	92
576.556	88
576.767	94
576.978	102
577.188	89
577.399	90
577.61	85
577.821	104
578.032	107
578.243	88
578.454	89
578.665	91
578.875	79
579.086	97
579.297	85
579.508	85
579.718	85
579.929	92
580.14	99
580.35	94
580.561	91
