Data from Location5.07152019.Energy5.Lamp.07192019.3%Agarose_HRD10591_15-37-24-388.txt Node
Date: Fri Jul 19 15:37:24 EDT 2019
User: cochatt
Spectrometer: HR+D1059
Trigger mode: 1
Integration Time (sec): 1.000000E-1
Scans to average: 1
Electric dark correction enabled: true
Nonlinearity correction enabled: false
Boxcar width: 0
XAxis mode: Wavelengths
Number of Pixels in Spectrum: 2048
>>>>>Begin Spectral Data<<<<<
223.165	-7.31
223.4	-7.31
223.635	-7.31
223.869	-5.31
224.104	-5.31
224.338	-30.31
224.573	-20.31
224.808	-4.31
225.042	-11.31
225.277	9.69
225.511	-2.31
225.746	-8.31
225.98	-2.31
226.215	3.69
226.449	11.69
226.683	20.69
226.918	14.69
227.152	36.69
227.387	36.69
227.621	29.69
227.856	40.69
228.09	40.69
228.324	60.69
228.559	51.69
228.793	54.69
229.027	59.69
229.262	65.69
229.496	68.69
229.73	66.69
229.964	76.69
230.199	82.69
230.433	70.69
230.667	71.69
230.901	85.69
231.136	80.69
231.37	82.69
231.604	67.69
231.838	73.69
232.072	91.69
232.306	75.69
232.541	73.69
232.775	93.69
233.009	75.69
233.243	76.69
233.477	90.69
233.711	82.69
233.945	72.69
234.179	71.69
234.413	90.69
234.647	87.69
234.881	72.69
235.115	77.69
235.349	69.69
235.583	83.69
235.817	94.69
236.051	78.69
236.285	67.69
236.519	69.69
236.753	80.69
236.987	74.69
237.221	96.69
237.455	80.69
237.689	88.69
237.922	70.69
238.156	76.69
238.39	71.69
238.624	65.69
238.858	66.69
239.091	71.69
239.325	82.69
239.559	87.69
239.793	74.69
240.027	83.69
240.26	80.69
240.494	84.69
240.728	71.69
240.961	76.69
241.195	92.69
241.429	80.69
241.662	70.69
241.896	79.69
242.13	70.69
242.363	86.69
242.597	76.69
242.83	88.69
243.064	56.69
243.298	74.69
243.531	75.69
243.765	85.69
243.998	80.69
244.232	78.69
244.465	87.69
244.699	66.69
244.932	75.69
245.166	75.69
245.399	74.69
245.633	81.69
245.866	81.69
246.099	71.69
246.333	92.69
246.566	90.69
246.8	76.69
247.033	76.69
247.266	76.69
247.5	75.69
247.733	86.69
247.966	76.69
248.2	71.69
248.433	71.69
248.666	81.69
248.899	85.69
249.133	75.69
249.366	84.69
249.599	76.69
249.832	81.69
250.066	87.69
250.299	78.69
250.532	72.69
250.765	76.69
250.998	66.69
251.231	80.69
251.465	90.69
251.698	76.69
251.931	79.69
252.164	90.69
252.397	63.69
252.63	78.69
252.863	71.69
253.096	68.69
253.329	87.69
253.562	95.69
253.795	88.69
254.028	83.69
254.261	62.69
254.494	86.69
254.727	89.69
254.96	87.69
255.193	75.69
255.426	81.69
255.659	90.69
255.892	91.69
256.124	85.69
256.357	82.69
256.59	87.69
256.823	78.69
257.056	79.69
257.289	94.69
257.521	67.69
257.754	68.69
257.987	80.69
258.22	83.69
258.452	74.69
258.685	77.69
258.918	79.69
259.151	75.69
259.383	74.69
259.616	80.69
259.849	89.69
260.081	79.69
260.314	82.69
260.547	74.69
260.779	90.69
261.012	76.69
261.244	87.69
261.477	79.69
261.71	83.69
261.942	84.69
262.175	95.69
262.407	90.69
262.64	95.69
262.872	77.69
263.105	80.69
263.337	81.69
263.57	77.69
263.802	83.69
264.035	90.69
264.267	105.69
264.499	82.69
264.732	83.69
264.964	90.69
265.197	93.69
265.429	75.69
265.661	88.69
265.894	88.69
266.126	72.69
266.358	81.69
266.591	81.69
266.823	84.69
267.055	75.69
267.287	78.69
267.52	94.69
267.752	72.69
267.984	77.69
268.216	86.69
268.448	61.69
268.681	90.69
268.913	77.69
269.145	69.69
269.377	77.69
269.609	81.69
269.841	77.69
270.073	91.69
270.306	83.69
270.538	92.69
270.77	87.69
271.002	93.69
271.234	90.69
271.466	76.69
271.698	92.69
271.93	83.69
272.162	91.69
272.394	88.69
272.626	83.69
272.858	102.69
273.09	89.69
273.322	87.69
273.553	90.69
273.785	85.69
274.017	79.69
274.249	91.69
274.481	89.69
274.713	90.69
274.945	101.69
275.176	94.69
275.408	88.69
275.64	84.69
275.872	85.69
276.104	89.69
276.335	84.69
276.567	78.69
276.799	77.69
277.031	89.69
277.262	75.69
277.494	87.69
277.726	77.69
277.957	73.69
278.189	79.69
278.421	82.69
278.652	80.69
278.884	84.69
279.115	82.69
279.347	89.69
279.579	81.69
279.81	86.69
280.042	79.69
280.273	89.69
280.505	73.69
280.736	83.69
280.968	78.69
281.199	80.69
281.431	85.69
281.662	77.69
281.894	86.69
282.125	96.69
282.356	94.69
282.588	99.69
282.819	92.69
283.051	80.69
283.282	77.69
283.513	84.69
283.745	77.69
283.976	79.69
284.207	83.69
284.439	86.69
284.67	75.69
284.901	67.69
285.132	80.69
285.364	90.69
285.595	76.69
285.826	80.69
286.057	76.69
286.288	89.69
286.52	85.69
286.751	82.69
286.982	76.69
287.213	71.69
287.444	72.69
287.675	84.69
287.906	97.69
288.138	97.69
288.369	81.69
288.6	96.69
288.831	92.69
289.062	78.69
289.293	93.69
289.524	82.69
289.755	90.69
289.986	98.69
290.217	96.69
290.448	100.69
290.679	84.69
290.91	73.69
291.141	91.69
291.371	92.69
291.602	89.69
291.833	80.69
292.064	82.69
292.295	88.69
292.526	88.69
292.757	93.69
292.987	90.69
293.218	85.69
293.449	75.69
293.68	94.69
293.91	90.69
294.141	100.69
294.372	93.69
294.603	92.69
294.833	87.69
295.064	80.69
295.295	78.69
295.525	81.69
295.756	89.69
295.987	91.69
296.217	93.69
296.448	93.69
296.679	88.69
296.909	97.69
297.14	93.69
297.37	88.69
297.601	83.69
297.831	96.69
298.062	83.69
298.292	95.69
298.523	79.69
298.753	86.69
298.984	83.69
299.214	72.69
299.445	90.69
299.675	92.69
299.905	85.69
300.136	83.69
300.366	85.69
300.597	93.69
300.827	83.69
301.057	87.69
301.288	80.69
301.518	82.69
301.748	82.69
301.979	65.69
302.209	92.69
302.439	93.69
302.669	79.69
302.9	94.69
303.13	88.69
303.36	100.69
303.59	92.69
303.82	77.69
304.051	109.69
304.281	81.69
304.511	76.69
304.741	99.69
304.971	87.69
305.201	96.69
305.431	90.69
305.661	88.69
305.891	79.69
306.121	82.69
306.352	81.69
306.582	77.69
306.812	71.69
307.042	85.69
307.272	89.69
307.502	75.69
307.731	90.69
307.961	106.69
308.191	85.69
308.421	72.69
308.651	84.69
308.881	108.69
309.111	63.69
309.341	89.69
309.571	76.69
309.8	80.69
310.03	89.69
310.26	86.69
310.49	72.69
310.72	94.69
310.949	76.69
311.179	85.69
311.409	88.69
311.639	82.69
311.868	93.69
312.098	90.69
312.328	74.69
312.557	93.69
312.787	91.69
313.017	91.69
313.246	83.69
313.476	88.69
313.706	97.69
313.935	76.69
314.165	87.69
314.394	78.69
314.624	95.69
314.853	74.69
315.083	77.69
315.312	74.69
315.542	76.69
315.771	88.69
316.001	76.69
316.23	78.69
316.46	78.69
316.689	82.69
316.919	80.69
317.148	87.69
317.377	91.69
317.607	95.69
317.836	94.69
318.065	90.69
318.295	86.69
318.524	86.69
318.753	76.69
318.983	84.69
319.212	95.69
319.441	89.69
319.67	82.69
319.9	76.69
320.129	74.69
320.358	74.69
320.587	100.69
320.816	94.69
321.046	85.69
321.275	104.69
321.504	84.69
321.733	104.69
321.962	87.69
322.191	84.69
322.42	83.69
322.649	93.69
322.878	91.69
323.108	99.69
323.337	93.69
323.566	79.69
323.795	75.69
324.024	84.69
324.253	83.69
324.482	90.69
324.71	88.69
324.939	88.69
325.168	84.69
325.397	84.69
325.626	98.69
325.855	84.69
326.084	91.69
326.313	77.69
326.542	82.69
326.77	86.69
326.999	88.69
327.228	93.69
327.457	79.69
327.686	97.69
327.914	84.69
328.143	90.69
328.372	88.69
328.6	94.69
328.829	92.69
329.058	76.69
329.287	83.69
329.515	77.69
329.744	75.69
329.972	76.69
330.201	92.69
330.43	94.69
330.658	86.69
330.887	91.69
331.115	86.69
331.344	92.69
331.572	85.69
331.801	90.69
332.03	74.69
332.258	84.69
332.486	98.69
332.715	97.69
332.943	85.69
333.172	83.69
333.4	77.69
333.629	91.69
333.857	82.69
334.085	92.69
334.314	88.69
334.542	92.69
334.771	77.69
334.999	72.69
335.227	80.69
335.455	69.69
335.684	83.69
335.912	94.69
336.14	89.69
336.369	89.69
336.597	85.69
336.825	97.69
337.053	82.69
337.281	88.69
337.51	81.69
337.738	77.69
337.966	75.69
338.194	81.69
338.422	72.69
338.65	83.69
338.878	85.69
339.106	86.69
339.334	97.69
339.562	77.69
339.79	86.69
340.018	81.69
340.246	88.69
340.474	77.69
340.702	87.69
340.93	94.69
341.158	80.69
341.386	88.69
341.614	74.69
341.842	88.69
342.07	99.69
342.298	95.69
342.526	76.69
342.754	98.69
342.981	95.69
343.209	73.69
343.437	103.69
343.665	86.69
343.893	80.69
344.12	85.69
344.348	73.69
344.576	79.69
344.804	85.69
345.031	73.69
345.259	61.69
345.487	101.69
345.714	89.69
345.942	88.69
346.17	94.69
346.397	77.69
346.625	84.69
346.853	81.69
347.08	95.69
347.308	101.69
347.535	89.69
347.763	93.69
347.99	87.69
348.218	102.69
348.445	88.69
348.673	90.69
348.9	88.69
349.128	78.69
349.355	80.69
349.583	83.69
349.81	93.69
350.037	86.69
350.265	85.69
350.492	101.69
350.72	80.69
350.947	83.69
351.174	78.69
351.402	85.69
351.629	83.69
351.856	86.69
352.083	83.69
352.311	89.69
352.538	82.69
352.765	79.69
352.992	95.69
353.22	97.69
353.447	84.69
353.674	77.69
353.901	87.69
354.128	88.69
354.355	77.69
354.583	84.69
354.81	83.69
355.037	87.69
355.264	87.69
355.491	96.69
355.718	87.69
355.945	88.69
356.172	81.69
356.399	79.69
356.626	67.69
356.853	76.69
357.08	85.69
357.307	87.69
357.534	81.69
357.761	92.69
357.988	98.69
358.215	69.69
358.441	78.69
358.668	77.69
358.895	88.69
359.122	87.69
359.349	80.69
359.576	96.69
359.802	86.69
360.029	84.69
360.256	87.69
360.483	79.69
360.709	76.69
360.936	85.69
361.163	84.69
361.39	77.69
361.616	72.69
361.843	79.69
362.07	91.69
362.296	75.69
362.523	93.69
362.749	86.69
362.976	84.69
363.203	83.69
363.429	69.69
363.656	84.69
363.882	71.69
364.109	86.69
364.335	68.69
364.562	103.69
364.788	84.69
365.015	88.69
365.241	90.69
365.468	85.69
365.694	93.69
365.92	80.69
366.147	74.69
366.373	73.69
366.599	76.69
366.826	74.69
367.052	88.69
367.278	79.69
367.505	87.69
367.731	75.69
367.957	79.69
368.184	76.69
368.41	83.69
368.636	83.69
368.862	108.69
369.089	90.69
369.315	104.69
369.541	80.69
369.767	91.69
369.993	83.69
370.219	90.69
370.445	71.69
370.672	92.69
370.898	101.69
371.124	82.69
371.35	81.69
371.576	101.69
371.802	80.69
372.028	90.69
372.254	80.69
372.48	77.69
372.706	97.69
372.932	98.69
373.158	90.69
373.384	73.69
373.61	86.69
373.835	90.69
374.061	94.69
374.287	77.69
374.513	81.69
374.739	90.69
374.965	97.69
375.191	84.69
375.416	80.69
375.642	88.69
375.868	86.69
376.094	88.69
376.319	70.69
376.545	90.69
376.771	81.69
376.997	82.69
377.222	86.69
377.448	88.69
377.674	81.69
377.899	87.69
378.125	93.69
378.35	89.69
378.576	80.69
378.802	80.69
379.027	82.69
379.253	87.69
379.478	81.69
379.704	111.69
379.929	92.69
380.155	73.69
380.38	87.69
380.606	81.69
380.831	86.69
381.057	90.69
381.282	98.69
381.507	85.69
381.733	79.69
381.958	71.69
382.184	82.69
382.409	80.69
382.634	85.69
382.86	87.69
383.085	82.69
383.31	93.69
383.535	63.69
383.761	89.69
383.986	90.69
384.211	91.69
384.436	85.69
384.662	88.69
384.887	92.69
385.112	78.69
385.337	84.69
385.562	83.69
385.787	88.69
386.013	86.69
386.238	86.69
386.463	78.69
386.688	94.69
386.913	85.69
387.138	99.69
387.363	68.69
387.588	80.69
387.813	97.69
388.038	77.69
388.263	84.69
388.488	92.69
388.713	96.69
388.938	69.69
389.163	84.69
389.387	79.69
389.612	81.69
389.837	94.69
390.062	84.69
390.287	96.69
390.512	98.69
390.736	91.69
390.961	67.69
391.186	77.69
391.411	98.69
391.636	95.69
391.86	80.69
392.085	75.69
392.31	95.69
392.534	100.69
392.759	89.69
392.984	82.69
393.208	85.69
393.433	77.69
393.658	85.69
393.882	83.69
394.107	90.69
394.331	94.69
394.556	77.69
394.78	89.69
395.005	77.69
395.229	93.69
395.454	89.69
395.678	86.69
395.903	91.69
396.127	80.69
396.352	103.69
396.576	85.69
396.801	85.69
397.025	73.69
397.249	82.69
397.474	101.69
397.698	94.69
397.922	79.69
398.147	83.69
398.371	80.69
398.595	88.69
398.82	91.69
399.044	81.69
399.268	87.69
399.492	67.69
399.717	77.69
399.941	95.69
400.165	93.69
400.389	90.69
400.613	93.69
400.837	85.69
401.062	88.69
401.286	83.69
401.51	81.69
401.734	88.69
401.958	100.69
402.182	87.69
402.406	97.69
402.63	98.69
402.854	101.69
403.078	98.69
403.302	95.69
403.526	88.69
403.75	71.69
403.974	86.69
404.198	87.69
404.422	89.69
404.645	74.69
404.869	95.69
405.093	96.69
405.317	84.69
405.541	85.69
405.765	87.69
405.988	90.69
406.212	88.69
406.436	86.69
406.66	109.69
406.883	99.69
407.107	89.69
407.331	98.69
407.555	99.69
407.778	87.69
408.002	76.69
408.226	70.69
408.449	79.69
408.673	80.69
408.896	88.69
409.12	92.69
409.344	81.69
409.567	87.69
409.791	79.69
410.014	83.69
410.238	86.69
410.461	78.69
410.685	88.69
410.908	81.69
411.132	95.69
411.355	69.69
411.578	98.69
411.802	102.69
412.025	88.69
412.249	93.69
412.472	83.69
412.695	92.69
412.919	71.69
413.142	87.69
413.365	101.69
413.589	78.69
413.812	89.69
414.035	92.69
414.258	97.69
414.482	83.69
414.705	85.69
414.928	103.69
415.151	106.69
415.374	102.69
415.597	85.69
415.821	89.69
416.044	104.69
416.267	109.69
416.49	90.69
416.713	90.69
416.936	80.69
417.159	83.69
417.382	96.69
417.605	91.69
417.828	77.69
418.051	100.69
418.274	103.69
418.497	99.69
418.72	84.69
418.943	76.69
419.166	99.69
419.389	94.69
419.611	105.69
419.834	97.69
420.057	95.69
420.28	76.69
420.503	90.69
420.726	100.69
420.948	91.69
421.171	108.69
421.394	106.69
421.617	95.69
421.839	98.69
422.062	73.69
422.285	87.69
422.507	97.69
422.73	83.69
422.953	95.69
423.175	87.69
423.398	101.69
423.621	93.69
423.843	84.69
424.066	75.69
424.288	88.69
424.511	101.69
424.733	111.69
424.956	109.69
425.178	94.69
425.401	79.69
425.623	104.69
425.846	99.69
426.068	83.69
426.291	91.69
426.513	100.69
426.735	94.69
426.958	88.69
427.18	92.69
427.402	93.69
427.625	89.69
427.847	74.69
428.069	90.69
428.292	88.69
428.514	84.69
428.736	92.69
428.958	81.69
429.181	74.69
429.403	71.69
429.625	92.69
429.847	91.69
430.069	90.69
430.292	101.69
430.514	90.69
430.736	83.69
430.958	102.69
431.18	89.69
431.402	101.69
431.624	91.69
431.846	80.69
432.068	71.69
432.29	81.69
432.512	106.69
432.734	95.69
432.956	89.69
433.178	101.69
433.4	91.69
433.622	102.69
433.844	92.69
434.066	100.69
434.287	108.69
434.509	76.69
434.731	77.69
434.953	87.69
435.175	104.69
435.397	97.69
435.618	87.69
435.84	85.69
436.062	106.69
436.284	104.69
436.505	96.69
436.727	91.69
436.949	88.69
437.17	103.69
437.392	91.69
437.614	74.69
437.835	97.69
438.057	75.69
438.278	92.69
438.5	107.69
438.721	101.69
438.943	98.69
439.165	93.69
439.386	96.69
439.608	108.69
439.829	103.69
440.05	95.69
440.272	103.69
440.493	100.69
440.715	99.69
440.936	94.69
441.158	108.69
441.379	95.69
441.6	98.69
441.822	95.69
442.043	104.69
442.264	102.69
442.486	100.69
442.707	107.69
442.928	95.69
443.149	79.69
443.371	95.69
443.592	89.69
443.813	115.69
444.034	115.69
444.255	94.69
444.476	95.69
444.698	96.69
444.919	100.69
445.14	231.69
445.361	165.69
445.582	82.69
445.803	100.69
446.024	84.69
446.245	89.69
446.466	104.69
446.687	86.69
446.908	98.69
447.129	108.69
447.35	100.69
447.571	87.69
447.792	90.69
448.013	99.69
448.234	91.69
448.455	87.69
448.675	91.69
448.896	103.69
449.117	97.69
449.338	83.69
449.559	80.69
449.779	99.69
450	82.69
450.221	86.69
450.442	75.69
450.662	90.69
450.883	113.69
451.104	99.69
451.324	90.69
451.545	94.69
451.766	95.69
451.986	93.69
452.207	98.69
452.428	90.69
452.648	92.69
452.869	107.69
453.089	104.69
453.31	85.69
453.53	88.69
453.751	96.69
453.971	95.69
454.192	87.69
454.412	88.69
454.633	85.69
454.853	98.69
455.073	89.69
455.294	92.69
455.514	86.69
455.734	94.69
455.955	81.69
456.175	105.69
456.395	97.69
456.616	91.69
456.836	90.69
457.056	89.69
457.276	100.69
457.497	78.69
457.717	84.69
457.937	72.69
458.157	99.69
458.377	74.69
458.598	89.69
458.818	84.69
459.038	82.69
459.258	91.69
459.478	91.69
459.698	81.69
459.918	79.69
460.138	92.69
460.358	95.69
460.578	96.69
460.798	96.69
461.018	76.69
461.238	84.69
461.458	96.69
461.678	91.69
461.898	88.69
462.118	103.69
462.338	88.69
462.558	79.69
462.777	81.69
462.997	78.69
463.217	87.69
463.437	92.69
463.657	87.69
463.876	97.69
464.096	96.69
464.316	101.69
464.536	82.69
464.755	80.69
464.975	84.69
465.195	81.69
465.414	108.69
465.634	86.69
465.854	80.69
466.073	83.69
466.293	103.69
466.512	87.69
466.732	86.69
466.951	92.69
467.171	89.69
467.391	108.69
467.61	96.69
467.829	106.69
468.049	97.69
468.268	111.69
468.488	97.69
468.707	91.69
468.927	100.69
469.146	93.69
469.365	99.69
469.585	98.69
469.804	94.69
470.023	95.69
470.243	107.69
470.462	113.69
470.681	90.69
470.901	101.69
471.12	83.69
471.339	96.69
471.558	98.69
471.777	92.69
471.997	92.69
472.216	88.69
472.435	84.69
472.654	89.69
472.873	98.69
473.092	93.69
473.311	97.69
473.53	74.69
473.749	93.69
473.968	96.69
474.187	97.69
474.406	77.69
474.625	89.69
474.844	84.69
475.063	83.69
475.282	80.69
475.501	84.69
475.72	100.69
475.939	93.69
476.158	98.69
476.377	83.69
476.596	74.69
476.814	87.69
477.033	94.69
477.252	85.69
477.471	95.69
477.69	95.69
477.908	91.69
478.127	87.69
478.346	110.69
478.564	87.69
478.783	97.69
479.002	102.69
479.22	84.69
479.439	107.69
479.658	104.69
479.876	91.69
480.095	84.69
480.313	92.69
480.532	97.69
480.751	102.69
480.969	83.69
481.188	84.69
481.406	91.69
481.624	85.69
481.843	66.69
482.061	109.69
482.28	81.69
482.498	87.69
482.717	83.69
482.935	88.69
483.153	98.69
483.372	95.69
483.59	97.69
483.808	108.69
484.027	90.69
484.245	116.69
484.463	98.69
484.681	102.69
484.9	97.69
485.118	96.69
485.336	95.69
485.554	80.69
485.772	93.69
485.99	92.69
486.209	94.69
486.427	82.69
486.645	83.69
486.863	95.69
487.081	92.69
487.299	87.69
487.517	105.69
487.735	107.69
487.953	116.69
488.171	111.69
488.389	111.69
488.607	86.69
488.825	95.69
489.043	100.69
489.261	82.69
489.479	88.69
489.696	84.69
489.914	90.69
490.132	100.69
490.35	111.69
490.568	105.69
490.786	95.69
491.003	106.69
491.221	115.69
491.439	110.69
491.657	97.69
491.874	125.69
492.092	129.69
492.31	122.69
492.527	109.69
492.745	113.69
492.963	105.69
493.18	103.69
493.398	100.69
493.615	109.69
493.833	97.69
494.05	113.69
494.268	112.69
494.485	107.69
494.703	113.69
494.92	103.69
495.138	103.69
495.355	111.69
495.573	103.69
495.79	85.69
496.008	109.69
496.225	97.69
496.442	113.69
496.66	111.69
496.877	95.69
497.094	116.69
497.312	91.69
497.529	121.69
497.746	103.69
497.963	90.69
498.181	93.69
498.398	90.69
498.615	76.69
498.832	103.69
499.049	91.69
499.267	96.69
499.484	97.69
499.701	94.69
499.918	94.69
500.135	86.69
500.352	97.69
500.569	96.69
500.786	100.69
501.003	91.69
501.22	107.69
501.437	99.69
501.654	96.69
501.871	100.69
502.088	91.69
502.305	105.69
502.522	99.69
502.739	88.69
502.956	99.69
503.172	87.69
503.389	95.69
503.606	81.69
503.823	97.69
504.04	92.69
504.256	91.69
504.473	79.69
504.69	106.69
504.907	95.69
505.123	103.69
505.34	87.69
505.557	94.69
505.773	101.69
505.99	100.69
506.207	95.69
506.423	102.69
506.64	95.69
506.856	87.69
507.073	90.69
507.289	76.69
507.506	104.69
507.722	91.69
507.939	90.69
508.155	82.69
508.372	87.69
508.588	89.69
508.805	79.69
509.021	89.69
509.238	87.69
509.454	80.69
509.67	97.69
509.887	78.69
510.103	85.69
510.319	86.69
510.536	87.69
510.752	87.69
510.968	88.69
511.184	83.69
511.401	84.69
511.617	84.69
511.833	90.69
512.049	98.69
512.265	75.69
512.481	92.69
512.698	83.69
512.914	95.69
513.13	100.69
513.346	87.69
513.562	79.69
513.778	83.69
513.994	84.69
514.21	90.69
514.426	91.69
514.642	92.69
514.858	85.69
515.074	97.69
515.29	97.69
515.506	94.69
515.721	88.69
515.937	84.69
516.153	85.69
516.369	82.69
516.585	74.69
516.801	85.69
517.016	88.69
517.232	77.69
517.448	93.69
