Data from Location5.07152019.Energy5.Lamp.07192019.3%Agarose_HRD10591_15-39-12-391.txt Node
Date: Fri Jul 19 15:39:12 EDT 2019
User: cochatt
Spectrometer: HR+D1059
Trigger mode: 1
Integration Time (sec): 1.000000E-1
Scans to average: 1
Electric dark correction enabled: true
Nonlinearity correction enabled: false
Boxcar width: 0
XAxis mode: Wavelengths
Number of Pixels in Spectrum: 2048
>>>>>Begin Spectral Data<<<<<
223.165	-33.44
223.4	-33.44
223.635	-33.44
223.869	-26.44
224.104	-17.44
224.338	-16.44
224.573	-11.44
224.808	-1.44
225.042	-15.44
225.277	-12.44
225.511	4.56
225.746	9.56
225.98	5.56
226.215	22.56
226.449	25.56
226.683	21.56
226.918	24.56
227.152	20.56
227.387	21.56
227.621	40.56
227.856	48.56
228.09	42.56
228.324	48.56
228.559	59.56
228.793	57.56
229.027	44.56
229.262	57.56
229.496	52.56
229.73	79.56
229.964	84.56
230.199	74.56
230.433	87.56
230.667	66.56
230.901	71.56
231.136	80.56
231.37	89.56
231.604	79.56
231.838	78.56
232.072	82.56
232.306	85.56
232.541	79.56
232.775	74.56
233.009	79.56
233.243	69.56
233.477	79.56
233.711	85.56
233.945	89.56
234.179	74.56
234.413	75.56
234.647	82.56
234.881	72.56
235.115	80.56
235.349	66.56
235.583	78.56
235.817	72.56
236.051	83.56
236.285	81.56
236.519	79.56
236.753	83.56
236.987	74.56
237.221	75.56
237.455	74.56
237.689	72.56
237.922	89.56
238.156	77.56
238.39	80.56
238.624	74.56
238.858	73.56
239.091	81.56
239.325	80.56
239.559	65.56
239.793	87.56
240.027	67.56
240.26	87.56
240.494	74.56
240.728	75.56
240.961	74.56
241.195	88.56
241.429	65.56
241.662	85.56
241.896	61.56
242.13	80.56
242.363	67.56
242.597	75.56
242.83	79.56
243.064	84.56
243.298	90.56
243.531	86.56
243.765	76.56
243.998	74.56
244.232	64.56
244.465	72.56
244.699	75.56
244.932	80.56
245.166	74.56
245.399	75.56
245.633	69.56
245.866	79.56
246.099	74.56
246.333	72.56
246.566	85.56
246.8	81.56
247.033	86.56
247.266	77.56
247.5	82.56
247.733	79.56
247.966	76.56
248.2	82.56
248.433	86.56
248.666	80.56
248.899	77.56
249.133	74.56
249.366	79.56
249.599	82.56
249.832	83.56
250.066	80.56
250.299	78.56
250.532	80.56
250.765	80.56
250.998	75.56
251.231	75.56
251.465	69.56
251.698	78.56
251.931	93.56
252.164	82.56
252.397	72.56
252.63	77.56
252.863	72.56
253.096	80.56
253.329	66.56
253.562	80.56
253.795	75.56
254.028	96.56
254.261	81.56
254.494	75.56
254.727	84.56
254.96	75.56
255.193	65.56
255.426	76.56
255.659	71.56
255.892	76.56
256.124	71.56
256.357	84.56
256.59	91.56
256.823	78.56
257.056	92.56
257.289	97.56
257.521	91.56
257.754	85.56
257.987	85.56
258.22	75.56
258.452	88.56
258.685	87.56
258.918	86.56
259.151	85.56
259.383	70.56
259.616	82.56
259.849	82.56
260.081	90.56
260.314	91.56
260.547	96.56
260.779	77.56
261.012	74.56
261.244	80.56
261.477	94.56
261.71	88.56
261.942	83.56
262.175	85.56
262.407	69.56
262.64	66.56
262.872	69.56
263.105	78.56
263.337	91.56
263.57	95.56
263.802	84.56
264.035	84.56
264.267	75.56
264.499	70.56
264.732	90.56
264.964	65.56
265.197	88.56
265.429	79.56
265.661	87.56
265.894	68.56
266.126	71.56
266.358	95.56
266.591	97.56
266.823	79.56
267.055	74.56
267.287	83.56
267.52	71.56
267.752	83.56
267.984	85.56
268.216	82.56
268.448	96.56
268.681	81.56
268.913	80.56
269.145	83.56
269.377	83.56
269.609	96.56
269.841	98.56
270.073	67.56
270.306	85.56
270.538	75.56
270.77	86.56
271.002	79.56
271.234	87.56
271.466	89.56
271.698	89.56
271.93	87.56
272.162	86.56
272.394	91.56
272.626	91.56
272.858	87.56
273.09	90.56
273.322	88.56
273.553	78.56
273.785	73.56
274.017	65.56
274.249	77.56
274.481	94.56
274.713	75.56
274.945	75.56
275.176	65.56
275.408	95.56
275.64	82.56
275.872	77.56
276.104	86.56
276.335	81.56
276.567	79.56
276.799	90.56
277.031	81.56
277.262	82.56
277.494	98.56
277.726	85.56
277.957	77.56
278.189	87.56
278.421	86.56
278.652	79.56
278.884	82.56
279.115	81.56
279.347	81.56
279.579	79.56
279.81	97.56
280.042	87.56
280.273	89.56
280.505	80.56
280.736	82.56
280.968	82.56
281.199	86.56
281.431	79.56
281.662	82.56
281.894	87.56
282.125	89.56
282.356	90.56
282.588	83.56
282.819	75.56
283.051	86.56
283.282	94.56
283.513	98.56
283.745	90.56
283.976	100.56
284.207	89.56
284.439	84.56
284.67	84.56
284.901	73.56
285.132	90.56
285.364	80.56
285.595	81.56
285.826	81.56
286.057	96.56
286.288	86.56
286.52	93.56
286.751	80.56
286.982	82.56
287.213	73.56
287.444	74.56
287.675	69.56
287.906	84.56
288.138	81.56
288.369	85.56
288.6	75.56
288.831	78.56
289.062	95.56
289.293	84.56
289.524	79.56
289.755	86.56
289.986	97.56
290.217	85.56
290.448	72.56
290.679	92.56
290.91	92.56
291.141	76.56
291.371	74.56
291.602	81.56
291.833	81.56
292.064	84.56
292.295	81.56
292.526	88.56
292.757	96.56
292.987	86.56
293.218	87.56
293.449	92.56
293.68	83.56
293.91	82.56
294.141	86.56
294.372	90.56
294.603	76.56
294.833	82.56
295.064	85.56
295.295	76.56
295.525	87.56
295.756	93.56
295.987	84.56
296.217	80.56
296.448	95.56
296.679	84.56
296.909	70.56
297.14	83.56
297.37	85.56
297.601	79.56
297.831	81.56
298.062	87.56
298.292	82.56
298.523	97.56
298.753	82.56
298.984	75.56
299.214	74.56
299.445	96.56
299.675	86.56
299.905	91.56
300.136	91.56
300.366	86.56
300.597	81.56
300.827	80.56
301.057	73.56
301.288	81.56
301.518	79.56
301.748	85.56
301.979	79.56
302.209	82.56
302.439	78.56
302.669	90.56
302.9	77.56
303.13	98.56
303.36	79.56
303.59	82.56
303.82	88.56
304.051	81.56
304.281	86.56
304.511	100.56
304.741	87.56
304.971	74.56
305.201	87.56
305.431	90.56
305.661	77.56
305.891	95.56
306.121	85.56
306.352	86.56
306.582	84.56
306.812	85.56
307.042	85.56
307.272	80.56
307.502	83.56
307.731	81.56
307.961	82.56
308.191	94.56
308.421	88.56
308.651	85.56
308.881	84.56
309.111	89.56
309.341	93.56
309.571	70.56
309.8	80.56
310.03	66.56
310.26	75.56
310.49	88.56
310.72	70.56
310.949	106.56
311.179	92.56
311.409	72.56
311.639	76.56
311.868	89.56
312.098	94.56
312.328	93.56
312.557	77.56
312.787	77.56
313.017	77.56
313.246	78.56
313.476	74.56
313.706	86.56
313.935	66.56
314.165	75.56
314.394	83.56
314.624	90.56
314.853	81.56
315.083	85.56
315.312	79.56
315.542	83.56
315.771	86.56
316.001	104.56
316.23	81.56
316.46	81.56
316.689	86.56
316.919	97.56
317.148	101.56
317.377	82.56
317.607	83.56
317.836	88.56
318.065	78.56
318.295	97.56
318.524	77.56
318.753	79.56
318.983	80.56
319.212	89.56
319.441	84.56
319.67	89.56
319.9	78.56
320.129	74.56
320.358	82.56
320.587	74.56
320.816	86.56
321.046	86.56
321.275	83.56
321.504	88.56
321.733	88.56
321.962	87.56
322.191	97.56
322.42	97.56
322.649	83.56
322.878	94.56
323.108	94.56
323.337	79.56
323.566	68.56
323.795	83.56
324.024	94.56
324.253	83.56
324.482	82.56
324.71	91.56
324.939	109.56
325.168	75.56
325.397	86.56
325.626	103.56
325.855	86.56
326.084	93.56
326.313	97.56
326.542	75.56
326.77	95.56
326.999	71.56
327.228	83.56
327.457	89.56
327.686	86.56
327.914	92.56
328.143	81.56
328.372	93.56
328.6	88.56
328.829	91.56
329.058	85.56
329.287	83.56
329.515	72.56
329.744	88.56
329.972	90.56
330.201	74.56
330.43	86.56
330.658	75.56
330.887	83.56
331.115	78.56
331.344	83.56
331.572	77.56
331.801	103.56
332.03	82.56
332.258	79.56
332.486	74.56
332.715	77.56
332.943	78.56
333.172	93.56
333.4	94.56
333.629	78.56
333.857	81.56
334.085	108.56
334.314	85.56
334.542	74.56
334.771	67.56
334.999	83.56
335.227	78.56
335.455	76.56
335.684	72.56
335.912	83.56
336.14	86.56
336.369	85.56
336.597	95.56
336.825	75.56
337.053	79.56
337.281	83.56
337.51	74.56
337.738	88.56
337.966	85.56
338.194	90.56
338.422	75.56
338.65	97.56
338.878	79.56
339.106	83.56
339.334	81.56
339.562	79.56
339.79	74.56
340.018	88.56
340.246	64.56
340.474	82.56
340.702	82.56
340.93	77.56
341.158	85.56
341.386	86.56
341.614	80.56
341.842	80.56
342.07	81.56
342.298	71.56
342.526	82.56
342.754	80.56
342.981	88.56
343.209	89.56
343.437	88.56
343.665	83.56
343.893	80.56
344.12	74.56
344.348	75.56
344.576	99.56
344.804	73.56
345.031	72.56
345.259	70.56
345.487	84.56
345.714	82.56
345.942	82.56
346.17	88.56
346.397	79.56
346.625	91.56
346.853	83.56
347.08	64.56
347.308	82.56
347.535	93.56
347.763	93.56
347.99	89.56
348.218	94.56
348.445	81.56
348.673	79.56
348.9	88.56
349.128	80.56
349.355	80.56
349.583	88.56
349.81	78.56
350.037	92.56
350.265	94.56
350.492	79.56
350.72	79.56
350.947	73.56
351.174	83.56
351.402	82.56
351.629	77.56
351.856	81.56
352.083	80.56
352.311	80.56
352.538	86.56
352.765	82.56
352.992	78.56
353.22	75.56
353.447	67.56
353.674	67.56
353.901	79.56
354.128	83.56
354.355	81.56
354.583	81.56
354.81	78.56
355.037	77.56
355.264	82.56
355.491	79.56
355.718	66.56
355.945	68.56
356.172	83.56
356.399	68.56
356.626	66.56
356.853	71.56
357.08	81.56
357.307	85.56
357.534	84.56
357.761	89.56
357.988	78.56
358.215	93.56
358.441	91.56
358.668	79.56
358.895	76.56
359.122	88.56
359.349	83.56
359.576	73.56
359.802	89.56
360.029	90.56
360.256	87.56
360.483	86.56
360.709	72.56
360.936	84.56
361.163	82.56
361.39	78.56
361.616	79.56
361.843	86.56
362.07	85.56
362.296	97.56
362.523	73.56
362.749	81.56
362.976	81.56
363.203	71.56
363.429	83.56
363.656	89.56
363.882	75.56
364.109	80.56
364.335	83.56
364.562	79.56
364.788	87.56
365.015	83.56
365.241	79.56
365.468	109.56
365.694	91.56
365.92	74.56
366.147	89.56
366.373	73.56
366.599	89.56
366.826	82.56
367.052	88.56
367.278	69.56
367.505	89.56
367.731	81.56
367.957	73.56
368.184	81.56
368.41	86.56
368.636	78.56
368.862	97.56
369.089	81.56
369.315	70.56
369.541	87.56
369.767	86.56
369.993	92.56
370.219	80.56
370.445	71.56
370.672	87.56
370.898	81.56
371.124	82.56
371.35	90.56
371.576	91.56
371.802	80.56
372.028	79.56
372.254	82.56
372.48	79.56
372.706	97.56
372.932	96.56
373.158	78.56
373.384	87.56
373.61	83.56
373.835	72.56
374.061	90.56
374.287	82.56
374.513	80.56
374.739	100.56
374.965	83.56
375.191	101.56
375.416	80.56
375.642	94.56
375.868	83.56
376.094	93.56
376.319	70.56
376.545	89.56
376.771	87.56
376.997	94.56
377.222	79.56
377.448	80.56
377.674	74.56
377.899	87.56
378.125	75.56
378.35	91.56
378.576	89.56
378.802	74.56
379.027	85.56
379.253	89.56
379.478	82.56
379.704	72.56
379.929	94.56
380.155	69.56
380.38	93.56
380.606	77.56
380.831	73.56
381.057	93.56
381.282	86.56
381.507	84.56
381.733	94.56
381.958	78.56
382.184	77.56
382.409	78.56
382.634	84.56
382.86	98.56
383.085	83.56
383.31	84.56
383.535	78.56
383.761	88.56
383.986	95.56
384.211	79.56
384.436	86.56
384.662	78.56
384.887	81.56
385.112	84.56
385.337	87.56
385.562	78.56
385.787	92.56
386.013	87.56
386.238	76.56
386.463	93.56
386.688	90.56
386.913	64.56
387.138	80.56
387.363	84.56
387.588	77.56
387.813	86.56
388.038	93.56
388.263	97.56
388.488	87.56
388.713	79.56
388.938	99.56
389.163	87.56
389.387	88.56
389.612	83.56
389.837	84.56
390.062	94.56
390.287	79.56
390.512	73.56
390.736	91.56
390.961	98.56
391.186	63.56
391.411	94.56
391.636	86.56
391.86	83.56
392.085	69.56
392.31	80.56
392.534	71.56
392.759	85.56
392.984	81.56
393.208	96.56
393.433	93.56
393.658	76.56
393.882	79.56
394.107	70.56
394.331	73.56
394.556	85.56
394.78	90.56
395.005	77.56
395.229	95.56
395.454	98.56
395.678	81.56
395.903	71.56
396.127	87.56
396.352	84.56
396.576	83.56
396.801	89.56
397.025	81.56
397.249	88.56
397.474	104.56
397.698	91.56
397.922	80.56
398.147	88.56
398.371	83.56
398.595	82.56
398.82	95.56
399.044	83.56
399.268	92.56
399.492	96.56
399.717	96.56
399.941	85.56
400.165	83.56
400.389	78.56
400.613	86.56
400.837	81.56
401.062	87.56
401.286	86.56
401.51	88.56
401.734	78.56
401.958	98.56
402.182	88.56
402.406	79.56
402.63	79.56
402.854	72.56
403.078	69.56
403.302	73.56
403.526	84.56
403.75	80.56
403.974	71.56
404.198	74.56
404.422	89.56
404.645	86.56
404.869	91.56
405.093	95.56
405.317	87.56
405.541	82.56
405.765	92.56
405.988	93.56
406.212	88.56
406.436	95.56
406.66	93.56
406.883	88.56
407.107	82.56
407.331	85.56
407.555	86.56
407.778	96.56
408.002	85.56
408.226	93.56
408.449	81.56
408.673	71.56
408.896	98.56
409.12	76.56
409.344	80.56
409.567	87.56
409.791	92.56
410.014	87.56
410.238	70.56
410.461	88.56
410.685	94.56
410.908	85.56
411.132	86.56
411.355	75.56
411.578	85.56
411.802	85.56
412.025	87.56
412.249	90.56
412.472	91.56
412.695	97.56
412.919	83.56
413.142	83.56
413.365	85.56
413.589	99.56
413.812	96.56
414.035	97.56
414.258	87.56
414.482	86.56
414.705	95.56
414.928	93.56
415.151	95.56
415.374	83.56
415.597	87.56
415.821	84.56
416.044	98.56
416.267	86.56
416.49	91.56
416.713	90.56
416.936	92.56
417.159	97.56
417.382	89.56
417.605	82.56
417.828	81.56
418.051	81.56
418.274	91.56
418.497	89.56
418.72	85.56
418.943	92.56
419.166	94.56
419.389	86.56
419.611	95.56
419.834	90.56
420.057	87.56
420.28	86.56
420.503	82.56
420.726	74.56
420.948	101.56
421.171	84.56
421.394	97.56
421.617	95.56
421.839	97.56
422.062	85.56
422.285	86.56
422.507	91.56
422.73	91.56
422.953	81.56
423.175	76.56
423.398	91.56
423.621	93.56
423.843	94.56
424.066	91.56
424.288	90.56
424.511	88.56
424.733	91.56
424.956	103.56
425.178	80.56
425.401	81.56
425.623	93.56
425.846	89.56
426.068	89.56
426.291	97.56
426.513	93.56
426.735	80.56
426.958	88.56
427.18	91.56
427.402	88.56
427.625	94.56
427.847	105.56
428.069	90.56
428.292	104.56
428.514	86.56
428.736	75.56
428.958	83.56
429.181	88.56
429.403	98.56
429.625	94.56
429.847	89.56
430.069	94.56
430.292	97.56
430.514	84.56
430.736	88.56
430.958	91.56
431.18	93.56
431.402	78.56
431.624	90.56
431.846	93.56
432.068	75.56
432.29	72.56
432.512	86.56
432.734	99.56
432.956	74.56
433.178	90.56
433.4	86.56
433.622	90.56
433.844	109.56
434.066	85.56
434.287	88.56
434.509	89.56
434.731	67.56
434.953	84.56
435.175	92.56
435.397	102.56
435.618	93.56
435.84	76.56
436.062	89.56
436.284	85.56
436.505	88.56
436.727	76.56
436.949	90.56
437.17	95.56
437.392	77.56
437.614	95.56
437.835	97.56
438.057	80.56
438.278	98.56
438.5	87.56
438.721	90.56
438.943	87.56
439.165	108.56
439.386	95.56
439.608	101.56
439.829	95.56
440.05	83.56
440.272	85.56
440.493	86.56
440.715	88.56
440.936	101.56
441.158	86.56
441.379	105.56
441.6	98.56
441.822	93.56
442.043	111.56
442.264	103.56
442.486	86.56
442.707	102.56
442.928	92.56
443.149	92.56
443.371	87.56
443.592	101.56
443.813	101.56
444.034	98.56
444.255	86.56
444.476	95.56
444.698	97.56
444.919	99.56
445.14	218.56
445.361	152.56
445.582	100.56
445.803	101.56
446.024	90.56
446.245	107.56
446.466	96.56
446.687	98.56
446.908	96.56
447.129	101.56
447.35	98.56
447.571	94.56
447.792	102.56
448.013	102.56
448.234	84.56
448.455	90.56
448.675	90.56
448.896	95.56
449.117	77.56
449.338	84.56
449.559	88.56
449.779	87.56
450	97.56
450.221	98.56
450.442	88.56
450.662	96.56
450.883	97.56
451.104	95.56
451.324	101.56
451.545	87.56
451.766	88.56
451.986	85.56
452.207	83.56
452.428	83.56
452.648	85.56
452.869	107.56
453.089	84.56
453.31	83.56
453.53	86.56
453.751	92.56
453.971	84.56
454.192	72.56
454.412	87.56
454.633	85.56
454.853	90.56
455.073	81.56
455.294	84.56
455.514	97.56
455.734	86.56
455.955	94.56
456.175	90.56
456.395	81.56
456.616	91.56
456.836	83.56
457.056	80.56
457.276	93.56
457.497	104.56
457.717	72.56
457.937	84.56
458.157	98.56
458.377	89.56
458.598	89.56
458.818	76.56
459.038	75.56
459.258	69.56
459.478	73.56
459.698	76.56
459.918	77.56
460.138	93.56
460.358	89.56
460.578	79.56
460.798	81.56
461.018	94.56
461.238	95.56
461.458	98.56
461.678	82.56
461.898	81.56
462.118	93.56
462.338	93.56
462.558	78.56
462.777	82.56
462.997	91.56
463.217	84.56
463.437	90.56
463.657	89.56
463.876	72.56
464.096	93.56
464.316	88.56
464.536	92.56
464.755	85.56
464.975	89.56
465.195	95.56
465.414	102.56
465.634	89.56
465.854	84.56
466.073	101.56
466.293	108.56
466.512	89.56
466.732	91.56
466.951	97.56
467.171	92.56
467.391	96.56
467.61	76.56
467.829	103.56
468.049	87.56
468.268	97.56
468.488	100.56
468.707	95.56
468.927	98.56
469.146	83.56
469.365	98.56
469.585	95.56
469.804	104.56
470.023	94.56
470.243	102.56
470.462	101.56
470.681	90.56
470.901	99.56
471.12	93.56
471.339	93.56
471.558	96.56
471.777	96.56
471.997	89.56
472.216	93.56
472.435	93.56
472.654	100.56
472.873	86.56
473.092	83.56
473.311	86.56
473.53	87.56
473.749	81.56
473.968	96.56
474.187	97.56
474.406	83.56
474.625	91.56
474.844	92.56
475.063	85.56
475.282	82.56
475.501	91.56
475.72	102.56
475.939	86.56
476.158	97.56
476.377	94.56
476.596	79.56
476.814	75.56
477.033	83.56
477.252	92.56
477.471	102.56
477.69	87.56
477.908	101.56
478.127	90.56
478.346	108.56
478.564	93.56
478.783	80.56
479.002	91.56
479.22	97.56
479.439	89.56
479.658	94.56
479.876	81.56
480.095	91.56
480.313	77.56
480.532	86.56
480.751	92.56
480.969	88.56
481.188	96.56
481.406	80.56
481.624	86.56
481.843	82.56
482.061	86.56
482.28	87.56
482.498	82.56
482.717	90.56
482.935	84.56
483.153	94.56
483.372	99.56
483.59	100.56
483.808	82.56
484.027	105.56
484.245	105.56
484.463	82.56
484.681	109.56
484.9	96.56
485.118	85.56
485.336	99.56
485.554	84.56
485.772	81.56
485.99	86.56
486.209	97.56
486.427	87.56
486.645	90.56
486.863	85.56
487.081	88.56
487.299	96.56
487.517	87.56
487.735	84.56
487.953	104.56
488.171	126.56
488.389	105.56
488.607	103.56
488.825	112.56
489.043	89.56
489.261	104.56
489.479	95.56
489.696	120.56
489.914	93.56
490.132	109.56
490.35	103.56
490.568	94.56
490.786	107.56
491.003	108.56
491.221	100.56
491.439	110.56
491.657	103.56
491.874	118.56
492.092	112.56
492.31	112.56
492.527	125.56
492.745	113.56
492.963	108.56
493.18	111.56
493.398	121.56
493.615	103.56
493.833	118.56
494.05	106.56
494.268	101.56
494.485	100.56
494.703	100.56
494.92	111.56
495.138	103.56
495.355	100.56
495.573	120.56
495.79	115.56
496.008	103.56
496.225	107.56
496.442	96.56
496.66	95.56
496.877	87.56
497.094	108.56
497.312	115.56
497.529	102.56
497.746	93.56
497.963	100.56
498.181	97.56
498.398	88.56
498.615	89.56
498.832	99.56
499.049	97.56
499.267	98.56
499.484	109.56
499.701	78.56
499.918	107.56
500.135	91.56
500.352	84.56
500.569	88.56
500.786	90.56
501.003	94.56
501.22	83.56
501.437	99.56
501.654	105.56
501.871	86.56
502.088	97.56
502.305	101.56
502.522	102.56
502.739	73.56
502.956	94.56
503.172	89.56
503.389	105.56
503.606	88.56
503.823	102.56
504.04	89.56
504.256	91.56
504.473	87.56
504.69	80.56
504.907	97.56
505.123	95.56
505.34	100.56
505.557	101.56
505.773	81.56
505.99	89.56
506.207	76.56
506.423	79.56
506.64	90.56
506.856	96.56
507.073	83.56
507.289	97.56
507.506	87.56
507.722	100.56
507.939	88.56
508.155	76.56
508.372	89.56
508.588	85.56
508.805	92.56
509.021	90.56
509.238	66.56
509.454	83.56
509.67	92.56
509.887	95.56
510.103	76.56
510.319	83.56
510.536	84.56
510.752	85.56
510.968	74.56
511.184	89.56
511.401	81.56
511.617	90.56
511.833	85.56
512.049	96.56
512.265	83.56
512.481	84.56
512.698	85.56
512.914	96.56
513.13	64.56
513.346	78.56
513.562	87.56
513.778	91.56
513.994	86.56
514.21	94.56
514.426	86.56
514.642	84.56
514.858	78.56
515.074	72.56
515.29	84.56
515.506	86.56
515.721	84.56
515.937	87.56
516.153	82.56
516.369	70.56
516.585	79.56
516.801	96.56
517.016	83.56
517.232	81.56
517.448	82.56
517.664	81.56
517.879	70.56
518.095	79.56
