Data from Location5.07152019.Energy5.Lamp.07192019.3%Agarose_HRD10591_16-05-15-629.txt Node
Date: Fri Jul 19 16:05:15 EDT 2019
User: cochatt
Spectrometer: HR+D1059
Trigger mode: 1
Integration Time (sec): 1.000000E-1
Scans to average: 1
Electric dark correction enabled: true
Nonlinearity correction enabled: false
Boxcar width: 0
XAxis mode: Wavelengths
Number of Pixels in Spectrum: 2048
>>>>>Begin Spectral Data<<<<<
223.165	-17.69
223.4	-17.69
223.635	-17.69
223.869	-13.69
224.104	-17.69
224.338	-6.69
224.573	-12.69
224.808	-12.69
225.042	-24.69
225.277	4.31
225.511	9.31
225.746	-13.69
225.98	10.31
226.215	10.31
226.449	0.31
226.683	28.31
226.918	34.31
227.152	22.31
227.387	41.31
227.621	33.31
227.856	39.31
228.09	36.31
228.324	37.31
228.559	58.31
228.793	56.31
229.027	64.31
229.262	70.31
229.496	82.31
229.73	77.31
229.964	64.31
230.199	85.31
230.433	75.31
230.667	75.31
230.901	74.31
231.136	71.31
231.37	74.31
231.604	66.31
231.838	89.31
232.072	98.31
232.306	93.31
232.541	77.31
232.775	82.31
233.009	89.31
233.243	80.31
233.477	90.31
233.711	81.31
233.945	85.31
234.179	86.31
234.413	96.31
234.647	81.31
234.881	74.31
235.115	87.31
235.349	76.31
235.583	76.31
235.817	86.31
236.051	73.31
236.285	75.31
236.519	63.31
236.753	80.31
236.987	90.31
237.221	80.31
237.455	86.31
237.689	92.31
237.922	67.31
238.156	74.31
238.39	84.31
238.624	74.31
238.858	70.31
239.091	83.31
239.325	66.31
239.559	85.31
239.793	74.31
240.027	90.31
240.26	85.31
240.494	87.31
240.728	79.31
240.961	87.31
241.195	82.31
241.429	69.31
241.662	78.31
241.896	78.31
242.13	86.31
242.363	65.31
242.597	75.31
242.83	72.31
243.064	70.31
243.298	75.31
243.531	90.31
243.765	82.31
243.998	75.31
244.232	87.31
244.465	74.31
244.699	64.31
244.932	78.31
245.166	86.31
245.399	81.31
245.633	70.31
245.866	87.31
246.099	76.31
246.333	69.31
246.566	79.31
246.8	89.31
247.033	63.31
247.266	74.31
247.5	91.31
247.733	89.31
247.966	71.31
248.2	79.31
248.433	86.31
248.666	71.31
248.899	75.31
249.133	78.31
249.366	71.31
249.599	86.31
249.832	69.31
250.066	74.31
250.299	74.31
250.532	93.31
250.765	81.31
250.998	73.31
251.231	90.31
251.465	70.31
251.698	83.31
251.931	74.31
252.164	87.31
252.397	81.31
252.63	73.31
252.863	80.31
253.096	80.31
253.329	74.31
253.562	76.31
253.795	77.31
254.028	85.31
254.261	69.31
254.494	75.31
254.727	73.31
254.96	62.31
255.193	78.31
255.426	84.31
255.659	85.31
255.892	73.31
256.124	76.31
256.357	69.31
256.59	83.31
256.823	80.31
257.056	85.31
257.289	79.31
257.521	86.31
257.754	80.31
257.987	75.31
258.22	83.31
258.452	75.31
258.685	76.31
258.918	96.31
259.151	72.31
259.383	68.31
259.616	85.31
259.849	87.31
260.081	86.31
260.314	88.31
260.547	81.31
260.779	74.31
261.012	80.31
261.244	74.31
261.477	86.31
261.71	80.31
261.942	70.31
262.175	75.31
262.407	89.31
262.64	68.31
262.872	81.31
263.105	91.31
263.337	78.31
263.57	68.31
263.802	81.31
264.035	86.31
264.267	85.31
264.499	86.31
264.732	77.31
264.964	86.31
265.197	84.31
265.429	96.31
265.661	79.31
265.894	87.31
266.126	80.31
266.358	86.31
266.591	90.31
266.823	87.31
267.055	73.31
267.287	82.31
267.52	81.31
267.752	81.31
267.984	95.31
268.216	89.31
268.448	85.31
268.681	77.31
268.913	76.31
269.145	94.31
269.377	88.31
269.609	87.31
269.841	101.31
270.073	80.31
270.306	86.31
270.538	95.31
270.77	92.31
271.002	76.31
271.234	100.31
271.466	91.31
271.698	77.31
271.93	82.31
272.162	85.31
272.394	92.31
272.626	84.31
272.858	94.31
273.09	98.31
273.322	88.31
273.553	78.31
273.785	90.31
274.017	77.31
274.249	88.31
274.481	84.31
274.713	69.31
274.945	72.31
275.176	91.31
275.408	96.31
275.64	77.31
275.872	74.31
276.104	90.31
276.335	91.31
276.567	86.31
276.799	97.31
277.031	79.31
277.262	84.31
277.494	90.31
277.726	90.31
277.957	88.31
278.189	78.31
278.421	79.31
278.652	79.31
278.884	85.31
279.115	82.31
279.347	72.31
279.579	86.31
279.81	73.31
280.042	85.31
280.273	102.31
280.505	86.31
280.736	90.31
280.968	82.31
281.199	98.31
281.431	97.31
281.662	84.31
281.894	92.31
282.125	73.31
282.356	84.31
282.588	89.31
282.819	89.31
283.051	91.31
283.282	90.31
283.513	89.31
283.745	90.31
283.976	90.31
284.207	86.31
284.439	94.31
284.67	85.31
284.901	93.31
285.132	82.31
285.364	75.31
285.595	80.31
285.826	91.31
286.057	72.31
286.288	88.31
286.52	101.31
286.751	83.31
286.982	92.31
287.213	96.31
287.444	91.31
287.675	83.31
287.906	86.31
288.138	86.31
288.369	94.31
288.6	79.31
288.831	94.31
289.062	80.31
289.293	77.31
289.524	90.31
289.755	80.31
289.986	92.31
290.217	110.31
290.448	75.31
290.679	75.31
290.91	88.31
291.141	92.31
291.371	95.31
291.602	97.31
291.833	77.31
292.064	74.31
292.295	90.31
292.526	87.31
292.757	84.31
292.987	85.31
293.218	82.31
293.449	73.31
293.68	93.31
293.91	99.31
294.141	96.31
294.372	86.31
294.603	84.31
294.833	87.31
295.064	92.31
295.295	89.31
295.525	75.31
295.756	89.31
295.987	79.31
296.217	83.31
296.448	98.31
296.679	85.31
296.909	76.31
297.14	99.31
297.37	91.31
297.601	82.31
297.831	88.31
298.062	85.31
298.292	83.31
298.523	85.31
298.753	85.31
298.984	88.31
299.214	89.31
299.445	89.31
299.675	86.31
299.905	98.31
300.136	89.31
300.366	82.31
300.597	81.31
300.827	82.31
301.057	88.31
301.288	89.31
301.518	84.31
301.748	87.31
301.979	85.31
302.209	79.31
302.439	99.31
302.669	86.31
302.9	95.31
303.13	75.31
303.36	92.31
303.59	98.31
303.82	87.31
304.051	88.31
304.281	95.31
304.511	95.31
304.741	82.31
304.971	90.31
305.201	90.31
305.431	92.31
305.661	101.31
305.891	94.31
306.121	85.31
306.352	79.31
306.582	81.31
306.812	89.31
307.042	90.31
307.272	97.31
307.502	81.31
307.731	79.31
307.961	90.31
308.191	82.31
308.421	86.31
308.651	98.31
308.881	87.31
309.111	73.31
309.341	84.31
309.571	77.31
309.8	84.31
310.03	75.31
310.26	90.31
310.49	83.31
310.72	86.31
310.949	86.31
311.179	82.31
311.409	79.31
311.639	93.31
311.868	95.31
312.098	95.31
312.328	88.31
312.557	97.31
312.787	95.31
313.017	100.31
313.246	92.31
313.476	89.31
313.706	88.31
313.935	90.31
314.165	86.31
314.394	96.31
314.624	89.31
314.853	89.31
315.083	96.31
315.312	102.31
315.542	84.31
315.771	82.31
316.001	94.31
316.23	77.31
316.46	89.31
316.689	78.31
316.919	93.31
317.148	93.31
317.377	103.31
317.607	80.31
317.836	85.31
318.065	96.31
318.295	94.31
318.524	90.31
318.753	80.31
318.983	95.31
319.212	97.31
319.441	94.31
319.67	100.31
319.9	99.31
320.129	85.31
320.358	80.31
320.587	84.31
320.816	94.31
321.046	87.31
321.275	77.31
321.504	111.31
321.733	77.31
321.962	94.31
322.191	79.31
322.42	96.31
322.649	99.31
322.878	86.31
323.108	88.31
323.337	93.31
323.566	97.31
323.795	104.31
324.024	84.31
324.253	78.31
324.482	87.31
324.71	88.31
324.939	96.31
325.168	82.31
325.397	99.31
325.626	90.31
325.855	84.31
326.084	85.31
326.313	89.31
326.542	89.31
326.77	90.31
326.999	80.31
327.228	82.31
327.457	87.31
327.686	80.31
327.914	79.31
328.143	86.31
328.372	88.31
328.6	93.31
328.829	97.31
329.058	87.31
329.287	91.31
329.515	88.31
329.744	93.31
329.972	76.31
330.201	97.31
330.43	80.31
330.658	90.31
330.887	74.31
331.115	77.31
331.344	89.31
331.572	100.31
331.801	85.31
332.03	84.31
332.258	91.31
332.486	94.31
332.715	84.31
332.943	84.31
333.172	80.31
333.4	87.31
333.629	87.31
333.857	102.31
334.085	69.31
334.314	85.31
334.542	95.31
334.771	93.31
334.999	93.31
335.227	90.31
335.455	84.31
335.684	90.31
335.912	93.31
336.14	83.31
336.369	90.31
336.597	82.31
336.825	88.31
337.053	95.31
337.281	102.31
337.51	84.31
337.738	63.31
337.966	94.31
338.194	96.31
338.422	75.31
338.65	81.31
338.878	75.31
339.106	94.31
339.334	93.31
339.562	95.31
339.79	95.31
340.018	75.31
340.246	89.31
340.474	98.31
340.702	88.31
340.93	83.31
341.158	95.31
341.386	93.31
341.614	96.31
341.842	83.31
342.07	89.31
342.298	93.31
342.526	83.31
342.754	87.31
342.981	81.31
343.209	82.31
343.437	97.31
343.665	104.31
343.893	91.31
344.12	85.31
344.348	91.31
344.576	92.31
344.804	83.31
345.031	86.31
345.259	84.31
345.487	94.31
345.714	95.31
345.942	106.31
346.17	106.31
346.397	98.31
346.625	104.31
346.853	81.31
347.08	90.31
347.308	86.31
347.535	80.31
347.763	88.31
347.99	91.31
348.218	82.31
348.445	87.31
348.673	81.31
348.9	87.31
349.128	85.31
349.355	84.31
349.583	97.31
349.81	95.31
350.037	90.31
350.265	94.31
350.492	92.31
350.72	95.31
350.947	101.31
351.174	95.31
351.402	95.31
351.629	95.31
351.856	92.31
352.083	80.31
352.311	91.31
352.538	95.31
352.765	78.31
352.992	103.31
353.22	91.31
353.447	81.31
353.674	74.31
353.901	87.31
354.128	90.31
354.355	80.31
354.583	92.31
354.81	81.31
355.037	101.31
355.264	87.31
355.491	97.31
355.718	91.31
355.945	95.31
356.172	87.31
356.399	100.31
356.626	86.31
356.853	80.31
357.08	98.31
357.307	87.31
357.534	85.31
357.761	97.31
357.988	86.31
358.215	85.31
358.441	93.31
358.668	74.31
358.895	94.31
359.122	75.31
359.349	87.31
359.576	87.31
359.802	92.31
360.029	75.31
360.256	97.31
360.483	96.31
360.709	99.31
360.936	89.31
361.163	87.31
361.39	85.31
361.616	92.31
361.843	86.31
362.07	80.31
362.296	82.31
362.523	97.31
362.749	72.31
362.976	93.31
363.203	90.31
363.429	90.31
363.656	86.31
363.882	93.31
364.109	93.31
364.335	70.31
364.562	98.31
364.788	84.31
365.015	96.31
365.241	89.31
365.468	98.31
365.694	98.31
365.92	92.31
366.147	108.31
366.373	74.31
366.599	92.31
366.826	84.31
367.052	71.31
367.278	81.31
367.505	83.31
367.731	89.31
367.957	94.31
368.184	97.31
368.41	88.31
368.636	92.31
368.862	80.31
369.089	85.31
369.315	93.31
369.541	91.31
369.767	94.31
369.993	86.31
370.219	87.31
370.445	96.31
370.672	94.31
370.898	90.31
371.124	85.31
371.35	73.31
371.576	80.31
371.802	92.31
372.028	85.31
372.254	89.31
372.48	89.31
372.706	93.31
372.932	90.31
373.158	90.31
373.384	89.31
373.61	87.31
373.835	86.31
374.061	82.31
374.287	76.31
374.513	84.31
374.739	80.31
374.965	90.31
375.191	79.31
375.416	90.31
375.642	87.31
375.868	93.31
376.094	91.31
376.319	93.31
376.545	85.31
376.771	75.31
376.997	88.31
377.222	91.31
377.448	86.31
377.674	79.31
377.899	96.31
378.125	95.31
378.35	83.31
378.576	88.31
378.802	99.31
379.027	89.31
379.253	84.31
379.478	89.31
379.704	93.31
379.929	85.31
380.155	81.31
380.38	82.31
380.606	97.31
380.831	85.31
381.057	89.31
381.282	93.31
381.507	83.31
381.733	96.31
381.958	80.31
382.184	90.31
382.409	98.31
382.634	94.31
382.86	92.31
383.085	97.31
383.31	93.31
383.535	93.31
383.761	78.31
383.986	94.31
384.211	85.31
384.436	85.31
384.662	90.31
384.887	93.31
385.112	95.31
385.337	88.31
385.562	101.31
385.787	88.31
386.013	94.31
386.238	86.31
386.463	81.31
386.688	89.31
386.913	84.31
387.138	82.31
387.363	93.31
387.588	94.31
387.813	88.31
388.038	103.31
388.263	88.31
388.488	90.31
388.713	86.31
388.938	94.31
389.163	90.31
389.387	93.31
389.612	78.31
389.837	82.31
390.062	83.31
390.287	94.31
390.512	93.31
390.736	86.31
390.961	77.31
391.186	111.31
391.411	99.31
391.636	98.31
391.86	82.31
392.085	84.31
392.31	94.31
392.534	82.31
392.759	96.31
392.984	90.31
393.208	104.31
393.433	89.31
393.658	85.31
393.882	102.31
394.107	104.31
394.331	86.31
394.556	88.31
394.78	104.31
395.005	96.31
395.229	100.31
395.454	110.31
395.678	89.31
395.903	95.31
396.127	89.31
396.352	98.31
396.576	103.31
396.801	89.31
397.025	93.31
397.249	92.31
397.474	93.31
397.698	82.31
397.922	102.31
398.147	69.31
398.371	88.31
398.595	88.31
398.82	90.31
399.044	98.31
399.268	102.31
399.492	111.31
399.717	107.31
399.941	87.31
400.165	93.31
400.389	89.31
400.613	100.31
400.837	98.31
401.062	94.31
401.286	89.31
401.51	99.31
401.734	96.31
401.958	101.31
402.182	88.31
402.406	100.31
402.63	84.31
402.854	94.31
403.078	92.31
403.302	92.31
403.526	94.31
403.75	91.31
403.974	89.31
404.198	90.31
404.422	87.31
404.645	103.31
404.869	103.31
405.093	76.31
405.317	93.31
405.541	94.31
405.765	114.31
405.988	101.31
406.212	93.31
406.436	97.31
406.66	110.31
406.883	111.31
407.107	101.31
407.331	87.31
407.555	89.31
407.778	97.31
408.002	105.31
408.226	106.31
408.449	101.31
408.673	93.31
408.896	95.31
409.12	120.31
409.344	105.31
409.567	78.31
409.791	94.31
410.014	78.31
410.238	96.31
410.461	107.31
410.685	97.31
410.908	94.31
411.132	93.31
411.355	86.31
411.578	86.31
411.802	69.31
412.025	82.31
412.249	92.31
412.472	90.31
412.695	95.31
412.919	91.31
413.142	95.31
413.365	90.31
413.589	90.31
413.812	85.31
414.035	92.31
414.258	81.31
414.482	95.31
414.705	95.31
414.928	94.31
415.151	85.31
415.374	100.31
415.597	94.31
415.821	95.31
416.044	81.31
416.267	94.31
416.49	89.31
416.713	88.31
416.936	74.31
417.159	88.31
417.382	101.31
417.605	93.31
417.828	86.31
418.051	98.31
418.274	90.31
418.497	92.31
418.72	97.31
418.943	82.31
419.166	70.31
419.389	92.31
419.611	86.31
419.834	100.31
420.057	86.31
420.28	82.31
420.503	96.31
420.726	92.31
420.948	94.31
421.171	100.31
421.394	83.31
421.617	85.31
421.839	91.31
422.062	99.31
422.285	96.31
422.507	101.31
422.73	89.31
422.953	90.31
423.175	97.31
423.398	87.31
423.621	84.31
423.843	85.31
424.066	95.31
424.288	96.31
424.511	96.31
424.733	86.31
424.956	102.31
425.178	87.31
425.401	95.31
425.623	84.31
425.846	88.31
426.068	81.31
426.291	84.31
426.513	93.31
426.735	97.31
426.958	105.31
427.18	97.31
427.402	78.31
427.625	91.31
427.847	99.31
428.069	92.31
428.292	76.31
428.514	80.31
428.736	98.31
428.958	78.31
429.181	97.31
429.403	84.31
429.625	76.31
429.847	86.31
430.069	84.31
430.292	92.31
430.514	95.31
430.736	91.31
430.958	88.31
431.18	87.31
431.402	89.31
431.624	84.31
431.846	102.31
432.068	89.31
432.29	67.31
432.512	93.31
432.734	99.31
432.956	90.31
433.178	96.31
433.4	98.31
433.622	91.31
433.844	90.31
434.066	87.31
434.287	87.31
434.509	86.31
434.731	89.31
434.953	86.31
435.175	106.31
435.397	94.31
435.618	89.31
435.84	92.31
436.062	95.31
436.284	105.31
436.505	97.31
436.727	90.31
436.949	87.31
437.17	76.31
437.392	88.31
437.614	96.31
437.835	96.31
438.057	86.31
438.278	92.31
438.5	92.31
438.721	96.31
438.943	103.31
439.165	84.31
439.386	101.31
439.608	89.31
439.829	92.31
440.05	80.31
440.272	73.31
440.493	88.31
440.715	88.31
440.936	106.31
441.158	99.31
441.379	90.31
441.6	107.31
441.822	91.31
442.043	91.31
442.264	94.31
442.486	100.31
442.707	85.31
442.928	96.31
443.149	83.31
443.371	93.31
443.592	101.31
443.813	106.31
444.034	106.31
444.255	103.31
444.476	92.31
444.698	73.31
444.919	102.31
445.14	234.31
445.361	156.31
445.582	85.31
445.803	97.31
446.024	90.31
446.245	97.31
446.466	89.31
446.687	97.31
446.908	83.31
447.129	101.31
447.35	90.31
447.571	93.31
447.792	86.31
448.013	90.31
448.234	92.31
448.455	74.31
448.675	82.31
448.896	96.31
449.117	115.31
449.338	90.31
449.559	83.31
449.779	88.31
450	74.31
450.221	90.31
450.442	100.31
450.662	95.31
450.883	88.31
451.104	91.31
451.324	82.31
451.545	77.31
451.766	88.31
451.986	93.31
452.207	87.31
452.428	81.31
452.648	91.31
452.869	92.31
453.089	86.31
453.31	74.31
453.53	74.31
453.751	87.31
453.971	88.31
454.192	88.31
454.412	86.31
454.633	91.31
454.853	99.31
455.073	109.31
455.294	81.31
455.514	70.31
455.734	87.31
455.955	91.31
456.175	78.31
456.395	94.31
456.616	86.31
456.836	86.31
457.056	83.31
457.276	84.31
457.497	94.31
457.717	92.31
457.937	82.31
458.157	75.31
458.377	83.31
458.598	90.31
458.818	85.31
459.038	72.31
459.258	85.31
459.478	83.31
459.698	92.31
459.918	70.31
460.138	87.31
460.358	88.31
460.578	80.31
460.798	87.31
461.018	92.31
461.238	91.31
461.458	93.31
461.678	97.31
461.898	99.31
462.118	90.31
462.338	96.31
462.558	92.31
462.777	90.31
462.997	85.31
463.217	105.31
463.437	106.31
463.657	94.31
463.876	97.31
464.096	104.31
464.316	79.31
464.536	93.31
464.755	89.31
464.975	87.31
465.195	81.31
465.414	86.31
465.634	86.31
465.854	85.31
466.073	90.31
466.293	90.31
466.512	113.31
466.732	93.31
466.951	90.31
467.171	87.31
467.391	83.31
467.61	100.31
467.829	87.31
468.049	88.31
468.268	75.31
468.488	101.31
468.707	80.31
468.927	90.31
469.146	100.31
469.365	102.31
469.585	86.31
469.804	92.31
470.023	83.31
470.243	89.31
470.462	95.31
470.681	98.31
470.901	96.31
471.12	100.31
471.339	104.31
471.558	90.31
471.777	82.31
471.997	108.31
472.216	91.31
472.435	103.31
472.654	91.31
472.873	89.31
473.092	81.31
473.311	102.31
473.53	74.31
473.749	96.31
473.968	101.31
474.187	106.31
474.406	94.31
474.625	80.31
474.844	100.31
475.063	92.31
475.282	99.31
475.501	95.31
475.72	100.31
475.939	94.31
476.158	91.31
476.377	82.31
476.596	99.31
476.814	104.31
477.033	93.31
477.252	89.31
477.471	107.31
477.69	97.31
477.908	97.31
478.127	104.31
478.346	84.31
478.564	121.31
478.783	104.31
479.002	100.31
479.22	80.31
479.439	113.31
479.658	93.31
479.876	82.31
480.095	89.31
480.313	98.31
480.532	104.31
480.751	90.31
480.969	101.31
481.188	89.31
481.406	101.31
481.624	93.31
481.843	86.31
482.061	111.31
482.28	83.31
482.498	98.31
482.717	101.31
482.935	99.31
483.153	90.31
483.372	101.31
483.59	83.31
483.808	111.31
484.027	95.31
484.245	75.31
484.463	108.31
484.681	103.31
484.9	84.31
485.118	98.31
485.336	92.31
485.554	90.31
485.772	95.31
485.99	102.31
486.209	82.31
486.427	104.31
486.645	77.31
486.863	103.31
487.081	94.31
487.299	91.31
487.517	106.31
487.735	82.31
487.953	110.31
488.171	97.31
488.389	106.31
488.607	110.31
488.825	96.31
489.043	115.31
489.261	104.31
489.479	91.31
489.696	103.31
489.914	85.31
490.132	85.31
490.35	94.31
490.568	91.31
490.786	102.31
491.003	110.31
491.221	102.31
491.439	117.31
491.657	96.31
491.874	104.31
492.092	97.31
492.31	119.31
492.527	107.31
492.745	99.31
492.963	117.31
493.18	107.31
493.398	119.31
493.615	106.31
493.833	95.31
494.05	93.31
494.268	102.31
494.485	101.31
494.703	103.31
494.92	110.31
495.138	112.31
495.355	114.31
495.573	107.31
495.79	90.31
496.008	117.31
496.225	101.31
496.442	97.31
496.66	108.31
496.877	100.31
497.094	107.31
497.312	105.31
497.529	113.31
497.746	101.31
497.963	105.31
498.181	103.31
498.398	105.31
498.615	91.31
498.832	106.31
499.049	115.31
499.267	101.31
499.484	125.31
499.701	121.31
499.918	121.31
500.135	113.31
500.352	131.31
500.569	142.31
500.786	122.31
501.003	131.31
501.22	129.31
501.437	123.31
501.654	130.31
501.871	113.31
502.088	117.31
502.305	111.31
502.522	125.31
502.739	110.31
502.956	113.31
503.172	110.31
503.389	111.31
503.606	98.31
503.823	85.31
504.04	95.31
504.256	109.31
504.473	97.31
504.69	88.31
504.907	101.31
505.123	97.31
505.34	92.31
505.557	84.31
505.773	101.31
505.99	104.31
506.207	92.31
506.423	97.31
506.64	101.31
506.856	100.31
507.073	97.31
507.289	92.31
507.506	85.31
507.722	109.31
507.939	89.31
508.155	105.31
508.372	105.31
508.588	93.31
508.805	81.31
509.021	105.31
509.238	90.31
509.454	82.31
509.67	105.31
509.887	81.31
510.103	95.31
510.319	90.31
510.536	85.31
510.752	91.31
510.968	96.31
511.184	94.31
511.401	94.31
511.617	85.31
511.833	89.31
512.049	94.31
512.265	97.31
512.481	95.31
512.698	97.31
512.914	105.31
513.13	105.31
513.346	83.31
513.562	81.31
513.778	95.31
513.994	95.31
514.21	98.31
514.426	90.31
514.642	109.31
514.858	83.31
515.074	87.31
515.29	98.31
515.506	97.31
515.721	105.31
515.937	102.31
516.153	95.31
516.369	112.31
516.585	97.31
516.801	89.31
