Data from Location5.07152019.Energy5.Lamp.07192019.3%Agarose_HRD10591_16-03-00-628.txt Node
Date: Fri Jul 19 16:03:00 EDT 2019
User: cochatt
Spectrometer: HR+D1059
Trigger mode: 1
Integration Time (sec): 1.000000E-1
Scans to average: 1
Electric dark correction enabled: true
Nonlinearity correction enabled: false
Boxcar width: 0
XAxis mode: Wavelengths
Number of Pixels in Spectrum: 2048
>>>>>Begin Spectral Data<<<<<
223.165	-13.81
223.4	-13.81
223.635	-13.81
223.869	-19.81
224.104	-21.81
224.338	-21.81
224.573	-20.81
224.808	-7.81
225.042	1.19
225.277	-7.81
225.511	-1.81
225.746	-4.81
225.98	5.19
226.215	9.19
226.449	24.19
226.683	15.19
226.918	34.19
227.152	31.19
227.387	30.19
227.621	28.19
227.856	31.19
228.09	52.19
228.324	39.19
228.559	51.19
228.793	50.19
229.027	70.19
229.262	63.19
229.496	69.19
229.73	72.19
229.964	61.19
230.199	62.19
230.433	75.19
230.667	76.19
230.901	77.19
231.136	86.19
231.37	81.19
231.604	77.19
231.838	69.19
232.072	65.19
232.306	84.19
232.541	75.19
232.775	79.19
233.009	80.19
233.243	75.19
233.477	77.19
233.711	93.19
233.945	84.19
234.179	70.19
234.413	63.19
234.647	77.19
234.881	59.19
235.115	63.19
235.349	73.19
235.583	85.19
235.817	82.19
236.051	67.19
236.285	83.19
236.519	80.19
236.753	78.19
236.987	68.19
237.221	80.19
237.455	66.19
237.689	81.19
237.922	78.19
238.156	80.19
238.39	79.19
238.624	70.19
238.858	73.19
239.091	71.19
239.325	95.19
239.559	83.19
239.793	74.19
240.027	71.19
240.26	76.19
240.494	74.19
240.728	69.19
240.961	85.19
241.195	71.19
241.429	75.19
241.662	85.19
241.896	76.19
242.13	74.19
242.363	85.19
242.597	78.19
242.83	79.19
243.064	79.19
243.298	90.19
243.531	85.19
243.765	79.19
243.998	74.19
244.232	68.19
244.465	70.19
244.699	86.19
244.932	75.19
245.166	79.19
245.399	82.19
245.633	74.19
245.866	62.19
246.099	67.19
246.333	83.19
246.566	73.19
246.8	78.19
247.033	68.19
247.266	69.19
247.5	56.19
247.733	81.19
247.966	81.19
248.2	88.19
248.433	81.19
248.666	87.19
248.899	88.19
249.133	95.19
249.366	85.19
249.599	72.19
249.832	89.19
250.066	98.19
250.299	90.19
250.532	96.19
250.765	75.19
250.998	90.19
251.231	96.19
251.465	81.19
251.698	96.19
251.931	76.19
252.164	75.19
252.397	94.19
252.63	83.19
252.863	62.19
253.096	70.19
253.329	87.19
253.562	86.19
253.795	82.19
254.028	85.19
254.261	84.19
254.494	87.19
254.727	97.19
254.96	75.19
255.193	93.19
255.426	68.19
255.659	72.19
255.892	89.19
256.124	88.19
256.357	93.19
256.59	84.19
256.823	85.19
257.056	78.19
257.289	97.19
257.521	86.19
257.754	84.19
257.987	92.19
258.22	73.19
258.452	86.19
258.685	88.19
258.918	86.19
259.151	86.19
259.383	89.19
259.616	72.19
259.849	69.19
260.081	76.19
260.314	75.19
260.547	77.19
260.779	80.19
261.012	91.19
261.244	96.19
261.477	89.19
261.71	85.19
261.942	75.19
262.175	84.19
262.407	82.19
262.64	87.19
262.872	93.19
263.105	92.19
263.337	85.19
263.57	69.19
263.802	84.19
264.035	68.19
264.267	81.19
264.499	101.19
264.732	86.19
264.964	73.19
265.197	98.19
265.429	83.19
265.661	88.19
265.894	85.19
266.126	80.19
266.358	84.19
266.591	83.19
266.823	86.19
267.055	100.19
267.287	90.19
267.52	89.19
267.752	87.19
267.984	93.19
268.216	85.19
268.448	96.19
268.681	78.19
268.913	82.19
269.145	89.19
269.377	86.19
269.609	94.19
269.841	96.19
270.073	83.19
270.306	72.19
270.538	81.19
270.77	87.19
271.002	71.19
271.234	92.19
271.466	96.19
271.698	74.19
271.93	83.19
272.162	76.19
272.394	97.19
272.626	97.19
272.858	89.19
273.09	85.19
273.322	93.19
273.553	73.19
273.785	85.19
274.017	101.19
274.249	75.19
274.481	103.19
274.713	74.19
274.945	89.19
275.176	86.19
275.408	86.19
275.64	92.19
275.872	75.19
276.104	98.19
276.335	106.19
276.567	89.19
276.799	96.19
277.031	81.19
277.262	74.19
277.494	75.19
277.726	90.19
277.957	105.19
278.189	97.19
278.421	94.19
278.652	82.19
278.884	91.19
279.115	76.19
279.347	86.19
279.579	81.19
279.81	94.19
280.042	99.19
280.273	88.19
280.505	90.19
280.736	97.19
280.968	92.19
281.199	91.19
281.431	92.19
281.662	88.19
281.894	83.19
282.125	72.19
282.356	97.19
282.588	87.19
282.819	90.19
283.051	96.19
283.282	99.19
283.513	97.19
283.745	97.19
283.976	88.19
284.207	96.19
284.439	96.19
284.67	90.19
284.901	97.19
285.132	87.19
285.364	80.19
285.595	89.19
285.826	95.19
286.057	95.19
286.288	81.19
286.52	90.19
286.751	89.19
286.982	99.19
287.213	81.19
287.444	98.19
287.675	85.19
287.906	94.19
288.138	92.19
288.369	85.19
288.6	95.19
288.831	88.19
289.062	98.19
289.293	101.19
289.524	95.19
289.755	92.19
289.986	89.19
290.217	83.19
290.448	81.19
290.679	90.19
290.91	93.19
291.141	82.19
291.371	88.19
291.602	93.19
291.833	95.19
292.064	102.19
292.295	81.19
292.526	82.19
292.757	78.19
292.987	93.19
293.218	91.19
293.449	98.19
293.68	91.19
293.91	91.19
294.141	86.19
294.372	83.19
294.603	96.19
294.833	92.19
295.064	98.19
295.295	101.19
295.525	67.19
295.756	89.19
295.987	76.19
296.217	89.19
296.448	91.19
296.679	97.19
296.909	90.19
297.14	90.19
297.37	93.19
297.601	90.19
297.831	102.19
298.062	97.19
298.292	95.19
298.523	98.19
298.753	110.19
298.984	105.19
299.214	89.19
299.445	88.19
299.675	85.19
299.905	93.19
300.136	90.19
300.366	91.19
300.597	91.19
300.827	89.19
301.057	95.19
301.288	97.19
301.518	107.19
301.748	83.19
301.979	91.19
302.209	95.19
302.439	91.19
302.669	88.19
302.9	106.19
303.13	86.19
303.36	94.19
303.59	89.19
303.82	76.19
304.051	88.19
304.281	99.19
304.511	91.19
304.741	93.19
304.971	95.19
305.201	100.19
305.431	94.19
305.661	82.19
305.891	89.19
306.121	97.19
306.352	94.19
306.582	91.19
306.812	94.19
307.042	97.19
307.272	98.19
307.502	81.19
307.731	98.19
307.961	103.19
308.191	96.19
308.421	88.19
308.651	86.19
308.881	103.19
309.111	90.19
309.341	89.19
309.571	96.19
309.8	98.19
310.03	80.19
310.26	91.19
310.49	94.19
310.72	97.19
310.949	98.19
311.179	89.19
311.409	101.19
311.639	88.19
311.868	96.19
312.098	88.19
312.328	92.19
312.557	98.19
312.787	82.19
313.017	92.19
313.246	79.19
313.476	92.19
313.706	85.19
313.935	83.19
314.165	102.19
314.394	95.19
314.624	95.19
314.853	89.19
315.083	96.19
315.312	88.19
315.542	87.19
315.771	86.19
316.001	90.19
316.23	95.19
316.46	97.19
316.689	88.19
316.919	91.19
317.148	92.19
317.377	100.19
317.607	96.19
317.836	98.19
318.065	92.19
318.295	111.19
318.524	87.19
318.753	101.19
318.983	83.19
319.212	86.19
319.441	87.19
319.67	87.19
319.9	94.19
320.129	90.19
320.358	101.19
320.587	83.19
320.816	109.19
321.046	87.19
321.275	92.19
321.504	88.19
321.733	101.19
321.962	88.19
322.191	99.19
322.42	101.19
322.649	97.19
322.878	94.19
323.108	90.19
323.337	98.19
323.566	101.19
323.795	85.19
324.024	106.19
324.253	89.19
324.482	88.19
324.71	94.19
324.939	94.19
325.168	98.19
325.397	95.19
325.626	102.19
325.855	90.19
326.084	93.19
326.313	85.19
326.542	100.19
326.77	97.19
326.999	89.19
327.228	95.19
327.457	91.19
327.686	99.19
327.914	86.19
328.143	86.19
328.372	101.19
328.6	84.19
328.829	86.19
329.058	110.19
329.287	95.19
329.515	91.19
329.744	85.19
329.972	100.19
330.201	91.19
330.43	105.19
330.658	85.19
330.887	94.19
331.115	96.19
331.344	97.19
331.572	96.19
331.801	96.19
332.03	95.19
332.258	93.19
332.486	96.19
332.715	96.19
332.943	85.19
333.172	105.19
333.4	100.19
333.629	105.19
333.857	104.19
334.085	101.19
334.314	94.19
334.542	103.19
334.771	99.19
334.999	80.19
335.227	96.19
335.455	94.19
335.684	90.19
335.912	98.19
336.14	94.19
336.369	72.19
336.597	89.19
336.825	81.19
337.053	106.19
337.281	102.19
337.51	90.19
337.738	86.19
337.966	104.19
338.194	81.19
338.422	82.19
338.65	94.19
338.878	94.19
339.106	88.19
339.334	102.19
339.562	87.19
339.79	97.19
340.018	105.19
340.246	86.19
340.474	82.19
340.702	85.19
340.93	96.19
341.158	78.19
341.386	86.19
341.614	105.19
341.842	111.19
342.07	75.19
342.298	101.19
342.526	79.19
342.754	97.19
342.981	108.19
343.209	97.19
343.437	92.19
343.665	106.19
343.893	82.19
344.12	93.19
344.348	85.19
344.576	95.19
344.804	87.19
345.031	92.19
345.259	96.19
345.487	86.19
345.714	96.19
345.942	92.19
346.17	93.19
346.397	107.19
346.625	88.19
346.853	98.19
347.08	89.19
347.308	96.19
347.535	92.19
347.763	106.19
347.99	94.19
348.218	100.19
348.445	92.19
348.673	103.19
348.9	86.19
349.128	112.19
349.355	83.19
349.583	97.19
349.81	93.19
350.037	80.19
350.265	91.19
350.492	89.19
350.72	89.19
350.947	86.19
351.174	90.19
351.402	86.19
351.629	109.19
351.856	91.19
352.083	78.19
352.311	99.19
352.538	95.19
352.765	90.19
352.992	102.19
353.22	79.19
353.447	98.19
353.674	84.19
353.901	95.19
354.128	89.19
354.355	101.19
354.583	105.19
354.81	95.19
355.037	79.19
355.264	88.19
355.491	90.19
355.718	93.19
355.945	93.19
356.172	95.19
356.399	95.19
356.626	104.19
356.853	89.19
357.08	93.19
357.307	77.19
357.534	87.19
357.761	95.19
357.988	99.19
358.215	83.19
358.441	99.19
358.668	103.19
358.895	83.19
359.122	93.19
359.349	96.19
359.576	93.19
359.802	85.19
360.029	96.19
360.256	102.19
360.483	100.19
360.709	87.19
360.936	105.19
361.163	84.19
361.39	99.19
361.616	98.19
361.843	90.19
362.07	97.19
362.296	84.19
362.523	82.19
362.749	91.19
362.976	87.19
363.203	107.19
363.429	115.19
363.656	93.19
363.882	91.19
364.109	92.19
364.335	90.19
364.562	103.19
364.788	101.19
365.015	88.19
365.241	104.19
365.468	80.19
365.694	74.19
365.92	101.19
366.147	97.19
366.373	90.19
366.599	90.19
366.826	93.19
367.052	94.19
367.278	106.19
367.505	82.19
367.731	89.19
367.957	105.19
368.184	94.19
368.41	111.19
368.636	104.19
368.862	81.19
369.089	83.19
369.315	80.19
369.541	92.19
369.767	95.19
369.993	80.19
370.219	86.19
370.445	87.19
370.672	88.19
370.898	84.19
371.124	98.19
371.35	100.19
371.576	82.19
371.802	99.19
372.028	88.19
372.254	97.19
372.48	94.19
372.706	94.19
372.932	83.19
373.158	90.19
373.384	83.19
373.61	105.19
373.835	98.19
374.061	87.19
374.287	92.19
374.513	88.19
374.739	82.19
374.965	88.19
375.191	104.19
375.416	85.19
375.642	81.19
375.868	95.19
376.094	94.19
376.319	91.19
376.545	96.19
376.771	89.19
376.997	91.19
377.222	94.19
377.448	95.19
377.674	94.19
377.899	84.19
378.125	89.19
378.35	97.19
378.576	90.19
378.802	83.19
379.027	88.19
379.253	89.19
379.478	96.19
379.704	98.19
379.929	84.19
380.155	109.19
380.38	87.19
380.606	80.19
380.831	90.19
381.057	93.19
381.282	100.19
381.507	89.19
381.733	80.19
381.958	96.19
382.184	97.19
382.409	90.19
382.634	83.19
382.86	105.19
383.085	101.19
383.31	75.19
383.535	106.19
383.761	89.19
383.986	87.19
384.211	82.19
384.436	96.19
384.662	86.19
384.887	95.19
385.112	89.19
385.337	98.19
385.562	88.19
385.787	87.19
386.013	87.19
386.238	90.19
386.463	95.19
386.688	92.19
386.913	91.19
387.138	84.19
387.363	115.19
387.588	103.19
387.813	97.19
388.038	101.19
388.263	92.19
388.488	95.19
388.713	99.19
388.938	101.19
389.163	90.19
389.387	98.19
389.612	96.19
389.837	93.19
390.062	107.19
390.287	94.19
390.512	103.19
390.736	100.19
390.961	86.19
391.186	81.19
391.411	88.19
391.636	91.19
391.86	96.19
392.085	99.19
392.31	104.19
392.534	88.19
392.759	103.19
392.984	100.19
393.208	101.19
393.433	96.19
393.658	92.19
393.882	102.19
394.107	98.19
394.331	101.19
394.556	104.19
394.78	98.19
395.005	90.19
395.229	94.19
395.454	94.19
395.678	101.19
395.903	105.19
396.127	108.19
396.352	108.19
396.576	85.19
396.801	100.19
397.025	104.19
397.249	97.19
397.474	106.19
397.698	112.19
397.922	97.19
398.147	99.19
398.371	115.19
398.595	82.19
398.82	103.19
399.044	92.19
399.268	96.19
399.492	95.19
399.717	102.19
399.941	91.19
400.165	111.19
400.389	104.19
400.613	87.19
400.837	98.19
401.062	100.19
401.286	91.19
401.51	102.19
401.734	94.19
401.958	103.19
402.182	115.19
402.406	95.19
402.63	104.19
402.854	120.19
403.078	118.19
403.302	90.19
403.526	110.19
403.75	87.19
403.974	86.19
404.198	85.19
404.422	98.19
404.645	105.19
404.869	110.19
405.093	96.19
405.317	111.19
405.541	103.19
405.765	96.19
405.988	100.19
406.212	105.19
406.436	103.19
406.66	104.19
406.883	108.19
407.107	105.19
407.331	104.19
407.555	104.19
407.778	91.19
408.002	103.19
408.226	103.19
408.449	111.19
408.673	103.19
408.896	94.19
409.12	95.19
409.344	116.19
409.567	109.19
409.791	103.19
410.014	96.19
410.238	73.19
410.461	92.19
410.685	92.19
410.908	102.19
411.132	104.19
411.355	104.19
411.578	95.19
411.802	105.19
412.025	95.19
412.249	89.19
412.472	93.19
412.695	84.19
412.919	82.19
413.142	93.19
413.365	101.19
413.589	98.19
413.812	91.19
414.035	91.19
414.258	92.19
414.482	95.19
414.705	96.19
414.928	90.19
415.151	101.19
415.374	100.19
415.597	95.19
415.821	110.19
416.044	96.19
416.267	106.19
416.49	93.19
416.713	81.19
416.936	92.19
417.159	94.19
417.382	105.19
417.605	110.19
417.828	95.19
418.051	102.19
418.274	104.19
418.497	110.19
418.72	90.19
418.943	110.19
419.166	103.19
419.389	115.19
419.611	102.19
419.834	81.19
420.057	116.19
420.28	101.19
420.503	90.19
420.726	106.19
420.948	97.19
421.171	99.19
421.394	113.19
421.617	95.19
421.839	89.19
422.062	87.19
422.285	85.19
422.507	89.19
422.73	83.19
422.953	101.19
423.175	95.19
423.398	97.19
423.621	105.19
423.843	103.19
424.066	105.19
424.288	103.19
424.511	90.19
424.733	90.19
424.956	101.19
425.178	90.19
425.401	102.19
425.623	98.19
425.846	91.19
426.068	112.19
426.291	96.19
426.513	93.19
426.735	95.19
426.958	99.19
427.18	107.19
427.402	97.19
427.625	103.19
427.847	106.19
428.069	96.19
428.292	90.19
428.514	95.19
428.736	95.19
428.958	88.19
429.181	103.19
429.403	93.19
429.625	98.19
429.847	95.19
430.069	93.19
430.292	98.19
430.514	99.19
430.736	86.19
430.958	93.19
431.18	99.19
431.402	113.19
431.624	96.19
431.846	89.19
432.068	89.19
432.29	89.19
432.512	103.19
432.734	97.19
432.956	107.19
433.178	83.19
433.4	82.19
433.622	93.19
433.844	82.19
434.066	89.19
434.287	101.19
434.509	80.19
434.731	100.19
434.953	101.19
435.175	86.19
435.397	95.19
435.618	85.19
435.84	98.19
436.062	106.19
436.284	75.19
436.505	91.19
436.727	95.19
436.949	86.19
437.17	91.19
437.392	95.19
437.614	90.19
437.835	86.19
438.057	97.19
438.278	97.19
438.5	108.19
438.721	97.19
438.943	109.19
439.165	88.19
439.386	94.19
439.608	101.19
439.829	97.19
440.05	102.19
440.272	81.19
440.493	97.19
440.715	98.19
440.936	103.19
441.158	93.19
441.379	96.19
441.6	111.19
441.822	111.19
442.043	89.19
442.264	95.19
442.486	88.19
442.707	95.19
442.928	89.19
443.149	96.19
443.371	89.19
443.592	88.19
443.813	94.19
444.034	81.19
444.255	98.19
444.476	90.19
444.698	103.19
444.919	100.19
445.14	226.19
445.361	156.19
445.582	110.19
445.803	87.19
446.024	109.19
446.245	110.19
446.466	105.19
446.687	102.19
446.908	98.19
447.129	104.19
447.35	100.19
447.571	101.19
447.792	95.19
448.013	95.19
448.234	108.19
448.455	91.19
448.675	96.19
448.896	96.19
449.117	102.19
449.338	86.19
449.559	106.19
449.779	97.19
450	85.19
450.221	102.19
450.442	81.19
450.662	95.19
450.883	93.19
451.104	99.19
451.324	88.19
451.545	88.19
451.766	98.19
451.986	88.19
452.207	92.19
452.428	100.19
452.648	93.19
452.869	95.19
453.089	87.19
453.31	102.19
453.53	87.19
453.751	96.19
453.971	99.19
454.192	89.19
454.412	101.19
454.633	72.19
454.853	89.19
455.073	92.19
455.294	87.19
455.514	102.19
455.734	102.19
455.955	85.19
456.175	90.19
456.395	91.19
456.616	96.19
456.836	93.19
457.056	89.19
457.276	88.19
457.497	85.19
457.717	94.19
457.937	96.19
458.157	90.19
458.377	79.19
458.598	94.19
458.818	89.19
459.038	93.19
459.258	99.19
459.478	95.19
459.698	107.19
459.918	99.19
460.138	75.19
460.358	104.19
460.578	102.19
460.798	97.19
461.018	98.19
461.238	106.19
461.458	103.19
461.678	104.19
461.898	89.19
462.118	95.19
462.338	98.19
462.558	103.19
462.777	111.19
462.997	89.19
463.217	110.19
463.437	113.19
463.657	102.19
463.876	103.19
464.096	98.19
464.316	99.19
464.536	95.19
464.755	96.19
464.975	107.19
465.195	115.19
465.414	94.19
465.634	84.19
465.854	98.19
466.073	94.19
466.293	82.19
466.512	103.19
466.732	104.19
466.951	103.19
467.171	109.19
467.391	98.19
467.61	90.19
467.829	85.19
468.049	95.19
468.268	101.19
468.488	104.19
468.707	89.19
468.927	96.19
469.146	82.19
469.365	89.19
469.585	97.19
469.804	102.19
470.023	105.19
470.243	89.19
470.462	106.19
470.681	100.19
470.901	99.19
471.12	102.19
471.339	98.19
471.558	97.19
471.777	99.19
471.997	91.19
472.216	121.19
472.435	92.19
472.654	94.19
472.873	99.19
473.092	107.19
473.311	88.19
473.53	94.19
473.749	67.19
473.968	89.19
474.187	86.19
474.406	94.19
474.625	123.19
474.844	97.19
475.063	92.19
475.282	91.19
475.501	93.19
475.72	93.19
475.939	102.19
476.158	94.19
476.377	78.19
476.596	108.19
476.814	109.19
477.033	98.19
477.252	89.19
477.471	88.19
477.69	88.19
477.908	111.19
478.127	119.19
478.346	114.19
478.564	104.19
478.783	102.19
479.002	112.19
479.22	103.19
479.439	113.19
479.658	97.19
479.876	119.19
480.095	111.19
480.313	111.19
480.532	109.19
480.751	103.19
480.969	110.19
481.188	93.19
481.406	90.19
481.624	104.19
481.843	101.19
482.061	101.19
482.28	98.19
482.498	81.19
482.717	99.19
482.935	94.19
483.153	96.19
483.372	113.19
483.59	105.19
483.808	109.19
484.027	107.19
484.245	110.19
484.463	97.19
484.681	102.19
484.9	114.19
485.118	101.19
485.336	122.19
485.554	104.19
485.772	113.19
485.99	101.19
486.209	102.19
486.427	97.19
486.645	107.19
486.863	111.19
487.081	109.19
487.299	104.19
487.517	113.19
487.735	88.19
487.953	105.19
488.171	123.19
488.389	100.19
488.607	117.19
488.825	94.19
489.043	104.19
489.261	102.19
489.479	96.19
489.696	112.19
489.914	105.19
490.132	125.19
490.35	120.19
490.568	113.19
490.786	115.19
491.003	103.19
491.221	97.19
491.439	101.19
491.657	113.19
491.874	117.19
492.092	114.19
492.31	107.19
492.527	113.19
492.745	106.19
492.963	100.19
493.18	109.19
493.398	104.19
493.615	104.19
493.833	109.19
494.05	120.19
494.268	105.19
494.485	101.19
494.703	107.19
494.92	122.19
495.138	103.19
495.355	113.19
495.573	113.19
495.79	114.19
496.008	113.19
496.225	103.19
496.442	102.19
496.66	134.19
496.877	116.19
497.094	111.19
497.312	111.19
497.529	101.19
497.746	104.19
497.963	118.19
498.181	111.19
498.398	106.19
498.615	97.19
498.832	107.19
499.049	120.19
499.267	129.19
499.484	131.19
499.701	138.19
499.918	142.19
500.135	135.19
500.352	163.19
500.569	173.19
500.786	161.19
501.003	160.19
501.22	133.19
501.437	150.19
501.654	142.19
501.871	129.19
502.088	137.19
502.305	121.19
502.522	125.19
502.739	115.19
502.956	116.19
503.172	113.19
503.389	119.19
503.606	117.19
503.823	115.19
504.04	114.19
504.256	109.19
504.473	110.19
504.69	134.19
504.907	104.19
505.123	100.19
505.34	118.19
505.557	111.19
505.773	109.19
505.99	106.19
506.207	109.19
506.423	108.19
506.64	101.19
506.856	120.19
507.073	101.19
507.289	107.19
507.506	114.19
507.722	106.19
507.939	105.19
508.155	100.19
508.372	113.19
508.588	96.19
508.805	106.19
509.021	109.19
509.238	108.19
509.454	103.19
509.67	121.19
509.887	97.19
510.103	91.19
510.319	107.19
510.536	108.19
510.752	109.19
510.968	112.19
511.184	107.19
511.401	109.19
511.617	102.19
511.833	104.19
512.049	94.19
512.265	106.19
512.481	102.19
512.698	107.19
512.914	98.19
513.13	105.19
513.346	118.19
513.562	99.19
513.778	100.19
513.994	101.19
