Data from Location5.07152019.Energy5.Lamp.07192019.3%Agarose_HRD10591_16-04-08-629.txt Node
Date: Fri Jul 19 16:04:08 EDT 2019
User: cochatt
Spectrometer: HR+D1059
Trigger mode: 1
Integration Time (sec): 1.000000E-1
Scans to average: 1
Electric dark correction enabled: true
Nonlinearity correction enabled: false
Boxcar width: 0
XAxis mode: Wavelengths
Number of Pixels in Spectrum: 2048
>>>>>Begin Spectral Data<<<<<
223.165	-19.81
223.4	-19.81
223.635	-19.81
223.869	-9.81
224.104	-33.81
224.338	-24.81
224.573	-9.81
224.808	-11.81
225.042	11.19
225.277	1.19
225.511	-9.81
225.746	-2.81
225.98	3.19
226.215	4.19
226.449	19.19
226.683	25.19
226.918	23.19
227.152	35.19
227.387	36.19
227.621	27.19
227.856	40.19
228.09	43.19
228.324	35.19
228.559	50.19
228.793	67.19
229.027	55.19
229.262	62.19
229.496	55.19
229.73	51.19
229.964	76.19
230.199	70.19
230.433	73.19
230.667	90.19
230.901	76.19
231.136	68.19
231.37	83.19
231.604	87.19
231.838	75.19
232.072	86.19
232.306	62.19
232.541	63.19
232.775	88.19
233.009	81.19
233.243	81.19
233.477	91.19
233.711	84.19
233.945	84.19
234.179	80.19
234.413	78.19
234.647	83.19
234.881	66.19
235.115	88.19
235.349	79.19
235.583	91.19
235.817	83.19
236.051	72.19
236.285	82.19
236.519	78.19
236.753	62.19
236.987	81.19
237.221	79.19
237.455	75.19
237.689	59.19
237.922	84.19
238.156	89.19
238.39	74.19
238.624	83.19
238.858	73.19
239.091	79.19
239.325	69.19
239.559	67.19
239.793	78.19
240.027	84.19
240.26	70.19
240.494	63.19
240.728	58.19
240.961	73.19
241.195	79.19
241.429	78.19
241.662	72.19
241.896	74.19
242.13	87.19
242.363	78.19
242.597	80.19
242.83	87.19
243.064	77.19
243.298	90.19
243.531	81.19
243.765	70.19
243.998	96.19
244.232	80.19
244.465	79.19
244.699	67.19
244.932	80.19
245.166	79.19
245.399	83.19
245.633	70.19
245.866	80.19
246.099	82.19
246.333	84.19
246.566	87.19
246.8	82.19
247.033	78.19
247.266	74.19
247.5	81.19
247.733	83.19
247.966	67.19
248.2	76.19
248.433	75.19
248.666	75.19
248.899	94.19
249.133	68.19
249.366	80.19
249.599	80.19
249.832	87.19
250.066	85.19
250.299	77.19
250.532	69.19
250.765	69.19
250.998	70.19
251.231	81.19
251.465	92.19
251.698	80.19
251.931	88.19
252.164	77.19
252.397	66.19
252.63	74.19
252.863	84.19
253.096	86.19
253.329	86.19
253.562	100.19
253.795	68.19
254.028	82.19
254.261	86.19
254.494	76.19
254.727	87.19
254.96	76.19
255.193	66.19
255.426	75.19
255.659	88.19
255.892	77.19
256.124	99.19
256.357	77.19
256.59	78.19
256.823	86.19
257.056	87.19
257.289	78.19
257.521	77.19
257.754	75.19
257.987	80.19
258.22	91.19
258.452	79.19
258.685	87.19
258.918	76.19
259.151	75.19
259.383	87.19
259.616	85.19
259.849	75.19
260.081	85.19
260.314	100.19
260.547	83.19
260.779	86.19
261.012	91.19
261.244	93.19
261.477	87.19
261.71	83.19
261.942	75.19
262.175	82.19
262.407	84.19
262.64	87.19
262.872	84.19
263.105	97.19
263.337	84.19
263.57	87.19
263.802	84.19
264.035	95.19
264.267	88.19
264.499	80.19
264.732	89.19
264.964	100.19
265.197	78.19
265.429	80.19
265.661	99.19
265.894	78.19
266.126	90.19
266.358	84.19
266.591	74.19
266.823	87.19
267.055	74.19
267.287	96.19
267.52	79.19
267.752	85.19
267.984	88.19
268.216	94.19
268.448	89.19
268.681	81.19
268.913	93.19
269.145	85.19
269.377	87.19
269.609	72.19
269.841	84.19
270.073	69.19
270.306	84.19
270.538	80.19
270.77	83.19
271.002	85.19
271.234	94.19
271.466	89.19
271.698	76.19
271.93	82.19
272.162	87.19
272.394	79.19
272.626	85.19
272.858	83.19
273.09	89.19
273.322	99.19
273.553	76.19
273.785	83.19
274.017	95.19
274.249	75.19
274.481	87.19
274.713	69.19
274.945	85.19
275.176	84.19
275.408	84.19
275.64	80.19
275.872	78.19
276.104	94.19
276.335	76.19
276.567	81.19
276.799	89.19
277.031	86.19
277.262	100.19
277.494	95.19
277.726	83.19
277.957	97.19
278.189	90.19
278.421	88.19
278.652	79.19
278.884	88.19
279.115	83.19
279.347	78.19
279.579	95.19
279.81	95.19
280.042	96.19
280.273	94.19
280.505	88.19
280.736	99.19
280.968	91.19
281.199	90.19
281.431	96.19
281.662	81.19
281.894	84.19
282.125	92.19
282.356	103.19
282.588	86.19
282.819	106.19
283.051	61.19
283.282	87.19
283.513	82.19
283.745	91.19
283.976	82.19
284.207	84.19
284.439	95.19
284.67	87.19
284.901	87.19
285.132	78.19
285.364	78.19
285.595	78.19
285.826	83.19
286.057	110.19
286.288	90.19
286.52	87.19
286.751	88.19
286.982	98.19
287.213	94.19
287.444	94.19
287.675	92.19
287.906	90.19
288.138	85.19
288.369	83.19
288.6	103.19
288.831	95.19
289.062	95.19
289.293	74.19
289.524	88.19
289.755	88.19
289.986	94.19
290.217	84.19
290.448	100.19
290.679	92.19
290.91	90.19
291.141	82.19
291.371	84.19
291.602	74.19
291.833	88.19
292.064	82.19
292.295	80.19
292.526	74.19
292.757	88.19
292.987	100.19
293.218	89.19
293.449	90.19
293.68	90.19
293.91	80.19
294.141	91.19
294.372	87.19
294.603	95.19
294.833	96.19
295.064	83.19
295.295	83.19
295.525	95.19
295.756	94.19
295.987	111.19
296.217	82.19
296.448	83.19
296.679	95.19
296.909	83.19
297.14	84.19
297.37	104.19
297.601	89.19
297.831	99.19
298.062	96.19
298.292	88.19
298.523	96.19
298.753	89.19
298.984	83.19
299.214	88.19
299.445	99.19
299.675	81.19
299.905	79.19
300.136	90.19
300.366	75.19
300.597	95.19
300.827	84.19
301.057	90.19
301.288	73.19
301.518	82.19
301.748	107.19
301.979	93.19
302.209	87.19
302.439	87.19
302.669	91.19
302.9	79.19
303.13	75.19
303.36	102.19
303.59	87.19
303.82	102.19
304.051	81.19
304.281	93.19
304.511	95.19
304.741	95.19
304.971	92.19
305.201	102.19
305.431	96.19
305.661	84.19
305.891	92.19
306.121	95.19
306.352	92.19
306.582	91.19
306.812	90.19
307.042	84.19
307.272	87.19
307.502	80.19
307.731	83.19
307.961	92.19
308.191	94.19
308.421	81.19
308.651	78.19
308.881	96.19
309.111	97.19
309.341	80.19
309.571	92.19
309.8	92.19
310.03	112.19
310.26	79.19
310.49	89.19
310.72	88.19
310.949	96.19
311.179	80.19
311.409	89.19
311.639	81.19
311.868	86.19
312.098	78.19
312.328	89.19
312.557	110.19
312.787	83.19
313.017	95.19
313.246	92.19
313.476	99.19
313.706	83.19
313.935	84.19
314.165	81.19
314.394	80.19
314.624	95.19
314.853	86.19
315.083	88.19
315.312	92.19
315.542	87.19
315.771	93.19
316.001	98.19
316.23	82.19
316.46	84.19
316.689	90.19
316.919	90.19
317.148	91.19
317.377	98.19
317.607	89.19
317.836	103.19
318.065	92.19
318.295	91.19
318.524	80.19
318.753	76.19
318.983	76.19
319.212	80.19
319.441	84.19
319.67	90.19
319.9	100.19
320.129	110.19
320.358	95.19
320.587	98.19
320.816	79.19
321.046	87.19
321.275	95.19
321.504	83.19
321.733	82.19
321.962	87.19
322.191	82.19
322.42	91.19
322.649	100.19
322.878	84.19
323.108	98.19
323.337	98.19
323.566	83.19
323.795	87.19
324.024	83.19
324.253	94.19
324.482	84.19
324.71	90.19
324.939	74.19
325.168	89.19
325.397	81.19
325.626	77.19
325.855	75.19
326.084	106.19
326.313	97.19
326.542	87.19
326.77	92.19
326.999	96.19
327.228	70.19
327.457	91.19
327.686	93.19
327.914	91.19
328.143	87.19
328.372	95.19
328.6	84.19
328.829	92.19
329.058	84.19
329.287	75.19
329.515	79.19
329.744	91.19
329.972	88.19
330.201	88.19
330.43	82.19
330.658	73.19
330.887	90.19
331.115	76.19
331.344	93.19
331.572	78.19
331.801	73.19
332.03	101.19
332.258	97.19
332.486	91.19
332.715	84.19
332.943	90.19
333.172	100.19
333.4	95.19
333.629	99.19
333.857	95.19
334.085	90.19
334.314	84.19
334.542	89.19
334.771	91.19
334.999	92.19
335.227	97.19
335.455	97.19
335.684	85.19
335.912	82.19
336.14	95.19
336.369	102.19
336.597	92.19
336.825	95.19
337.053	93.19
337.281	87.19
337.51	83.19
337.738	95.19
337.966	94.19
338.194	97.19
338.422	90.19
338.65	88.19
338.878	96.19
339.106	85.19
339.334	95.19
339.562	99.19
339.79	79.19
340.018	86.19
340.246	80.19
340.474	99.19
340.702	91.19
340.93	86.19
341.158	92.19
341.386	87.19
341.614	86.19
341.842	89.19
342.07	90.19
342.298	93.19
342.526	78.19
342.754	82.19
342.981	93.19
343.209	91.19
343.437	85.19
343.665	95.19
343.893	77.19
344.12	89.19
344.348	94.19
344.576	84.19
344.804	92.19
345.031	89.19
345.259	76.19
345.487	96.19
345.714	99.19
345.942	92.19
346.17	89.19
346.397	101.19
346.625	103.19
346.853	81.19
347.08	82.19
347.308	93.19
347.535	95.19
347.763	92.19
347.99	112.19
348.218	89.19
348.445	96.19
348.673	97.19
348.9	83.19
349.128	83.19
349.355	89.19
349.583	98.19
349.81	103.19
350.037	97.19
350.265	79.19
350.492	100.19
350.72	99.19
350.947	96.19
351.174	102.19
351.402	100.19
351.629	96.19
351.856	89.19
352.083	93.19
352.311	98.19
352.538	102.19
352.765	84.19
352.992	88.19
353.22	85.19
353.447	94.19
353.674	88.19
353.901	98.19
354.128	84.19
354.355	89.19
354.583	108.19
354.81	89.19
355.037	90.19
355.264	87.19
355.491	88.19
355.718	90.19
355.945	90.19
356.172	98.19
356.399	96.19
356.626	86.19
356.853	81.19
357.08	86.19
357.307	83.19
357.534	90.19
357.761	92.19
357.988	99.19
358.215	96.19
358.441	90.19
358.668	106.19
358.895	91.19
359.122	91.19
359.349	80.19
359.576	81.19
359.802	89.19
360.029	87.19
360.256	88.19
360.483	85.19
360.709	97.19
360.936	101.19
361.163	113.19
361.39	98.19
361.616	90.19
361.843	91.19
362.07	87.19
362.296	96.19
362.523	99.19
362.749	82.19
362.976	83.19
363.203	96.19
363.429	98.19
363.656	96.19
363.882	90.19
364.109	96.19
364.335	98.19
364.562	81.19
364.788	98.19
365.015	93.19
365.241	99.19
365.468	102.19
365.694	98.19
365.92	97.19
366.147	95.19
366.373	96.19
366.599	92.19
366.826	91.19
367.052	90.19
367.278	92.19
367.505	83.19
367.731	73.19
367.957	82.19
368.184	95.19
368.41	81.19
368.636	106.19
368.862	83.19
369.089	106.19
369.315	88.19
369.541	101.19
369.767	80.19
369.993	91.19
370.219	100.19
370.445	94.19
370.672	99.19
370.898	78.19
371.124	80.19
371.35	83.19
371.576	83.19
371.802	102.19
372.028	88.19
372.254	88.19
372.48	115.19
372.706	92.19
372.932	100.19
373.158	106.19
373.384	94.19
373.61	91.19
373.835	89.19
374.061	98.19
374.287	93.19
374.513	95.19
374.739	82.19
374.965	98.19
375.191	98.19
375.416	93.19
375.642	79.19
375.868	108.19
376.094	93.19
376.319	84.19
376.545	84.19
376.771	95.19
376.997	102.19
377.222	103.19
377.448	92.19
377.674	87.19
377.899	98.19
378.125	93.19
378.35	92.19
378.576	89.19
378.802	89.19
379.027	90.19
379.253	94.19
379.478	90.19
379.704	88.19
379.929	111.19
380.155	79.19
380.38	95.19
380.606	85.19
380.831	83.19
381.057	90.19
381.282	91.19
381.507	85.19
381.733	83.19
381.958	106.19
382.184	78.19
382.409	101.19
382.634	100.19
382.86	91.19
383.085	99.19
383.31	100.19
383.535	93.19
383.761	89.19
383.986	90.19
384.211	98.19
384.436	94.19
384.662	94.19
384.887	104.19
385.112	94.19
385.337	90.19
385.562	96.19
385.787	95.19
386.013	90.19
386.238	87.19
386.463	89.19
386.688	90.19
386.913	80.19
387.138	92.19
387.363	94.19
387.588	97.19
387.813	101.19
388.038	91.19
388.263	93.19
388.488	96.19
388.713	85.19
388.938	97.19
389.163	87.19
389.387	89.19
389.612	88.19
389.837	93.19
390.062	100.19
390.287	107.19
390.512	99.19
390.736	99.19
390.961	102.19
391.186	88.19
391.411	101.19
391.636	89.19
391.86	98.19
392.085	102.19
392.31	90.19
392.534	102.19
392.759	100.19
392.984	88.19
393.208	89.19
393.433	98.19
393.658	92.19
393.882	90.19
394.107	98.19
394.331	83.19
394.556	81.19
394.78	95.19
395.005	93.19
395.229	103.19
395.454	96.19
395.678	89.19
395.903	90.19
396.127	102.19
396.352	93.19
396.576	105.19
396.801	100.19
397.025	100.19
397.249	107.19
397.474	82.19
397.698	82.19
397.922	103.19
398.147	97.19
398.371	95.19
398.595	94.19
398.82	98.19
399.044	101.19
399.268	102.19
399.492	104.19
399.717	107.19
399.941	92.19
400.165	99.19
400.389	95.19
400.613	94.19
400.837	105.19
401.062	95.19
401.286	98.19
401.51	99.19
401.734	104.19
401.958	92.19
402.182	95.19
402.406	97.19
402.63	89.19
402.854	95.19
403.078	95.19
403.302	94.19
403.526	84.19
403.75	104.19
403.974	102.19
404.198	83.19
404.422	85.19
404.645	102.19
404.869	102.19
405.093	100.19
405.317	99.19
405.541	104.19
405.765	87.19
405.988	100.19
406.212	107.19
406.436	99.19
406.66	106.19
406.883	87.19
407.107	98.19
407.331	98.19
407.555	97.19
407.778	97.19
408.002	109.19
408.226	97.19
408.449	99.19
408.673	92.19
408.896	108.19
409.12	78.19
409.344	101.19
409.567	99.19
409.791	104.19
410.014	92.19
410.238	108.19
410.461	106.19
410.685	98.19
410.908	83.19
411.132	101.19
411.355	102.19
411.578	94.19
411.802	99.19
412.025	102.19
412.249	106.19
412.472	91.19
412.695	97.19
412.919	112.19
413.142	94.19
413.365	101.19
413.589	91.19
413.812	88.19
414.035	96.19
414.258	96.19
414.482	92.19
414.705	96.19
414.928	96.19
415.151	100.19
415.374	97.19
415.597	89.19
415.821	95.19
416.044	100.19
416.267	93.19
416.49	90.19
416.713	103.19
416.936	99.19
417.159	98.19
417.382	98.19
417.605	93.19
417.828	84.19
418.051	95.19
418.274	98.19
418.497	107.19
418.72	88.19
418.943	97.19
419.166	85.19
419.389	90.19
419.611	115.19
419.834	99.19
420.057	105.19
420.28	90.19
420.503	82.19
420.726	108.19
420.948	97.19
421.171	104.19
421.394	83.19
421.617	113.19
421.839	91.19
422.062	98.19
422.285	99.19
422.507	90.19
422.73	93.19
422.953	107.19
423.175	113.19
423.398	96.19
423.621	98.19
423.843	100.19
424.066	108.19
424.288	90.19
424.511	97.19
424.733	80.19
424.956	98.19
425.178	112.19
425.401	100.19
425.623	106.19
425.846	110.19
426.068	108.19
426.291	86.19
426.513	101.19
426.735	97.19
426.958	88.19
427.18	95.19
427.402	95.19
427.625	82.19
427.847	94.19
428.069	90.19
428.292	98.19
428.514	90.19
428.736	97.19
428.958	103.19
429.181	94.19
429.403	80.19
429.625	91.19
429.847	88.19
430.069	93.19
430.292	87.19
430.514	87.19
430.736	74.19
430.958	103.19
431.18	95.19
431.402	88.19
431.624	94.19
431.846	92.19
432.068	90.19
432.29	97.19
432.512	112.19
432.734	91.19
432.956	94.19
433.178	95.19
433.4	102.19
433.622	89.19
433.844	108.19
434.066	105.19
434.287	88.19
434.509	103.19
434.731	104.19
434.953	108.19
435.175	101.19
435.397	95.19
435.618	108.19
435.84	81.19
436.062	101.19
436.284	102.19
436.505	98.19
436.727	97.19
436.949	112.19
437.17	98.19
437.392	106.19
437.614	88.19
437.835	87.19
438.057	92.19
438.278	83.19
438.5	85.19
438.721	76.19
438.943	95.19
439.165	94.19
439.386	103.19
439.608	77.19
439.829	91.19
440.05	85.19
440.272	107.19
440.493	102.19
440.715	88.19
440.936	88.19
441.158	103.19
441.379	94.19
441.6	96.19
441.822	92.19
442.043	110.19
442.264	107.19
442.486	91.19
442.707	104.19
442.928	87.19
443.149	96.19
443.371	94.19
443.592	99.19
443.813	102.19
444.034	95.19
444.255	96.19
444.476	96.19
444.698	104.19
444.919	107.19
445.14	216.19
445.361	156.19
445.582	113.19
445.803	103.19
446.024	90.19
446.245	106.19
446.466	91.19
446.687	101.19
446.908	106.19
447.129	95.19
447.35	86.19
447.571	96.19
447.792	95.19
448.013	97.19
448.234	80.19
448.455	94.19
448.675	74.19
448.896	97.19
449.117	90.19
449.338	99.19
449.559	91.19
449.779	95.19
450	105.19
450.221	93.19
450.442	93.19
450.662	87.19
450.883	96.19
451.104	97.19
451.324	84.19
451.545	106.19
451.766	76.19
451.986	86.19
452.207	83.19
452.428	99.19
452.648	90.19
452.869	94.19
453.089	80.19
453.31	79.19
453.53	79.19
453.751	84.19
453.971	97.19
454.192	100.19
454.412	100.19
454.633	100.19
454.853	100.19
455.073	93.19
455.294	99.19
455.514	93.19
455.734	90.19
455.955	97.19
456.175	95.19
456.395	110.19
456.616	82.19
456.836	103.19
457.056	91.19
457.276	99.19
457.497	89.19
457.717	100.19
457.937	93.19
458.157	96.19
458.377	116.19
458.598	89.19
458.818	82.19
459.038	79.19
459.258	95.19
459.478	90.19
459.698	95.19
459.918	98.19
460.138	87.19
460.358	88.19
460.578	119.19
460.798	97.19
461.018	102.19
461.238	89.19
461.458	102.19
461.678	109.19
461.898	92.19
462.118	107.19
462.338	100.19
462.558	105.19
462.777	105.19
462.997	105.19
463.217	97.19
463.437	115.19
463.657	97.19
463.876	97.19
464.096	100.19
464.316	110.19
464.536	90.19
464.755	112.19
464.975	100.19
465.195	91.19
465.414	100.19
465.634	97.19
465.854	102.19
466.073	84.19
466.293	89.19
466.512	88.19
466.732	99.19
466.951	101.19
467.171	95.19
467.391	94.19
467.61	98.19
467.829	94.19
468.049	104.19
468.268	93.19
468.488	107.19
468.707	105.19
468.927	104.19
469.146	108.19
469.365	94.19
469.585	91.19
469.804	86.19
470.023	99.19
470.243	103.19
470.462	91.19
470.681	98.19
470.901	106.19
471.12	101.19
471.339	102.19
471.558	106.19
471.777	95.19
471.997	106.19
472.216	97.19
472.435	97.19
472.654	83.19
472.873	112.19
473.092	98.19
473.311	110.19
473.53	87.19
473.749	94.19
473.968	98.19
474.187	93.19
474.406	84.19
474.625	86.19
474.844	92.19
475.063	87.19
475.282	102.19
475.501	93.19
475.72	104.19
475.939	95.19
476.158	94.19
476.377	102.19
476.596	98.19
476.814	97.19
477.033	102.19
477.252	92.19
477.471	96.19
477.69	95.19
477.908	93.19
478.127	107.19
478.346	91.19
478.564	111.19
478.783	83.19
479.002	98.19
479.22	97.19
479.439	81.19
479.658	96.19
479.876	115.19
480.095	112.19
480.313	114.19
480.532	107.19
480.751	108.19
480.969	111.19
481.188	104.19
481.406	108.19
481.624	102.19
481.843	89.19
482.061	98.19
482.28	112.19
482.498	111.19
482.717	91.19
482.935	98.19
483.153	114.19
483.372	99.19
483.59	101.19
483.808	102.19
484.027	90.19
484.245	102.19
484.463	104.19
484.681	120.19
484.9	107.19
485.118	106.19
485.336	111.19
485.554	112.19
485.772	106.19
485.99	95.19
486.209	103.19
486.427	92.19
486.645	89.19
486.863	104.19
487.081	91.19
487.299	91.19
487.517	117.19
487.735	91.19
487.953	99.19
488.171	121.19
488.389	98.19
488.607	104.19
488.825	120.19
489.043	116.19
489.261	111.19
489.479	103.19
489.696	87.19
489.914	106.19
490.132	99.19
490.35	113.19
490.568	94.19
490.786	106.19
491.003	117.19
491.221	89.19
491.439	118.19
491.657	111.19
491.874	112.19
492.092	106.19
492.31	120.19
492.527	107.19
492.745	104.19
492.963	111.19
493.18	110.19
493.398	108.19
493.615	109.19
493.833	104.19
494.05	105.19
494.268	101.19
494.485	119.19
494.703	88.19
494.92	125.19
495.138	93.19
495.355	99.19
495.573	99.19
495.79	120.19
496.008	115.19
496.225	98.19
496.442	103.19
496.66	126.19
496.877	92.19
497.094	116.19
497.312	98.19
497.529	121.19
497.746	120.19
497.963	126.19
498.181	88.19
498.398	104.19
498.615	124.19
498.832	114.19
499.049	118.19
499.267	129.19
499.484	131.19
499.701	137.19
499.918	131.19
500.135	140.19
500.352	146.19
500.569	172.19
500.786	163.19
501.003	160.19
501.22	138.19
501.437	128.19
501.654	119.19
501.871	129.19
502.088	113.19
502.305	125.19
502.522	126.19
502.739	106.19
502.956	142.19
503.172	123.19
503.389	103.19
503.606	116.19
503.823	107.19
504.04	121.19
504.256	110.19
504.473	106.19
504.69	112.19
504.907	114.19
505.123	97.19
505.34	112.19
505.557	110.19
505.773	119.19
505.99	97.19
506.207	97.19
506.423	97.19
506.64	103.19
506.856	89.19
507.073	97.19
507.289	124.19
507.506	114.19
507.722	110.19
507.939	105.19
508.155	102.19
508.372	101.19
508.588	96.19
508.805	103.19
509.021	98.19
509.238	106.19
509.454	112.19
509.67	99.19
509.887	98.19
510.103	116.19
510.319	105.19
510.536	105.19
510.752	94.19
510.968	97.19
511.184	98.19
511.401	97.19
511.617	108.19
511.833	109.19
512.049	97.19
512.265	98.19
512.481	113.19
512.698	102.19
512.914	88.19
513.13	100.19
513.346	83.19
513.562	94.19
513.778	111.19
513.994	97.19
514.21	107.19
514.426	92.19
514.642	106.19
514.858	91.19
515.074	114.19
