Data from Location5.07152019.Energy5.Lamp.07192019.3%Agarose_HRD10591_15-37-30-386.txt Node
Date: Fri Jul 19 15:37:30 EDT 2019
User: cochatt
Spectrometer: HR+D1059
Trigger mode: 1
Integration Time (sec): 1.000000E-1
Scans to average: 1
Electric dark correction enabled: true
Nonlinearity correction enabled: false
Boxcar width: 0
XAxis mode: Wavelengths
Number of Pixels in Spectrum: 2048
>>>>>Begin Spectral Data<<<<<
223.165	8.19
223.4	8.19
223.635	8.19
223.869	-22.81
224.104	-5.81
224.338	-22.81
224.573	8.19
224.808	-26.81
225.042	-18.81
225.277	-10.81
225.511	15.19
225.746	2.19
225.98	2.19
226.215	10.19
226.449	-1.81
226.683	19.19
226.918	20.19
227.152	24.19
227.387	32.19
227.621	28.19
227.856	40.19
228.09	39.19
228.324	53.19
228.559	58.19
228.793	59.19
229.027	70.19
229.262	65.19
229.496	64.19
229.73	68.19
229.964	63.19
230.199	73.19
230.433	70.19
230.667	71.19
230.901	68.19
231.136	73.19
231.37	85.19
231.604	70.19
231.838	63.19
232.072	72.19
232.306	75.19
232.541	75.19
232.775	82.19
233.009	75.19
233.243	83.19
233.477	88.19
233.711	90.19
233.945	92.19
234.179	77.19
234.413	78.19
234.647	59.19
234.881	73.19
235.115	79.19
235.349	74.19
235.583	74.19
235.817	81.19
236.051	85.19
236.285	80.19
236.519	97.19
236.753	82.19
236.987	77.19
237.221	60.19
237.455	80.19
237.689	74.19
237.922	69.19
238.156	65.19
238.39	74.19
238.624	70.19
238.858	73.19
239.091	82.19
239.325	65.19
239.559	74.19
239.793	71.19
240.027	77.19
240.26	67.19
240.494	73.19
240.728	71.19
240.961	61.19
241.195	61.19
241.429	90.19
241.662	75.19
241.896	76.19
242.13	67.19
242.363	74.19
242.597	85.19
242.83	77.19
243.064	72.19
243.298	82.19
243.531	81.19
243.765	70.19
243.998	83.19
244.232	91.19
244.465	70.19
244.699	73.19
244.932	76.19
245.166	78.19
245.399	79.19
245.633	73.19
245.866	67.19
246.099	88.19
246.333	75.19
246.566	90.19
246.8	69.19
247.033	84.19
247.266	64.19
247.5	94.19
247.733	76.19
247.966	71.19
248.2	64.19
248.433	74.19
248.666	82.19
248.899	87.19
249.133	79.19
249.366	77.19
249.599	78.19
249.832	68.19
250.066	78.19
250.299	85.19
250.532	71.19
250.765	75.19
250.998	81.19
251.231	69.19
251.465	73.19
251.698	78.19
251.931	81.19
252.164	82.19
252.397	79.19
252.63	92.19
252.863	74.19
253.096	77.19
253.329	85.19
253.562	87.19
253.795	68.19
254.028	83.19
254.261	93.19
254.494	78.19
254.727	92.19
254.96	70.19
255.193	85.19
255.426	78.19
255.659	81.19
255.892	80.19
256.124	77.19
256.357	78.19
256.59	80.19
256.823	82.19
257.056	81.19
257.289	71.19
257.521	67.19
257.754	78.19
257.987	82.19
258.22	75.19
258.452	85.19
258.685	71.19
258.918	80.19
259.151	86.19
259.383	79.19
259.616	69.19
259.849	80.19
260.081	84.19
260.314	88.19
260.547	79.19
260.779	80.19
261.012	87.19
261.244	86.19
261.477	83.19
261.71	85.19
261.942	79.19
262.175	84.19
262.407	85.19
262.64	82.19
262.872	78.19
263.105	83.19
263.337	88.19
263.57	85.19
263.802	71.19
264.035	77.19
264.267	71.19
264.499	84.19
264.732	95.19
264.964	79.19
265.197	75.19
265.429	75.19
265.661	85.19
265.894	79.19
266.126	84.19
266.358	70.19
266.591	65.19
266.823	61.19
267.055	89.19
267.287	91.19
267.52	71.19
267.752	82.19
267.984	74.19
268.216	82.19
268.448	77.19
268.681	61.19
268.913	81.19
269.145	79.19
269.377	62.19
269.609	87.19
269.841	87.19
270.073	84.19
270.306	85.19
270.538	83.19
270.77	76.19
271.002	68.19
271.234	74.19
271.466	82.19
271.698	71.19
271.93	70.19
272.162	87.19
272.394	85.19
272.626	90.19
272.858	84.19
273.09	81.19
273.322	58.19
273.553	77.19
273.785	74.19
274.017	70.19
274.249	77.19
274.481	80.19
274.713	83.19
274.945	80.19
275.176	87.19
275.408	83.19
275.64	82.19
275.872	86.19
276.104	86.19
276.335	74.19
276.567	87.19
276.799	89.19
277.031	81.19
277.262	86.19
277.494	89.19
277.726	85.19
277.957	87.19
278.189	82.19
278.421	83.19
278.652	68.19
278.884	88.19
279.115	84.19
279.347	92.19
279.579	80.19
279.81	82.19
280.042	79.19
280.273	76.19
280.505	83.19
280.736	87.19
280.968	83.19
281.199	74.19
281.431	101.19
281.662	90.19
281.894	96.19
282.125	74.19
282.356	84.19
282.588	75.19
282.819	77.19
283.051	80.19
283.282	72.19
283.513	94.19
283.745	83.19
283.976	81.19
284.207	77.19
284.439	76.19
284.67	83.19
284.901	91.19
285.132	85.19
285.364	90.19
285.595	73.19
285.826	71.19
286.057	86.19
286.288	90.19
286.52	84.19
286.751	75.19
286.982	83.19
287.213	76.19
287.444	73.19
287.675	90.19
287.906	85.19
288.138	90.19
288.369	91.19
288.6	88.19
288.831	74.19
289.062	87.19
289.293	93.19
289.524	78.19
289.755	78.19
289.986	84.19
290.217	73.19
290.448	89.19
290.679	87.19
290.91	81.19
291.141	76.19
291.371	86.19
291.602	84.19
291.833	94.19
292.064	94.19
292.295	74.19
292.526	69.19
292.757	76.19
292.987	82.19
293.218	73.19
293.449	97.19
293.68	82.19
293.91	83.19
294.141	79.19
294.372	89.19
294.603	78.19
294.833	88.19
295.064	103.19
295.295	86.19
295.525	96.19
295.756	83.19
295.987	89.19
296.217	89.19
296.448	102.19
296.679	104.19
296.909	80.19
297.14	72.19
297.37	87.19
297.601	95.19
297.831	69.19
298.062	80.19
298.292	100.19
298.523	83.19
298.753	90.19
298.984	91.19
299.214	88.19
299.445	79.19
299.675	90.19
299.905	92.19
300.136	74.19
300.366	82.19
300.597	93.19
300.827	85.19
301.057	90.19
301.288	76.19
301.518	93.19
301.748	98.19
301.979	75.19
302.209	84.19
302.439	77.19
302.669	72.19
302.9	86.19
303.13	97.19
303.36	87.19
303.59	79.19
303.82	77.19
304.051	91.19
304.281	79.19
304.511	92.19
304.741	81.19
304.971	74.19
305.201	87.19
305.431	74.19
305.661	73.19
305.891	78.19
306.121	90.19
306.352	89.19
306.582	70.19
306.812	77.19
307.042	77.19
307.272	78.19
307.502	100.19
307.731	78.19
307.961	85.19
308.191	73.19
308.421	84.19
308.651	90.19
308.881	96.19
309.111	85.19
309.341	88.19
309.571	87.19
309.8	83.19
310.03	85.19
310.26	97.19
310.49	88.19
310.72	88.19
310.949	88.19
311.179	94.19
311.409	84.19
311.639	89.19
311.868	91.19
312.098	86.19
312.328	81.19
312.557	86.19
312.787	89.19
313.017	74.19
313.246	81.19
313.476	76.19
313.706	91.19
313.935	100.19
314.165	80.19
314.394	82.19
314.624	79.19
314.853	73.19
315.083	92.19
315.312	73.19
315.542	74.19
315.771	65.19
316.001	80.19
316.23	91.19
316.46	87.19
316.689	93.19
316.919	68.19
317.148	87.19
317.377	88.19
317.607	98.19
317.836	77.19
318.065	80.19
318.295	79.19
318.524	61.19
318.753	76.19
318.983	88.19
319.212	93.19
319.441	97.19
319.67	82.19
319.9	80.19
320.129	82.19
320.358	90.19
320.587	91.19
320.816	80.19
321.046	65.19
321.275	98.19
321.504	87.19
321.733	81.19
321.962	82.19
322.191	83.19
322.42	69.19
322.649	80.19
322.878	91.19
323.108	93.19
323.337	83.19
323.566	85.19
323.795	81.19
324.024	74.19
324.253	86.19
324.482	87.19
324.71	82.19
324.939	82.19
325.168	89.19
325.397	86.19
325.626	74.19
325.855	95.19
326.084	87.19
326.313	86.19
326.542	86.19
326.77	82.19
326.999	93.19
327.228	97.19
327.457	79.19
327.686	84.19
327.914	79.19
328.143	84.19
328.372	79.19
328.6	78.19
328.829	80.19
329.058	74.19
329.287	88.19
329.515	93.19
329.744	93.19
329.972	79.19
330.201	68.19
330.43	87.19
330.658	90.19
330.887	97.19
331.115	77.19
331.344	90.19
331.572	86.19
331.801	75.19
332.03	95.19
332.258	95.19
332.486	80.19
332.715	69.19
332.943	88.19
333.172	87.19
333.4	96.19
333.629	75.19
333.857	81.19
334.085	72.19
334.314	82.19
334.542	95.19
334.771	78.19
334.999	79.19
335.227	85.19
335.455	85.19
335.684	71.19
335.912	82.19
336.14	79.19
336.369	76.19
336.597	85.19
336.825	79.19
337.053	82.19
337.281	88.19
337.51	82.19
337.738	85.19
337.966	79.19
338.194	80.19
338.422	81.19
338.65	76.19
338.878	80.19
339.106	90.19
339.334	96.19
339.562	73.19
339.79	77.19
340.018	79.19
340.246	86.19
340.474	87.19
340.702	90.19
340.93	73.19
341.158	85.19
341.386	77.19
341.614	84.19
341.842	75.19
342.07	90.19
342.298	72.19
342.526	81.19
342.754	84.19
342.981	78.19
343.209	75.19
343.437	82.19
343.665	89.19
343.893	90.19
344.12	92.19
344.348	81.19
344.576	80.19
344.804	90.19
345.031	88.19
345.259	87.19
345.487	82.19
345.714	70.19
345.942	78.19
346.17	96.19
346.397	86.19
346.625	86.19
346.853	81.19
347.08	82.19
347.308	81.19
347.535	80.19
347.763	81.19
347.99	95.19
348.218	97.19
348.445	83.19
348.673	85.19
348.9	88.19
349.128	78.19
349.355	73.19
349.583	88.19
349.81	84.19
350.037	81.19
350.265	89.19
350.492	90.19
350.72	85.19
350.947	78.19
351.174	65.19
351.402	89.19
351.629	86.19
351.856	82.19
352.083	77.19
352.311	85.19
352.538	89.19
352.765	86.19
352.992	83.19
353.22	81.19
353.447	85.19
353.674	74.19
353.901	83.19
354.128	86.19
354.355	87.19
354.583	79.19
354.81	87.19
355.037	79.19
355.264	93.19
355.491	86.19
355.718	73.19
355.945	73.19
356.172	70.19
356.399	88.19
356.626	81.19
356.853	79.19
357.08	96.19
357.307	110.19
357.534	91.19
357.761	80.19
357.988	75.19
358.215	79.19
358.441	86.19
358.668	79.19
358.895	94.19
359.122	95.19
359.349	69.19
359.576	77.19
359.802	70.19
360.029	85.19
360.256	84.19
360.483	90.19
360.709	96.19
360.936	90.19
361.163	80.19
361.39	86.19
361.616	81.19
361.843	75.19
362.07	78.19
362.296	91.19
362.523	94.19
362.749	78.19
362.976	82.19
363.203	90.19
363.429	92.19
363.656	79.19
363.882	89.19
364.109	82.19
364.335	88.19
364.562	80.19
364.788	84.19
365.015	79.19
365.241	80.19
365.468	75.19
365.694	85.19
365.92	85.19
366.147	98.19
366.373	84.19
366.599	88.19
366.826	90.19
367.052	72.19
367.278	92.19
367.505	94.19
367.731	102.19
367.957	83.19
368.184	96.19
368.41	79.19
368.636	84.19
368.862	92.19
369.089	84.19
369.315	91.19
369.541	86.19
369.767	82.19
369.993	84.19
370.219	77.19
370.445	75.19
370.672	78.19
370.898	71.19
371.124	94.19
371.35	90.19
371.576	95.19
371.802	88.19
372.028	87.19
372.254	77.19
372.48	92.19
372.706	78.19
372.932	84.19
373.158	76.19
373.384	89.19
373.61	78.19
373.835	81.19
374.061	79.19
374.287	78.19
374.513	103.19
374.739	82.19
374.965	87.19
375.191	86.19
375.416	98.19
375.642	76.19
375.868	71.19
376.094	90.19
376.319	86.19
376.545	84.19
376.771	93.19
376.997	79.19
377.222	75.19
377.448	79.19
377.674	102.19
377.899	93.19
378.125	88.19
378.35	81.19
378.576	72.19
378.802	78.19
379.027	80.19
379.253	68.19
379.478	79.19
379.704	92.19
379.929	76.19
380.155	82.19
380.38	95.19
380.606	91.19
380.831	92.19
381.057	84.19
381.282	92.19
381.507	93.19
381.733	87.19
381.958	76.19
382.184	87.19
382.409	83.19
382.634	82.19
382.86	81.19
383.085	86.19
383.31	88.19
383.535	85.19
383.761	66.19
383.986	80.19
384.211	85.19
384.436	94.19
384.662	82.19
384.887	83.19
385.112	78.19
385.337	101.19
385.562	86.19
385.787	83.19
386.013	106.19
386.238	84.19
386.463	90.19
386.688	81.19
386.913	89.19
387.138	86.19
387.363	82.19
387.588	75.19
387.813	98.19
388.038	87.19
388.263	88.19
388.488	91.19
388.713	90.19
388.938	87.19
389.163	84.19
389.387	70.19
389.612	87.19
389.837	68.19
390.062	96.19
390.287	102.19
390.512	91.19
390.736	89.19
390.961	85.19
391.186	82.19
391.411	82.19
391.636	78.19
391.86	81.19
392.085	78.19
392.31	86.19
392.534	82.19
392.759	87.19
392.984	73.19
393.208	96.19
393.433	86.19
393.658	97.19
393.882	102.19
394.107	76.19
394.331	87.19
394.556	88.19
394.78	72.19
395.005	87.19
395.229	83.19
395.454	95.19
395.678	70.19
395.903	86.19
396.127	77.19
396.352	78.19
396.576	72.19
396.801	87.19
397.025	90.19
397.249	81.19
397.474	88.19
397.698	106.19
397.922	88.19
398.147	90.19
398.371	82.19
398.595	82.19
398.82	89.19
399.044	75.19
399.268	77.19
399.492	100.19
399.717	73.19
399.941	98.19
400.165	87.19
400.389	81.19
400.613	82.19
400.837	96.19
401.062	84.19
401.286	72.19
401.51	84.19
401.734	83.19
401.958	85.19
402.182	81.19
402.406	99.19
402.63	84.19
402.854	89.19
403.078	75.19
403.302	86.19
403.526	87.19
403.75	76.19
403.974	77.19
404.198	85.19
404.422	89.19
404.645	83.19
404.869	78.19
405.093	103.19
405.317	94.19
405.541	88.19
405.765	81.19
405.988	93.19
406.212	90.19
406.436	97.19
406.66	99.19
406.883	94.19
407.107	104.19
407.331	71.19
407.555	84.19
407.778	73.19
408.002	80.19
408.226	73.19
408.449	87.19
408.673	93.19
408.896	90.19
409.12	84.19
409.344	95.19
409.567	80.19
409.791	73.19
410.014	89.19
410.238	86.19
410.461	86.19
410.685	91.19
410.908	87.19
411.132	90.19
411.355	98.19
411.578	104.19
411.802	86.19
412.025	86.19
412.249	91.19
412.472	84.19
412.695	79.19
412.919	75.19
413.142	76.19
413.365	86.19
413.589	92.19
413.812	79.19
414.035	107.19
414.258	90.19
414.482	77.19
414.705	91.19
414.928	79.19
415.151	86.19
415.374	90.19
415.597	78.19
415.821	83.19
416.044	91.19
416.267	72.19
416.49	81.19
416.713	88.19
416.936	88.19
417.159	76.19
417.382	84.19
417.605	93.19
417.828	109.19
418.051	103.19
418.274	85.19
418.497	94.19
418.72	97.19
418.943	86.19
419.166	84.19
419.389	82.19
419.611	84.19
419.834	83.19
420.057	87.19
420.28	97.19
420.503	101.19
420.726	89.19
420.948	94.19
421.171	95.19
421.394	97.19
421.617	103.19
421.839	93.19
422.062	85.19
422.285	85.19
422.507	87.19
422.73	89.19
422.953	80.19
423.175	91.19
423.398	96.19
423.621	103.19
423.843	88.19
424.066	91.19
424.288	87.19
424.511	93.19
424.733	83.19
424.956	88.19
425.178	77.19
425.401	96.19
425.623	92.19
425.846	88.19
426.068	80.19
426.291	88.19
426.513	86.19
426.735	94.19
426.958	88.19
427.18	81.19
427.402	80.19
427.625	92.19
427.847	96.19
428.069	100.19
428.292	95.19
428.514	89.19
428.736	98.19
428.958	119.19
429.181	97.19
429.403	97.19
429.625	98.19
429.847	97.19
430.069	97.19
430.292	100.19
430.514	96.19
430.736	77.19
430.958	88.19
431.18	95.19
431.402	92.19
431.624	89.19
431.846	82.19
432.068	85.19
432.29	97.19
432.512	74.19
432.734	81.19
432.956	87.19
433.178	96.19
433.4	99.19
433.622	88.19
433.844	76.19
434.066	107.19
434.287	86.19
434.509	82.19
434.731	84.19
434.953	78.19
435.175	82.19
435.397	86.19
435.618	101.19
435.84	92.19
436.062	79.19
436.284	78.19
436.505	82.19
436.727	97.19
436.949	89.19
437.17	98.19
437.392	94.19
437.614	98.19
437.835	97.19
438.057	95.19
438.278	96.19
438.5	77.19
438.721	82.19
438.943	93.19
439.165	104.19
439.386	104.19
439.608	87.19
439.829	91.19
440.05	99.19
440.272	104.19
440.493	100.19
440.715	102.19
440.936	94.19
441.158	105.19
441.379	82.19
441.6	94.19
441.822	96.19
442.043	88.19
442.264	85.19
442.486	90.19
442.707	90.19
442.928	89.19
443.149	97.19
443.371	94.19
443.592	79.19
443.813	87.19
444.034	100.19
444.255	89.19
444.476	92.19
444.698	92.19
444.919	100.19
445.14	218.19
445.361	129.19
445.582	97.19
445.803	100.19
446.024	103.19
446.245	92.19
446.466	88.19
446.687	86.19
446.908	108.19
447.129	97.19
447.35	94.19
447.571	110.19
447.792	92.19
448.013	89.19
448.234	77.19
448.455	94.19
448.675	94.19
448.896	97.19
449.117	89.19
449.338	86.19
449.559	86.19
449.779	83.19
450	106.19
450.221	95.19
450.442	111.19
450.662	99.19
450.883	78.19
451.104	98.19
451.324	110.19
451.545	100.19
451.766	94.19
451.986	101.19
452.207	97.19
452.428	105.19
452.648	92.19
452.869	78.19
453.089	83.19
453.31	77.19
453.53	91.19
453.751	86.19
453.971	78.19
454.192	86.19
454.412	83.19
454.633	89.19
454.853	90.19
455.073	96.19
455.294	96.19
455.514	78.19
455.734	102.19
455.955	86.19
456.175	104.19
456.395	84.19
456.616	76.19
456.836	87.19
457.056	99.19
457.276	85.19
457.497	83.19
457.717	86.19
457.937	77.19
458.157	88.19
458.377	87.19
458.598	95.19
458.818	78.19
459.038	75.19
459.258	78.19
459.478	96.19
459.698	83.19
459.918	98.19
460.138	88.19
460.358	87.19
460.578	94.19
460.798	91.19
461.018	91.19
461.238	101.19
461.458	89.19
461.678	89.19
461.898	85.19
462.118	99.19
462.338	86.19
462.558	86.19
462.777	84.19
462.997	81.19
463.217	95.19
463.437	87.19
463.657	98.19
463.876	75.19
464.096	77.19
464.316	74.19
464.536	79.19
464.755	94.19
464.975	84.19
465.195	91.19
465.414	95.19
465.634	89.19
465.854	93.19
466.073	79.19
466.293	101.19
466.512	94.19
466.732	91.19
466.951	93.19
467.171	76.19
467.391	101.19
467.61	109.19
467.829	83.19
468.049	79.19
468.268	94.19
468.488	94.19
468.707	97.19
468.927	102.19
469.146	99.19
469.365	81.19
469.585	103.19
469.804	93.19
470.023	95.19
470.243	101.19
470.462	106.19
470.681	101.19
470.901	99.19
471.12	86.19
471.339	74.19
471.558	113.19
471.777	96.19
471.997	104.19
472.216	88.19
472.435	95.19
472.654	84.19
472.873	75.19
473.092	93.19
473.311	95.19
473.53	102.19
473.749	91.19
473.968	103.19
474.187	97.19
474.406	78.19
474.625	86.19
474.844	88.19
475.063	97.19
475.282	86.19
475.501	92.19
475.72	84.19
475.939	106.19
476.158	97.19
476.377	91.19
476.596	95.19
476.814	90.19
477.033	82.19
477.252	94.19
477.471	89.19
477.69	79.19
477.908	87.19
478.127	74.19
478.346	95.19
478.564	92.19
478.783	103.19
479.002	107.19
479.22	93.19
479.439	93.19
479.658	87.19
479.876	87.19
480.095	98.19
480.313	87.19
480.532	94.19
480.751	84.19
480.969	81.19
481.188	82.19
481.406	87.19
481.624	70.19
481.843	102.19
482.061	87.19
482.28	78.19
482.498	89.19
482.717	85.19
482.935	102.19
483.153	100.19
483.372	93.19
483.59	93.19
483.808	97.19
484.027	104.19
484.245	81.19
484.463	93.19
484.681	109.19
484.9	99.19
485.118	93.19
485.336	90.19
485.554	87.19
485.772	88.19
485.99	82.19
486.209	84.19
486.427	94.19
486.645	95.19
486.863	81.19
487.081	82.19
487.299	92.19
487.517	96.19
487.735	98.19
487.953	104.19
488.171	117.19
488.389	123.19
488.607	105.19
488.825	90.19
489.043	88.19
489.261	96.19
489.479	87.19
489.696	104.19
489.914	99.19
490.132	94.19
490.35	110.19
490.568	105.19
490.786	103.19
491.003	104.19
491.221	99.19
491.439	107.19
491.657	120.19
491.874	102.19
492.092	123.19
492.31	122.19
492.527	129.19
492.745	111.19
492.963	103.19
493.18	107.19
493.398	107.19
493.615	99.19
493.833	96.19
494.05	106.19
494.268	107.19
494.485	113.19
494.703	96.19
494.92	103.19
495.138	101.19
495.355	109.19
495.573	120.19
495.79	109.19
496.008	101.19
496.225	103.19
496.442	106.19
496.66	112.19
496.877	91.19
497.094	95.19
497.312	97.19
497.529	94.19
497.746	104.19
497.963	107.19
498.181	88.19
498.398	95.19
498.615	78.19
498.832	102.19
499.049	96.19
499.267	83.19
499.484	80.19
499.701	97.19
499.918	100.19
500.135	92.19
500.352	116.19
500.569	92.19
500.786	98.19
501.003	92.19
501.22	93.19
501.437	90.19
501.654	100.19
501.871	82.19
502.088	88.19
502.305	74.19
502.522	79.19
502.739	103.19
502.956	90.19
503.172	82.19
503.389	96.19
503.606	83.19
503.823	95.19
504.04	81.19
504.256	95.19
504.473	89.19
504.69	99.19
504.907	79.19
505.123	92.19
505.34	85.19
505.557	81.19
505.773	79.19
505.99	96.19
506.207	96.19
506.423	91.19
506.64	106.19
506.856	93.19
507.073	86.19
507.289	79.19
507.506	96.19
507.722	92.19
507.939	92.19
508.155	80.19
508.372	77.19
508.588	88.19
508.805	87.19
509.021	81.19
509.238	87.19
509.454	75.19
509.67	99.19
509.887	81.19
510.103	90.19
510.319	87.19
510.536	80.19
510.752	72.19
510.968	83.19
511.184	81.19
511.401	79.19
511.617	85.19
511.833	71.19
512.049	79.19
512.265	89.19
512.481	80.19
512.698	90.19
512.914	73.19
513.13	74.19
513.346	81.19
513.562	68.19
513.778	96.19
513.994	92.19
514.21	89.19
514.426	88.19
514.642	86.19
514.858	83.19
515.074	83.19
515.29	82.19
515.506	86.19
515.721	73.19
515.937	86.19
516.153	97.19
516.369	77.19
516.585	66.19
516.801	79.19
517.016	80.19
517.232	91.19
517.448	95.19
517.664	91.19
517.879	80.19
518.095	88.19
