Data from Location5.07152019.Energy5.Lamp.07192019.3%Agarose_HRD10591_16-02-28-627.txt Node
Date: Fri Jul 19 16:02:28 EDT 2019
User: cochatt
Spectrometer: HR+D1059
Trigger mode: 1
Integration Time (sec): 1.000000E-1
Scans to average: 1
Electric dark correction enabled: true
Nonlinearity correction enabled: false
Boxcar width: 0
XAxis mode: Wavelengths
Number of Pixels in Spectrum: 2048
>>>>>Begin Spectral Data<<<<<
223.165	-10.31
223.4	-10.31
223.635	-10.31
223.869	-18.31
224.104	-26.31
224.338	-19.31
224.573	-21.31
224.808	-19.31
225.042	-6.31
225.277	-16.31
225.511	5.69
225.746	2.69
225.98	6.69
226.215	15.69
226.449	20.69
226.683	22.69
226.918	25.69
227.152	37.69
227.387	42.69
227.621	28.69
227.856	50.69
228.09	41.69
228.324	46.69
228.559	46.69
228.793	51.69
229.027	51.69
229.262	66.69
229.496	71.69
229.73	75.69
229.964	67.69
230.199	74.69
230.433	71.69
230.667	75.69
230.901	83.69
231.136	76.69
231.37	82.69
231.604	84.69
231.838	93.69
232.072	71.69
232.306	79.69
232.541	84.69
232.775	82.69
233.009	74.69
233.243	83.69
233.477	74.69
233.711	79.69
233.945	77.69
234.179	78.69
234.413	80.69
234.647	81.69
234.881	71.69
235.115	94.69
235.349	76.69
235.583	88.69
235.817	68.69
236.051	85.69
236.285	81.69
236.519	77.69
236.753	84.69
236.987	94.69
237.221	71.69
237.455	90.69
237.689	76.69
237.922	61.69
238.156	83.69
238.39	82.69
238.624	96.69
238.858	68.69
239.091	63.69
239.325	66.69
239.559	79.69
239.793	70.69
240.027	86.69
240.26	80.69
240.494	82.69
240.728	82.69
240.961	83.69
241.195	70.69
241.429	62.69
241.662	90.69
241.896	61.69
242.13	64.69
242.363	69.69
242.597	79.69
242.83	86.69
243.064	81.69
243.298	82.69
243.531	80.69
243.765	88.69
243.998	81.69
244.232	55.69
244.465	86.69
244.699	73.69
244.932	84.69
245.166	72.69
245.399	81.69
245.633	67.69
245.866	74.69
246.099	85.69
246.333	79.69
246.566	75.69
246.8	69.69
247.033	81.69
247.266	80.69
247.5	89.69
247.733	98.69
247.966	76.69
248.2	64.69
248.433	62.69
248.666	72.69
248.899	82.69
249.133	80.69
249.366	90.69
249.599	69.69
249.832	81.69
250.066	81.69
250.299	94.69
250.532	97.69
250.765	92.69
250.998	82.69
251.231	79.69
251.465	85.69
251.698	80.69
251.931	83.69
252.164	78.69
252.397	85.69
252.63	85.69
252.863	79.69
253.096	80.69
253.329	81.69
253.562	78.69
253.795	81.69
254.028	81.69
254.261	75.69
254.494	85.69
254.727	88.69
254.96	76.69
255.193	81.69
255.426	80.69
255.659	80.69
255.892	89.69
256.124	90.69
256.357	76.69
256.59	87.69
256.823	73.69
257.056	76.69
257.289	88.69
257.521	88.69
257.754	83.69
257.987	81.69
258.22	80.69
258.452	71.69
258.685	93.69
258.918	90.69
259.151	90.69
259.383	90.69
259.616	89.69
259.849	82.69
260.081	75.69
260.314	87.69
260.547	69.69
260.779	92.69
261.012	82.69
261.244	82.69
261.477	100.69
261.71	75.69
261.942	95.69
262.175	89.69
262.407	71.69
262.64	77.69
262.872	89.69
263.105	85.69
263.337	79.69
263.57	82.69
263.802	79.69
264.035	100.69
264.267	87.69
264.499	86.69
264.732	88.69
264.964	84.69
265.197	82.69
265.429	97.69
265.661	74.69
265.894	78.69
266.126	81.69
266.358	86.69
266.591	81.69
266.823	85.69
267.055	67.69
267.287	95.69
267.52	87.69
267.752	90.69
267.984	74.69
268.216	73.69
268.448	91.69
268.681	87.69
268.913	82.69
269.145	81.69
269.377	81.69
269.609	89.69
269.841	80.69
270.073	67.69
270.306	76.69
270.538	99.69
270.77	88.69
271.002	95.69
271.234	74.69
271.466	77.69
271.698	87.69
271.93	82.69
272.162	82.69
272.394	88.69
272.626	82.69
272.858	87.69
273.09	90.69
273.322	83.69
273.553	85.69
273.785	84.69
274.017	95.69
274.249	91.69
274.481	81.69
274.713	95.69
274.945	84.69
275.176	72.69
275.408	81.69
275.64	70.69
275.872	80.69
276.104	77.69
276.335	71.69
276.567	85.69
276.799	83.69
277.031	88.69
277.262	91.69
277.494	80.69
277.726	88.69
277.957	80.69
278.189	86.69
278.421	94.69
278.652	81.69
278.884	75.69
279.115	92.69
279.347	85.69
279.579	84.69
279.81	83.69
280.042	95.69
280.273	91.69
280.505	81.69
280.736	77.69
280.968	85.69
281.199	94.69
281.431	81.69
281.662	88.69
281.894	75.69
282.125	93.69
282.356	89.69
282.588	92.69
282.819	80.69
283.051	97.69
283.282	82.69
283.513	88.69
283.745	88.69
283.976	90.69
284.207	91.69
284.439	92.69
284.67	100.69
284.901	95.69
285.132	90.69
285.364	87.69
285.595	95.69
285.826	83.69
286.057	73.69
286.288	87.69
286.52	75.69
286.751	89.69
286.982	93.69
287.213	97.69
287.444	93.69
287.675	105.69
287.906	67.69
288.138	99.69
288.369	84.69
288.6	95.69
288.831	73.69
289.062	90.69
289.293	93.69
289.524	99.69
289.755	85.69
289.986	86.69
290.217	90.69
290.448	86.69
290.679	75.69
290.91	88.69
291.141	94.69
291.371	93.69
291.602	91.69
291.833	79.69
292.064	85.69
292.295	66.69
292.526	85.69
292.757	88.69
292.987	102.69
293.218	93.69
293.449	92.69
293.68	101.69
293.91	97.69
294.141	84.69
294.372	88.69
294.603	94.69
294.833	86.69
295.064	103.69
295.295	95.69
295.525	102.69
295.756	96.69
295.987	85.69
296.217	93.69
296.448	98.69
296.679	75.69
296.909	78.69
297.14	80.69
297.37	75.69
297.601	97.69
297.831	96.69
298.062	81.69
298.292	81.69
298.523	84.69
298.753	89.69
298.984	95.69
299.214	102.69
299.445	116.69
299.675	87.69
299.905	93.69
300.136	81.69
300.366	98.69
300.597	97.69
300.827	98.69
301.057	89.69
301.288	90.69
301.518	75.69
301.748	87.69
301.979	93.69
302.209	106.69
302.439	91.69
302.669	84.69
302.9	84.69
303.13	88.69
303.36	87.69
303.59	82.69
303.82	100.69
304.051	90.69
304.281	92.69
304.511	94.69
304.741	94.69
304.971	88.69
305.201	96.69
305.431	97.69
305.661	77.69
305.891	86.69
306.121	91.69
306.352	93.69
306.582	110.69
306.812	91.69
307.042	93.69
307.272	86.69
307.502	92.69
307.731	90.69
307.961	85.69
308.191	76.69
308.421	80.69
308.651	77.69
308.881	103.69
309.111	91.69
309.341	86.69
309.571	103.69
309.8	95.69
310.03	98.69
310.26	104.69
310.49	79.69
310.72	85.69
310.949	88.69
311.179	102.69
311.409	103.69
311.639	94.69
311.868	94.69
312.098	107.69
312.328	86.69
312.557	85.69
312.787	79.69
313.017	90.69
313.246	94.69
313.476	98.69
313.706	102.69
313.935	96.69
314.165	75.69
314.394	83.69
314.624	94.69
314.853	93.69
315.083	82.69
315.312	80.69
315.542	99.69
315.771	85.69
316.001	93.69
316.23	107.69
316.46	89.69
316.689	90.69
316.919	78.69
317.148	74.69
317.377	75.69
317.607	90.69
317.836	79.69
318.065	81.69
318.295	98.69
318.524	85.69
318.753	90.69
318.983	92.69
319.212	87.69
319.441	85.69
319.67	95.69
319.9	102.69
320.129	103.69
320.358	83.69
320.587	86.69
320.816	96.69
321.046	91.69
321.275	93.69
321.504	91.69
321.733	97.69
321.962	88.69
322.191	99.69
322.42	106.69
322.649	78.69
322.878	95.69
323.108	102.69
323.337	98.69
323.566	92.69
323.795	92.69
324.024	85.69
324.253	77.69
324.482	97.69
324.71	103.69
324.939	106.69
325.168	85.69
325.397	105.69
325.626	101.69
325.855	99.69
326.084	88.69
326.313	95.69
326.542	82.69
326.77	95.69
326.999	88.69
327.228	82.69
327.457	86.69
327.686	84.69
327.914	91.69
328.143	82.69
328.372	78.69
328.6	105.69
328.829	100.69
329.058	87.69
329.287	98.69
329.515	89.69
329.744	96.69
329.972	99.69
330.201	97.69
330.43	95.69
330.658	90.69
330.887	98.69
331.115	93.69
331.344	82.69
331.572	113.69
331.801	86.69
332.03	96.69
332.258	103.69
332.486	94.69
332.715	87.69
332.943	89.69
333.172	87.69
333.4	86.69
333.629	95.69
333.857	87.69
334.085	110.69
334.314	109.69
334.542	82.69
334.771	107.69
334.999	86.69
335.227	100.69
335.455	111.69
335.684	86.69
335.912	97.69
336.14	106.69
336.369	90.69
336.597	100.69
336.825	97.69
337.053	84.69
337.281	91.69
337.51	89.69
337.738	81.69
337.966	103.69
338.194	91.69
338.422	82.69
338.65	92.69
338.878	110.69
339.106	90.69
339.334	87.69
339.562	95.69
339.79	90.69
340.018	89.69
340.246	93.69
340.474	91.69
340.702	90.69
340.93	93.69
341.158	82.69
341.386	95.69
341.614	87.69
341.842	95.69
342.07	91.69
342.298	81.69
342.526	91.69
342.754	92.69
342.981	93.69
343.209	89.69
343.437	86.69
343.665	79.69
343.893	100.69
344.12	104.69
344.348	89.69
344.576	93.69
344.804	100.69
345.031	88.69
345.259	99.69
345.487	84.69
345.714	97.69
345.942	88.69
346.17	94.69
346.397	87.69
346.625	88.69
346.853	92.69
347.08	87.69
347.308	91.69
347.535	97.69
347.763	95.69
347.99	88.69
348.218	101.69
348.445	90.69
348.673	92.69
348.9	85.69
349.128	102.69
349.355	95.69
349.583	86.69
349.81	90.69
350.037	106.69
350.265	76.69
350.492	96.69
350.72	82.69
350.947	102.69
351.174	88.69
351.402	91.69
351.629	90.69
351.856	102.69
352.083	95.69
352.311	103.69
352.538	92.69
352.765	87.69
352.992	81.69
353.22	96.69
353.447	79.69
353.674	90.69
353.901	88.69
354.128	90.69
354.355	88.69
354.583	79.69
354.81	85.69
355.037	82.69
355.264	85.69
355.491	89.69
355.718	76.69
355.945	91.69
356.172	86.69
356.399	95.69
356.626	91.69
356.853	100.69
357.08	87.69
357.307	99.69
357.534	95.69
357.761	91.69
357.988	79.69
358.215	95.69
358.441	97.69
358.668	95.69
358.895	93.69
359.122	79.69
359.349	96.69
359.576	82.69
359.802	93.69
360.029	94.69
360.256	109.69
360.483	90.69
360.709	103.69
360.936	102.69
361.163	73.69
361.39	90.69
361.616	97.69
361.843	79.69
362.07	80.69
362.296	101.69
362.523	96.69
362.749	87.69
362.976	79.69
363.203	120.69
363.429	87.69
363.656	104.69
363.882	99.69
364.109	103.69
364.335	90.69
364.562	79.69
364.788	96.69
365.015	86.69
365.241	87.69
365.468	86.69
365.694	86.69
365.92	94.69
366.147	97.69
366.373	82.69
366.599	104.69
366.826	91.69
367.052	99.69
367.278	84.69
367.505	108.69
367.731	86.69
367.957	87.69
368.184	89.69
368.41	84.69
368.636	91.69
368.862	86.69
369.089	89.69
369.315	99.69
369.541	94.69
369.767	78.69
369.993	99.69
370.219	105.69
370.445	95.69
370.672	105.69
370.898	74.69
371.124	85.69
371.35	89.69
371.576	98.69
371.802	84.69
372.028	81.69
372.254	85.69
372.48	88.69
372.706	87.69
372.932	81.69
373.158	100.69
373.384	95.69
373.61	87.69
373.835	83.69
374.061	78.69
374.287	93.69
374.513	96.69
374.739	83.69
374.965	81.69
375.191	96.69
375.416	97.69
375.642	98.69
375.868	105.69
376.094	91.69
376.319	86.69
376.545	111.69
376.771	94.69
376.997	100.69
377.222	91.69
377.448	82.69
377.674	82.69
377.899	90.69
378.125	82.69
378.35	91.69
378.576	104.69
378.802	77.69
379.027	94.69
379.253	102.69
379.478	97.69
379.704	98.69
379.929	96.69
380.155	79.69
380.38	88.69
380.606	101.69
380.831	85.69
381.057	98.69
381.282	109.69
381.507	89.69
381.733	91.69
381.958	85.69
382.184	96.69
382.409	87.69
382.634	99.69
382.86	102.69
383.085	87.69
383.31	90.69
383.535	96.69
383.761	90.69
383.986	74.69
384.211	86.69
384.436	81.69
384.662	77.69
384.887	93.69
385.112	95.69
385.337	97.69
385.562	94.69
385.787	98.69
386.013	109.69
386.238	95.69
386.463	93.69
386.688	110.69
386.913	72.69
387.138	90.69
387.363	98.69
387.588	101.69
387.813	92.69
388.038	86.69
388.263	101.69
388.488	87.69
388.713	92.69
388.938	93.69
389.163	98.69
389.387	94.69
389.612	82.69
389.837	99.69
390.062	93.69
390.287	83.69
390.512	104.69
390.736	80.69
390.961	104.69
391.186	102.69
391.411	88.69
391.636	88.69
391.86	95.69
392.085	118.69
392.31	97.69
392.534	89.69
392.759	98.69
392.984	109.69
393.208	83.69
393.433	107.69
393.658	95.69
393.882	106.69
394.107	106.69
394.331	95.69
394.556	89.69
394.78	98.69
395.005	88.69
395.229	93.69
395.454	91.69
395.678	106.69
395.903	90.69
396.127	95.69
396.352	111.69
396.576	102.69
396.801	109.69
397.025	96.69
397.249	95.69
397.474	90.69
397.698	95.69
397.922	102.69
398.147	93.69
398.371	95.69
398.595	88.69
398.82	99.69
399.044	102.69
399.268	113.69
399.492	101.69
399.717	113.69
399.941	101.69
400.165	106.69
400.389	108.69
400.613	89.69
400.837	97.69
401.062	100.69
401.286	100.69
401.51	99.69
401.734	101.69
401.958	91.69
402.182	86.69
402.406	96.69
402.63	91.69
402.854	99.69
403.078	85.69
403.302	104.69
403.526	101.69
403.75	97.69
403.974	110.69
404.198	105.69
404.422	103.69
404.645	95.69
404.869	94.69
405.093	95.69
405.317	110.69
405.541	101.69
405.765	78.69
405.988	105.69
406.212	99.69
406.436	88.69
406.66	105.69
406.883	96.69
407.107	94.69
407.331	103.69
407.555	112.69
407.778	105.69
408.002	113.69
408.226	109.69
408.449	106.69
408.673	108.69
408.896	102.69
409.12	110.69
409.344	93.69
409.567	111.69
409.791	109.69
410.014	109.69
410.238	97.69
410.461	94.69
410.685	104.69
410.908	97.69
411.132	105.69
411.355	110.69
411.578	101.69
411.802	122.69
412.025	104.69
412.249	85.69
412.472	97.69
412.695	94.69
412.919	94.69
413.142	96.69
413.365	100.69
413.589	94.69
413.812	105.69
414.035	111.69
414.258	84.69
414.482	91.69
414.705	109.69
414.928	107.69
415.151	81.69
415.374	106.69
415.597	86.69
415.821	98.69
416.044	94.69
416.267	96.69
416.49	97.69
416.713	97.69
416.936	93.69
417.159	92.69
417.382	93.69
417.605	93.69
417.828	97.69
418.051	110.69
418.274	106.69
418.497	105.69
418.72	114.69
418.943	88.69
419.166	103.69
419.389	97.69
419.611	100.69
419.834	101.69
420.057	102.69
420.28	80.69
420.503	99.69
420.726	90.69
420.948	109.69
421.171	101.69
421.394	94.69
421.617	83.69
421.839	94.69
422.062	85.69
422.285	97.69
422.507	86.69
422.73	101.69
422.953	95.69
423.175	110.69
423.398	92.69
423.621	102.69
423.843	93.69
424.066	102.69
424.288	90.69
424.511	90.69
424.733	81.69
424.956	102.69
425.178	104.69
425.401	100.69
425.623	92.69
425.846	96.69
426.068	106.69
426.291	87.69
426.513	97.69
426.735	102.69
426.958	87.69
427.18	97.69
427.402	85.69
427.625	80.69
427.847	95.69
428.069	92.69
428.292	101.69
428.514	107.69
428.736	93.69
428.958	109.69
429.181	95.69
429.403	97.69
429.625	76.69
429.847	94.69
430.069	98.69
430.292	101.69
430.514	93.69
430.736	82.69
430.958	101.69
431.18	94.69
431.402	89.69
431.624	86.69
431.846	106.69
432.068	97.69
432.29	97.69
432.512	101.69
432.734	89.69
432.956	95.69
433.178	88.69
433.4	90.69
433.622	96.69
433.844	97.69
434.066	88.69
434.287	99.69
434.509	93.69
434.731	99.69
434.953	86.69
435.175	94.69
435.397	108.69
435.618	103.69
435.84	98.69
436.062	93.69
436.284	83.69
436.505	111.69
436.727	94.69
436.949	95.69
437.17	91.69
437.392	103.69
437.614	97.69
437.835	94.69
438.057	94.69
438.278	86.69
438.5	78.69
438.721	93.69
438.943	88.69
439.165	97.69
439.386	109.69
439.608	96.69
439.829	101.69
440.05	115.69
440.272	91.69
440.493	98.69
440.715	104.69
440.936	102.69
441.158	89.69
441.379	96.69
441.6	95.69
441.822	82.69
442.043	88.69
442.264	82.69
442.486	96.69
442.707	101.69
442.928	98.69
443.149	103.69
443.371	86.69
443.592	75.69
443.813	109.69
444.034	88.69
444.255	95.69
444.476	93.69
444.698	104.69
444.919	109.69
445.14	230.69
445.361	156.69
445.582	100.69
445.803	81.69
446.024	101.69
446.245	97.69
446.466	95.69
446.687	90.69
446.908	86.69
447.129	98.69
447.35	81.69
447.571	95.69
447.792	82.69
448.013	97.69
448.234	90.69
448.455	96.69
448.675	99.69
448.896	113.69
449.117	99.69
449.338	96.69
449.559	97.69
449.779	104.69
450	92.69
450.221	88.69
450.442	102.69
450.662	85.69
450.883	82.69
451.104	80.69
451.324	97.69
451.545	102.69
451.766	93.69
451.986	86.69
452.207	83.69
452.428	99.69
452.648	92.69
452.869	86.69
453.089	86.69
453.31	88.69
453.53	91.69
453.751	95.69
453.971	99.69
454.192	113.69
454.412	80.69
454.633	91.69
454.853	96.69
455.073	74.69
455.294	81.69
455.514	88.69
455.734	89.69
455.955	99.69
456.175	105.69
456.395	86.69
456.616	86.69
456.836	102.69
457.056	95.69
457.276	84.69
457.497	95.69
457.717	82.69
457.937	87.69
458.157	103.69
458.377	101.69
458.598	87.69
458.818	102.69
459.038	103.69
459.258	85.69
459.478	89.69
459.698	97.69
459.918	98.69
460.138	100.69
460.358	92.69
460.578	103.69
460.798	87.69
461.018	91.69
461.238	96.69
461.458	96.69
461.678	96.69
461.898	91.69
462.118	103.69
462.338	100.69
462.558	89.69
462.777	111.69
462.997	97.69
463.217	92.69
463.437	99.69
463.657	97.69
463.876	109.69
464.096	112.69
464.316	87.69
464.536	102.69
464.755	112.69
464.975	93.69
465.195	106.69
465.414	103.69
465.634	92.69
465.854	95.69
466.073	102.69
466.293	78.69
466.512	91.69
466.732	99.69
466.951	88.69
467.171	89.69
467.391	93.69
467.61	93.69
467.829	113.69
468.049	100.69
468.268	104.69
468.488	96.69
468.707	102.69
468.927	96.69
469.146	90.69
469.365	94.69
469.585	102.69
469.804	90.69
470.023	92.69
470.243	88.69
470.462	90.69
470.681	96.69
470.901	99.69
471.12	87.69
471.339	88.69
471.558	90.69
471.777	120.69
471.997	98.69
472.216	95.69
472.435	90.69
472.654	89.69
472.873	102.69
473.092	94.69
473.311	85.69
473.53	89.69
473.749	90.69
473.968	109.69
474.187	97.69
474.406	82.69
474.625	97.69
474.844	111.69
475.063	102.69
475.282	86.69
475.501	98.69
475.72	86.69
475.939	94.69
476.158	97.69
476.377	97.69
476.596	102.69
476.814	101.69
477.033	90.69
477.252	95.69
477.471	105.69
477.69	107.69
477.908	89.69
478.127	104.69
478.346	107.69
478.564	95.69
478.783	98.69
479.002	106.69
479.22	109.69
479.439	104.69
479.658	93.69
479.876	112.69
480.095	99.69
480.313	117.69
480.532	115.69
480.751	86.69
480.969	103.69
481.188	101.69
481.406	101.69
481.624	97.69
481.843	119.69
482.061	99.69
482.28	91.69
482.498	97.69
482.717	101.69
482.935	106.69
483.153	96.69
483.372	113.69
483.59	119.69
483.808	112.69
484.027	107.69
484.245	98.69
484.463	102.69
484.681	108.69
484.9	117.69
485.118	101.69
485.336	111.69
485.554	115.69
485.772	99.69
485.99	112.69
486.209	97.69
486.427	109.69
486.645	127.69
486.863	105.69
487.081	99.69
487.299	107.69
487.517	99.69
487.735	117.69
487.953	110.69
488.171	105.69
488.389	119.69
488.607	114.69
488.825	111.69
489.043	101.69
489.261	104.69
489.479	95.69
489.696	121.69
489.914	101.69
490.132	103.69
490.35	98.69
490.568	111.69
490.786	113.69
491.003	110.69
491.221	98.69
491.439	96.69
491.657	105.69
491.874	117.69
492.092	104.69
492.31	97.69
492.527	131.69
492.745	114.69
492.963	116.69
493.18	108.69
493.398	117.69
493.615	121.69
493.833	114.69
494.05	109.69
494.268	118.69
494.485	114.69
494.703	118.69
494.92	106.69
495.138	117.69
495.355	105.69
495.573	101.69
495.79	101.69
496.008	111.69
496.225	117.69
496.442	106.69
496.66	104.69
496.877	111.69
497.094	110.69
497.312	122.69
497.529	128.69
497.746	96.69
497.963	111.69
498.181	97.69
498.398	92.69
498.615	107.69
498.832	105.69
499.049	115.69
499.267	127.69
499.484	125.69
499.701	124.69
499.918	133.69
500.135	161.69
500.352	168.69
500.569	184.69
500.786	147.69
501.003	143.69
501.22	128.69
501.437	153.69
501.654	115.69
501.871	125.69
502.088	125.69
502.305	126.69
502.522	124.69
502.739	120.69
502.956	117.69
503.172	111.69
503.389	116.69
503.606	115.69
503.823	115.69
504.04	115.69
504.256	118.69
504.473	104.69
504.69	102.69
504.907	105.69
505.123	118.69
505.34	111.69
505.557	109.69
505.773	99.69
505.99	97.69
506.207	110.69
506.423	115.69
506.64	111.69
506.856	111.69
507.073	106.69
507.289	123.69
507.506	101.69
507.722	101.69
507.939	104.69
508.155	96.69
508.372	95.69
508.588	89.69
508.805	109.69
509.021	89.69
509.238	118.69
509.454	107.69
509.67	92.69
509.887	102.69
510.103	113.69
510.319	99.69
510.536	99.69
510.752	94.69
510.968	89.69
511.184	106.69
511.401	101.69
511.617	104.69
511.833	86.69
512.049	95.69
512.265	101.69
512.481	94.69
512.698	107.69
512.914	106.69
513.13	106.69
513.346	89.69
513.562	101.69
513.778	83.69
513.994	88.69
514.21	103.69
514.426	110.69
514.642	88.69
