Data from Location5.07152019.Energy5.Lamp.07192019.3%Agarose_HRD10591_16-03-50-628.txt Node
Date: Fri Jul 19 16:03:50 EDT 2019
User: cochatt
Spectrometer: HR+D1059
Trigger mode: 1
Integration Time (sec): 1.000000E-1
Scans to average: 1
Electric dark correction enabled: true
Nonlinearity correction enabled: false
Boxcar width: 0
XAxis mode: Wavelengths
Number of Pixels in Spectrum: 2048
>>>>>Begin Spectral Data<<<<<
223.165	-8.38
223.4	-8.38
223.635	-8.38
223.869	-22.38
224.104	-14.38
224.338	-3.38
224.573	-9.38
224.808	-12.38
225.042	2.62
225.277	-2.38
225.511	-3.38
225.746	-2.38
225.98	1.62
226.215	7.62
226.449	4.62
226.683	14.62
226.918	28.62
227.152	18.62
227.387	34.62
227.621	30.62
227.856	32.62
228.09	38.62
228.324	49.62
228.559	51.62
228.793	57.62
229.027	50.62
229.262	70.62
229.496	60.62
229.73	85.62
229.964	81.62
230.199	76.62
230.433	73.62
230.667	65.62
230.901	93.62
231.136	70.62
231.37	81.62
231.604	74.62
231.838	86.62
232.072	82.62
232.306	76.62
232.541	68.62
232.775	81.62
233.009	94.62
233.243	78.62
233.477	87.62
233.711	84.62
233.945	78.62
234.179	85.62
234.413	82.62
234.647	79.62
234.881	82.62
235.115	73.62
235.349	78.62
235.583	79.62
235.817	68.62
236.051	78.62
236.285	61.62
236.519	75.62
236.753	79.62
236.987	70.62
237.221	65.62
237.455	75.62
237.689	68.62
237.922	70.62
238.156	77.62
238.39	68.62
238.624	68.62
238.858	63.62
239.091	54.62
239.325	76.62
239.559	69.62
239.793	86.62
240.027	73.62
240.26	66.62
240.494	72.62
240.728	79.62
240.961	78.62
241.195	54.62
241.429	60.62
241.662	74.62
241.896	70.62
242.13	81.62
242.363	78.62
242.597	73.62
242.83	88.62
243.064	86.62
243.298	81.62
243.531	73.62
243.765	70.62
243.998	75.62
244.232	89.62
244.465	94.62
244.699	72.62
244.932	73.62
245.166	74.62
245.399	77.62
245.633	81.62
245.866	84.62
246.099	81.62
246.333	81.62
246.566	75.62
246.8	82.62
247.033	95.62
247.266	73.62
247.5	78.62
247.733	76.62
247.966	70.62
248.2	68.62
248.433	85.62
248.666	81.62
248.899	83.62
249.133	85.62
249.366	82.62
249.599	74.62
249.832	78.62
250.066	94.62
250.299	67.62
250.532	76.62
250.765	77.62
250.998	70.62
251.231	80.62
251.465	72.62
251.698	72.62
251.931	89.62
252.164	69.62
252.397	64.62
252.63	80.62
252.863	84.62
253.096	82.62
253.329	76.62
253.562	84.62
253.795	92.62
254.028	74.62
254.261	80.62
254.494	83.62
254.727	77.62
254.96	76.62
255.193	81.62
255.426	79.62
255.659	72.62
255.892	84.62
256.124	74.62
256.357	85.62
256.59	81.62
256.823	87.62
257.056	85.62
257.289	70.62
257.521	65.62
257.754	76.62
257.987	74.62
258.22	90.62
258.452	84.62
258.685	84.62
258.918	69.62
259.151	81.62
259.383	80.62
259.616	74.62
259.849	74.62
260.081	64.62
260.314	96.62
260.547	90.62
260.779	78.62
261.012	69.62
261.244	78.62
261.477	80.62
261.71	83.62
261.942	75.62
262.175	101.62
262.407	76.62
262.64	81.62
262.872	86.62
263.105	85.62
263.337	93.62
263.57	74.62
263.802	76.62
264.035	77.62
264.267	86.62
264.499	82.62
264.732	78.62
264.964	77.62
265.197	82.62
265.429	81.62
265.661	99.62
265.894	89.62
266.126	81.62
266.358	69.62
266.591	77.62
266.823	75.62
267.055	77.62
267.287	81.62
267.52	93.62
267.752	74.62
267.984	90.62
268.216	88.62
268.448	84.62
268.681	99.62
268.913	86.62
269.145	97.62
269.377	72.62
269.609	86.62
269.841	85.62
270.073	80.62
270.306	79.62
270.538	77.62
270.77	79.62
271.002	89.62
271.234	86.62
271.466	85.62
271.698	84.62
271.93	84.62
272.162	97.62
272.394	92.62
272.626	85.62
272.858	86.62
273.09	86.62
273.322	83.62
273.553	80.62
273.785	77.62
274.017	91.62
274.249	89.62
274.481	89.62
274.713	93.62
274.945	87.62
275.176	80.62
275.408	92.62
275.64	94.62
275.872	86.62
276.104	84.62
276.335	86.62
276.567	87.62
276.799	87.62
277.031	79.62
277.262	84.62
277.494	96.62
277.726	82.62
277.957	99.62
278.189	89.62
278.421	94.62
278.652	74.62
278.884	81.62
279.115	89.62
279.347	76.62
279.579	90.62
279.81	93.62
280.042	84.62
280.273	83.62
280.505	81.62
280.736	84.62
280.968	90.62
281.199	83.62
281.431	84.62
281.662	89.62
281.894	86.62
282.125	81.62
282.356	73.62
282.588	90.62
282.819	83.62
283.051	96.62
283.282	85.62
283.513	80.62
283.745	81.62
283.976	77.62
284.207	72.62
284.439	95.62
284.67	91.62
284.901	97.62
285.132	85.62
285.364	82.62
285.595	87.62
285.826	81.62
286.057	83.62
286.288	89.62
286.52	81.62
286.751	87.62
286.982	80.62
287.213	93.62
287.444	80.62
287.675	94.62
287.906	100.62
288.138	92.62
288.369	85.62
288.6	93.62
288.831	100.62
289.062	88.62
289.293	82.62
289.524	101.62
289.755	96.62
289.986	90.62
290.217	88.62
290.448	87.62
290.679	82.62
290.91	73.62
291.141	84.62
291.371	98.62
291.602	89.62
291.833	97.62
292.064	82.62
292.295	97.62
292.526	88.62
292.757	100.62
292.987	83.62
293.218	84.62
293.449	77.62
293.68	86.62
293.91	88.62
294.141	74.62
294.372	84.62
294.603	80.62
294.833	82.62
295.064	84.62
295.295	90.62
295.525	97.62
295.756	93.62
295.987	86.62
296.217	89.62
296.448	69.62
296.679	93.62
296.909	94.62
297.14	79.62
297.37	95.62
297.601	97.62
297.831	83.62
298.062	79.62
298.292	92.62
298.523	89.62
298.753	74.62
298.984	89.62
299.214	82.62
299.445	78.62
299.675	74.62
299.905	94.62
300.136	92.62
300.366	92.62
300.597	83.62
300.827	97.62
301.057	78.62
301.288	94.62
301.518	92.62
301.748	84.62
301.979	94.62
302.209	97.62
302.439	93.62
302.669	87.62
302.9	96.62
303.13	89.62
303.36	94.62
303.59	100.62
303.82	86.62
304.051	79.62
304.281	90.62
304.511	83.62
304.741	96.62
304.971	80.62
305.201	100.62
305.431	96.62
305.661	74.62
305.891	77.62
306.121	76.62
306.352	87.62
306.582	94.62
306.812	86.62
307.042	80.62
307.272	83.62
307.502	88.62
307.731	96.62
307.961	85.62
308.191	108.62
308.421	77.62
308.651	84.62
308.881	81.62
309.111	94.62
309.341	92.62
309.571	92.62
309.8	75.62
310.03	84.62
310.26	86.62
310.49	74.62
310.72	82.62
310.949	91.62
311.179	104.62
311.409	100.62
311.639	94.62
311.868	98.62
312.098	90.62
312.328	87.62
312.557	80.62
312.787	82.62
313.017	94.62
313.246	99.62
313.476	89.62
313.706	85.62
313.935	82.62
314.165	90.62
314.394	76.62
314.624	92.62
314.853	85.62
315.083	83.62
315.312	95.62
315.542	95.62
315.771	95.62
316.001	78.62
316.23	95.62
316.46	99.62
316.689	101.62
316.919	82.62
317.148	84.62
317.377	90.62
317.607	82.62
317.836	82.62
318.065	96.62
318.295	85.62
318.524	87.62
318.753	86.62
318.983	94.62
319.212	91.62
319.441	85.62
319.67	82.62
319.9	92.62
320.129	84.62
320.358	93.62
320.587	88.62
320.816	99.62
321.046	96.62
321.275	98.62
321.504	75.62
321.733	89.62
321.962	95.62
322.191	80.62
322.42	93.62
322.649	100.62
322.878	121.62
323.108	85.62
323.337	100.62
323.566	80.62
323.795	90.62
324.024	95.62
324.253	75.62
324.482	88.62
324.71	95.62
324.939	92.62
325.168	101.62
325.397	84.62
325.626	88.62
325.855	96.62
326.084	89.62
326.313	81.62
326.542	86.62
326.77	80.62
326.999	86.62
327.228	85.62
327.457	89.62
327.686	92.62
327.914	102.62
328.143	96.62
328.372	91.62
328.6	109.62
328.829	92.62
329.058	88.62
329.287	87.62
329.515	99.62
329.744	92.62
329.972	93.62
330.201	86.62
330.43	88.62
330.658	86.62
330.887	93.62
331.115	94.62
331.344	93.62
331.572	90.62
331.801	96.62
332.03	89.62
332.258	94.62
332.486	91.62
332.715	90.62
332.943	75.62
333.172	86.62
333.4	88.62
333.629	105.62
333.857	102.62
334.085	112.62
334.314	92.62
334.542	102.62
334.771	105.62
334.999	103.62
335.227	110.62
335.455	94.62
335.684	93.62
335.912	96.62
336.14	81.62
336.369	84.62
336.597	102.62
336.825	95.62
337.053	92.62
337.281	74.62
337.51	93.62
337.738	88.62
337.966	85.62
338.194	82.62
338.422	112.62
338.65	90.62
338.878	91.62
339.106	84.62
339.334	91.62
339.562	86.62
339.79	89.62
340.018	80.62
340.246	96.62
340.474	83.62
340.702	93.62
340.93	81.62
341.158	82.62
341.386	91.62
341.614	101.62
341.842	104.62
342.07	87.62
342.298	97.62
342.526	102.62
342.754	96.62
342.981	100.62
343.209	95.62
343.437	96.62
343.665	86.62
343.893	87.62
344.12	99.62
344.348	94.62
344.576	103.62
344.804	86.62
345.031	77.62
345.259	74.62
345.487	96.62
345.714	82.62
345.942	104.62
346.17	102.62
346.397	92.62
346.625	89.62
346.853	87.62
347.08	102.62
347.308	92.62
347.535	79.62
347.763	96.62
347.99	86.62
348.218	108.62
348.445	93.62
348.673	90.62
348.9	101.62
349.128	91.62
349.355	92.62
349.583	92.62
349.81	79.62
350.037	97.62
350.265	94.62
350.492	93.62
350.72	82.62
350.947	89.62
351.174	78.62
351.402	90.62
351.629	92.62
351.856	80.62
352.083	73.62
352.311	99.62
352.538	81.62
352.765	87.62
352.992	99.62
353.22	89.62
353.447	84.62
353.674	97.62
353.901	96.62
354.128	90.62
354.355	90.62
354.583	94.62
354.81	83.62
355.037	85.62
355.264	78.62
355.491	90.62
355.718	91.62
355.945	87.62
356.172	113.62
356.399	92.62
356.626	84.62
356.853	85.62
357.08	90.62
357.307	92.62
357.534	92.62
357.761	99.62
357.988	92.62
358.215	84.62
358.441	87.62
358.668	82.62
358.895	93.62
359.122	89.62
359.349	96.62
359.576	92.62
359.802	92.62
360.029	89.62
360.256	93.62
360.483	74.62
360.709	90.62
360.936	95.62
361.163	90.62
361.39	96.62
361.616	93.62
361.843	96.62
362.07	98.62
362.296	72.62
362.523	73.62
362.749	96.62
362.976	91.62
363.203	96.62
363.429	88.62
363.656	88.62
363.882	102.62
364.109	86.62
364.335	93.62
364.562	95.62
364.788	101.62
365.015	83.62
365.241	91.62
365.468	93.62
365.694	91.62
365.92	79.62
366.147	73.62
366.373	104.62
366.599	104.62
366.826	77.62
367.052	105.62
367.278	93.62
367.505	103.62
367.731	93.62
367.957	85.62
368.184	90.62
368.41	93.62
368.636	87.62
368.862	103.62
369.089	95.62
369.315	81.62
369.541	78.62
369.767	81.62
369.993	96.62
370.219	92.62
370.445	88.62
370.672	97.62
370.898	84.62
371.124	82.62
371.35	78.62
371.576	90.62
371.802	90.62
372.028	95.62
372.254	93.62
372.48	86.62
372.706	85.62
372.932	87.62
373.158	78.62
373.384	98.62
373.61	97.62
373.835	95.62
374.061	89.62
374.287	94.62
374.513	100.62
374.739	89.62
374.965	88.62
375.191	92.62
375.416	88.62
375.642	100.62
375.868	89.62
376.094	87.62
376.319	82.62
376.545	85.62
376.771	90.62
376.997	90.62
377.222	92.62
377.448	94.62
377.674	94.62
377.899	84.62
378.125	90.62
378.35	100.62
378.576	79.62
378.802	85.62
379.027	84.62
379.253	92.62
379.478	102.62
379.704	102.62
379.929	86.62
380.155	84.62
380.38	101.62
380.606	93.62
380.831	79.62
381.057	85.62
381.282	93.62
381.507	109.62
381.733	84.62
381.958	84.62
382.184	80.62
382.409	84.62
382.634	103.62
382.86	97.62
383.085	99.62
383.31	92.62
383.535	98.62
383.761	75.62
383.986	104.62
384.211	96.62
384.436	87.62
384.662	92.62
384.887	74.62
385.112	94.62
385.337	102.62
385.562	90.62
385.787	97.62
386.013	87.62
386.238	83.62
386.463	97.62
386.688	96.62
386.913	81.62
387.138	100.62
387.363	83.62
387.588	86.62
387.813	105.62
388.038	83.62
388.263	91.62
388.488	89.62
388.713	93.62
388.938	90.62
389.163	99.62
389.387	104.62
389.612	86.62
389.837	88.62
390.062	89.62
390.287	87.62
390.512	84.62
390.736	79.62
390.961	100.62
391.186	99.62
391.411	95.62
391.636	86.62
391.86	85.62
392.085	98.62
392.31	95.62
392.534	82.62
392.759	105.62
392.984	93.62
393.208	88.62
393.433	82.62
393.658	92.62
393.882	82.62
394.107	84.62
394.331	98.62
394.556	98.62
394.78	87.62
395.005	104.62
395.229	96.62
395.454	96.62
395.678	103.62
395.903	83.62
396.127	108.62
396.352	96.62
396.576	95.62
396.801	103.62
397.025	92.62
397.249	92.62
397.474	110.62
397.698	102.62
397.922	89.62
398.147	85.62
398.371	96.62
398.595	102.62
398.82	96.62
399.044	88.62
399.268	84.62
399.492	100.62
399.717	102.62
399.941	99.62
400.165	105.62
400.389	93.62
400.613	104.62
400.837	100.62
401.062	92.62
401.286	100.62
401.51	99.62
401.734	83.62
401.958	99.62
402.182	96.62
402.406	91.62
402.63	108.62
402.854	99.62
403.078	86.62
403.302	88.62
403.526	89.62
403.75	112.62
403.974	102.62
404.198	100.62
404.422	91.62
404.645	102.62
404.869	103.62
405.093	99.62
405.317	104.62
405.541	100.62
405.765	101.62
405.988	101.62
406.212	110.62
406.436	92.62
406.66	88.62
406.883	93.62
407.107	97.62
407.331	96.62
407.555	101.62
407.778	111.62
408.002	94.62
408.226	93.62
408.449	93.62
408.673	114.62
408.896	99.62
409.12	106.62
409.344	107.62
409.567	99.62
409.791	98.62
410.014	102.62
410.238	93.62
410.461	104.62
410.685	98.62
410.908	92.62
411.132	100.62
411.355	96.62
411.578	99.62
411.802	81.62
412.025	100.62
412.249	105.62
412.472	95.62
412.695	105.62
412.919	107.62
413.142	84.62
413.365	85.62
413.589	101.62
413.812	95.62
414.035	111.62
414.258	95.62
414.482	100.62
414.705	102.62
414.928	102.62
415.151	86.62
415.374	92.62
415.597	75.62
415.821	98.62
416.044	97.62
416.267	105.62
416.49	90.62
416.713	99.62
416.936	84.62
417.159	96.62
417.382	101.62
417.605	92.62
417.828	97.62
418.051	94.62
418.274	96.62
418.497	98.62
418.72	100.62
418.943	97.62
419.166	112.62
419.389	92.62
419.611	88.62
419.834	82.62
420.057	90.62
420.28	92.62
420.503	87.62
420.726	91.62
420.948	93.62
421.171	86.62
421.394	100.62
421.617	96.62
421.839	92.62
422.062	101.62
422.285	98.62
422.507	103.62
422.73	87.62
422.953	98.62
423.175	106.62
423.398	111.62
423.621	95.62
423.843	99.62
424.066	105.62
424.288	95.62
424.511	106.62
424.733	110.62
424.956	82.62
425.178	95.62
425.401	97.62
425.623	84.62
425.846	104.62
426.068	88.62
426.291	100.62
426.513	76.62
426.735	94.62
426.958	92.62
427.18	80.62
427.402	90.62
427.625	93.62
427.847	90.62
428.069	99.62
428.292	102.62
428.514	95.62
428.736	96.62
428.958	82.62
429.181	89.62
429.403	88.62
429.625	101.62
429.847	86.62
430.069	86.62
430.292	96.62
430.514	84.62
430.736	95.62
430.958	98.62
431.18	80.62
431.402	115.62
431.624	94.62
431.846	85.62
432.068	92.62
432.29	108.62
432.512	95.62
432.734	92.62
432.956	85.62
433.178	90.62
433.4	97.62
433.622	102.62
433.844	100.62
434.066	114.62
434.287	90.62
434.509	92.62
434.731	93.62
434.953	100.62
435.175	97.62
435.397	95.62
435.618	98.62
435.84	97.62
436.062	87.62
436.284	92.62
436.505	90.62
436.727	97.62
436.949	95.62
437.17	89.62
437.392	89.62
437.614	101.62
437.835	105.62
438.057	99.62
438.278	81.62
438.5	80.62
438.721	72.62
438.943	89.62
439.165	94.62
439.386	94.62
439.608	88.62
439.829	89.62
440.05	86.62
440.272	91.62
440.493	110.62
440.715	105.62
440.936	94.62
441.158	105.62
441.379	89.62
441.6	86.62
441.822	109.62
442.043	92.62
442.264	112.62
442.486	99.62
442.707	104.62
442.928	94.62
443.149	112.62
443.371	86.62
443.592	89.62
443.813	77.62
444.034	105.62
444.255	106.62
444.476	118.62
444.698	101.62
444.919	96.62
445.14	196.62
445.361	136.62
445.582	100.62
445.803	98.62
446.024	92.62
446.245	86.62
446.466	93.62
446.687	101.62
446.908	85.62
447.129	109.62
447.35	98.62
447.571	104.62
447.792	110.62
448.013	89.62
448.234	94.62
448.455	98.62
448.675	95.62
448.896	84.62
449.117	92.62
449.338	84.62
449.559	95.62
449.779	86.62
450	101.62
450.221	98.62
450.442	95.62
450.662	84.62
450.883	95.62
451.104	88.62
451.324	96.62
451.545	73.62
451.766	86.62
451.986	101.62
452.207	91.62
452.428	92.62
452.648	94.62
452.869	78.62
453.089	91.62
453.31	87.62
453.53	97.62
453.751	85.62
453.971	84.62
454.192	90.62
454.412	87.62
454.633	98.62
454.853	92.62
455.073	95.62
455.294	103.62
455.514	88.62
455.734	103.62
455.955	84.62
456.175	94.62
456.395	91.62
456.616	89.62
456.836	77.62
457.056	91.62
457.276	98.62
457.497	92.62
457.717	82.62
457.937	91.62
458.157	95.62
458.377	106.62
458.598	92.62
458.818	92.62
459.038	95.62
459.258	91.62
459.478	92.62
459.698	82.62
459.918	97.62
460.138	92.62
460.358	99.62
460.578	89.62
460.798	105.62
461.018	98.62
461.238	108.62
461.458	101.62
461.678	100.62
461.898	99.62
462.118	102.62
462.338	105.62
462.558	100.62
462.777	91.62
462.997	110.62
463.217	104.62
463.437	110.62
463.657	113.62
463.876	98.62
464.096	96.62
464.316	87.62
464.536	98.62
464.755	98.62
464.975	96.62
465.195	113.62
465.414	101.62
465.634	94.62
465.854	94.62
466.073	99.62
466.293	102.62
466.512	99.62
466.732	98.62
466.951	94.62
467.171	105.62
467.391	92.62
467.61	104.62
467.829	92.62
468.049	93.62
468.268	82.62
468.488	96.62
468.707	92.62
468.927	87.62
469.146	98.62
469.365	91.62
469.585	105.62
469.804	97.62
470.023	102.62
470.243	91.62
470.462	89.62
470.681	113.62
470.901	101.62
471.12	97.62
471.339	111.62
471.558	99.62
471.777	106.62
471.997	102.62
472.216	91.62
472.435	90.62
472.654	97.62
472.873	97.62
473.092	95.62
473.311	97.62
473.53	89.62
473.749	88.62
473.968	112.62
474.187	99.62
474.406	90.62
474.625	100.62
474.844	100.62
475.063	94.62
475.282	115.62
475.501	112.62
475.72	92.62
475.939	115.62
476.158	94.62
476.377	98.62
476.596	109.62
476.814	87.62
477.033	106.62
477.252	92.62
477.471	94.62
477.69	101.62
477.908	86.62
478.127	100.62
478.346	103.62
478.564	118.62
478.783	97.62
479.002	102.62
479.22	93.62
479.439	111.62
479.658	103.62
479.876	106.62
480.095	100.62
480.313	119.62
480.532	108.62
480.751	99.62
480.969	96.62
481.188	101.62
481.406	98.62
481.624	99.62
481.843	92.62
482.061	102.62
482.28	110.62
482.498	90.62
482.717	93.62
482.935	101.62
483.153	109.62
483.372	103.62
483.59	98.62
483.808	108.62
484.027	98.62
484.245	88.62
484.463	115.62
484.681	107.62
484.9	99.62
485.118	119.62
485.336	103.62
485.554	112.62
485.772	94.62
485.99	92.62
486.209	104.62
486.427	95.62
486.645	100.62
486.863	109.62
487.081	97.62
487.299	100.62
487.517	90.62
487.735	108.62
487.953	102.62
488.171	126.62
488.389	101.62
488.607	103.62
488.825	105.62
489.043	114.62
489.261	118.62
489.479	114.62
489.696	114.62
489.914	103.62
490.132	98.62
490.35	118.62
490.568	102.62
490.786	95.62
491.003	111.62
491.221	105.62
491.439	117.62
491.657	114.62
491.874	115.62
492.092	102.62
492.31	104.62
492.527	115.62
492.745	122.62
492.963	103.62
493.18	111.62
493.398	111.62
493.615	110.62
493.833	97.62
494.05	123.62
494.268	102.62
494.485	112.62
494.703	120.62
494.92	105.62
495.138	118.62
495.355	105.62
495.573	109.62
495.79	110.62
496.008	110.62
496.225	100.62
496.442	104.62
496.66	119.62
496.877	117.62
497.094	112.62
497.312	108.62
497.529	112.62
497.746	102.62
497.963	110.62
498.181	118.62
498.398	105.62
498.615	116.62
498.832	121.62
499.049	117.62
499.267	131.62
499.484	126.62
499.701	132.62
499.918	124.62
500.135	144.62
500.352	144.62
500.569	151.62
500.786	169.62
501.003	145.62
501.22	150.62
501.437	129.62
501.654	120.62
501.871	113.62
502.088	125.62
502.305	120.62
502.522	112.62
502.739	119.62
502.956	96.62
503.172	105.62
503.389	111.62
503.606	105.62
503.823	118.62
504.04	119.62
504.256	117.62
504.473	108.62
504.69	110.62
504.907	116.62
505.123	120.62
505.34	102.62
505.557	96.62
505.773	109.62
505.99	120.62
506.207	99.62
506.423	112.62
506.64	106.62
506.856	110.62
507.073	100.62
507.289	104.62
507.506	111.62
507.722	120.62
507.939	103.62
508.155	97.62
508.372	94.62
508.588	114.62
508.805	100.62
509.021	88.62
509.238	92.62
509.454	103.62
509.67	95.62
509.887	84.62
510.103	90.62
510.319	93.62
510.536	108.62
510.752	102.62
510.968	104.62
511.184	96.62
511.401	91.62
511.617	97.62
511.833	104.62
512.049	110.62
512.265	105.62
512.481	102.62
512.698	100.62
512.914	94.62
513.13	95.62
513.346	108.62
513.562	101.62
513.778	97.62
513.994	92.62
514.21	101.62
514.426	95.62
514.642	102.62
514.858	93.62
515.074	94.62
515.29	101.62
