Data from Location5.07152019.Energy5.Lamp.07192019.3%Agarose_HRD10591_15-38-21-387.txt Node
Date: Fri Jul 19 15:38:21 EDT 2019
User: cochatt
Spectrometer: HR+D1059
Trigger mode: 1
Integration Time (sec): 1.000000E-1
Scans to average: 1
Electric dark correction enabled: true
Nonlinearity correction enabled: false
Boxcar width: 0
XAxis mode: Wavelengths
Number of Pixels in Spectrum: 2048
>>>>>Begin Spectral Data<<<<<
223.165	-0.94
223.4	-0.94
223.635	-0.94
223.869	-5.94
224.104	-14.94
224.338	-21.94
224.573	-14.94
224.808	-10.94
225.042	3.06
225.277	-17.94
225.511	-5.94
225.746	7.06
225.98	-4.94
226.215	1.06
226.449	16.06
226.683	13.06
226.918	29.06
227.152	29.06
227.387	26.06
227.621	28.06
227.856	38.06
228.09	46.06
228.324	56.06
228.559	42.06
228.793	53.06
229.027	59.06
229.262	57.06
229.496	61.06
229.73	69.06
229.964	58.06
230.199	67.06
230.433	55.06
230.667	71.06
230.901	80.06
231.136	68.06
231.37	84.06
231.604	80.06
231.838	64.06
232.072	90.06
232.306	89.06
232.541	84.06
232.775	68.06
233.009	80.06
233.243	87.06
233.477	91.06
233.711	81.06
233.945	86.06
234.179	78.06
234.413	80.06
234.647	67.06
234.881	87.06
235.115	79.06
235.349	77.06
235.583	80.06
235.817	81.06
236.051	78.06
236.285	87.06
236.519	72.06
236.753	81.06
236.987	74.06
237.221	77.06
237.455	83.06
237.689	75.06
237.922	88.06
238.156	81.06
238.39	96.06
238.624	75.06
238.858	80.06
239.091	81.06
239.325	62.06
239.559	94.06
239.793	60.06
240.027	87.06
240.26	63.06
240.494	81.06
240.728	81.06
240.961	65.06
241.195	71.06
241.429	63.06
241.662	83.06
241.896	84.06
242.13	76.06
242.363	72.06
242.597	77.06
242.83	75.06
243.064	76.06
243.298	70.06
243.531	64.06
243.765	70.06
243.998	60.06
244.232	81.06
244.465	81.06
244.699	70.06
244.932	73.06
245.166	74.06
245.399	72.06
245.633	78.06
245.866	68.06
246.099	62.06
246.333	75.06
246.566	74.06
246.8	78.06
247.033	71.06
247.266	72.06
247.5	72.06
247.733	74.06
247.966	85.06
248.2	72.06
248.433	72.06
248.666	87.06
248.899	94.06
249.133	84.06
249.366	85.06
249.599	74.06
249.832	72.06
250.066	94.06
250.299	83.06
250.532	85.06
250.765	80.06
250.998	80.06
251.231	69.06
251.465	83.06
251.698	77.06
251.931	75.06
252.164	81.06
252.397	69.06
252.63	82.06
252.863	77.06
253.096	75.06
253.329	77.06
253.562	85.06
253.795	85.06
254.028	90.06
254.261	74.06
254.494	79.06
254.727	69.06
254.96	75.06
255.193	73.06
255.426	79.06
255.659	80.06
255.892	87.06
256.124	89.06
256.357	89.06
256.59	90.06
256.823	71.06
257.056	71.06
257.289	85.06
257.521	76.06
257.754	87.06
257.987	71.06
258.22	85.06
258.452	63.06
258.685	67.06
258.918	62.06
259.151	88.06
259.383	89.06
259.616	74.06
259.849	80.06
260.081	80.06
260.314	67.06
260.547	86.06
260.779	61.06
261.012	83.06
261.244	92.06
261.477	80.06
261.71	77.06
261.942	85.06
262.175	79.06
262.407	76.06
262.64	87.06
262.872	80.06
263.105	73.06
263.337	78.06
263.57	74.06
263.802	81.06
264.035	89.06
264.267	79.06
264.499	77.06
264.732	89.06
264.964	72.06
265.197	77.06
265.429	77.06
265.661	78.06
265.894	76.06
266.126	67.06
266.358	67.06
266.591	82.06
266.823	65.06
267.055	76.06
267.287	98.06
267.52	90.06
267.752	79.06
267.984	70.06
268.216	87.06
268.448	82.06
268.681	77.06
268.913	82.06
269.145	80.06
269.377	85.06
269.609	78.06
269.841	92.06
270.073	75.06
270.306	85.06
270.538	76.06
270.77	70.06
271.002	84.06
271.234	81.06
271.466	72.06
271.698	82.06
271.93	71.06
272.162	86.06
272.394	90.06
272.626	82.06
272.858	81.06
273.09	71.06
273.322	91.06
273.553	76.06
273.785	81.06
274.017	89.06
274.249	87.06
274.481	77.06
274.713	77.06
274.945	75.06
275.176	89.06
275.408	92.06
275.64	85.06
275.872	84.06
276.104	79.06
276.335	75.06
276.567	78.06
276.799	61.06
277.031	79.06
277.262	103.06
277.494	89.06
277.726	75.06
277.957	88.06
278.189	80.06
278.421	85.06
278.652	89.06
278.884	85.06
279.115	83.06
279.347	77.06
279.579	73.06
279.81	77.06
280.042	83.06
280.273	68.06
280.505	73.06
280.736	86.06
280.968	72.06
281.199	80.06
281.431	88.06
281.662	89.06
281.894	91.06
282.125	82.06
282.356	77.06
282.588	86.06
282.819	65.06
283.051	71.06
283.282	88.06
283.513	66.06
283.745	87.06
283.976	78.06
284.207	88.06
284.439	85.06
284.67	80.06
284.901	78.06
285.132	103.06
285.364	80.06
285.595	98.06
285.826	97.06
286.057	88.06
286.288	78.06
286.52	84.06
286.751	77.06
286.982	78.06
287.213	91.06
287.444	85.06
287.675	83.06
287.906	92.06
288.138	78.06
288.369	88.06
288.6	70.06
288.831	86.06
289.062	79.06
289.293	85.06
289.524	73.06
289.755	74.06
289.986	80.06
290.217	90.06
290.448	80.06
290.679	75.06
290.91	97.06
291.141	84.06
291.371	90.06
291.602	74.06
291.833	76.06
292.064	73.06
292.295	83.06
292.526	81.06
292.757	78.06
292.987	69.06
293.218	77.06
293.449	75.06
293.68	74.06
293.91	89.06
294.141	83.06
294.372	89.06
294.603	84.06
294.833	80.06
295.064	75.06
295.295	79.06
295.525	84.06
295.756	80.06
295.987	82.06
296.217	90.06
296.448	87.06
296.679	89.06
296.909	75.06
297.14	89.06
297.37	96.06
297.601	78.06
297.831	72.06
298.062	67.06
298.292	91.06
298.523	95.06
298.753	72.06
298.984	100.06
299.214	83.06
299.445	78.06
299.675	81.06
299.905	81.06
300.136	99.06
300.366	97.06
300.597	84.06
300.827	69.06
301.057	82.06
301.288	89.06
301.518	64.06
301.748	89.06
301.979	95.06
302.209	101.06
302.439	90.06
302.669	90.06
302.9	83.06
303.13	73.06
303.36	76.06
303.59	68.06
303.82	77.06
304.051	81.06
304.281	95.06
304.511	74.06
304.741	89.06
304.971	87.06
305.201	80.06
305.431	82.06
305.661	85.06
305.891	78.06
306.121	94.06
306.352	94.06
306.582	99.06
306.812	81.06
307.042	86.06
307.272	83.06
307.502	72.06
307.731	86.06
307.961	78.06
308.191	79.06
308.421	79.06
308.651	71.06
308.881	75.06
309.111	95.06
309.341	87.06
309.571	81.06
309.8	96.06
310.03	82.06
310.26	73.06
310.49	54.06
310.72	82.06
310.949	84.06
311.179	90.06
311.409	84.06
311.639	72.06
311.868	79.06
312.098	83.06
312.328	80.06
312.557	79.06
312.787	66.06
313.017	74.06
313.246	86.06
313.476	89.06
313.706	84.06
313.935	81.06
314.165	81.06
314.394	84.06
314.624	88.06
314.853	82.06
315.083	84.06
315.312	91.06
315.542	93.06
315.771	89.06
316.001	72.06
316.23	86.06
316.46	81.06
316.689	81.06
316.919	81.06
317.148	91.06
317.377	78.06
317.607	93.06
317.836	83.06
318.065	79.06
318.295	103.06
318.524	86.06
318.753	94.06
318.983	76.06
319.212	88.06
319.441	86.06
319.67	83.06
319.9	73.06
320.129	90.06
320.358	91.06
320.587	83.06
320.816	93.06
321.046	90.06
321.275	79.06
321.504	77.06
321.733	79.06
321.962	81.06
322.191	71.06
322.42	83.06
322.649	97.06
322.878	77.06
323.108	91.06
323.337	87.06
323.566	78.06
323.795	78.06
324.024	90.06
324.253	87.06
324.482	86.06
324.71	72.06
324.939	77.06
325.168	93.06
325.397	78.06
325.626	80.06
325.855	77.06
326.084	76.06
326.313	81.06
326.542	90.06
326.77	81.06
326.999	89.06
327.228	71.06
327.457	92.06
327.686	87.06
327.914	91.06
328.143	88.06
328.372	95.06
328.6	95.06
328.829	82.06
329.058	86.06
329.287	90.06
329.515	91.06
329.744	88.06
329.972	95.06
330.201	79.06
330.43	85.06
330.658	90.06
330.887	82.06
331.115	85.06
331.344	77.06
331.572	83.06
331.801	78.06
332.03	90.06
332.258	80.06
332.486	72.06
332.715	89.06
332.943	83.06
333.172	83.06
333.4	82.06
333.629	78.06
333.857	71.06
334.085	68.06
334.314	83.06
334.542	90.06
334.771	86.06
334.999	83.06
335.227	74.06
335.455	76.06
335.684	85.06
335.912	81.06
336.14	95.06
336.369	82.06
336.597	91.06
336.825	88.06
337.053	73.06
337.281	82.06
337.51	85.06
337.738	98.06
337.966	91.06
338.194	84.06
338.422	97.06
338.65	81.06
338.878	72.06
339.106	86.06
339.334	74.06
339.562	87.06
339.79	83.06
340.018	71.06
340.246	81.06
340.474	80.06
340.702	86.06
340.93	81.06
341.158	89.06
341.386	86.06
341.614	76.06
341.842	85.06
342.07	86.06
342.298	78.06
342.526	82.06
342.754	90.06
342.981	79.06
343.209	111.06
343.437	89.06
343.665	75.06
343.893	92.06
344.12	83.06
344.348	76.06
344.576	85.06
344.804	79.06
345.031	84.06
345.259	78.06
345.487	73.06
345.714	80.06
345.942	85.06
346.17	86.06
346.397	79.06
346.625	85.06
346.853	80.06
347.08	77.06
347.308	76.06
347.535	79.06
347.763	73.06
347.99	79.06
348.218	88.06
348.445	85.06
348.673	85.06
348.9	86.06
349.128	97.06
349.355	93.06
349.583	76.06
349.81	79.06
350.037	72.06
350.265	91.06
350.492	75.06
350.72	75.06
350.947	81.06
351.174	79.06
351.402	74.06
351.629	97.06
351.856	83.06
352.083	85.06
352.311	67.06
352.538	79.06
352.765	76.06
352.992	85.06
353.22	95.06
353.447	81.06
353.674	77.06
353.901	87.06
354.128	86.06
354.355	82.06
354.583	75.06
354.81	82.06
355.037	85.06
355.264	92.06
355.491	82.06
355.718	83.06
355.945	79.06
356.172	79.06
356.399	79.06
356.626	87.06
356.853	78.06
357.08	88.06
357.307	73.06
357.534	69.06
357.761	81.06
357.988	89.06
358.215	72.06
358.441	90.06
358.668	84.06
358.895	78.06
359.122	86.06
359.349	80.06
359.576	77.06
359.802	84.06
360.029	86.06
360.256	99.06
360.483	102.06
360.709	91.06
360.936	91.06
361.163	75.06
361.39	71.06
361.616	91.06
361.843	90.06
362.07	74.06
362.296	80.06
362.523	79.06
362.749	96.06
362.976	96.06
363.203	76.06
363.429	80.06
363.656	90.06
363.882	74.06
364.109	84.06
364.335	85.06
364.562	70.06
364.788	99.06
365.015	85.06
365.241	81.06
365.468	97.06
365.694	89.06
365.92	77.06
366.147	74.06
366.373	81.06
366.599	91.06
366.826	67.06
367.052	75.06
367.278	78.06
367.505	79.06
367.731	69.06
367.957	72.06
368.184	75.06
368.41	80.06
368.636	85.06
368.862	89.06
369.089	81.06
369.315	77.06
369.541	85.06
369.767	79.06
369.993	83.06
370.219	90.06
370.445	73.06
370.672	82.06
370.898	76.06
371.124	82.06
371.35	75.06
371.576	80.06
371.802	87.06
372.028	98.06
372.254	81.06
372.48	69.06
372.706	82.06
372.932	69.06
373.158	79.06
373.384	86.06
373.61	92.06
373.835	79.06
374.061	76.06
374.287	72.06
374.513	84.06
374.739	71.06
374.965	68.06
375.191	73.06
375.416	87.06
375.642	77.06
375.868	89.06
376.094	76.06
376.319	93.06
376.545	104.06
376.771	81.06
376.997	85.06
377.222	85.06
377.448	81.06
377.674	96.06
377.899	83.06
378.125	90.06
378.35	86.06
378.576	82.06
378.802	85.06
379.027	82.06
379.253	77.06
379.478	86.06
379.704	87.06
379.929	80.06
380.155	69.06
380.38	89.06
380.606	83.06
380.831	90.06
381.057	99.06
381.282	81.06
381.507	76.06
381.733	87.06
381.958	76.06
382.184	62.06
382.409	95.06
382.634	80.06
382.86	92.06
383.085	88.06
383.31	75.06
383.535	75.06
383.761	84.06
383.986	89.06
384.211	89.06
384.436	83.06
384.662	83.06
384.887	98.06
385.112	100.06
385.337	92.06
385.562	82.06
385.787	90.06
386.013	83.06
386.238	94.06
386.463	79.06
386.688	78.06
386.913	82.06
387.138	89.06
387.363	72.06
387.588	78.06
387.813	91.06
388.038	87.06
388.263	88.06
388.488	80.06
388.713	87.06
388.938	85.06
389.163	88.06
389.387	75.06
389.612	86.06
389.837	81.06
390.062	81.06
390.287	80.06
390.512	79.06
390.736	86.06
390.961	104.06
391.186	87.06
391.411	80.06
391.636	89.06
391.86	93.06
392.085	77.06
392.31	92.06
392.534	80.06
392.759	75.06
392.984	72.06
393.208	90.06
393.433	83.06
393.658	95.06
393.882	85.06
394.107	85.06
394.331	93.06
394.556	83.06
394.78	86.06
395.005	79.06
395.229	89.06
395.454	87.06
395.678	81.06
395.903	97.06
396.127	97.06
396.352	88.06
396.576	93.06
396.801	95.06
397.025	87.06
397.249	86.06
397.474	85.06
397.698	87.06
397.922	83.06
398.147	91.06
398.371	85.06
398.595	85.06
398.82	85.06
399.044	90.06
399.268	86.06
399.492	85.06
399.717	74.06
399.941	85.06
400.165	86.06
400.389	90.06
400.613	94.06
400.837	90.06
401.062	88.06
401.286	82.06
401.51	102.06
401.734	80.06
401.958	100.06
402.182	87.06
402.406	89.06
402.63	94.06
402.854	93.06
403.078	86.06
403.302	97.06
403.526	91.06
403.75	97.06
403.974	87.06
404.198	74.06
404.422	78.06
404.645	90.06
404.869	93.06
405.093	88.06
405.317	89.06
405.541	101.06
405.765	94.06
405.988	89.06
406.212	89.06
406.436	93.06
406.66	94.06
406.883	86.06
407.107	97.06
407.331	84.06
407.555	92.06
407.778	88.06
408.002	85.06
408.226	80.06
408.449	84.06
408.673	80.06
408.896	74.06
409.12	81.06
409.344	81.06
409.567	80.06
409.791	96.06
410.014	92.06
410.238	97.06
410.461	97.06
410.685	81.06
410.908	72.06
411.132	95.06
411.355	95.06
411.578	90.06
411.802	91.06
412.025	85.06
412.249	97.06
412.472	88.06
412.695	96.06
412.919	90.06
413.142	90.06
413.365	95.06
413.589	87.06
413.812	92.06
414.035	92.06
414.258	85.06
414.482	81.06
414.705	93.06
414.928	97.06
415.151	85.06
415.374	75.06
415.597	93.06
415.821	100.06
416.044	86.06
416.267	86.06
416.49	91.06
416.713	91.06
416.936	94.06
417.159	90.06
417.382	87.06
417.605	93.06
417.828	97.06
418.051	91.06
418.274	102.06
418.497	92.06
418.72	88.06
418.943	95.06
419.166	100.06
419.389	92.06
419.611	87.06
419.834	90.06
420.057	86.06
420.28	100.06
420.503	95.06
420.726	88.06
420.948	100.06
421.171	88.06
421.394	89.06
421.617	106.06
421.839	98.06
422.062	94.06
422.285	99.06
422.507	95.06
422.73	91.06
422.953	82.06
423.175	92.06
423.398	90.06
423.621	91.06
423.843	91.06
424.066	90.06
424.288	99.06
424.511	94.06
424.733	98.06
424.956	95.06
425.178	95.06
425.401	96.06
425.623	94.06
425.846	100.06
426.068	82.06
426.291	87.06
426.513	79.06
426.735	97.06
426.958	85.06
427.18	102.06
427.402	104.06
427.625	101.06
427.847	84.06
428.069	76.06
428.292	90.06
428.514	84.06
428.736	103.06
428.958	96.06
429.181	100.06
429.403	89.06
429.625	83.06
429.847	98.06
430.069	91.06
430.292	86.06
430.514	86.06
430.736	93.06
430.958	95.06
431.18	105.06
431.402	89.06
431.624	89.06
431.846	85.06
432.068	93.06
432.29	95.06
432.512	88.06
432.734	83.06
432.956	92.06
433.178	82.06
433.4	95.06
433.622	81.06
433.844	89.06
434.066	78.06
434.287	86.06
434.509	95.06
434.731	80.06
434.953	84.06
435.175	80.06
435.397	102.06
435.618	81.06
435.84	99.06
436.062	80.06
436.284	91.06
436.505	79.06
436.727	86.06
436.949	85.06
437.17	79.06
437.392	99.06
437.614	84.06
437.835	81.06
438.057	94.06
438.278	82.06
438.5	95.06
438.721	90.06
438.943	97.06
439.165	97.06
439.386	96.06
439.608	85.06
439.829	97.06
440.05	91.06
440.272	98.06
440.493	99.06
440.715	88.06
440.936	92.06
441.158	94.06
441.379	94.06
441.6	97.06
441.822	98.06
442.043	96.06
442.264	97.06
442.486	101.06
442.707	91.06
442.928	83.06
443.149	80.06
443.371	88.06
443.592	80.06
443.813	102.06
444.034	99.06
444.255	104.06
444.476	96.06
444.698	90.06
444.919	99.06
445.14	217.06
445.361	148.06
445.582	106.06
445.803	90.06
446.024	90.06
446.245	90.06
446.466	93.06
446.687	105.06
446.908	101.06
447.129	89.06
447.35	86.06
447.571	95.06
447.792	97.06
448.013	81.06
448.234	89.06
448.455	95.06
448.675	85.06
448.896	93.06
449.117	78.06
449.338	105.06
449.559	99.06
449.779	103.06
450	93.06
450.221	94.06
450.442	89.06
450.662	91.06
450.883	87.06
451.104	96.06
451.324	101.06
451.545	102.06
451.766	86.06
451.986	92.06
452.207	92.06
452.428	86.06
452.648	84.06
452.869	102.06
453.089	92.06
453.31	97.06
453.53	84.06
453.751	96.06
453.971	83.06
454.192	96.06
454.412	83.06
454.633	84.06
454.853	87.06
455.073	80.06
455.294	89.06
455.514	97.06
455.734	97.06
455.955	90.06
456.175	96.06
456.395	82.06
456.616	82.06
456.836	78.06
457.056	102.06
457.276	99.06
457.497	94.06
457.717	81.06
457.937	107.06
458.157	94.06
458.377	94.06
458.598	74.06
458.818	90.06
459.038	83.06
459.258	83.06
459.478	86.06
459.698	82.06
459.918	92.06
460.138	90.06
460.358	77.06
460.578	88.06
460.798	77.06
461.018	93.06
461.238	88.06
461.458	91.06
461.678	94.06
461.898	97.06
462.118	97.06
462.338	77.06
462.558	88.06
462.777	99.06
462.997	80.06
463.217	90.06
463.437	87.06
463.657	73.06
463.876	78.06
464.096	93.06
464.316	90.06
464.536	86.06
464.755	83.06
464.975	93.06
465.195	101.06
465.414	90.06
465.634	83.06
465.854	87.06
466.073	101.06
466.293	75.06
466.512	79.06
466.732	81.06
466.951	89.06
467.171	94.06
467.391	78.06
467.61	90.06
467.829	81.06
468.049	96.06
468.268	80.06
468.488	78.06
468.707	84.06
468.927	97.06
469.146	73.06
469.365	94.06
469.585	86.06
469.804	99.06
470.023	112.06
470.243	100.06
470.462	89.06
470.681	100.06
470.901	91.06
471.12	87.06
471.339	90.06
471.558	88.06
471.777	98.06
471.997	93.06
472.216	90.06
472.435	80.06
472.654	82.06
472.873	90.06
473.092	96.06
473.311	110.06
473.53	85.06
473.749	89.06
473.968	101.06
474.187	88.06
474.406	88.06
474.625	89.06
474.844	88.06
475.063	97.06
475.282	84.06
475.501	98.06
475.72	90.06
475.939	79.06
476.158	95.06
476.377	92.06
476.596	86.06
476.814	92.06
477.033	90.06
477.252	104.06
477.471	99.06
477.69	101.06
477.908	88.06
478.127	100.06
478.346	98.06
478.564	82.06
478.783	88.06
479.002	85.06
479.22	98.06
479.439	98.06
479.658	90.06
479.876	95.06
480.095	68.06
480.313	81.06
480.532	89.06
480.751	84.06
480.969	92.06
481.188	94.06
481.406	93.06
481.624	79.06
481.843	75.06
482.061	93.06
482.28	88.06
482.498	109.06
482.717	99.06
482.935	83.06
483.153	86.06
483.372	110.06
483.59	105.06
483.808	97.06
484.027	104.06
484.245	86.06
484.463	92.06
484.681	99.06
484.9	85.06
485.118	77.06
485.336	86.06
485.554	102.06
485.772	79.06
485.99	86.06
486.209	85.06
486.427	96.06
486.645	89.06
486.863	93.06
487.081	97.06
487.299	100.06
487.517	98.06
487.735	94.06
487.953	97.06
488.171	108.06
488.389	102.06
488.607	105.06
488.825	84.06
489.043	82.06
489.261	88.06
489.479	86.06
489.696	104.06
489.914	98.06
490.132	95.06
490.35	102.06
490.568	102.06
490.786	86.06
491.003	106.06
491.221	110.06
491.439	106.06
491.657	103.06
491.874	129.06
492.092	130.06
492.31	146.06
492.527	129.06
492.745	111.06
492.963	118.06
493.18	116.06
493.398	115.06
493.615	120.06
493.833	117.06
494.05	112.06
494.268	110.06
494.485	111.06
494.703	101.06
494.92	90.06
495.138	98.06
495.355	81.06
495.573	110.06
495.79	108.06
496.008	113.06
496.225	101.06
496.442	97.06
496.66	125.06
496.877	115.06
497.094	115.06
497.312	106.06
497.529	92.06
497.746	97.06
497.963	91.06
498.181	96.06
498.398	89.06
498.615	100.06
498.832	100.06
499.049	80.06
499.267	87.06
499.484	101.06
499.701	86.06
499.918	93.06
500.135	95.06
500.352	102.06
500.569	101.06
500.786	91.06
501.003	101.06
501.22	88.06
501.437	101.06
501.654	89.06
501.871	93.06
502.088	89.06
502.305	87.06
502.522	93.06
502.739	95.06
502.956	89.06
503.172	93.06
503.389	89.06
503.606	95.06
503.823	99.06
504.04	86.06
504.256	90.06
504.473	94.06
504.69	85.06
504.907	81.06
505.123	96.06
505.34	86.06
505.557	94.06
505.773	89.06
505.99	99.06
506.207	92.06
506.423	83.06
506.64	84.06
506.856	97.06
507.073	92.06
507.289	90.06
507.506	97.06
507.722	80.06
507.939	84.06
508.155	86.06
508.372	94.06
508.588	93.06
508.805	92.06
509.021	81.06
509.238	83.06
509.454	97.06
509.67	95.06
509.887	85.06
510.103	77.06
510.319	75.06
510.536	76.06
510.752	70.06
510.968	77.06
511.184	79.06
511.401	74.06
511.617	86.06
511.833	75.06
512.049	87.06
512.265	85.06
512.481	101.06
512.698	92.06
512.914	73.06
513.13	84.06
513.346	80.06
513.562	99.06
513.778	91.06
513.994	91.06
514.21	85.06
514.426	82.06
514.642	93.06
514.858	94.06
515.074	69.06
515.29	99.06
515.506	88.06
515.721	81.06
515.937	86.06
516.153	87.06
516.369	94.06
516.585	86.06
516.801	87.06
517.016	90.06
517.232	89.06
517.448	85.06
517.664	85.06
517.879	92.06
518.095	81.06
