Data from Location5.07152019.Energy5.Lamp.07192019.3%Agarose_HRD10591_16-05-12-629.txt Node
Date: Fri Jul 19 16:05:12 EDT 2019
User: cochatt
Spectrometer: HR+D1059
Trigger mode: 1
Integration Time (sec): 1.000000E-1
Scans to average: 1
Electric dark correction enabled: true
Nonlinearity correction enabled: false
Boxcar width: 0
XAxis mode: Wavelengths
Number of Pixels in Spectrum: 2048
>>>>>Begin Spectral Data<<<<<
223.165	-15.69
223.4	-15.69
223.635	-15.69
223.869	-15.69
224.104	-23.69
224.338	-11.69
224.573	-24.69
224.808	-13.69
225.042	2.31
225.277	-6.69
225.511	19.31
225.746	1.31
225.98	-1.69
226.215	6.31
226.449	10.31
226.683	12.31
226.918	28.31
227.152	33.31
227.387	36.31
227.621	40.31
227.856	52.31
228.09	53.31
228.324	57.31
228.559	46.31
228.793	62.31
229.027	72.31
229.262	62.31
229.496	66.31
229.73	74.31
229.964	80.31
230.199	76.31
230.433	70.31
230.667	79.31
230.901	68.31
231.136	83.31
231.37	84.31
231.604	73.31
231.838	82.31
232.072	69.31
232.306	72.31
232.541	91.31
232.775	87.31
233.009	81.31
233.243	83.31
233.477	93.31
233.711	86.31
233.945	95.31
234.179	78.31
234.413	98.31
234.647	78.31
234.881	89.31
235.115	87.31
235.349	78.31
235.583	82.31
235.817	84.31
236.051	83.31
236.285	87.31
236.519	78.31
236.753	74.31
236.987	83.31
237.221	70.31
237.455	71.31
237.689	85.31
237.922	85.31
238.156	90.31
238.39	68.31
238.624	78.31
238.858	91.31
239.091	85.31
239.325	81.31
239.559	70.31
239.793	65.31
240.027	81.31
240.26	82.31
240.494	71.31
240.728	76.31
240.961	78.31
241.195	76.31
241.429	83.31
241.662	83.31
241.896	75.31
242.13	79.31
242.363	73.31
242.597	86.31
242.83	81.31
243.064	68.31
243.298	74.31
243.531	81.31
243.765	63.31
243.998	73.31
244.232	98.31
244.465	84.31
244.699	77.31
244.932	93.31
245.166	90.31
245.399	81.31
245.633	78.31
245.866	81.31
246.099	70.31
246.333	69.31
246.566	84.31
246.8	73.31
247.033	87.31
247.266	91.31
247.5	84.31
247.733	64.31
247.966	76.31
248.2	94.31
248.433	78.31
248.666	86.31
248.899	77.31
249.133	96.31
249.366	85.31
249.599	100.31
249.832	88.31
250.066	84.31
250.299	84.31
250.532	96.31
250.765	83.31
250.998	86.31
251.231	76.31
251.465	76.31
251.698	77.31
251.931	72.31
252.164	79.31
252.397	80.31
252.63	88.31
252.863	76.31
253.096	83.31
253.329	89.31
253.562	93.31
253.795	97.31
254.028	69.31
254.261	84.31
254.494	89.31
254.727	79.31
254.96	88.31
255.193	84.31
255.426	84.31
255.659	90.31
255.892	101.31
256.124	78.31
256.357	83.31
256.59	68.31
256.823	92.31
257.056	90.31
257.289	87.31
257.521	78.31
257.754	76.31
257.987	74.31
258.22	82.31
258.452	80.31
258.685	97.31
258.918	78.31
259.151	72.31
259.383	83.31
259.616	82.31
259.849	79.31
260.081	85.31
260.314	77.31
260.547	104.31
260.779	82.31
261.012	79.31
261.244	91.31
261.477	98.31
261.71	86.31
261.942	84.31
262.175	70.31
262.407	91.31
262.64	88.31
262.872	88.31
263.105	87.31
263.337	84.31
263.57	81.31
263.802	102.31
264.035	93.31
264.267	88.31
264.499	94.31
264.732	105.31
264.964	83.31
265.197	86.31
265.429	82.31
265.661	74.31
265.894	86.31
266.126	74.31
266.358	84.31
266.591	85.31
266.823	87.31
267.055	83.31
267.287	83.31
267.52	90.31
267.752	87.31
267.984	95.31
268.216	77.31
268.448	86.31
268.681	90.31
268.913	90.31
269.145	80.31
269.377	79.31
269.609	90.31
269.841	92.31
270.073	88.31
270.306	97.31
270.538	106.31
270.77	88.31
271.002	92.31
271.234	91.31
271.466	86.31
271.698	94.31
271.93	84.31
272.162	77.31
272.394	92.31
272.626	77.31
272.858	70.31
273.09	79.31
273.322	74.31
273.553	95.31
273.785	93.31
274.017	88.31
274.249	106.31
274.481	84.31
274.713	83.31
274.945	76.31
275.176	82.31
275.408	92.31
275.64	90.31
275.872	90.31
276.104	92.31
276.335	92.31
276.567	89.31
276.799	83.31
277.031	90.31
277.262	85.31
277.494	98.31
277.726	91.31
277.957	87.31
278.189	85.31
278.421	89.31
278.652	67.31
278.884	101.31
279.115	91.31
279.347	86.31
279.579	95.31
279.81	92.31
280.042	91.31
280.273	78.31
280.505	86.31
280.736	96.31
280.968	93.31
281.199	87.31
281.431	92.31
281.662	105.31
281.894	81.31
282.125	87.31
282.356	87.31
282.588	76.31
282.819	79.31
283.051	95.31
283.282	82.31
283.513	92.31
283.745	73.31
283.976	95.31
284.207	91.31
284.439	84.31
284.67	80.31
284.901	86.31
285.132	85.31
285.364	88.31
285.595	94.31
285.826	91.31
286.057	87.31
286.288	89.31
286.52	76.31
286.751	86.31
286.982	91.31
287.213	87.31
287.444	95.31
287.675	81.31
287.906	89.31
288.138	83.31
288.369	95.31
288.6	82.31
288.831	90.31
289.062	104.31
289.293	96.31
289.524	83.31
289.755	105.31
289.986	89.31
290.217	105.31
290.448	81.31
290.679	102.31
290.91	98.31
291.141	92.31
291.371	90.31
291.602	104.31
291.833	99.31
292.064	90.31
292.295	90.31
292.526	105.31
292.757	84.31
292.987	82.31
293.218	97.31
293.449	85.31
293.68	78.31
293.91	83.31
294.141	91.31
294.372	88.31
294.603	92.31
294.833	104.31
295.064	85.31
295.295	94.31
295.525	88.31
295.756	94.31
295.987	90.31
296.217	90.31
296.448	85.31
296.679	89.31
296.909	89.31
297.14	94.31
297.37	82.31
297.601	90.31
297.831	76.31
298.062	99.31
298.292	74.31
298.523	94.31
298.753	98.31
298.984	86.31
299.214	82.31
299.445	74.31
299.675	101.31
299.905	112.31
300.136	86.31
300.366	89.31
300.597	82.31
300.827	82.31
301.057	100.31
301.288	93.31
301.518	72.31
301.748	83.31
301.979	88.31
302.209	96.31
302.439	81.31
302.669	88.31
302.9	102.31
303.13	89.31
303.36	91.31
303.59	88.31
303.82	94.31
304.051	90.31
304.281	91.31
304.511	94.31
304.741	92.31
304.971	87.31
305.201	105.31
305.431	83.31
305.661	99.31
305.891	89.31
306.121	91.31
306.352	90.31
306.582	87.31
306.812	83.31
307.042	88.31
307.272	83.31
307.502	96.31
307.731	90.31
307.961	86.31
308.191	92.31
308.421	91.31
308.651	92.31
308.881	86.31
309.111	98.31
309.341	90.31
309.571	87.31
309.8	90.31
310.03	100.31
310.26	86.31
310.49	95.31
310.72	87.31
310.949	80.31
311.179	88.31
311.409	95.31
311.639	92.31
311.868	90.31
312.098	87.31
312.328	88.31
312.557	94.31
312.787	100.31
313.017	85.31
313.246	100.31
313.476	97.31
313.706	88.31
313.935	87.31
314.165	84.31
314.394	82.31
314.624	103.31
314.853	100.31
315.083	95.31
315.312	85.31
315.542	88.31
315.771	84.31
316.001	85.31
316.23	95.31
316.46	97.31
316.689	90.31
316.919	84.31
317.148	100.31
317.377	97.31
317.607	86.31
317.836	90.31
318.065	90.31
318.295	86.31
318.524	84.31
318.753	88.31
318.983	95.31
319.212	101.31
319.441	90.31
319.67	95.31
319.9	87.31
320.129	91.31
320.358	101.31
320.587	92.31
320.816	99.31
321.046	89.31
321.275	106.31
321.504	101.31
321.733	83.31
321.962	92.31
322.191	85.31
322.42	100.31
322.649	85.31
322.878	78.31
323.108	96.31
323.337	93.31
323.566	85.31
323.795	81.31
324.024	87.31
324.253	90.31
324.482	95.31
324.71	98.31
324.939	94.31
325.168	108.31
325.397	88.31
325.626	90.31
325.855	89.31
326.084	92.31
326.313	100.31
326.542	95.31
326.77	95.31
326.999	80.31
327.228	83.31
327.457	95.31
327.686	94.31
327.914	89.31
328.143	89.31
328.372	91.31
328.6	89.31
328.829	101.31
329.058	92.31
329.287	100.31
329.515	92.31
329.744	91.31
329.972	90.31
330.201	91.31
330.43	102.31
330.658	94.31
330.887	98.31
331.115	92.31
331.344	84.31
331.572	88.31
331.801	90.31
332.03	96.31
332.258	95.31
332.486	102.31
332.715	102.31
332.943	95.31
333.172	110.31
333.4	99.31
333.629	99.31
333.857	91.31
334.085	110.31
334.314	92.31
334.542	83.31
334.771	90.31
334.999	94.31
335.227	86.31
335.455	95.31
335.684	96.31
335.912	102.31
336.14	96.31
336.369	88.31
336.597	91.31
336.825	89.31
337.053	94.31
337.281	84.31
337.51	80.31
337.738	109.31
337.966	87.31
338.194	91.31
338.422	91.31
338.65	99.31
338.878	104.31
339.106	94.31
339.334	74.31
339.562	81.31
339.79	97.31
340.018	97.31
340.246	97.31
340.474	99.31
340.702	98.31
340.93	95.31
341.158	91.31
341.386	103.31
341.614	96.31
341.842	92.31
342.07	92.31
342.298	80.31
342.526	81.31
342.754	90.31
342.981	97.31
343.209	86.31
343.437	96.31
343.665	101.31
343.893	89.31
344.12	88.31
344.348	97.31
344.576	86.31
344.804	88.31
345.031	90.31
345.259	88.31
345.487	90.31
345.714	88.31
345.942	97.31
346.17	97.31
346.397	76.31
346.625	88.31
346.853	89.31
347.08	78.31
347.308	105.31
347.535	90.31
347.763	90.31
347.99	91.31
348.218	87.31
348.445	92.31
348.673	80.31
348.9	102.31
349.128	70.31
349.355	86.31
349.583	89.31
349.81	94.31
350.037	94.31
350.265	93.31
350.492	91.31
350.72	83.31
350.947	83.31
351.174	92.31
351.402	93.31
351.629	97.31
351.856	79.31
352.083	94.31
352.311	91.31
352.538	87.31
352.765	99.31
352.992	77.31
353.22	80.31
353.447	105.31
353.674	87.31
353.901	103.31
354.128	86.31
354.355	89.31
354.583	86.31
354.81	88.31
355.037	89.31
355.264	85.31
355.491	91.31
355.718	97.31
355.945	91.31
356.172	92.31
356.399	92.31
356.626	87.31
356.853	89.31
357.08	81.31
357.307	96.31
357.534	83.31
357.761	76.31
357.988	74.31
358.215	87.31
358.441	80.31
358.668	87.31
358.895	80.31
359.122	95.31
359.349	91.31
359.576	91.31
359.802	102.31
360.029	72.31
360.256	94.31
360.483	107.31
360.709	100.31
360.936	97.31
361.163	95.31
361.39	95.31
361.616	94.31
361.843	94.31
362.07	90.31
362.296	89.31
362.523	84.31
362.749	81.31
362.976	84.31
363.203	84.31
363.429	84.31
363.656	83.31
363.882	79.31
364.109	87.31
364.335	94.31
364.562	96.31
364.788	93.31
365.015	88.31
365.241	91.31
365.468	116.31
365.694	86.31
365.92	93.31
366.147	94.31
366.373	99.31
366.599	81.31
366.826	78.31
367.052	87.31
367.278	99.31
367.505	87.31
367.731	85.31
367.957	85.31
368.184	94.31
368.41	96.31
368.636	99.31
368.862	89.31
369.089	102.31
369.315	98.31
369.541	96.31
369.767	88.31
369.993	86.31
370.219	93.31
370.445	95.31
370.672	83.31
370.898	86.31
371.124	93.31
371.35	85.31
371.576	102.31
371.802	89.31
372.028	93.31
372.254	94.31
372.48	88.31
372.706	89.31
372.932	87.31
373.158	89.31
373.384	96.31
373.61	87.31
373.835	90.31
374.061	99.31
374.287	102.31
374.513	85.31
374.739	87.31
374.965	99.31
375.191	94.31
375.416	94.31
375.642	92.31
375.868	94.31
376.094	88.31
376.319	75.31
376.545	73.31
376.771	79.31
376.997	86.31
377.222	98.31
377.448	98.31
377.674	80.31
377.899	87.31
378.125	82.31
378.35	97.31
378.576	88.31
378.802	86.31
379.027	96.31
379.253	92.31
379.478	90.31
379.704	93.31
379.929	92.31
380.155	98.31
380.38	86.31
380.606	89.31
380.831	106.31
381.057	101.31
381.282	89.31
381.507	87.31
381.733	100.31
381.958	96.31
382.184	77.31
382.409	82.31
382.634	94.31
382.86	80.31
383.085	89.31
383.31	83.31
383.535	88.31
383.761	94.31
383.986	95.31
384.211	78.31
384.436	87.31
384.662	99.31
384.887	81.31
385.112	97.31
385.337	83.31
385.562	80.31
385.787	82.31
386.013	105.31
386.238	92.31
386.463	93.31
386.688	75.31
386.913	85.31
387.138	106.31
387.363	101.31
387.588	90.31
387.813	95.31
388.038	88.31
388.263	88.31
388.488	73.31
388.713	100.31
388.938	91.31
389.163	95.31
389.387	87.31
389.612	91.31
389.837	101.31
390.062	96.31
390.287	97.31
390.512	86.31
390.736	84.31
390.961	90.31
391.186	92.31
391.411	88.31
391.636	84.31
391.86	96.31
392.085	94.31
392.31	95.31
392.534	105.31
392.759	104.31
392.984	85.31
393.208	88.31
393.433	102.31
393.658	103.31
393.882	98.31
394.107	88.31
394.331	87.31
394.556	110.31
394.78	93.31
395.005	87.31
395.229	105.31
395.454	98.31
395.678	85.31
395.903	101.31
396.127	111.31
396.352	100.31
396.576	81.31
396.801	104.31
397.025	85.31
397.249	89.31
397.474	94.31
397.698	86.31
397.922	98.31
398.147	93.31
398.371	79.31
398.595	92.31
398.82	90.31
399.044	96.31
399.268	93.31
399.492	103.31
399.717	102.31
399.941	107.31
400.165	96.31
400.389	92.31
400.613	105.31
400.837	85.31
401.062	89.31
401.286	89.31
401.51	90.31
401.734	86.31
401.958	103.31
402.182	94.31
402.406	99.31
402.63	90.31
402.854	97.31
403.078	90.31
403.302	95.31
403.526	76.31
403.75	91.31
403.974	88.31
404.198	90.31
404.422	105.31
404.645	90.31
404.869	87.31
405.093	84.31
405.317	110.31
405.541	99.31
405.765	85.31
405.988	107.31
406.212	95.31
406.436	94.31
406.66	102.31
406.883	96.31
407.107	95.31
407.331	86.31
407.555	78.31
407.778	91.31
408.002	89.31
408.226	107.31
408.449	101.31
408.673	85.31
408.896	99.31
409.12	115.31
409.344	87.31
409.567	94.31
409.791	89.31
410.014	79.31
410.238	95.31
410.461	104.31
410.685	94.31
410.908	90.31
411.132	101.31
411.355	91.31
411.578	93.31
411.802	102.31
412.025	93.31
412.249	72.31
412.472	83.31
412.695	95.31
412.919	94.31
413.142	89.31
413.365	102.31
413.589	91.31
413.812	79.31
414.035	81.31
414.258	93.31
414.482	80.31
414.705	79.31
414.928	99.31
415.151	86.31
415.374	112.31
415.597	98.31
415.821	90.31
416.044	105.31
416.267	78.31
416.49	106.31
416.713	98.31
416.936	102.31
417.159	92.31
417.382	83.31
417.605	94.31
417.828	109.31
418.051	100.31
418.274	108.31
418.497	96.31
418.72	97.31
418.943	94.31
419.166	93.31
419.389	99.31
419.611	84.31
419.834	86.31
420.057	98.31
420.28	98.31
420.503	86.31
420.726	93.31
420.948	88.31
421.171	98.31
421.394	91.31
421.617	93.31
421.839	110.31
422.062	96.31
422.285	98.31
422.507	84.31
422.73	98.31
422.953	107.31
423.175	95.31
423.398	98.31
423.621	100.31
423.843	78.31
424.066	81.31
424.288	100.31
424.511	91.31
424.733	98.31
424.956	91.31
425.178	104.31
425.401	91.31
425.623	85.31
425.846	93.31
426.068	97.31
426.291	103.31
426.513	84.31
426.735	78.31
426.958	95.31
427.18	103.31
427.402	106.31
427.625	81.31
427.847	86.31
428.069	91.31
428.292	88.31
428.514	88.31
428.736	90.31
428.958	83.31
429.181	90.31
429.403	88.31
429.625	75.31
429.847	90.31
430.069	84.31
430.292	94.31
430.514	86.31
430.736	102.31
430.958	91.31
431.18	95.31
431.402	96.31
431.624	85.31
431.846	88.31
432.068	88.31
432.29	99.31
432.512	94.31
432.734	79.31
432.956	101.31
433.178	108.31
433.4	93.31
433.622	90.31
433.844	93.31
434.066	93.31
434.287	87.31
434.509	103.31
434.731	101.31
434.953	81.31
435.175	88.31
435.397	95.31
435.618	84.31
435.84	97.31
436.062	83.31
436.284	93.31
436.505	95.31
436.727	93.31
436.949	91.31
437.17	91.31
437.392	97.31
437.614	91.31
437.835	105.31
438.057	98.31
438.278	90.31
438.5	83.31
438.721	99.31
438.943	98.31
439.165	102.31
439.386	92.31
439.608	86.31
439.829	91.31
440.05	95.31
440.272	103.31
440.493	88.31
440.715	89.31
440.936	84.31
441.158	95.31
441.379	86.31
441.6	93.31
441.822	96.31
442.043	90.31
442.264	107.31
442.486	83.31
442.707	94.31
442.928	106.31
443.149	85.31
443.371	82.31
443.592	99.31
443.813	105.31
444.034	90.31
444.255	95.31
444.476	99.31
444.698	92.31
444.919	96.31
445.14	220.31
445.361	148.31
445.582	82.31
445.803	88.31
446.024	74.31
446.245	92.31
446.466	81.31
446.687	93.31
446.908	91.31
447.129	88.31
447.35	102.31
447.571	100.31
447.792	78.31
448.013	96.31
448.234	108.31
448.455	89.31
448.675	96.31
448.896	91.31
449.117	85.31
449.338	98.31
449.559	78.31
449.779	102.31
450	95.31
450.221	91.31
450.442	91.31
450.662	99.31
450.883	78.31
451.104	80.31
451.324	90.31
451.545	103.31
451.766	93.31
451.986	81.31
452.207	97.31
452.428	103.31
452.648	92.31
452.869	96.31
453.089	82.31
453.31	79.31
453.53	93.31
453.751	89.31
453.971	95.31
454.192	95.31
454.412	97.31
454.633	101.31
454.853	90.31
455.073	96.31
455.294	88.31
455.514	95.31
455.734	84.31
455.955	84.31
456.175	87.31
456.395	90.31
456.616	92.31
456.836	91.31
457.056	95.31
457.276	85.31
457.497	84.31
457.717	88.31
457.937	93.31
458.157	94.31
458.377	82.31
458.598	87.31
458.818	89.31
459.038	90.31
459.258	89.31
459.478	99.31
459.698	92.31
459.918	95.31
460.138	98.31
460.358	83.31
460.578	105.31
460.798	89.31
461.018	82.31
461.238	91.31
461.458	83.31
461.678	95.31
461.898	100.31
462.118	94.31
462.338	100.31
462.558	95.31
462.777	104.31
462.997	98.31
463.217	114.31
463.437	104.31
463.657	96.31
463.876	92.31
464.096	94.31
464.316	99.31
464.536	88.31
464.755	99.31
464.975	90.31
465.195	91.31
465.414	101.31
465.634	95.31
465.854	88.31
466.073	105.31
466.293	96.31
466.512	92.31
466.732	95.31
466.951	107.31
467.171	88.31
467.391	96.31
467.61	97.31
467.829	101.31
468.049	98.31
468.268	94.31
468.488	84.31
468.707	83.31
468.927	92.31
469.146	82.31
469.365	111.31
469.585	96.31
469.804	96.31
470.023	111.31
470.243	97.31
470.462	95.31
470.681	102.31
470.901	101.31
471.12	95.31
471.339	95.31
471.558	100.31
471.777	94.31
471.997	89.31
472.216	98.31
472.435	92.31
472.654	87.31
472.873	100.31
473.092	91.31
473.311	95.31
473.53	84.31
473.749	98.31
473.968	103.31
474.187	95.31
474.406	106.31
474.625	103.31
474.844	79.31
475.063	107.31
475.282	106.31
475.501	98.31
475.72	101.31
475.939	84.31
476.158	100.31
476.377	85.31
476.596	96.31
476.814	95.31
477.033	86.31
477.252	92.31
477.471	96.31
477.69	96.31
477.908	107.31
478.127	110.31
478.346	101.31
478.564	91.31
478.783	105.31
479.002	88.31
479.22	89.31
479.439	102.31
479.658	91.31
479.876	84.31
480.095	96.31
480.313	97.31
480.532	101.31
480.751	92.31
480.969	106.31
481.188	98.31
481.406	97.31
481.624	82.31
481.843	89.31
482.061	91.31
482.28	87.31
482.498	100.31
482.717	104.31
482.935	93.31
483.153	100.31
483.372	92.31
483.59	94.31
483.808	107.31
484.027	114.31
484.245	97.31
484.463	114.31
484.681	107.31
484.9	102.31
485.118	99.31
485.336	102.31
485.554	97.31
485.772	108.31
485.99	99.31
486.209	85.31
486.427	103.31
486.645	97.31
486.863	96.31
487.081	104.31
487.299	111.31
487.517	112.31
487.735	95.31
487.953	106.31
488.171	99.31
488.389	115.31
488.607	94.31
488.825	96.31
489.043	111.31
489.261	112.31
489.479	99.31
489.696	111.31
489.914	97.31
490.132	87.31
490.35	96.31
490.568	105.31
490.786	108.31
491.003	108.31
491.221	102.31
491.439	111.31
491.657	122.31
491.874	107.31
492.092	128.31
492.31	112.31
492.527	123.31
492.745	107.31
492.963	100.31
493.18	102.31
493.398	112.31
493.615	106.31
493.833	116.31
494.05	107.31
494.268	96.31
494.485	110.31
494.703	107.31
494.92	120.31
495.138	114.31
495.355	102.31
495.573	114.31
495.79	105.31
496.008	107.31
496.225	104.31
496.442	117.31
496.66	108.31
496.877	106.31
497.094	107.31
497.312	113.31
497.529	104.31
497.746	116.31
497.963	103.31
498.181	106.31
498.398	96.31
498.615	100.31
498.832	112.31
499.049	112.31
499.267	109.31
499.484	127.31
499.701	133.31
499.918	126.31
500.135	135.31
500.352	143.31
500.569	144.31
500.786	139.31
501.003	139.31
501.22	137.31
501.437	121.31
501.654	106.31
501.871	118.31
502.088	124.31
502.305	96.31
502.522	101.31
502.739	100.31
502.956	110.31
503.172	99.31
503.389	108.31
503.606	91.31
503.823	107.31
504.04	119.31
504.256	100.31
504.473	119.31
504.69	86.31
504.907	110.31
505.123	116.31
505.34	101.31
505.557	107.31
505.773	96.31
505.99	94.31
506.207	98.31
506.423	102.31
506.64	105.31
506.856	105.31
507.073	101.31
507.289	110.31
507.506	100.31
507.722	103.31
507.939	113.31
508.155	98.31
508.372	108.31
508.588	103.31
508.805	117.31
509.021	90.31
509.238	100.31
509.454	103.31
509.67	113.31
509.887	91.31
510.103	81.31
510.319	82.31
510.536	100.31
510.752	102.31
510.968	88.31
511.184	99.31
511.401	90.31
511.617	100.31
511.833	102.31
512.049	96.31
512.265	97.31
512.481	101.31
512.698	101.31
512.914	116.31
513.13	102.31
513.346	106.31
513.562	96.31
513.778	79.31
513.994	103.31
514.21	73.31
514.426	84.31
514.642	90.31
514.858	97.31
515.074	94.31
515.29	112.31
515.506	102.31
515.721	96.31
