Data from Location5.07152019.Energy5.Lamp.07192019.3%Agarose_HRD10591_16-03-38-628.txt Node
Date: Fri Jul 19 16:03:38 EDT 2019
User: cochatt
Spectrometer: HR+D1059
Trigger mode: 1
Integration Time (sec): 1.000000E-1
Scans to average: 1
Electric dark correction enabled: true
Nonlinearity correction enabled: false
Boxcar width: 0
XAxis mode: Wavelengths
Number of Pixels in Spectrum: 2048
>>>>>Begin Spectral Data<<<<<
223.165	-10.06
223.4	-10.06
223.635	-10.06
223.869	-6.06
224.104	-16.06
224.338	-22.06
224.573	-15.06
224.808	-24.06
225.042	5.94
225.277	-11.06
225.511	-0.06
225.746	-5.06
225.98	11.94
226.215	1.94
226.449	25.94
226.683	21.94
226.918	19.94
227.152	21.94
227.387	40.94
227.621	27.94
227.856	45.94
228.09	49.94
228.324	56.94
228.559	75.94
228.793	52.94
229.027	55.94
229.262	67.94
229.496	62.94
229.73	55.94
229.964	57.94
230.199	68.94
230.433	69.94
230.667	86.94
230.901	65.94
231.136	96.94
231.37	74.94
231.604	93.94
231.838	87.94
232.072	68.94
232.306	83.94
232.541	81.94
232.775	79.94
233.009	93.94
233.243	68.94
233.477	66.94
233.711	75.94
233.945	83.94
234.179	72.94
234.413	87.94
234.647	90.94
234.881	81.94
235.115	81.94
235.349	80.94
235.583	69.94
235.817	72.94
236.051	74.94
236.285	74.94
236.519	95.94
236.753	85.94
236.987	80.94
237.221	80.94
237.455	85.94
237.689	86.94
237.922	88.94
238.156	80.94
238.39	66.94
238.624	76.94
238.858	77.94
239.091	71.94
239.325	75.94
239.559	68.94
239.793	78.94
240.027	73.94
240.26	63.94
240.494	79.94
240.728	72.94
240.961	63.94
241.195	81.94
241.429	98.94
241.662	89.94
241.896	58.94
242.13	76.94
242.363	72.94
242.597	87.94
242.83	75.94
243.064	69.94
243.298	82.94
243.531	75.94
243.765	70.94
243.998	80.94
244.232	68.94
244.465	70.94
244.699	75.94
244.932	79.94
245.166	86.94
245.399	83.94
245.633	72.94
245.866	64.94
246.099	78.94
246.333	78.94
246.566	74.94
246.8	78.94
247.033	69.94
247.266	72.94
247.5	83.94
247.733	77.94
247.966	93.94
248.2	80.94
248.433	86.94
248.666	78.94
248.899	82.94
249.133	75.94
249.366	89.94
249.599	73.94
249.832	70.94
250.066	85.94
250.299	90.94
250.532	78.94
250.765	99.94
250.998	90.94
251.231	95.94
251.465	95.94
251.698	74.94
251.931	77.94
252.164	82.94
252.397	82.94
252.63	78.94
252.863	73.94
253.096	69.94
253.329	81.94
253.562	87.94
253.795	75.94
254.028	83.94
254.261	93.94
254.494	87.94
254.727	83.94
254.96	79.94
255.193	89.94
255.426	80.94
255.659	72.94
255.892	84.94
256.124	78.94
256.357	87.94
256.59	80.94
256.823	87.94
257.056	76.94
257.289	75.94
257.521	78.94
257.754	68.94
257.987	93.94
258.22	80.94
258.452	68.94
258.685	67.94
258.918	91.94
259.151	86.94
259.383	82.94
259.616	73.94
259.849	75.94
260.081	72.94
260.314	80.94
260.547	71.94
260.779	84.94
261.012	84.94
261.244	70.94
261.477	97.94
261.71	86.94
261.942	71.94
262.175	88.94
262.407	74.94
262.64	93.94
262.872	85.94
263.105	73.94
263.337	76.94
263.57	86.94
263.802	80.94
264.035	74.94
264.267	85.94
264.499	77.94
264.732	74.94
264.964	83.94
265.197	82.94
265.429	82.94
265.661	88.94
265.894	90.94
266.126	71.94
266.358	90.94
266.591	85.94
266.823	89.94
267.055	75.94
267.287	85.94
267.52	70.94
267.752	88.94
267.984	83.94
268.216	99.94
268.448	77.94
268.681	88.94
268.913	88.94
269.145	73.94
269.377	85.94
269.609	69.94
269.841	96.94
270.073	94.94
270.306	90.94
270.538	85.94
270.77	64.94
271.002	85.94
271.234	80.94
271.466	86.94
271.698	81.94
271.93	85.94
272.162	88.94
272.394	84.94
272.626	78.94
272.858	75.94
273.09	95.94
273.322	78.94
273.553	96.94
273.785	81.94
274.017	90.94
274.249	97.94
274.481	66.94
274.713	77.94
274.945	82.94
275.176	72.94
275.408	94.94
275.64	80.94
275.872	79.94
276.104	79.94
276.335	81.94
276.567	83.94
276.799	86.94
277.031	87.94
277.262	89.94
277.494	89.94
277.726	93.94
277.957	72.94
278.189	85.94
278.421	74.94
278.652	98.94
278.884	90.94
279.115	75.94
279.347	74.94
279.579	95.94
279.81	94.94
280.042	93.94
280.273	79.94
280.505	75.94
280.736	98.94
280.968	84.94
281.199	91.94
281.431	92.94
281.662	79.94
281.894	85.94
282.125	91.94
282.356	88.94
282.588	88.94
282.819	95.94
283.051	93.94
283.282	90.94
283.513	81.94
283.745	86.94
283.976	86.94
284.207	92.94
284.439	80.94
284.67	92.94
284.901	87.94
285.132	83.94
285.364	97.94
285.595	85.94
285.826	84.94
286.057	93.94
286.288	74.94
286.52	88.94
286.751	89.94
286.982	86.94
287.213	73.94
287.444	81.94
287.675	90.94
287.906	93.94
288.138	93.94
288.369	86.94
288.6	81.94
288.831	95.94
289.062	88.94
289.293	91.94
289.524	81.94
289.755	82.94
289.986	76.94
290.217	84.94
290.448	90.94
290.679	67.94
290.91	94.94
291.141	89.94
291.371	79.94
291.602	95.94
291.833	77.94
292.064	102.94
292.295	95.94
292.526	91.94
292.757	85.94
292.987	83.94
293.218	86.94
293.449	99.94
293.68	76.94
293.91	77.94
294.141	100.94
294.372	84.94
294.603	90.94
294.833	88.94
295.064	68.94
295.295	94.94
295.525	82.94
295.756	96.94
295.987	96.94
296.217	79.94
296.448	72.94
296.679	90.94
296.909	85.94
297.14	104.94
297.37	89.94
297.601	82.94
297.831	96.94
298.062	86.94
298.292	98.94
298.523	98.94
298.753	90.94
298.984	71.94
299.214	90.94
299.445	90.94
299.675	105.94
299.905	98.94
300.136	83.94
300.366	73.94
300.597	80.94
300.827	89.94
301.057	90.94
301.288	92.94
301.518	83.94
301.748	89.94
301.979	96.94
302.209	87.94
302.439	88.94
302.669	97.94
302.9	87.94
303.13	83.94
303.36	90.94
303.59	81.94
303.82	90.94
304.051	106.94
304.281	78.94
304.511	97.94
304.741	92.94
304.971	88.94
305.201	83.94
305.431	81.94
305.661	105.94
305.891	87.94
306.121	91.94
306.352	81.94
306.582	97.94
306.812	83.94
307.042	94.94
307.272	85.94
307.502	91.94
307.731	96.94
307.961	93.94
308.191	83.94
308.421	93.94
308.651	83.94
308.881	96.94
309.111	98.94
309.341	81.94
309.571	83.94
309.8	83.94
310.03	101.94
310.26	95.94
310.49	98.94
310.72	100.94
310.949	79.94
311.179	90.94
311.409	95.94
311.639	85.94
311.868	84.94
312.098	81.94
312.328	85.94
312.557	80.94
312.787	94.94
313.017	94.94
313.246	78.94
313.476	78.94
313.706	85.94
313.935	95.94
314.165	97.94
314.394	86.94
314.624	91.94
314.853	97.94
315.083	75.94
315.312	84.94
315.542	80.94
315.771	83.94
316.001	81.94
316.23	95.94
316.46	87.94
316.689	86.94
316.919	80.94
317.148	93.94
317.377	96.94
317.607	87.94
317.836	103.94
318.065	94.94
318.295	90.94
318.524	80.94
318.753	85.94
318.983	104.94
319.212	98.94
319.441	92.94
319.67	99.94
319.9	76.94
320.129	78.94
320.358	94.94
320.587	86.94
320.816	83.94
321.046	102.94
321.275	83.94
321.504	86.94
321.733	86.94
321.962	87.94
322.191	104.94
322.42	96.94
322.649	89.94
322.878	88.94
323.108	93.94
323.337	89.94
323.566	88.94
323.795	82.94
324.024	85.94
324.253	86.94
324.482	98.94
324.71	86.94
324.939	81.94
325.168	92.94
325.397	75.94
325.626	79.94
325.855	88.94
326.084	82.94
326.313	82.94
326.542	91.94
326.77	100.94
326.999	85.94
327.228	93.94
327.457	94.94
327.686	88.94
327.914	91.94
328.143	86.94
328.372	82.94
328.6	85.94
328.829	102.94
329.058	86.94
329.287	79.94
329.515	98.94
329.744	101.94
329.972	97.94
330.201	93.94
330.43	81.94
330.658	66.94
330.887	99.94
331.115	86.94
331.344	94.94
331.572	91.94
331.801	88.94
332.03	99.94
332.258	97.94
332.486	89.94
332.715	81.94
332.943	86.94
333.172	85.94
333.4	86.94
333.629	91.94
333.857	90.94
334.085	93.94
334.314	99.94
334.542	96.94
334.771	81.94
334.999	88.94
335.227	87.94
335.455	82.94
335.684	93.94
335.912	103.94
336.14	107.94
336.369	105.94
336.597	97.94
336.825	105.94
337.053	94.94
337.281	82.94
337.51	89.94
337.738	89.94
337.966	74.94
338.194	82.94
338.422	86.94
338.65	95.94
338.878	91.94
339.106	95.94
339.334	89.94
339.562	87.94
339.79	97.94
340.018	81.94
340.246	85.94
340.474	83.94
340.702	101.94
340.93	92.94
341.158	85.94
341.386	88.94
341.614	95.94
341.842	91.94
342.07	89.94
342.298	84.94
342.526	89.94
342.754	98.94
342.981	98.94
343.209	94.94
343.437	110.94
343.665	77.94
343.893	86.94
344.12	104.94
344.348	103.94
344.576	85.94
344.804	94.94
345.031	88.94
345.259	86.94
345.487	98.94
345.714	85.94
345.942	90.94
346.17	75.94
346.397	81.94
346.625	84.94
346.853	85.94
347.08	89.94
347.308	98.94
347.535	91.94
347.763	100.94
347.99	90.94
348.218	102.94
348.445	89.94
348.673	81.94
348.9	88.94
349.128	88.94
349.355	89.94
349.583	87.94
349.81	101.94
350.037	100.94
350.265	88.94
350.492	91.94
350.72	98.94
350.947	90.94
351.174	92.94
351.402	97.94
351.629	86.94
351.856	89.94
352.083	84.94
352.311	83.94
352.538	86.94
352.765	99.94
352.992	98.94
353.22	89.94
353.447	82.94
353.674	81.94
353.901	82.94
354.128	91.94
354.355	89.94
354.583	95.94
354.81	87.94
355.037	94.94
355.264	96.94
355.491	85.94
355.718	90.94
355.945	89.94
356.172	84.94
356.399	83.94
356.626	83.94
356.853	96.94
357.08	91.94
357.307	85.94
357.534	87.94
357.761	70.94
357.988	107.94
358.215	96.94
358.441	85.94
358.668	78.94
358.895	86.94
359.122	88.94
359.349	91.94
359.576	77.94
359.802	75.94
360.029	78.94
360.256	85.94
360.483	88.94
360.709	91.94
360.936	104.94
361.163	100.94
361.39	97.94
361.616	74.94
361.843	94.94
362.07	79.94
362.296	89.94
362.523	78.94
362.749	87.94
362.976	99.94
363.203	92.94
363.429	75.94
363.656	102.94
363.882	85.94
364.109	91.94
364.335	94.94
364.562	98.94
364.788	89.94
365.015	83.94
365.241	109.94
365.468	97.94
365.694	97.94
365.92	103.94
366.147	93.94
366.373	99.94
366.599	90.94
366.826	89.94
367.052	81.94
367.278	110.94
367.505	97.94
367.731	82.94
367.957	93.94
368.184	95.94
368.41	98.94
368.636	94.94
368.862	94.94
369.089	78.94
369.315	76.94
369.541	98.94
369.767	99.94
369.993	80.94
370.219	92.94
370.445	88.94
370.672	80.94
370.898	103.94
371.124	74.94
371.35	79.94
371.576	77.94
371.802	80.94
372.028	89.94
372.254	97.94
372.48	75.94
372.706	114.94
372.932	83.94
373.158	88.94
373.384	66.94
373.61	95.94
373.835	85.94
374.061	78.94
374.287	95.94
374.513	86.94
374.739	104.94
374.965	93.94
375.191	85.94
375.416	89.94
375.642	100.94
375.868	104.94
376.094	95.94
376.319	87.94
376.545	93.94
376.771	91.94
376.997	93.94
377.222	77.94
377.448	102.94
377.674	94.94
377.899	78.94
378.125	84.94
378.35	95.94
378.576	94.94
378.802	93.94
379.027	79.94
379.253	103.94
379.478	86.94
379.704	86.94
379.929	85.94
380.155	84.94
380.38	98.94
380.606	94.94
380.831	83.94
381.057	105.94
381.282	85.94
381.507	96.94
381.733	83.94
381.958	96.94
382.184	96.94
382.409	97.94
382.634	98.94
382.86	99.94
383.085	92.94
383.31	92.94
383.535	97.94
383.761	85.94
383.986	89.94
384.211	93.94
384.436	94.94
384.662	95.94
384.887	101.94
385.112	88.94
385.337	102.94
385.562	86.94
385.787	91.94
386.013	95.94
386.238	100.94
386.463	95.94
386.688	82.94
386.913	86.94
387.138	97.94
387.363	95.94
387.588	96.94
387.813	88.94
388.038	88.94
388.263	99.94
388.488	90.94
388.713	84.94
388.938	89.94
389.163	86.94
389.387	83.94
389.612	86.94
389.837	97.94
390.062	98.94
390.287	104.94
390.512	90.94
390.736	90.94
390.961	91.94
391.186	84.94
391.411	95.94
391.636	97.94
391.86	93.94
392.085	95.94
392.31	94.94
392.534	89.94
392.759	86.94
392.984	85.94
393.208	100.94
393.433	83.94
393.658	98.94
393.882	87.94
394.107	106.94
394.331	88.94
394.556	88.94
394.78	88.94
395.005	98.94
395.229	82.94
395.454	80.94
395.678	58.94
395.903	81.94
396.127	106.94
396.352	85.94
396.576	85.94
396.801	101.94
397.025	106.94
397.249	97.94
397.474	100.94
397.698	87.94
397.922	96.94
398.147	94.94
398.371	90.94
398.595	104.94
398.82	82.94
399.044	105.94
399.268	101.94
399.492	105.94
399.717	101.94
399.941	106.94
400.165	97.94
400.389	110.94
400.613	100.94
400.837	93.94
401.062	98.94
401.286	107.94
401.51	84.94
401.734	89.94
401.958	103.94
402.182	100.94
402.406	96.94
402.63	100.94
402.854	101.94
403.078	90.94
403.302	85.94
403.526	85.94
403.75	101.94
403.974	101.94
404.198	99.94
404.422	102.94
404.645	99.94
404.869	99.94
405.093	106.94
405.317	101.94
405.541	86.94
405.765	111.94
405.988	97.94
406.212	92.94
406.436	91.94
406.66	107.94
406.883	96.94
407.107	97.94
407.331	93.94
407.555	107.94
407.778	95.94
408.002	109.94
408.226	104.94
408.449	99.94
408.673	89.94
408.896	91.94
409.12	90.94
409.344	96.94
409.567	88.94
409.791	91.94
410.014	97.94
410.238	95.94
410.461	91.94
410.685	92.94
410.908	102.94
411.132	91.94
411.355	97.94
411.578	81.94
411.802	91.94
412.025	92.94
412.249	88.94
412.472	101.94
412.695	98.94
412.919	100.94
413.142	102.94
413.365	114.94
413.589	90.94
413.812	78.94
414.035	78.94
414.258	86.94
414.482	81.94
414.705	92.94
414.928	93.94
415.151	103.94
415.374	106.94
415.597	84.94
415.821	86.94
416.044	99.94
416.267	96.94
416.49	89.94
416.713	112.94
416.936	90.94
417.159	90.94
417.382	101.94
417.605	91.94
417.828	90.94
418.051	110.94
418.274	93.94
418.497	98.94
418.72	100.94
418.943	105.94
419.166	86.94
419.389	100.94
419.611	100.94
419.834	102.94
420.057	94.94
420.28	80.94
420.503	99.94
420.726	82.94
420.948	100.94
421.171	90.94
421.394	99.94
421.617	103.94
421.839	89.94
422.062	99.94
422.285	88.94
422.507	103.94
422.73	94.94
422.953	89.94
423.175	79.94
423.398	88.94
423.621	101.94
423.843	97.94
424.066	99.94
424.288	111.94
424.511	95.94
424.733	83.94
424.956	98.94
425.178	86.94
425.401	86.94
425.623	89.94
425.846	87.94
426.068	89.94
426.291	93.94
426.513	86.94
426.735	86.94
426.958	95.94
427.18	80.94
427.402	97.94
427.625	106.94
427.847	94.94
428.069	98.94
428.292	102.94
428.514	78.94
428.736	95.94
428.958	90.94
429.181	105.94
429.403	101.94
429.625	93.94
429.847	90.94
430.069	94.94
430.292	95.94
430.514	104.94
430.736	91.94
430.958	98.94
431.18	103.94
431.402	97.94
431.624	89.94
431.846	94.94
432.068	84.94
432.29	84.94
432.512	88.94
432.734	90.94
432.956	99.94
433.178	95.94
433.4	104.94
433.622	97.94
433.844	95.94
434.066	95.94
434.287	88.94
434.509	90.94
434.731	99.94
434.953	96.94
435.175	95.94
435.397	92.94
435.618	99.94
435.84	81.94
436.062	82.94
436.284	91.94
436.505	93.94
436.727	94.94
436.949	89.94
437.17	94.94
437.392	74.94
437.614	90.94
437.835	93.94
438.057	85.94
438.278	83.94
438.5	88.94
438.721	90.94
438.943	89.94
439.165	103.94
439.386	110.94
439.608	89.94
439.829	93.94
440.05	89.94
440.272	88.94
440.493	94.94
440.715	115.94
440.936	85.94
441.158	89.94
441.379	107.94
441.6	102.94
441.822	91.94
442.043	100.94
442.264	100.94
442.486	87.94
442.707	91.94
442.928	92.94
443.149	97.94
443.371	98.94
443.592	96.94
443.813	86.94
444.034	95.94
444.255	82.94
444.476	89.94
444.698	101.94
444.919	93.94
445.14	213.94
445.361	134.94
445.582	99.94
445.803	87.94
446.024	91.94
446.245	89.94
446.466	94.94
446.687	91.94
446.908	90.94
447.129	106.94
447.35	76.94
447.571	107.94
447.792	96.94
448.013	100.94
448.234	99.94
448.455	96.94
448.675	95.94
448.896	90.94
449.117	86.94
449.338	95.94
449.559	99.94
449.779	84.94
450	90.94
450.221	97.94
450.442	91.94
450.662	86.94
450.883	95.94
451.104	88.94
451.324	97.94
451.545	95.94
451.766	95.94
451.986	79.94
452.207	95.94
452.428	83.94
452.648	84.94
452.869	88.94
453.089	85.94
453.31	95.94
453.53	99.94
453.751	88.94
453.971	88.94
454.192	95.94
454.412	91.94
454.633	79.94
454.853	95.94
455.073	86.94
455.294	90.94
455.514	94.94
455.734	88.94
455.955	97.94
456.175	93.94
456.395	89.94
456.616	97.94
456.836	90.94
457.056	82.94
457.276	93.94
457.497	102.94
457.717	93.94
457.937	96.94
458.157	97.94
458.377	96.94
458.598	102.94
458.818	97.94
459.038	90.94
459.258	89.94
459.478	98.94
459.698	106.94
459.918	91.94
460.138	97.94
460.358	96.94
460.578	96.94
460.798	98.94
461.018	94.94
461.238	99.94
461.458	92.94
461.678	99.94
461.898	85.94
462.118	91.94
462.338	90.94
462.558	91.94
462.777	92.94
462.997	105.94
463.217	98.94
463.437	105.94
463.657	98.94
463.876	99.94
464.096	106.94
464.316	106.94
464.536	99.94
464.755	117.94
464.975	102.94
465.195	113.94
465.414	93.94
465.634	96.94
465.854	97.94
466.073	93.94
466.293	92.94
466.512	86.94
466.732	102.94
466.951	94.94
467.171	96.94
467.391	102.94
467.61	88.94
467.829	104.94
468.049	86.94
468.268	93.94
468.488	95.94
468.707	90.94
468.927	92.94
469.146	98.94
469.365	115.94
469.585	80.94
469.804	96.94
470.023	95.94
470.243	110.94
470.462	112.94
470.681	103.94
470.901	88.94
471.12	96.94
471.339	104.94
471.558	104.94
471.777	105.94
471.997	109.94
472.216	93.94
472.435	103.94
472.654	102.94
472.873	97.94
473.092	108.94
473.311	93.94
473.53	81.94
473.749	86.94
473.968	86.94
474.187	94.94
474.406	85.94
474.625	100.94
474.844	93.94
475.063	111.94
475.282	111.94
475.501	97.94
475.72	104.94
475.939	99.94
476.158	101.94
476.377	94.94
476.596	104.94
476.814	88.94
477.033	101.94
477.252	87.94
477.471	98.94
477.69	96.94
477.908	110.94
478.127	115.94
478.346	109.94
478.564	93.94
478.783	97.94
479.002	98.94
479.22	103.94
479.439	97.94
479.658	88.94
479.876	90.94
480.095	101.94
480.313	90.94
480.532	103.94
480.751	91.94
480.969	111.94
481.188	113.94
481.406	107.94
481.624	96.94
481.843	94.94
482.061	94.94
482.28	91.94
482.498	93.94
482.717	99.94
482.935	102.94
483.153	100.94
483.372	98.94
483.59	110.94
483.808	94.94
484.027	99.94
484.245	113.94
484.463	87.94
484.681	113.94
484.9	102.94
485.118	96.94
485.336	96.94
485.554	91.94
485.772	87.94
485.99	88.94
486.209	109.94
486.427	95.94
486.645	96.94
486.863	99.94
487.081	100.94
487.299	95.94
487.517	99.94
487.735	99.94
487.953	105.94
488.171	102.94
488.389	104.94
488.607	88.94
488.825	111.94
489.043	113.94
489.261	113.94
489.479	104.94
489.696	108.94
489.914	111.94
490.132	102.94
490.35	125.94
490.568	118.94
490.786	97.94
491.003	109.94
491.221	112.94
491.439	124.94
491.657	100.94
491.874	102.94
492.092	114.94
492.31	111.94
492.527	106.94
492.745	121.94
492.963	121.94
493.18	115.94
493.398	113.94
493.615	115.94
493.833	119.94
494.05	104.94
494.268	115.94
494.485	120.94
494.703	114.94
494.92	129.94
495.138	114.94
495.355	105.94
495.573	115.94
495.79	120.94
496.008	101.94
496.225	109.94
496.442	101.94
496.66	122.94
496.877	107.94
497.094	104.94
497.312	117.94
497.529	109.94
497.746	110.94
497.963	96.94
498.181	109.94
498.398	121.94
498.615	115.94
498.832	114.94
499.049	119.94
499.267	109.94
499.484	130.94
499.701	117.94
499.918	125.94
500.135	147.94
500.352	150.94
500.569	158.94
500.786	165.94
501.003	145.94
501.22	137.94
501.437	143.94
501.654	129.94
501.871	129.94
502.088	115.94
502.305	122.94
502.522	121.94
502.739	111.94
502.956	113.94
503.172	110.94
503.389	111.94
503.606	114.94
503.823	109.94
504.04	121.94
504.256	123.94
504.473	112.94
504.69	106.94
504.907	113.94
505.123	101.94
505.34	99.94
505.557	107.94
505.773	113.94
505.99	96.94
506.207	84.94
506.423	100.94
506.64	97.94
506.856	102.94
507.073	112.94
507.289	97.94
507.506	98.94
507.722	103.94
507.939	96.94
508.155	91.94
508.372	84.94
508.588	109.94
508.805	94.94
509.021	97.94
509.238	104.94
509.454	97.94
509.67	115.94
509.887	89.94
510.103	107.94
510.319	90.94
510.536	101.94
510.752	86.94
510.968	80.94
511.184	100.94
511.401	90.94
511.617	98.94
511.833	93.94
512.049	106.94
512.265	112.94
512.481	102.94
512.698	105.94
512.914	91.94
513.13	111.94
513.346	91.94
513.562	95.94
513.778	96.94
513.994	103.94
514.21	101.94
514.426	101.94
514.642	91.94
514.858	113.94
515.074	91.94
515.29	96.94
515.506	105.94
515.721	88.94
