Data from Location5.07152019.Energy5.Lamp.07192019.3%Agarose_HRD10591_16-05-37-629.txt Node
Date: Fri Jul 19 16:05:37 EDT 2019
User: cochatt
Spectrometer: HR+D1059
Trigger mode: 1
Integration Time (sec): 1.000000E-1
Scans to average: 1
Electric dark correction enabled: true
Nonlinearity correction enabled: false
Boxcar width: 0
XAxis mode: Wavelengths
Number of Pixels in Spectrum: 2048
>>>>>Begin Spectral Data<<<<<
223.165	-24.81
223.4	-24.81
223.635	-24.81
223.869	-12.81
224.104	-28.81
224.338	6.19
224.573	-14.81
224.808	-23.81
225.042	-3.81
225.277	-6.81
225.511	2.19
225.746	0.19
225.98	22.19
226.215	7.19
226.449	18.19
226.683	11.19
226.918	17.19
227.152	31.19
227.387	28.19
227.621	37.19
227.856	35.19
228.09	43.19
228.324	63.19
228.559	46.19
228.793	54.19
229.027	59.19
229.262	63.19
229.496	59.19
229.73	61.19
229.964	67.19
230.199	59.19
230.433	76.19
230.667	77.19
230.901	54.19
231.136	83.19
231.37	77.19
231.604	78.19
231.838	81.19
232.072	80.19
232.306	85.19
232.541	86.19
232.775	72.19
233.009	75.19
233.243	78.19
233.477	79.19
233.711	95.19
233.945	72.19
234.179	75.19
234.413	86.19
234.647	79.19
234.881	83.19
235.115	80.19
235.349	78.19
235.583	78.19
235.817	82.19
236.051	82.19
236.285	67.19
236.519	82.19
236.753	70.19
236.987	71.19
237.221	76.19
237.455	64.19
237.689	70.19
237.922	82.19
238.156	77.19
238.39	77.19
238.624	75.19
238.858	72.19
239.091	72.19
239.325	64.19
239.559	81.19
239.793	48.19
240.027	77.19
240.26	77.19
240.494	71.19
240.728	72.19
240.961	70.19
241.195	74.19
241.429	89.19
241.662	58.19
241.896	77.19
242.13	84.19
242.363	80.19
242.597	66.19
242.83	78.19
243.064	83.19
243.298	77.19
243.531	78.19
243.765	75.19
243.998	74.19
244.232	77.19
244.465	79.19
244.699	82.19
244.932	77.19
245.166	76.19
245.399	90.19
245.633	94.19
245.866	85.19
246.099	73.19
246.333	69.19
246.566	77.19
246.8	71.19
247.033	78.19
247.266	70.19
247.5	78.19
247.733	67.19
247.966	72.19
248.2	81.19
248.433	88.19
248.666	86.19
248.899	84.19
249.133	85.19
249.366	88.19
249.599	75.19
249.832	81.19
250.066	73.19
250.299	84.19
250.532	77.19
250.765	70.19
250.998	72.19
251.231	74.19
251.465	89.19
251.698	75.19
251.931	85.19
252.164	84.19
252.397	81.19
252.63	85.19
252.863	91.19
253.096	75.19
253.329	80.19
253.562	79.19
253.795	74.19
254.028	92.19
254.261	89.19
254.494	80.19
254.727	83.19
254.96	86.19
255.193	83.19
255.426	74.19
255.659	88.19
255.892	65.19
256.124	64.19
256.357	75.19
256.59	84.19
256.823	82.19
257.056	82.19
257.289	81.19
257.521	79.19
257.754	81.19
257.987	83.19
258.22	89.19
258.452	66.19
258.685	86.19
258.918	85.19
259.151	84.19
259.383	78.19
259.616	72.19
259.849	93.19
260.081	79.19
260.314	90.19
260.547	93.19
260.779	80.19
261.012	78.19
261.244	87.19
261.477	88.19
261.71	87.19
261.942	73.19
262.175	90.19
262.407	83.19
262.64	75.19
262.872	74.19
263.105	59.19
263.337	86.19
263.57	79.19
263.802	69.19
264.035	87.19
264.267	93.19
264.499	80.19
264.732	75.19
264.964	84.19
265.197	65.19
265.429	79.19
265.661	79.19
265.894	112.19
266.126	80.19
266.358	90.19
266.591	88.19
266.823	79.19
267.055	71.19
267.287	78.19
267.52	86.19
267.752	79.19
267.984	85.19
268.216	97.19
268.448	79.19
268.681	86.19
268.913	86.19
269.145	82.19
269.377	84.19
269.609	94.19
269.841	84.19
270.073	72.19
270.306	93.19
270.538	78.19
270.77	87.19
271.002	82.19
271.234	87.19
271.466	81.19
271.698	80.19
271.93	74.19
272.162	87.19
272.394	85.19
272.626	80.19
272.858	86.19
273.09	94.19
273.322	72.19
273.553	84.19
273.785	80.19
274.017	83.19
274.249	83.19
274.481	89.19
274.713	88.19
274.945	90.19
275.176	76.19
275.408	82.19
275.64	98.19
275.872	89.19
276.104	89.19
276.335	75.19
276.567	83.19
276.799	84.19
277.031	92.19
277.262	89.19
277.494	94.19
277.726	87.19
277.957	87.19
278.189	90.19
278.421	80.19
278.652	94.19
278.884	80.19
279.115	88.19
279.347	88.19
279.579	83.19
279.81	74.19
280.042	74.19
280.273	87.19
280.505	99.19
280.736	89.19
280.968	75.19
281.199	62.19
281.431	82.19
281.662	74.19
281.894	90.19
282.125	94.19
282.356	91.19
282.588	83.19
282.819	80.19
283.051	90.19
283.282	81.19
283.513	91.19
283.745	93.19
283.976	90.19
284.207	81.19
284.439	94.19
284.67	97.19
284.901	87.19
285.132	95.19
285.364	84.19
285.595	79.19
285.826	81.19
286.057	81.19
286.288	77.19
286.52	98.19
286.751	93.19
286.982	80.19
287.213	80.19
287.444	77.19
287.675	84.19
287.906	96.19
288.138	104.19
288.369	83.19
288.6	99.19
288.831	85.19
289.062	85.19
289.293	85.19
289.524	86.19
289.755	84.19
289.986	85.19
290.217	83.19
290.448	74.19
290.679	91.19
290.91	95.19
291.141	77.19
291.371	87.19
291.602	98.19
291.833	79.19
292.064	81.19
292.295	88.19
292.526	83.19
292.757	81.19
292.987	95.19
293.218	77.19
293.449	81.19
293.68	81.19
293.91	87.19
294.141	89.19
294.372	85.19
294.603	81.19
294.833	97.19
295.064	88.19
295.295	80.19
295.525	96.19
295.756	83.19
295.987	81.19
296.217	77.19
296.448	97.19
296.679	74.19
296.909	95.19
297.14	93.19
297.37	101.19
297.601	67.19
297.831	92.19
298.062	91.19
298.292	74.19
298.523	94.19
298.753	94.19
298.984	79.19
299.214	95.19
299.445	89.19
299.675	79.19
299.905	82.19
300.136	84.19
300.366	87.19
300.597	97.19
300.827	103.19
301.057	74.19
301.288	89.19
301.518	101.19
301.748	82.19
301.979	85.19
302.209	83.19
302.439	83.19
302.669	89.19
302.9	79.19
303.13	85.19
303.36	95.19
303.59	87.19
303.82	87.19
304.051	76.19
304.281	86.19
304.511	83.19
304.741	89.19
304.971	101.19
305.201	93.19
305.431	90.19
305.661	90.19
305.891	87.19
306.121	94.19
306.352	68.19
306.582	82.19
306.812	87.19
307.042	80.19
307.272	90.19
307.502	98.19
307.731	97.19
307.961	88.19
308.191	84.19
308.421	92.19
308.651	84.19
308.881	93.19
309.111	88.19
309.341	85.19
309.571	85.19
309.8	77.19
310.03	83.19
310.26	73.19
310.49	75.19
310.72	82.19
310.949	97.19
311.179	97.19
311.409	83.19
311.639	84.19
311.868	90.19
312.098	92.19
312.328	94.19
312.557	89.19
312.787	91.19
313.017	83.19
313.246	82.19
313.476	79.19
313.706	83.19
313.935	112.19
314.165	86.19
314.394	81.19
314.624	101.19
314.853	87.19
315.083	93.19
315.312	79.19
315.542	88.19
315.771	89.19
316.001	79.19
316.23	93.19
316.46	82.19
316.689	85.19
316.919	71.19
317.148	97.19
317.377	89.19
317.607	88.19
317.836	94.19
318.065	86.19
318.295	78.19
318.524	98.19
318.753	99.19
318.983	101.19
319.212	80.19
319.441	85.19
319.67	94.19
319.9	97.19
320.129	97.19
320.358	102.19
320.587	90.19
320.816	83.19
321.046	82.19
321.275	101.19
321.504	89.19
321.733	93.19
321.962	87.19
322.191	81.19
322.42	85.19
322.649	87.19
322.878	93.19
323.108	81.19
323.337	79.19
323.566	87.19
323.795	96.19
324.024	90.19
324.253	90.19
324.482	84.19
324.71	77.19
324.939	94.19
325.168	91.19
325.397	87.19
325.626	102.19
325.855	86.19
326.084	75.19
326.313	87.19
326.542	84.19
326.77	96.19
326.999	91.19
327.228	87.19
327.457	83.19
327.686	91.19
327.914	94.19
328.143	85.19
328.372	78.19
328.6	84.19
328.829	83.19
329.058	78.19
329.287	77.19
329.515	81.19
329.744	93.19
329.972	83.19
330.201	82.19
330.43	91.19
330.658	96.19
330.887	97.19
331.115	83.19
331.344	87.19
331.572	82.19
331.801	85.19
332.03	91.19
332.258	100.19
332.486	79.19
332.715	96.19
332.943	92.19
333.172	81.19
333.4	88.19
333.629	97.19
333.857	72.19
334.085	91.19
334.314	87.19
334.542	99.19
334.771	79.19
334.999	100.19
335.227	89.19
335.455	95.19
335.684	89.19
335.912	93.19
336.14	93.19
336.369	93.19
336.597	75.19
336.825	74.19
337.053	71.19
337.281	90.19
337.51	82.19
337.738	76.19
337.966	74.19
338.194	100.19
338.422	90.19
338.65	97.19
338.878	97.19
339.106	88.19
339.334	78.19
339.562	71.19
339.79	90.19
340.018	82.19
340.246	87.19
340.474	78.19
340.702	74.19
340.93	82.19
341.158	84.19
341.386	86.19
341.614	92.19
341.842	81.19
342.07	74.19
342.298	95.19
342.526	86.19
342.754	79.19
342.981	86.19
343.209	105.19
343.437	91.19
343.665	91.19
343.893	93.19
344.12	88.19
344.348	96.19
344.576	89.19
344.804	96.19
345.031	90.19
345.259	89.19
345.487	89.19
345.714	90.19
345.942	81.19
346.17	86.19
346.397	90.19
346.625	83.19
346.853	109.19
347.08	65.19
347.308	74.19
347.535	98.19
347.763	80.19
347.99	88.19
348.218	87.19
348.445	67.19
348.673	82.19
348.9	81.19
349.128	91.19
349.355	89.19
349.583	80.19
349.81	98.19
350.037	84.19
350.265	93.19
350.492	104.19
350.72	90.19
350.947	75.19
351.174	85.19
351.402	81.19
351.629	88.19
351.856	82.19
352.083	87.19
352.311	91.19
352.538	90.19
352.765	88.19
352.992	93.19
353.22	78.19
353.447	81.19
353.674	87.19
353.901	86.19
354.128	84.19
354.355	91.19
354.583	80.19
354.81	94.19
355.037	86.19
355.264	88.19
355.491	85.19
355.718	90.19
355.945	82.19
356.172	97.19
356.399	80.19
356.626	81.19
356.853	96.19
357.08	77.19
357.307	104.19
357.534	88.19
357.761	89.19
357.988	78.19
358.215	77.19
358.441	106.19
358.668	99.19
358.895	89.19
359.122	78.19
359.349	83.19
359.576	83.19
359.802	96.19
360.029	85.19
360.256	81.19
360.483	85.19
360.709	88.19
360.936	87.19
361.163	103.19
361.39	69.19
361.616	86.19
361.843	97.19
362.07	93.19
362.296	78.19
362.523	75.19
362.749	61.19
362.976	77.19
363.203	97.19
363.429	73.19
363.656	80.19
363.882	82.19
364.109	87.19
364.335	91.19
364.562	80.19
364.788	74.19
365.015	91.19
365.241	82.19
365.468	97.19
365.694	79.19
365.92	98.19
366.147	86.19
366.373	104.19
366.599	91.19
366.826	82.19
367.052	83.19
367.278	88.19
367.505	90.19
367.731	87.19
367.957	72.19
368.184	86.19
368.41	80.19
368.636	78.19
368.862	95.19
369.089	101.19
369.315	74.19
369.541	93.19
369.767	90.19
369.993	84.19
370.219	81.19
370.445	83.19
370.672	90.19
370.898	87.19
371.124	94.19
371.35	87.19
371.576	98.19
371.802	81.19
372.028	91.19
372.254	79.19
372.48	101.19
372.706	87.19
372.932	87.19
373.158	90.19
373.384	104.19
373.61	87.19
373.835	98.19
374.061	95.19
374.287	93.19
374.513	86.19
374.739	88.19
374.965	95.19
375.191	93.19
375.416	84.19
375.642	90.19
375.868	83.19
376.094	79.19
376.319	83.19
376.545	79.19
376.771	93.19
376.997	95.19
377.222	89.19
377.448	85.19
377.674	84.19
377.899	90.19
378.125	91.19
378.35	78.19
378.576	75.19
378.802	69.19
379.027	98.19
379.253	96.19
379.478	98.19
379.704	86.19
379.929	94.19
380.155	100.19
380.38	93.19
380.606	79.19
380.831	74.19
381.057	88.19
381.282	83.19
381.507	80.19
381.733	98.19
381.958	86.19
382.184	83.19
382.409	85.19
382.634	92.19
382.86	75.19
383.085	92.19
383.31	78.19
383.535	98.19
383.761	89.19
383.986	83.19
384.211	104.19
384.436	101.19
384.662	94.19
384.887	87.19
385.112	87.19
385.337	90.19
385.562	88.19
385.787	88.19
386.013	85.19
386.238	91.19
386.463	100.19
386.688	94.19
386.913	92.19
387.138	95.19
387.363	79.19
387.588	81.19
387.813	99.19
388.038	101.19
388.263	96.19
388.488	100.19
388.713	81.19
388.938	74.19
389.163	84.19
389.387	76.19
389.612	88.19
389.837	100.19
390.062	93.19
390.287	94.19
390.512	93.19
390.736	100.19
390.961	87.19
391.186	86.19
391.411	98.19
391.636	88.19
391.86	95.19
392.085	97.19
392.31	81.19
392.534	84.19
392.759	77.19
392.984	90.19
393.208	88.19
393.433	92.19
393.658	90.19
393.882	81.19
394.107	92.19
394.331	95.19
394.556	83.19
394.78	90.19
395.005	82.19
395.229	97.19
395.454	89.19
395.678	96.19
395.903	88.19
396.127	93.19
396.352	107.19
396.576	83.19
396.801	100.19
397.025	93.19
397.249	92.19
397.474	98.19
397.698	103.19
397.922	92.19
398.147	84.19
398.371	81.19
398.595	92.19
398.82	81.19
399.044	85.19
399.268	90.19
399.492	106.19
399.717	93.19
399.941	89.19
400.165	87.19
400.389	95.19
400.613	100.19
400.837	102.19
401.062	103.19
401.286	91.19
401.51	77.19
401.734	96.19
401.958	94.19
402.182	89.19
402.406	84.19
402.63	91.19
402.854	81.19
403.078	88.19
403.302	102.19
403.526	83.19
403.75	109.19
403.974	78.19
404.198	92.19
404.422	97.19
404.645	89.19
404.869	95.19
405.093	105.19
405.317	79.19
405.541	102.19
405.765	93.19
405.988	101.19
406.212	99.19
406.436	90.19
406.66	89.19
406.883	87.19
407.107	99.19
407.331	84.19
407.555	84.19
407.778	86.19
408.002	93.19
408.226	116.19
408.449	93.19
408.673	107.19
408.896	95.19
409.12	90.19
409.344	83.19
409.567	88.19
409.791	80.19
410.014	112.19
410.238	99.19
410.461	112.19
410.685	92.19
410.908	81.19
411.132	75.19
411.355	92.19
411.578	97.19
411.802	87.19
412.025	94.19
412.249	86.19
412.472	86.19
412.695	89.19
412.919	106.19
413.142	95.19
413.365	80.19
413.589	92.19
413.812	91.19
414.035	92.19
414.258	83.19
414.482	81.19
414.705	95.19
414.928	101.19
415.151	97.19
415.374	100.19
415.597	97.19
415.821	91.19
416.044	95.19
416.267	84.19
416.49	100.19
416.713	91.19
416.936	105.19
417.159	112.19
417.382	97.19
417.605	101.19
417.828	98.19
418.051	85.19
418.274	86.19
418.497	81.19
418.72	83.19
418.943	76.19
419.166	120.19
419.389	91.19
419.611	99.19
419.834	91.19
420.057	97.19
420.28	98.19
420.503	116.19
420.726	83.19
420.948	85.19
421.171	78.19
421.394	99.19
421.617	95.19
421.839	101.19
422.062	97.19
422.285	113.19
422.507	88.19
422.73	90.19
422.953	97.19
423.175	101.19
423.398	85.19
423.621	77.19
423.843	95.19
424.066	104.19
424.288	92.19
424.511	84.19
424.733	85.19
424.956	109.19
425.178	97.19
425.401	88.19
425.623	100.19
425.846	86.19
426.068	81.19
426.291	81.19
426.513	85.19
426.735	93.19
426.958	83.19
427.18	103.19
427.402	80.19
427.625	90.19
427.847	81.19
428.069	106.19
428.292	74.19
428.514	100.19
428.736	93.19
428.958	78.19
429.181	75.19
429.403	88.19
429.625	91.19
429.847	70.19
430.069	82.19
430.292	96.19
430.514	93.19
430.736	92.19
430.958	97.19
431.18	81.19
431.402	85.19
431.624	98.19
431.846	102.19
432.068	91.19
432.29	98.19
432.512	93.19
432.734	109.19
432.956	74.19
433.178	88.19
433.4	89.19
433.622	81.19
433.844	100.19
434.066	82.19
434.287	86.19
434.509	79.19
434.731	96.19
434.953	75.19
435.175	87.19
435.397	97.19
435.618	88.19
435.84	83.19
436.062	99.19
436.284	82.19
436.505	85.19
436.727	104.19
436.949	79.19
437.17	81.19
437.392	69.19
437.614	91.19
437.835	85.19
438.057	88.19
438.278	96.19
438.5	95.19
438.721	91.19
438.943	91.19
439.165	86.19
439.386	80.19
439.608	97.19
439.829	95.19
440.05	102.19
440.272	98.19
440.493	94.19
440.715	101.19
440.936	85.19
441.158	104.19
441.379	76.19
441.6	91.19
441.822	83.19
442.043	74.19
442.264	95.19
442.486	89.19
442.707	79.19
442.928	115.19
443.149	87.19
443.371	91.19
443.592	102.19
443.813	100.19
444.034	93.19
444.255	96.19
444.476	73.19
444.698	89.19
444.919	110.19
445.14	210.19
445.361	155.19
445.582	95.19
445.803	97.19
446.024	94.19
446.245	91.19
446.466	89.19
446.687	102.19
446.908	89.19
447.129	90.19
447.35	107.19
447.571	96.19
447.792	75.19
448.013	97.19
448.234	88.19
448.455	84.19
448.675	96.19
448.896	89.19
449.117	99.19
449.338	70.19
449.559	101.19
449.779	83.19
450	95.19
450.221	94.19
450.442	95.19
450.662	80.19
450.883	86.19
451.104	94.19
451.324	83.19
451.545	108.19
451.766	88.19
451.986	93.19
452.207	94.19
452.428	93.19
452.648	106.19
452.869	99.19
453.089	84.19
453.31	77.19
453.53	87.19
453.751	92.19
453.971	73.19
454.192	82.19
454.412	98.19
454.633	96.19
454.853	105.19
455.073	73.19
455.294	88.19
455.514	96.19
455.734	88.19
455.955	104.19
456.175	87.19
456.395	90.19
456.616	93.19
456.836	95.19
457.056	90.19
457.276	81.19
457.497	101.19
457.717	90.19
457.937	85.19
458.157	89.19
458.377	90.19
458.598	87.19
458.818	88.19
459.038	87.19
459.258	82.19
459.478	90.19
459.698	98.19
459.918	103.19
460.138	88.19
460.358	91.19
460.578	102.19
460.798	92.19
461.018	87.19
461.238	80.19
461.458	89.19
461.678	87.19
461.898	94.19
462.118	89.19
462.338	99.19
462.558	102.19
462.777	88.19
462.997	95.19
463.217	102.19
463.437	101.19
463.657	96.19
463.876	90.19
464.096	86.19
464.316	97.19
464.536	94.19
464.755	99.19
464.975	113.19
465.195	111.19
465.414	75.19
465.634	110.19
465.854	101.19
466.073	81.19
466.293	96.19
466.512	89.19
466.732	95.19
466.951	95.19
467.171	95.19
467.391	95.19
467.61	100.19
467.829	86.19
468.049	95.19
468.268	97.19
468.488	88.19
468.707	87.19
468.927	114.19
469.146	98.19
469.365	100.19
469.585	94.19
469.804	91.19
470.023	99.19
470.243	85.19
470.462	108.19
470.681	77.19
470.901	76.19
471.12	71.19
471.339	92.19
471.558	86.19
471.777	97.19
471.997	84.19
472.216	98.19
472.435	90.19
472.654	85.19
472.873	88.19
473.092	83.19
473.311	89.19
473.53	98.19
473.749	96.19
473.968	101.19
474.187	86.19
474.406	90.19
474.625	102.19
474.844	94.19
475.063	86.19
475.282	97.19
475.501	92.19
475.72	85.19
475.939	115.19
476.158	90.19
476.377	79.19
476.596	94.19
476.814	100.19
477.033	92.19
477.252	85.19
477.471	102.19
477.69	100.19
477.908	92.19
478.127	100.19
478.346	102.19
478.564	96.19
478.783	98.19
479.002	96.19
479.22	84.19
479.439	86.19
479.658	98.19
479.876	104.19
480.095	100.19
480.313	102.19
480.532	95.19
480.751	87.19
480.969	100.19
481.188	97.19
481.406	96.19
481.624	88.19
481.843	83.19
482.061	102.19
482.28	84.19
482.498	107.19
482.717	105.19
482.935	87.19
483.153	86.19
483.372	104.19
483.59	111.19
483.808	101.19
484.027	103.19
484.245	99.19
484.463	102.19
484.681	118.19
484.9	108.19
485.118	106.19
485.336	100.19
485.554	86.19
485.772	88.19
485.99	91.19
486.209	105.19
486.427	101.19
486.645	95.19
486.863	117.19
487.081	91.19
487.299	101.19
487.517	87.19
487.735	104.19
487.953	101.19
488.171	109.19
488.389	105.19
488.607	89.19
488.825	98.19
489.043	106.19
489.261	92.19
489.479	102.19
489.696	112.19
489.914	95.19
490.132	107.19
490.35	112.19
490.568	96.19
490.786	101.19
491.003	107.19
491.221	117.19
491.439	111.19
491.657	97.19
491.874	110.19
492.092	103.19
492.31	99.19
492.527	115.19
492.745	102.19
492.963	109.19
493.18	100.19
493.398	106.19
493.615	103.19
493.833	105.19
494.05	98.19
494.268	102.19
494.485	98.19
494.703	106.19
494.92	99.19
495.138	106.19
495.355	104.19
495.573	113.19
495.79	115.19
496.008	110.19
496.225	97.19
496.442	121.19
496.66	105.19
496.877	105.19
497.094	110.19
497.312	110.19
497.529	105.19
497.746	102.19
497.963	106.19
498.181	106.19
498.398	102.19
498.615	106.19
498.832	100.19
499.049	106.19
499.267	115.19
499.484	125.19
499.701	132.19
499.918	137.19
500.135	149.19
500.352	150.19
500.569	137.19
500.786	145.19
501.003	139.19
501.22	123.19
501.437	122.19
501.654	129.19
501.871	113.19
502.088	130.19
502.305	120.19
502.522	115.19
502.739	105.19
502.956	101.19
503.172	99.19
503.389	85.19
503.606	105.19
503.823	106.19
504.04	112.19
504.256	96.19
504.473	96.19
504.69	113.19
504.907	112.19
505.123	112.19
505.34	106.19
505.557	110.19
505.773	97.19
505.99	104.19
506.207	102.19
506.423	96.19
506.64	105.19
506.856	96.19
507.073	94.19
507.289	96.19
507.506	84.19
507.722	88.19
507.939	108.19
508.155	91.19
508.372	109.19
508.588	94.19
508.805	96.19
509.021	99.19
509.238	81.19
509.454	83.19
509.67	106.19
509.887	98.19
510.103	106.19
510.319	113.19
510.536	91.19
510.752	95.19
510.968	94.19
511.184	98.19
511.401	83.19
511.617	100.19
511.833	103.19
512.049	96.19
512.265	89.19
512.481	102.19
512.698	101.19
512.914	79.19
513.13	107.19
513.346	95.19
513.562	94.19
513.778	116.19
513.994	90.19
514.21	104.19
514.426	99.19
514.642	93.19
514.858	93.19
515.074	92.19
515.29	105.19
515.506	87.19
515.721	86.19
515.937	112.19
516.153	104.19
516.369	97.19
516.585	94.19
