Data from Location5.07152019.Energy5.Lamp.07192019.3%Agarose_HRD10591_16-04-42-629.txt Node
Date: Fri Jul 19 16:04:42 EDT 2019
User: cochatt
Spectrometer: HR+D1059
Trigger mode: 1
Integration Time (sec): 1.000000E-1
Scans to average: 1
Electric dark correction enabled: true
Nonlinearity correction enabled: false
Boxcar width: 0
XAxis mode: Wavelengths
Number of Pixels in Spectrum: 2048
>>>>>Begin Spectral Data<<<<<
223.165	-15.19
223.4	-15.19
223.635	-15.19
223.869	-17.19
224.104	-12.19
224.338	-6.19
224.573	-26.19
224.808	-4.19
225.042	-14.19
225.277	2.81
225.511	2.81
225.746	11.81
225.98	-0.19
226.215	-2.19
226.449	11.81
226.683	15.81
226.918	25.81
227.152	26.81
227.387	30.81
227.621	40.81
227.856	39.81
228.09	40.81
228.324	36.81
228.559	60.81
228.793	64.81
229.027	58.81
229.262	62.81
229.496	59.81
229.73	69.81
229.964	79.81
230.199	67.81
230.433	75.81
230.667	70.81
230.901	72.81
231.136	67.81
231.37	78.81
231.604	95.81
231.838	64.81
232.072	80.81
232.306	93.81
232.541	83.81
232.775	84.81
233.009	77.81
233.243	91.81
233.477	85.81
233.711	83.81
233.945	65.81
234.179	74.81
234.413	73.81
234.647	63.81
234.881	65.81
235.115	80.81
235.349	81.81
235.583	82.81
235.817	89.81
236.051	72.81
236.285	71.81
236.519	79.81
236.753	77.81
236.987	72.81
237.221	71.81
237.455	74.81
237.689	90.81
237.922	61.81
238.156	82.81
238.39	77.81
238.624	72.81
238.858	87.81
239.091	89.81
239.325	72.81
239.559	64.81
239.793	69.81
240.027	72.81
240.26	59.81
240.494	72.81
240.728	68.81
240.961	69.81
241.195	97.81
241.429	68.81
241.662	76.81
241.896	76.81
242.13	69.81
242.363	69.81
242.597	83.81
242.83	82.81
243.064	69.81
243.298	70.81
243.531	65.81
243.765	78.81
243.998	73.81
244.232	88.81
244.465	74.81
244.699	78.81
244.932	89.81
245.166	67.81
245.399	77.81
245.633	83.81
245.866	87.81
246.099	71.81
246.333	73.81
246.566	68.81
246.8	92.81
247.033	94.81
247.266	78.81
247.5	85.81
247.733	86.81
247.966	86.81
248.2	82.81
248.433	80.81
248.666	74.81
248.899	76.81
249.133	85.81
249.366	88.81
249.599	82.81
249.832	61.81
250.066	84.81
250.299	78.81
250.532	90.81
250.765	75.81
250.998	82.81
251.231	72.81
251.465	79.81
251.698	88.81
251.931	83.81
252.164	63.81
252.397	77.81
252.63	79.81
252.863	75.81
253.096	69.81
253.329	65.81
253.562	90.81
253.795	84.81
254.028	64.81
254.261	83.81
254.494	81.81
254.727	65.81
254.96	71.81
255.193	92.81
255.426	98.81
255.659	76.81
255.892	91.81
256.124	84.81
256.357	86.81
256.59	81.81
256.823	66.81
257.056	72.81
257.289	73.81
257.521	72.81
257.754	85.81
257.987	72.81
258.22	77.81
258.452	75.81
258.685	99.81
258.918	82.81
259.151	91.81
259.383	87.81
259.616	73.81
259.849	79.81
260.081	78.81
260.314	90.81
260.547	74.81
260.779	79.81
261.012	86.81
261.244	64.81
261.477	86.81
261.71	77.81
261.942	69.81
262.175	86.81
262.407	94.81
262.64	81.81
262.872	89.81
263.105	84.81
263.337	90.81
263.57	75.81
263.802	66.81
264.035	80.81
264.267	88.81
264.499	80.81
264.732	92.81
264.964	83.81
265.197	75.81
265.429	93.81
265.661	86.81
265.894	87.81
266.126	75.81
266.358	75.81
266.591	91.81
266.823	67.81
267.055	89.81
267.287	64.81
267.52	71.81
267.752	80.81
267.984	87.81
268.216	81.81
268.448	84.81
268.681	78.81
268.913	86.81
269.145	84.81
269.377	97.81
269.609	88.81
269.841	86.81
270.073	67.81
270.306	85.81
270.538	87.81
270.77	80.81
271.002	85.81
271.234	90.81
271.466	80.81
271.698	90.81
271.93	97.81
272.162	83.81
272.394	83.81
272.626	78.81
272.858	90.81
273.09	82.81
273.322	81.81
273.553	82.81
273.785	85.81
274.017	82.81
274.249	79.81
274.481	82.81
274.713	90.81
274.945	82.81
275.176	88.81
275.408	61.81
275.64	94.81
275.872	83.81
276.104	95.81
276.335	75.81
276.567	86.81
276.799	67.81
277.031	85.81
277.262	101.81
277.494	85.81
277.726	100.81
277.957	88.81
278.189	79.81
278.421	76.81
278.652	93.81
278.884	96.81
279.115	89.81
279.347	75.81
279.579	71.81
279.81	89.81
280.042	70.81
280.273	88.81
280.505	85.81
280.736	83.81
280.968	100.81
281.199	92.81
281.431	90.81
281.662	88.81
281.894	75.81
282.125	89.81
282.356	90.81
282.588	81.81
282.819	84.81
283.051	91.81
283.282	86.81
283.513	89.81
283.745	100.81
283.976	88.81
284.207	98.81
284.439	79.81
284.67	96.81
284.901	81.81
285.132	76.81
285.364	82.81
285.595	76.81
285.826	86.81
286.057	81.81
286.288	91.81
286.52	90.81
286.751	77.81
286.982	85.81
287.213	90.81
287.444	98.81
287.675	91.81
287.906	89.81
288.138	99.81
288.369	86.81
288.6	81.81
288.831	80.81
289.062	98.81
289.293	83.81
289.524	68.81
289.755	91.81
289.986	79.81
290.217	87.81
290.448	97.81
290.679	85.81
290.91	77.81
291.141	78.81
291.371	84.81
291.602	82.81
291.833	82.81
292.064	97.81
292.295	110.81
292.526	76.81
292.757	81.81
292.987	87.81
293.218	82.81
293.449	85.81
293.68	85.81
293.91	88.81
294.141	96.81
294.372	102.81
294.603	81.81
294.833	82.81
295.064	96.81
295.295	76.81
295.525	77.81
295.756	95.81
295.987	84.81
296.217	98.81
296.448	94.81
296.679	81.81
296.909	102.81
297.14	93.81
297.37	77.81
297.601	94.81
297.831	87.81
298.062	88.81
298.292	89.81
298.523	88.81
298.753	84.81
298.984	83.81
299.214	97.81
299.445	92.81
299.675	90.81
299.905	95.81
300.136	101.81
300.366	85.81
300.597	79.81
300.827	82.81
301.057	93.81
301.288	87.81
301.518	94.81
301.748	98.81
301.979	80.81
302.209	86.81
302.439	84.81
302.669	76.81
302.9	95.81
303.13	103.81
303.36	93.81
303.59	90.81
303.82	98.81
304.051	84.81
304.281	94.81
304.511	89.81
304.741	101.81
304.971	99.81
305.201	98.81
305.431	98.81
305.661	98.81
305.891	79.81
306.121	90.81
306.352	92.81
306.582	94.81
306.812	84.81
307.042	91.81
307.272	85.81
307.502	81.81
307.731	83.81
307.961	72.81
308.191	91.81
308.421	95.81
308.651	97.81
308.881	89.81
309.111	97.81
309.341	82.81
309.571	93.81
309.8	91.81
310.03	79.81
310.26	95.81
310.49	78.81
310.72	99.81
310.949	86.81
311.179	89.81
311.409	95.81
311.639	82.81
311.868	93.81
312.098	88.81
312.328	94.81
312.557	87.81
312.787	89.81
313.017	84.81
313.246	84.81
313.476	90.81
313.706	92.81
313.935	77.81
314.165	105.81
314.394	86.81
314.624	96.81
314.853	101.81
315.083	86.81
315.312	95.81
315.542	102.81
315.771	94.81
316.001	84.81
316.23	91.81
316.46	72.81
316.689	81.81
316.919	93.81
317.148	80.81
317.377	95.81
317.607	84.81
317.836	102.81
318.065	100.81
318.295	85.81
318.524	90.81
318.753	99.81
318.983	90.81
319.212	75.81
319.441	82.81
319.67	91.81
319.9	85.81
320.129	86.81
320.358	87.81
320.587	90.81
320.816	81.81
321.046	79.81
321.275	109.81
321.504	87.81
321.733	82.81
321.962	79.81
322.191	102.81
322.42	97.81
322.649	94.81
322.878	104.81
323.108	97.81
323.337	97.81
323.566	98.81
323.795	100.81
324.024	105.81
324.253	98.81
324.482	93.81
324.71	82.81
324.939	100.81
325.168	86.81
325.397	84.81
325.626	79.81
325.855	91.81
326.084	79.81
326.313	90.81
326.542	82.81
326.77	78.81
326.999	95.81
327.228	89.81
327.457	97.81
327.686	92.81
327.914	96.81
328.143	111.81
328.372	86.81
328.6	90.81
328.829	91.81
329.058	87.81
329.287	97.81
329.515	83.81
329.744	93.81
329.972	94.81
330.201	89.81
330.43	98.81
330.658	93.81
330.887	101.81
331.115	88.81
331.344	83.81
331.572	92.81
331.801	81.81
332.03	86.81
332.258	93.81
332.486	98.81
332.715	82.81
332.943	84.81
333.172	93.81
333.4	97.81
333.629	91.81
333.857	99.81
334.085	94.81
334.314	79.81
334.542	101.81
334.771	100.81
334.999	87.81
335.227	75.81
335.455	92.81
335.684	81.81
335.912	91.81
336.14	88.81
336.369	87.81
336.597	99.81
336.825	90.81
337.053	104.81
337.281	94.81
337.51	90.81
337.738	82.81
337.966	97.81
338.194	111.81
338.422	100.81
338.65	81.81
338.878	102.81
339.106	91.81
339.334	98.81
339.562	81.81
339.79	91.81
340.018	84.81
340.246	79.81
340.474	85.81
340.702	86.81
340.93	93.81
341.158	95.81
341.386	83.81
341.614	88.81
341.842	96.81
342.07	95.81
342.298	97.81
342.526	88.81
342.754	102.81
342.981	86.81
343.209	88.81
343.437	92.81
343.665	82.81
343.893	95.81
344.12	96.81
344.348	75.81
344.576	89.81
344.804	98.81
345.031	94.81
345.259	85.81
345.487	78.81
345.714	87.81
345.942	82.81
346.17	93.81
346.397	113.81
346.625	88.81
346.853	101.81
347.08	73.81
347.308	89.81
347.535	86.81
347.763	85.81
347.99	85.81
348.218	89.81
348.445	92.81
348.673	92.81
348.9	111.81
349.128	89.81
349.355	88.81
349.583	99.81
349.81	93.81
350.037	87.81
350.265	85.81
350.492	77.81
350.72	85.81
350.947	95.81
351.174	87.81
351.402	94.81
351.629	82.81
351.856	73.81
352.083	75.81
352.311	97.81
352.538	93.81
352.765	88.81
352.992	80.81
353.22	88.81
353.447	105.81
353.674	87.81
353.901	79.81
354.128	81.81
354.355	75.81
354.583	78.81
354.81	90.81
355.037	85.81
355.264	104.81
355.491	89.81
355.718	81.81
355.945	100.81
356.172	99.81
356.399	88.81
356.626	93.81
356.853	79.81
357.08	63.81
357.307	90.81
357.534	94.81
357.761	88.81
357.988	101.81
358.215	93.81
358.441	80.81
358.668	85.81
358.895	87.81
359.122	110.81
359.349	85.81
359.576	90.81
359.802	104.81
360.029	80.81
360.256	94.81
360.483	97.81
360.709	89.81
360.936	88.81
361.163	87.81
361.39	89.81
361.616	91.81
361.843	97.81
362.07	81.81
362.296	81.81
362.523	93.81
362.749	97.81
362.976	100.81
363.203	89.81
363.429	95.81
363.656	89.81
363.882	84.81
364.109	89.81
364.335	83.81
364.562	96.81
364.788	89.81
365.015	84.81
365.241	90.81
365.468	90.81
365.694	89.81
365.92	85.81
366.147	86.81
366.373	93.81
366.599	81.81
366.826	95.81
367.052	96.81
367.278	88.81
367.505	82.81
367.731	83.81
367.957	100.81
368.184	87.81
368.41	94.81
368.636	89.81
368.862	90.81
369.089	91.81
369.315	87.81
369.541	93.81
369.767	90.81
369.993	87.81
370.219	87.81
370.445	93.81
370.672	96.81
370.898	83.81
371.124	85.81
371.35	73.81
371.576	81.81
371.802	90.81
372.028	95.81
372.254	112.81
372.48	95.81
372.706	86.81
372.932	97.81
373.158	82.81
373.384	83.81
373.61	89.81
373.835	83.81
374.061	85.81
374.287	106.81
374.513	79.81
374.739	90.81
374.965	90.81
375.191	96.81
375.416	82.81
375.642	96.81
375.868	95.81
376.094	90.81
376.319	82.81
376.545	91.81
376.771	91.81
376.997	109.81
377.222	95.81
377.448	86.81
377.674	94.81
377.899	88.81
378.125	113.81
378.35	92.81
378.576	96.81
378.802	81.81
379.027	90.81
379.253	79.81
379.478	84.81
379.704	97.81
379.929	89.81
380.155	91.81
380.38	84.81
380.606	89.81
380.831	94.81
381.057	105.81
381.282	89.81
381.507	92.81
381.733	83.81
381.958	97.81
382.184	82.81
382.409	106.81
382.634	112.81
382.86	97.81
383.085	98.81
383.31	99.81
383.535	92.81
383.761	102.81
383.986	86.81
384.211	91.81
384.436	97.81
384.662	94.81
384.887	90.81
385.112	82.81
385.337	99.81
385.562	86.81
385.787	65.81
386.013	86.81
386.238	93.81
386.463	102.81
386.688	97.81
386.913	82.81
387.138	89.81
387.363	93.81
387.588	98.81
387.813	87.81
388.038	79.81
388.263	87.81
388.488	89.81
388.713	95.81
388.938	86.81
389.163	88.81
389.387	86.81
389.612	89.81
389.837	82.81
390.062	95.81
390.287	95.81
390.512	96.81
390.736	77.81
390.961	85.81
391.186	91.81
391.411	79.81
391.636	112.81
391.86	81.81
392.085	91.81
392.31	102.81
392.534	91.81
392.759	87.81
392.984	87.81
393.208	95.81
393.433	96.81
393.658	85.81
393.882	91.81
394.107	105.81
394.331	108.81
394.556	93.81
394.78	100.81
395.005	103.81
395.229	92.81
395.454	110.81
395.678	90.81
395.903	92.81
396.127	102.81
396.352	90.81
396.576	89.81
396.801	86.81
397.025	82.81
397.249	85.81
397.474	95.81
397.698	96.81
397.922	82.81
398.147	94.81
398.371	89.81
398.595	110.81
398.82	96.81
399.044	88.81
399.268	111.81
399.492	95.81
399.717	108.81
399.941	109.81
400.165	113.81
400.389	104.81
400.613	97.81
400.837	88.81
401.062	94.81
401.286	71.81
401.51	95.81
401.734	78.81
401.958	83.81
402.182	95.81
402.406	110.81
402.63	95.81
402.854	94.81
403.078	100.81
403.302	107.81
403.526	93.81
403.75	102.81
403.974	82.81
404.198	104.81
404.422	98.81
404.645	101.81
404.869	98.81
405.093	79.81
405.317	103.81
405.541	102.81
405.765	107.81
405.988	112.81
406.212	102.81
406.436	91.81
406.66	96.81
406.883	106.81
407.107	102.81
407.331	106.81
407.555	84.81
407.778	105.81
408.002	103.81
408.226	94.81
408.449	100.81
408.673	98.81
408.896	91.81
409.12	79.81
409.344	93.81
409.567	98.81
409.791	88.81
410.014	101.81
410.238	96.81
410.461	111.81
410.685	101.81
410.908	101.81
411.132	105.81
411.355	98.81
411.578	93.81
411.802	106.81
412.025	102.81
412.249	102.81
412.472	93.81
412.695	88.81
412.919	93.81
413.142	88.81
413.365	105.81
413.589	90.81
413.812	88.81
414.035	98.81
414.258	102.81
414.482	100.81
414.705	93.81
414.928	104.81
415.151	83.81
415.374	83.81
415.597	112.81
415.821	98.81
416.044	88.81
416.267	103.81
416.49	82.81
416.713	101.81
416.936	91.81
417.159	81.81
417.382	106.81
417.605	84.81
417.828	95.81
418.051	94.81
418.274	98.81
418.497	83.81
418.72	88.81
418.943	89.81
419.166	101.81
419.389	110.81
419.611	94.81
419.834	81.81
420.057	102.81
420.28	101.81
420.503	90.81
420.726	94.81
420.948	91.81
421.171	92.81
421.394	98.81
421.617	90.81
421.839	93.81
422.062	110.81
422.285	95.81
422.507	93.81
422.73	94.81
422.953	98.81
423.175	105.81
423.398	89.81
423.621	102.81
423.843	105.81
424.066	79.81
424.288	94.81
424.511	96.81
424.733	107.81
424.956	114.81
425.178	99.81
425.401	91.81
425.623	97.81
425.846	100.81
426.068	82.81
426.291	82.81
426.513	89.81
426.735	74.81
426.958	81.81
427.18	81.81
427.402	100.81
427.625	106.81
427.847	93.81
428.069	82.81
428.292	94.81
428.514	83.81
428.736	90.81
428.958	93.81
429.181	111.81
429.403	105.81
429.625	90.81
429.847	105.81
430.069	100.81
430.292	87.81
430.514	81.81
430.736	94.81
430.958	106.81
431.18	88.81
431.402	100.81
431.624	101.81
431.846	96.81
432.068	76.81
432.29	100.81
432.512	89.81
432.734	86.81
432.956	93.81
433.178	111.81
433.4	96.81
433.622	105.81
433.844	102.81
434.066	90.81
434.287	106.81
434.509	106.81
434.731	96.81
434.953	95.81
435.175	88.81
435.397	88.81
435.618	94.81
435.84	80.81
436.062	99.81
436.284	82.81
436.505	87.81
436.727	89.81
436.949	80.81
437.17	101.81
437.392	78.81
437.614	89.81
437.835	96.81
438.057	94.81
438.278	105.81
438.5	97.81
438.721	79.81
438.943	90.81
439.165	66.81
439.386	89.81
439.608	97.81
439.829	103.81
440.05	105.81
440.272	91.81
440.493	79.81
440.715	90.81
440.936	99.81
441.158	99.81
441.379	89.81
441.6	93.81
441.822	91.81
442.043	88.81
442.264	94.81
442.486	92.81
442.707	93.81
442.928	99.81
443.149	82.81
443.371	93.81
443.592	95.81
443.813	80.81
444.034	92.81
444.255	92.81
444.476	81.81
444.698	109.81
444.919	90.81
445.14	230.81
445.361	150.81
445.582	114.81
445.803	87.81
446.024	96.81
446.245	93.81
446.466	91.81
446.687	82.81
446.908	84.81
447.129	84.81
447.35	85.81
447.571	89.81
447.792	80.81
448.013	94.81
448.234	83.81
448.455	106.81
448.675	98.81
448.896	100.81
449.117	101.81
449.338	97.81
449.559	90.81
449.779	98.81
450	95.81
450.221	81.81
450.442	86.81
450.662	85.81
450.883	94.81
451.104	101.81
451.324	103.81
451.545	90.81
451.766	94.81
451.986	99.81
452.207	88.81
452.428	106.81
452.648	103.81
452.869	89.81
453.089	91.81
453.31	87.81
453.53	89.81
453.751	88.81
453.971	102.81
454.192	87.81
454.412	85.81
454.633	83.81
454.853	85.81
455.073	96.81
455.294	81.81
455.514	92.81
455.734	98.81
455.955	90.81
456.175	102.81
456.395	84.81
456.616	85.81
456.836	88.81
457.056	83.81
457.276	81.81
457.497	103.81
457.717	86.81
457.937	102.81
458.157	100.81
458.377	94.81
458.598	84.81
458.818	91.81
459.038	79.81
459.258	95.81
459.478	88.81
459.698	72.81
459.918	98.81
460.138	94.81
460.358	104.81
460.578	87.81
460.798	104.81
461.018	95.81
461.238	100.81
461.458	103.81
461.678	87.81
461.898	96.81
462.118	93.81
462.338	111.81
462.558	97.81
462.777	99.81
462.997	82.81
463.217	116.81
463.437	98.81
463.657	101.81
463.876	88.81
464.096	89.81
464.316	103.81
464.536	96.81
464.755	96.81
464.975	99.81
465.195	84.81
465.414	97.81
465.634	93.81
465.854	92.81
466.073	88.81
466.293	96.81
466.512	90.81
466.732	90.81
466.951	84.81
467.171	94.81
467.391	82.81
467.61	101.81
467.829	105.81
468.049	99.81
468.268	99.81
468.488	98.81
468.707	80.81
468.927	86.81
469.146	87.81
469.365	98.81
469.585	96.81
469.804	89.81
470.023	98.81
470.243	95.81
470.462	97.81
470.681	96.81
470.901	99.81
471.12	96.81
471.339	93.81
471.558	95.81
471.777	90.81
471.997	102.81
472.216	75.81
472.435	94.81
472.654	99.81
472.873	104.81
473.092	89.81
473.311	114.81
473.53	98.81
473.749	88.81
473.968	93.81
474.187	108.81
474.406	101.81
474.625	101.81
474.844	106.81
475.063	80.81
475.282	106.81
475.501	103.81
475.72	109.81
475.939	105.81
476.158	96.81
476.377	105.81
476.596	106.81
476.814	104.81
477.033	76.81
477.252	96.81
477.471	96.81
477.69	95.81
477.908	104.81
478.127	92.81
478.346	103.81
478.564	99.81
478.783	90.81
479.002	102.81
479.22	107.81
479.439	109.81
479.658	99.81
479.876	104.81
480.095	112.81
480.313	95.81
480.532	113.81
480.751	107.81
480.969	93.81
481.188	94.81
481.406	110.81
481.624	102.81
481.843	105.81
482.061	95.81
482.28	99.81
482.498	93.81
482.717	92.81
482.935	92.81
483.153	92.81
483.372	109.81
483.59	98.81
483.808	103.81
484.027	106.81
484.245	105.81
484.463	98.81
484.681	116.81
484.9	106.81
485.118	115.81
485.336	101.81
485.554	118.81
485.772	106.81
485.99	105.81
486.209	105.81
486.427	97.81
486.645	105.81
486.863	106.81
487.081	114.81
487.299	98.81
487.517	118.81
487.735	100.81
487.953	117.81
488.171	110.81
488.389	113.81
488.607	94.81
488.825	106.81
489.043	109.81
489.261	97.81
489.479	105.81
489.696	115.81
489.914	109.81
490.132	116.81
490.35	99.81
490.568	104.81
490.786	106.81
491.003	109.81
491.221	111.81
491.439	104.81
491.657	115.81
491.874	112.81
492.092	102.81
492.31	117.81
492.527	106.81
492.745	105.81
492.963	101.81
493.18	102.81
493.398	120.81
493.615	86.81
493.833	123.81
494.05	119.81
494.268	105.81
494.485	102.81
494.703	126.81
494.92	112.81
495.138	99.81
495.355	109.81
495.573	121.81
495.79	125.81
496.008	124.81
496.225	122.81
496.442	109.81
496.66	102.81
496.877	104.81
497.094	119.81
497.312	125.81
497.529	90.81
497.746	113.81
497.963	111.81
498.181	112.81
498.398	93.81
498.615	102.81
498.832	110.81
499.049	119.81
499.267	125.81
499.484	120.81
499.701	129.81
499.918	123.81
500.135	129.81
500.352	153.81
500.569	153.81
500.786	152.81
501.003	153.81
501.22	135.81
501.437	148.81
501.654	121.81
501.871	125.81
502.088	106.81
502.305	107.81
502.522	106.81
502.739	110.81
502.956	101.81
503.172	106.81
503.389	110.81
503.606	113.81
503.823	97.81
504.04	110.81
504.256	102.81
504.473	112.81
504.69	93.81
504.907	129.81
505.123	119.81
505.34	99.81
505.557	101.81
505.773	105.81
505.99	100.81
506.207	93.81
506.423	100.81
506.64	90.81
506.856	98.81
507.073	99.81
507.289	90.81
507.506	113.81
507.722	105.81
507.939	104.81
508.155	105.81
508.372	97.81
508.588	95.81
508.805	94.81
509.021	111.81
509.238	121.81
509.454	95.81
509.67	109.81
509.887	100.81
510.103	98.81
510.319	101.81
510.536	109.81
510.752	91.81
510.968	102.81
511.184	97.81
511.401	82.81
511.617	105.81
511.833	99.81
512.049	101.81
512.265	85.81
512.481	103.81
512.698	102.81
512.914	93.81
513.13	102.81
513.346	93.81
513.562	86.81
513.778	103.81
513.994	102.81
514.21	88.81
514.426	102.81
514.642	97.81
514.858	88.81
515.074	83.81
515.29	103.81
