Data from Location5.07152019.Energy5.Lamp.07192019.3%Agarose_HRD10591_16-03-43-629.txt Node
Date: Fri Jul 19 16:03:43 EDT 2019
User: cochatt
Spectrometer: HR+D1059
Trigger mode: 1
Integration Time (sec): 1.000000E-1
Scans to average: 1
Electric dark correction enabled: true
Nonlinearity correction enabled: false
Boxcar width: 0
XAxis mode: Wavelengths
Number of Pixels in Spectrum: 2048
>>>>>Begin Spectral Data<<<<<
223.165	-17.69
223.4	-17.69
223.635	-17.69
223.869	-16.69
224.104	-24.69
224.338	-9.69
224.573	-14.69
224.808	-12.69
225.042	-5.69
225.277	9.31
225.511	-0.69
225.746	3.31
225.98	14.31
226.215	11.31
226.449	18.31
226.683	8.31
226.918	11.31
227.152	26.31
227.387	36.31
227.621	37.31
227.856	41.31
228.09	39.31
228.324	47.31
228.559	48.31
228.793	55.31
229.027	51.31
229.262	63.31
229.496	57.31
229.73	73.31
229.964	59.31
230.199	71.31
230.433	71.31
230.667	85.31
230.901	76.31
231.136	71.31
231.37	65.31
231.604	77.31
231.838	81.31
232.072	87.31
232.306	79.31
232.541	72.31
232.775	69.31
233.009	85.31
233.243	82.31
233.477	71.31
233.711	71.31
233.945	71.31
234.179	76.31
234.413	90.31
234.647	87.31
234.881	77.31
235.115	77.31
235.349	82.31
235.583	76.31
235.817	76.31
236.051	77.31
236.285	86.31
236.519	84.31
236.753	76.31
236.987	82.31
237.221	83.31
237.455	79.31
237.689	83.31
237.922	76.31
238.156	62.31
238.39	61.31
238.624	68.31
238.858	77.31
239.091	80.31
239.325	68.31
239.559	76.31
239.793	73.31
240.027	69.31
240.26	65.31
240.494	77.31
240.728	72.31
240.961	70.31
241.195	68.31
241.429	71.31
241.662	75.31
241.896	59.31
242.13	78.31
242.363	70.31
242.597	79.31
242.83	75.31
243.064	81.31
243.298	68.31
243.531	87.31
243.765	81.31
243.998	75.31
244.232	63.31
244.465	83.31
244.699	78.31
244.932	84.31
245.166	95.31
245.399	76.31
245.633	75.31
245.866	81.31
246.099	77.31
246.333	79.31
246.566	62.31
246.8	85.31
247.033	81.31
247.266	77.31
247.5	103.31
247.733	95.31
247.966	81.31
248.2	77.31
248.433	74.31
248.666	87.31
248.899	85.31
249.133	86.31
249.366	88.31
249.599	72.31
249.832	85.31
250.066	80.31
250.299	81.31
250.532	73.31
250.765	75.31
250.998	80.31
251.231	84.31
251.465	96.31
251.698	71.31
251.931	79.31
252.164	82.31
252.397	78.31
252.63	72.31
252.863	70.31
253.096	75.31
253.329	82.31
253.562	72.31
253.795	76.31
254.028	91.31
254.261	79.31
254.494	84.31
254.727	83.31
254.96	81.31
255.193	86.31
255.426	80.31
255.659	90.31
255.892	96.31
256.124	67.31
256.357	76.31
256.59	90.31
256.823	84.31
257.056	93.31
257.289	84.31
257.521	91.31
257.754	73.31
257.987	82.31
258.22	79.31
258.452	84.31
258.685	77.31
258.918	67.31
259.151	84.31
259.383	82.31
259.616	83.31
259.849	67.31
260.081	83.31
260.314	79.31
260.547	90.31
260.779	81.31
261.012	66.31
261.244	88.31
261.477	94.31
261.71	90.31
261.942	87.31
262.175	78.31
262.407	67.31
262.64	83.31
262.872	86.31
263.105	83.31
263.337	82.31
263.57	81.31
263.802	88.31
264.035	76.31
264.267	89.31
264.499	78.31
264.732	87.31
264.964	90.31
265.197	80.31
265.429	93.31
265.661	87.31
265.894	88.31
266.126	103.31
266.358	79.31
266.591	94.31
266.823	76.31
267.055	75.31
267.287	81.31
267.52	86.31
267.752	83.31
267.984	75.31
268.216	83.31
268.448	95.31
268.681	81.31
268.913	81.31
269.145	86.31
269.377	67.31
269.609	83.31
269.841	81.31
270.073	86.31
270.306	86.31
270.538	72.31
270.77	76.31
271.002	88.31
271.234	78.31
271.466	70.31
271.698	82.31
271.93	80.31
272.162	97.31
272.394	83.31
272.626	88.31
272.858	71.31
273.09	88.31
273.322	81.31
273.553	80.31
273.785	98.31
274.017	73.31
274.249	81.31
274.481	82.31
274.713	76.31
274.945	67.31
275.176	86.31
275.408	82.31
275.64	76.31
275.872	89.31
276.104	87.31
276.335	76.31
276.567	80.31
276.799	96.31
277.031	83.31
277.262	94.31
277.494	92.31
277.726	88.31
277.957	96.31
278.189	80.31
278.421	100.31
278.652	89.31
278.884	86.31
279.115	91.31
279.347	80.31
279.579	74.31
279.81	79.31
280.042	83.31
280.273	88.31
280.505	84.31
280.736	77.31
280.968	74.31
281.199	88.31
281.431	87.31
281.662	76.31
281.894	75.31
282.125	92.31
282.356	91.31
282.588	84.31
282.819	78.31
283.051	84.31
283.282	88.31
283.513	98.31
283.745	83.31
283.976	82.31
284.207	76.31
284.439	88.31
284.67	85.31
284.901	71.31
285.132	84.31
285.364	82.31
285.595	70.31
285.826	75.31
286.057	82.31
286.288	88.31
286.52	92.31
286.751	88.31
286.982	79.31
287.213	97.31
287.444	87.31
287.675	99.31
287.906	92.31
288.138	77.31
288.369	93.31
288.6	76.31
288.831	83.31
289.062	89.31
289.293	91.31
289.524	86.31
289.755	102.31
289.986	108.31
290.217	92.31
290.448	87.31
290.679	83.31
290.91	87.31
291.141	77.31
291.371	98.31
291.602	74.31
291.833	88.31
292.064	88.31
292.295	79.31
292.526	90.31
292.757	88.31
292.987	91.31
293.218	104.31
293.449	83.31
293.68	84.31
293.91	82.31
294.141	95.31
294.372	87.31
294.603	103.31
294.833	87.31
295.064	84.31
295.295	84.31
295.525	68.31
295.756	92.31
295.987	90.31
296.217	88.31
296.448	89.31
296.679	89.31
296.909	82.31
297.14	102.31
297.37	95.31
297.601	75.31
297.831	76.31
298.062	86.31
298.292	97.31
298.523	99.31
298.753	90.31
298.984	94.31
299.214	92.31
299.445	102.31
299.675	86.31
299.905	94.31
300.136	92.31
300.366	87.31
300.597	79.31
300.827	73.31
301.057	91.31
301.288	103.31
301.518	91.31
301.748	100.31
301.979	82.31
302.209	94.31
302.439	95.31
302.669	90.31
302.9	82.31
303.13	108.31
303.36	89.31
303.59	107.31
303.82	86.31
304.051	88.31
304.281	101.31
304.511	86.31
304.741	83.31
304.971	78.31
305.201	99.31
305.431	84.31
305.661	78.31
305.891	80.31
306.121	84.31
306.352	82.31
306.582	102.31
306.812	96.31
307.042	98.31
307.272	76.31
307.502	91.31
307.731	95.31
307.961	90.31
308.191	80.31
308.421	80.31
308.651	95.31
308.881	93.31
309.111	98.31
309.341	85.31
309.571	92.31
309.8	89.31
310.03	84.31
310.26	92.31
310.49	107.31
310.72	94.31
310.949	82.31
311.179	88.31
311.409	94.31
311.639	92.31
311.868	84.31
312.098	77.31
312.328	92.31
312.557	90.31
312.787	99.31
313.017	86.31
313.246	98.31
313.476	90.31
313.706	91.31
313.935	80.31
314.165	103.31
314.394	94.31
314.624	92.31
314.853	86.31
315.083	86.31
315.312	98.31
315.542	85.31
315.771	85.31
316.001	89.31
316.23	97.31
316.46	88.31
316.689	85.31
316.919	98.31
317.148	99.31
317.377	80.31
317.607	83.31
317.836	101.31
318.065	88.31
318.295	114.31
318.524	91.31
318.753	87.31
318.983	94.31
319.212	92.31
319.441	102.31
319.67	94.31
319.9	96.31
320.129	102.31
320.358	87.31
320.587	84.31
320.816	80.31
321.046	87.31
321.275	90.31
321.504	92.31
321.733	99.31
321.962	84.31
322.191	91.31
322.42	92.31
322.649	98.31
322.878	90.31
323.108	94.31
323.337	87.31
323.566	76.31
323.795	117.31
324.024	93.31
324.253	100.31
324.482	84.31
324.71	85.31
324.939	86.31
325.168	91.31
325.397	93.31
325.626	90.31
325.855	83.31
326.084	96.31
326.313	85.31
326.542	89.31
326.77	80.31
326.999	93.31
327.228	91.31
327.457	96.31
327.686	84.31
327.914	101.31
328.143	97.31
328.372	94.31
328.6	108.31
328.829	85.31
329.058	90.31
329.287	91.31
329.515	91.31
329.744	90.31
329.972	77.31
330.201	84.31
330.43	95.31
330.658	92.31
330.887	87.31
331.115	91.31
331.344	75.31
331.572	97.31
331.801	79.31
332.03	104.31
332.258	92.31
332.486	94.31
332.715	96.31
332.943	91.31
333.172	102.31
333.4	97.31
333.629	98.31
333.857	96.31
334.085	96.31
334.314	80.31
334.542	90.31
334.771	89.31
334.999	106.31
335.227	95.31
335.455	100.31
335.684	90.31
335.912	87.31
336.14	84.31
336.369	88.31
336.597	98.31
336.825	107.31
337.053	82.31
337.281	101.31
337.51	90.31
337.738	98.31
337.966	80.31
338.194	98.31
338.422	95.31
338.65	100.31
338.878	94.31
339.106	97.31
339.334	94.31
339.562	98.31
339.79	86.31
340.018	91.31
340.246	109.31
340.474	72.31
340.702	92.31
340.93	75.31
341.158	72.31
341.386	80.31
341.614	94.31
341.842	73.31
342.07	88.31
342.298	72.31
342.526	82.31
342.754	87.31
342.981	80.31
343.209	94.31
343.437	99.31
343.665	92.31
343.893	108.31
344.12	98.31
344.348	92.31
344.576	101.31
344.804	95.31
345.031	92.31
345.259	104.31
345.487	89.31
345.714	91.31
345.942	88.31
346.17	91.31
346.397	96.31
346.625	84.31
346.853	98.31
347.08	87.31
347.308	86.31
347.535	90.31
347.763	95.31
347.99	84.31
348.218	97.31
348.445	93.31
348.673	100.31
348.9	91.31
349.128	94.31
349.355	91.31
349.583	97.31
349.81	92.31
350.037	96.31
350.265	76.31
350.492	94.31
350.72	84.31
350.947	82.31
351.174	84.31
351.402	93.31
351.629	96.31
351.856	84.31
352.083	86.31
352.311	88.31
352.538	110.31
352.765	94.31
352.992	97.31
353.22	85.31
353.447	81.31
353.674	107.31
353.901	107.31
354.128	87.31
354.355	98.31
354.583	92.31
354.81	78.31
355.037	90.31
355.264	100.31
355.491	84.31
355.718	88.31
355.945	83.31
356.172	83.31
356.399	91.31
356.626	106.31
356.853	89.31
357.08	101.31
357.307	95.31
357.534	82.31
357.761	90.31
357.988	99.31
358.215	92.31
358.441	91.31
358.668	97.31
358.895	90.31
359.122	80.31
359.349	90.31
359.576	107.31
359.802	104.31
360.029	79.31
360.256	110.31
360.483	80.31
360.709	90.31
360.936	92.31
361.163	94.31
361.39	87.31
361.616	94.31
361.843	70.31
362.07	99.31
362.296	91.31
362.523	99.31
362.749	94.31
362.976	89.31
363.203	84.31
363.429	79.31
363.656	90.31
363.882	80.31
364.109	87.31
364.335	91.31
364.562	98.31
364.788	90.31
365.015	95.31
365.241	100.31
365.468	92.31
365.694	94.31
365.92	82.31
366.147	76.31
366.373	96.31
366.599	93.31
366.826	100.31
367.052	88.31
367.278	98.31
367.505	99.31
367.731	100.31
367.957	91.31
368.184	106.31
368.41	86.31
368.636	96.31
368.862	81.31
369.089	86.31
369.315	94.31
369.541	82.31
369.767	89.31
369.993	92.31
370.219	106.31
370.445	103.31
370.672	81.31
370.898	88.31
371.124	84.31
371.35	82.31
371.576	100.31
371.802	103.31
372.028	87.31
372.254	99.31
372.48	84.31
372.706	92.31
372.932	95.31
373.158	107.31
373.384	81.31
373.61	92.31
373.835	86.31
374.061	91.31
374.287	100.31
374.513	92.31
374.739	82.31
374.965	96.31
375.191	103.31
375.416	96.31
375.642	97.31
375.868	108.31
376.094	93.31
376.319	82.31
376.545	112.31
376.771	104.31
376.997	88.31
377.222	80.31
377.448	93.31
377.674	88.31
377.899	89.31
378.125	94.31
378.35	87.31
378.576	82.31
378.802	87.31
379.027	96.31
379.253	98.31
379.478	86.31
379.704	93.31
379.929	89.31
380.155	104.31
380.38	90.31
380.606	79.31
380.831	99.31
381.057	91.31
381.282	95.31
381.507	87.31
381.733	100.31
381.958	98.31
382.184	81.31
382.409	85.31
382.634	88.31
382.86	82.31
383.085	70.31
383.31	83.31
383.535	90.31
383.761	95.31
383.986	90.31
384.211	96.31
384.436	100.31
384.662	93.31
384.887	104.31
385.112	88.31
385.337	100.31
385.562	90.31
385.787	92.31
386.013	97.31
386.238	112.31
386.463	76.31
386.688	79.31
386.913	98.31
387.138	91.31
387.363	95.31
387.588	93.31
387.813	75.31
388.038	88.31
388.263	103.31
388.488	98.31
388.713	83.31
388.938	96.31
389.163	90.31
389.387	92.31
389.612	92.31
389.837	103.31
390.062	90.31
390.287	80.31
390.512	87.31
390.736	89.31
390.961	96.31
391.186	87.31
391.411	78.31
391.636	89.31
391.86	104.31
392.085	95.31
392.31	98.31
392.534	100.31
392.759	97.31
392.984	88.31
393.208	94.31
393.433	89.31
393.658	99.31
393.882	86.31
394.107	98.31
394.331	85.31
394.556	106.31
394.78	98.31
395.005	89.31
395.229	84.31
395.454	110.31
395.678	96.31
395.903	106.31
396.127	99.31
396.352	92.31
396.576	85.31
396.801	84.31
397.025	91.31
397.249	98.31
397.474	102.31
397.698	101.31
397.922	87.31
398.147	84.31
398.371	96.31
398.595	108.31
398.82	89.31
399.044	98.31
399.268	103.31
399.492	102.31
399.717	112.31
399.941	105.31
400.165	113.31
400.389	107.31
400.613	94.31
400.837	102.31
401.062	97.31
401.286	112.31
401.51	101.31
401.734	89.31
401.958	90.31
402.182	98.31
402.406	104.31
402.63	107.31
402.854	96.31
403.078	94.31
403.302	81.31
403.526	93.31
403.75	93.31
403.974	105.31
404.198	112.31
404.422	106.31
404.645	94.31
404.869	100.31
405.093	106.31
405.317	116.31
405.541	104.31
405.765	99.31
405.988	88.31
406.212	98.31
406.436	99.31
406.66	100.31
406.883	98.31
407.107	96.31
407.331	117.31
407.555	96.31
407.778	102.31
408.002	93.31
408.226	113.31
408.449	112.31
408.673	96.31
408.896	102.31
409.12	88.31
409.344	106.31
409.567	108.31
409.791	88.31
410.014	92.31
410.238	92.31
410.461	98.31
410.685	100.31
410.908	92.31
411.132	94.31
411.355	108.31
411.578	97.31
411.802	100.31
412.025	103.31
412.249	96.31
412.472	110.31
412.695	96.31
412.919	90.31
413.142	99.31
413.365	97.31
413.589	100.31
413.812	102.31
414.035	98.31
414.258	97.31
414.482	98.31
414.705	100.31
414.928	93.31
415.151	105.31
415.374	96.31
415.597	90.31
415.821	97.31
416.044	87.31
416.267	87.31
416.49	102.31
416.713	85.31
416.936	95.31
417.159	97.31
417.382	84.31
417.605	83.31
417.828	101.31
418.051	98.31
418.274	84.31
418.497	88.31
418.72	83.31
418.943	82.31
419.166	88.31
419.389	95.31
419.611	94.31
419.834	90.31
420.057	68.31
420.28	96.31
420.503	96.31
420.726	88.31
420.948	109.31
421.171	90.31
421.394	85.31
421.617	99.31
421.839	90.31
422.062	94.31
422.285	100.31
422.507	100.31
422.73	101.31
422.953	128.31
423.175	114.31
423.398	95.31
423.621	105.31
423.843	94.31
424.066	106.31
424.288	86.31
424.511	96.31
424.733	103.31
424.956	94.31
425.178	96.31
425.401	101.31
425.623	97.31
425.846	89.31
426.068	113.31
426.291	94.31
426.513	82.31
426.735	97.31
426.958	101.31
427.18	95.31
427.402	93.31
427.625	104.31
427.847	99.31
428.069	105.31
428.292	94.31
428.514	96.31
428.736	83.31
428.958	97.31
429.181	106.31
429.403	99.31
429.625	95.31
429.847	98.31
430.069	104.31
430.292	87.31
430.514	106.31
430.736	82.31
430.958	101.31
431.18	99.31
431.402	91.31
431.624	90.31
431.846	107.31
432.068	91.31
432.29	107.31
432.512	106.31
432.734	94.31
432.956	104.31
433.178	104.31
433.4	96.31
433.622	97.31
433.844	101.31
434.066	87.31
434.287	96.31
434.509	98.31
434.731	107.31
434.953	111.31
435.175	100.31
435.397	104.31
435.618	99.31
435.84	89.31
436.062	80.31
436.284	92.31
436.505	84.31
436.727	95.31
436.949	94.31
437.17	92.31
437.392	112.31
437.614	102.31
437.835	83.31
438.057	105.31
438.278	106.31
438.5	103.31
438.721	99.31
438.943	98.31
439.165	92.31
439.386	109.31
439.608	98.31
439.829	107.31
440.05	95.31
440.272	85.31
440.493	97.31
440.715	103.31
440.936	93.31
441.158	98.31
441.379	90.31
441.6	88.31
441.822	92.31
442.043	114.31
442.264	92.31
442.486	84.31
442.707	96.31
442.928	79.31
443.149	78.31
443.371	84.31
443.592	101.31
443.813	88.31
444.034	108.31
444.255	80.31
444.476	96.31
444.698	99.31
444.919	88.31
445.14	202.31
445.361	151.31
445.582	92.31
445.803	97.31
446.024	97.31
446.245	94.31
446.466	95.31
446.687	100.31
446.908	91.31
447.129	99.31
447.35	103.31
447.571	95.31
447.792	100.31
448.013	97.31
448.234	97.31
448.455	103.31
448.675	95.31
448.896	89.31
449.117	105.31
449.338	85.31
449.559	99.31
449.779	89.31
450	91.31
450.221	86.31
450.442	85.31
450.662	85.31
450.883	101.31
451.104	98.31
451.324	77.31
451.545	84.31
451.766	88.31
451.986	108.31
452.207	94.31
452.428	103.31
452.648	82.31
452.869	95.31
453.089	87.31
453.31	87.31
453.53	83.31
453.751	101.31
453.971	73.31
454.192	79.31
454.412	82.31
454.633	90.31
454.853	102.31
455.073	85.31
455.294	98.31
455.514	88.31
455.734	85.31
455.955	107.31
456.175	93.31
456.395	88.31
456.616	102.31
456.836	100.31
457.056	86.31
457.276	96.31
457.497	99.31
457.717	97.31
457.937	92.31
458.157	97.31
458.377	105.31
458.598	87.31
458.818	100.31
459.038	98.31
459.258	98.31
459.478	98.31
459.698	79.31
459.918	97.31
460.138	98.31
460.358	95.31
460.578	106.31
460.798	96.31
461.018	97.31
461.238	93.31
461.458	108.31
461.678	105.31
461.898	91.31
462.118	99.31
462.338	115.31
462.558	111.31
462.777	99.31
462.997	105.31
463.217	94.31
463.437	87.31
463.657	110.31
463.876	97.31
464.096	94.31
464.316	105.31
464.536	101.31
464.755	113.31
464.975	104.31
465.195	95.31
465.414	97.31
465.634	93.31
465.854	93.31
466.073	99.31
466.293	95.31
466.512	96.31
466.732	84.31
466.951	101.31
467.171	83.31
467.391	95.31
467.61	98.31
467.829	104.31
468.049	111.31
468.268	99.31
468.488	96.31
468.707	104.31
468.927	97.31
469.146	107.31
469.365	96.31
469.585	94.31
469.804	82.31
470.023	84.31
470.243	116.31
470.462	105.31
470.681	107.31
470.901	114.31
471.12	110.31
471.339	107.31
471.558	91.31
471.777	102.31
471.997	111.31
472.216	97.31
472.435	105.31
472.654	103.31
472.873	112.31
473.092	96.31
473.311	87.31
473.53	88.31
473.749	97.31
473.968	87.31
474.187	104.31
474.406	74.31
474.625	98.31
474.844	107.31
475.063	92.31
475.282	97.31
475.501	93.31
475.72	98.31
475.939	92.31
476.158	92.31
476.377	103.31
476.596	110.31
476.814	86.31
477.033	83.31
477.252	97.31
477.471	91.31
477.69	114.31
477.908	112.31
478.127	107.31
478.346	96.31
478.564	108.31
478.783	104.31
479.002	106.31
479.22	111.31
479.439	106.31
479.658	96.31
479.876	90.31
480.095	95.31
480.313	98.31
480.532	92.31
480.751	99.31
480.969	98.31
481.188	82.31
481.406	106.31
481.624	96.31
481.843	102.31
482.061	98.31
482.28	96.31
482.498	94.31
482.717	93.31
482.935	91.31
483.153	96.31
483.372	106.31
483.59	107.31
483.808	112.31
484.027	120.31
484.245	98.31
484.463	99.31
484.681	105.31
484.9	110.31
485.118	110.31
485.336	92.31
485.554	100.31
485.772	87.31
485.99	90.31
486.209	97.31
486.427	99.31
486.645	113.31
486.863	102.31
487.081	106.31
487.299	96.31
487.517	102.31
487.735	99.31
487.953	114.31
488.171	110.31
488.389	84.31
488.607	96.31
488.825	103.31
489.043	111.31
489.261	107.31
489.479	114.31
489.696	118.31
489.914	116.31
490.132	114.31
490.35	99.31
490.568	107.31
490.786	95.31
491.003	100.31
491.221	109.31
491.439	108.31
491.657	100.31
491.874	117.31
492.092	121.31
492.31	116.31
492.527	121.31
492.745	119.31
492.963	113.31
493.18	90.31
493.398	107.31
493.615	116.31
493.833	112.31
494.05	111.31
494.268	120.31
494.485	107.31
494.703	104.31
494.92	118.31
495.138	106.31
495.355	113.31
495.573	116.31
495.79	109.31
496.008	121.31
496.225	108.31
496.442	112.31
496.66	109.31
496.877	109.31
497.094	96.31
497.312	118.31
497.529	92.31
497.746	135.31
497.963	104.31
498.181	99.31
498.398	117.31
498.615	103.31
498.832	122.31
499.049	118.31
499.267	118.31
499.484	122.31
499.701	123.31
499.918	130.31
500.135	145.31
500.352	165.31
500.569	160.31
500.786	156.31
501.003	152.31
501.22	162.31
501.437	150.31
501.654	132.31
501.871	128.31
502.088	115.31
502.305	121.31
502.522	130.31
502.739	134.31
502.956	125.31
503.172	119.31
503.389	120.31
503.606	107.31
503.823	102.31
504.04	116.31
504.256	119.31
504.473	100.31
504.69	111.31
504.907	112.31
505.123	113.31
505.34	102.31
505.557	105.31
505.773	104.31
505.99	100.31
506.207	94.31
506.423	92.31
506.64	114.31
506.856	100.31
507.073	107.31
507.289	101.31
507.506	101.31
507.722	106.31
507.939	100.31
508.155	110.31
508.372	110.31
508.588	99.31
508.805	99.31
509.021	97.31
509.238	107.31
509.454	106.31
509.67	98.31
509.887	104.31
510.103	82.31
510.319	100.31
510.536	102.31
510.752	84.31
510.968	96.31
511.184	98.31
511.401	95.31
511.617	87.31
511.833	101.31
512.049	88.31
512.265	88.31
512.481	88.31
512.698	113.31
512.914	114.31
513.13	103.31
513.346	96.31
513.562	98.31
513.778	91.31
513.994	117.31
514.21	99.31
514.426	108.31
514.642	115.31
514.858	92.31
