Data from Location5.07152019.Energy5.Lamp.07192019.3%Agarose_HRD10591_16-04-34-629.txt Node
Date: Fri Jul 19 16:04:34 EDT 2019
User: cochatt
Spectrometer: HR+D1059
Trigger mode: 1
Integration Time (sec): 1.000000E-1
Scans to average: 1
Electric dark correction enabled: true
Nonlinearity correction enabled: false
Boxcar width: 0
XAxis mode: Wavelengths
Number of Pixels in Spectrum: 2048
>>>>>Begin Spectral Data<<<<<
223.165	-11.38
223.4	-11.38
223.635	-11.38
223.869	-17.38
224.104	-9.38
224.338	-12.38
224.573	-16.38
224.808	-16.38
225.042	-20.38
225.277	-15.38
225.511	-4.38
225.746	4.62
225.98	-2.38
226.215	19.62
226.449	17.62
226.683	19.62
226.918	22.62
227.152	41.62
227.387	33.62
227.621	28.62
227.856	49.62
228.09	40.62
228.324	42.62
228.559	58.62
228.793	52.62
229.027	54.62
229.262	52.62
229.496	67.62
229.73	70.62
229.964	80.62
230.199	74.62
230.433	88.62
230.667	62.62
230.901	73.62
231.136	81.62
231.37	75.62
231.604	79.62
231.838	90.62
232.072	82.62
232.306	85.62
232.541	77.62
232.775	82.62
233.009	78.62
233.243	86.62
233.477	82.62
233.711	80.62
233.945	89.62
234.179	84.62
234.413	79.62
234.647	89.62
234.881	88.62
235.115	74.62
235.349	86.62
235.583	92.62
235.817	75.62
236.051	89.62
236.285	71.62
236.519	89.62
236.753	78.62
236.987	88.62
237.221	74.62
237.455	71.62
237.689	73.62
237.922	75.62
238.156	68.62
238.39	75.62
238.624	65.62
238.858	69.62
239.091	64.62
239.325	84.62
239.559	79.62
239.793	73.62
240.027	68.62
240.26	71.62
240.494	77.62
240.728	75.62
240.961	81.62
241.195	69.62
241.429	80.62
241.662	79.62
241.896	68.62
242.13	74.62
242.363	67.62
242.597	88.62
242.83	79.62
243.064	60.62
243.298	67.62
243.531	72.62
243.765	69.62
243.998	76.62
244.232	71.62
244.465	80.62
244.699	65.62
244.932	68.62
245.166	75.62
245.399	90.62
245.633	85.62
245.866	75.62
246.099	57.62
246.333	75.62
246.566	71.62
246.8	62.62
247.033	75.62
247.266	78.62
247.5	70.62
247.733	80.62
247.966	70.62
248.2	74.62
248.433	77.62
248.666	78.62
248.899	75.62
249.133	85.62
249.366	79.62
249.599	86.62
249.832	77.62
250.066	80.62
250.299	78.62
250.532	68.62
250.765	66.62
250.998	73.62
251.231	77.62
251.465	77.62
251.698	76.62
251.931	89.62
252.164	72.62
252.397	79.62
252.63	75.62
252.863	71.62
253.096	80.62
253.329	80.62
253.562	91.62
253.795	88.62
254.028	83.62
254.261	88.62
254.494	88.62
254.727	80.62
254.96	90.62
255.193	68.62
255.426	84.62
255.659	86.62
255.892	73.62
256.124	80.62
256.357	70.62
256.59	85.62
256.823	81.62
257.056	86.62
257.289	74.62
257.521	82.62
257.754	81.62
257.987	86.62
258.22	78.62
258.452	69.62
258.685	79.62
258.918	89.62
259.151	66.62
259.383	83.62
259.616	98.62
259.849	83.62
260.081	83.62
260.314	89.62
260.547	74.62
260.779	82.62
261.012	100.62
261.244	80.62
261.477	87.62
261.71	81.62
261.942	97.62
262.175	82.62
262.407	70.62
262.64	75.62
262.872	87.62
263.105	89.62
263.337	86.62
263.57	72.62
263.802	82.62
264.035	95.62
264.267	99.62
264.499	87.62
264.732	86.62
264.964	78.62
265.197	82.62
265.429	91.62
265.661	75.62
265.894	74.62
266.126	82.62
266.358	88.62
266.591	81.62
266.823	95.62
267.055	97.62
267.287	90.62
267.52	73.62
267.752	95.62
267.984	77.62
268.216	82.62
268.448	80.62
268.681	86.62
268.913	95.62
269.145	82.62
269.377	80.62
269.609	89.62
269.841	82.62
270.073	91.62
270.306	83.62
270.538	84.62
270.77	101.62
271.002	71.62
271.234	76.62
271.466	91.62
271.698	84.62
271.93	84.62
272.162	79.62
272.394	74.62
272.626	72.62
272.858	90.62
273.09	84.62
273.322	89.62
273.553	83.62
273.785	78.62
274.017	82.62
274.249	89.62
274.481	79.62
274.713	95.62
274.945	83.62
275.176	86.62
275.408	94.62
275.64	74.62
275.872	75.62
276.104	94.62
276.335	86.62
276.567	78.62
276.799	88.62
277.031	91.62
277.262	91.62
277.494	90.62
277.726	80.62
277.957	86.62
278.189	98.62
278.421	81.62
278.652	79.62
278.884	81.62
279.115	89.62
279.347	99.62
279.579	96.62
279.81	82.62
280.042	102.62
280.273	96.62
280.505	94.62
280.736	78.62
280.968	96.62
281.199	93.62
281.431	84.62
281.662	84.62
281.894	76.62
282.125	88.62
282.356	85.62
282.588	79.62
282.819	81.62
283.051	96.62
283.282	97.62
283.513	87.62
283.745	68.62
283.976	93.62
284.207	75.62
284.439	77.62
284.67	90.62
284.901	97.62
285.132	91.62
285.364	92.62
285.595	89.62
285.826	95.62
286.057	84.62
286.288	95.62
286.52	93.62
286.751	95.62
286.982	74.62
287.213	80.62
287.444	85.62
287.675	89.62
287.906	86.62
288.138	97.62
288.369	87.62
288.6	93.62
288.831	86.62
289.062	87.62
289.293	85.62
289.524	80.62
289.755	94.62
289.986	89.62
290.217	78.62
290.448	94.62
290.679	89.62
290.91	70.62
291.141	83.62
291.371	91.62
291.602	92.62
291.833	97.62
292.064	94.62
292.295	86.62
292.526	88.62
292.757	81.62
292.987	79.62
293.218	91.62
293.449	92.62
293.68	74.62
293.91	81.62
294.141	82.62
294.372	103.62
294.603	105.62
294.833	94.62
295.064	85.62
295.295	82.62
295.525	89.62
295.756	86.62
295.987	95.62
296.217	79.62
296.448	93.62
296.679	89.62
296.909	83.62
297.14	95.62
297.37	86.62
297.601	64.62
297.831	79.62
298.062	82.62
298.292	94.62
298.523	100.62
298.753	96.62
298.984	102.62
299.214	94.62
299.445	89.62
299.675	78.62
299.905	82.62
300.136	81.62
300.366	72.62
300.597	86.62
300.827	88.62
301.057	98.62
301.288	101.62
301.518	102.62
301.748	85.62
301.979	92.62
302.209	87.62
302.439	92.62
302.669	73.62
302.9	87.62
303.13	102.62
303.36	84.62
303.59	82.62
303.82	76.62
304.051	87.62
304.281	78.62
304.511	80.62
304.741	70.62
304.971	81.62
305.201	94.62
305.431	92.62
305.661	94.62
305.891	95.62
306.121	98.62
306.352	91.62
306.582	91.62
306.812	82.62
307.042	78.62
307.272	80.62
307.502	84.62
307.731	94.62
307.961	75.62
308.191	94.62
308.421	91.62
308.651	91.62
308.881	97.62
309.111	100.62
309.341	82.62
309.571	95.62
309.8	96.62
310.03	92.62
310.26	99.62
310.49	84.62
310.72	108.62
310.949	78.62
311.179	89.62
311.409	87.62
311.639	83.62
311.868	92.62
312.098	94.62
312.328	86.62
312.557	78.62
312.787	89.62
313.017	88.62
313.246	88.62
313.476	94.62
313.706	95.62
313.935	100.62
314.165	87.62
314.394	85.62
314.624	85.62
314.853	111.62
315.083	101.62
315.312	93.62
315.542	90.62
315.771	90.62
316.001	86.62
316.23	87.62
316.46	84.62
316.689	100.62
316.919	88.62
317.148	92.62
317.377	98.62
317.607	94.62
317.836	109.62
318.065	96.62
318.295	86.62
318.524	98.62
318.753	78.62
318.983	95.62
319.212	100.62
319.441	91.62
319.67	95.62
319.9	83.62
320.129	93.62
320.358	104.62
320.587	90.62
320.816	86.62
321.046	94.62
321.275	96.62
321.504	74.62
321.733	87.62
321.962	96.62
322.191	81.62
322.42	99.62
322.649	87.62
322.878	87.62
323.108	96.62
323.337	82.62
323.566	97.62
323.795	102.62
324.024	93.62
324.253	86.62
324.482	105.62
324.71	98.62
324.939	108.62
325.168	100.62
325.397	75.62
325.626	87.62
325.855	88.62
326.084	104.62
326.313	99.62
326.542	96.62
326.77	88.62
326.999	97.62
327.228	108.62
327.457	96.62
327.686	94.62
327.914	95.62
328.143	96.62
328.372	87.62
328.6	89.62
328.829	105.62
329.058	91.62
329.287	104.62
329.515	83.62
329.744	100.62
329.972	98.62
330.201	97.62
330.43	92.62
330.658	101.62
330.887	91.62
331.115	91.62
331.344	94.62
331.572	99.62
331.801	98.62
332.03	99.62
332.258	94.62
332.486	87.62
332.715	79.62
332.943	81.62
333.172	101.62
333.4	84.62
333.629	100.62
333.857	94.62
334.085	99.62
334.314	85.62
334.542	93.62
334.771	95.62
334.999	77.62
335.227	82.62
335.455	90.62
335.684	85.62
335.912	101.62
336.14	95.62
336.369	91.62
336.597	97.62
336.825	102.62
337.053	105.62
337.281	95.62
337.51	87.62
337.738	86.62
337.966	100.62
338.194	84.62
338.422	88.62
338.65	80.62
338.878	82.62
339.106	100.62
339.334	87.62
339.562	101.62
339.79	92.62
340.018	69.62
340.246	91.62
340.474	93.62
340.702	93.62
340.93	94.62
341.158	89.62
341.386	92.62
341.614	95.62
341.842	88.62
342.07	105.62
342.298	89.62
342.526	91.62
342.754	71.62
342.981	87.62
343.209	91.62
343.437	102.62
343.665	88.62
343.893	90.62
344.12	86.62
344.348	107.62
344.576	90.62
344.804	95.62
345.031	101.62
345.259	94.62
345.487	95.62
345.714	91.62
345.942	82.62
346.17	86.62
346.397	85.62
346.625	104.62
346.853	92.62
347.08	97.62
347.308	90.62
347.535	93.62
347.763	80.62
347.99	104.62
348.218	86.62
348.445	83.62
348.673	87.62
348.9	93.62
349.128	96.62
349.355	101.62
349.583	87.62
349.81	82.62
350.037	100.62
350.265	71.62
350.492	100.62
350.72	75.62
350.947	80.62
351.174	94.62
351.402	100.62
351.629	90.62
351.856	85.62
352.083	92.62
352.311	82.62
352.538	83.62
352.765	87.62
352.992	99.62
353.22	87.62
353.447	88.62
353.674	96.62
353.901	91.62
354.128	90.62
354.355	86.62
354.583	82.62
354.81	86.62
355.037	98.62
355.264	86.62
355.491	88.62
355.718	82.62
355.945	90.62
356.172	100.62
356.399	102.62
356.626	91.62
356.853	85.62
357.08	94.62
357.307	99.62
357.534	82.62
357.761	77.62
357.988	103.62
358.215	83.62
358.441	93.62
358.668	82.62
358.895	100.62
359.122	85.62
359.349	81.62
359.576	88.62
359.802	86.62
360.029	85.62
360.256	78.62
360.483	83.62
360.709	88.62
360.936	105.62
361.163	89.62
361.39	96.62
361.616	90.62
361.843	96.62
362.07	91.62
362.296	86.62
362.523	105.62
362.749	90.62
362.976	91.62
363.203	95.62
363.429	97.62
363.656	97.62
363.882	100.62
364.109	87.62
364.335	83.62
364.562	102.62
364.788	81.62
365.015	81.62
365.241	91.62
365.468	82.62
365.694	82.62
365.92	74.62
366.147	102.62
366.373	79.62
366.599	99.62
366.826	78.62
367.052	82.62
367.278	81.62
367.505	104.62
367.731	99.62
367.957	91.62
368.184	97.62
368.41	83.62
368.636	90.62
368.862	81.62
369.089	95.62
369.315	101.62
369.541	99.62
369.767	87.62
369.993	96.62
370.219	89.62
370.445	92.62
370.672	92.62
370.898	91.62
371.124	96.62
371.35	91.62
371.576	115.62
371.802	104.62
372.028	102.62
372.254	93.62
372.48	101.62
372.706	100.62
372.932	88.62
373.158	99.62
373.384	101.62
373.61	102.62
373.835	88.62
374.061	88.62
374.287	83.62
374.513	76.62
374.739	85.62
374.965	80.62
375.191	92.62
375.416	90.62
375.642	81.62
375.868	95.62
376.094	106.62
376.319	89.62
376.545	91.62
376.771	95.62
376.997	95.62
377.222	85.62
377.448	93.62
377.674	85.62
377.899	71.62
378.125	99.62
378.35	90.62
378.576	90.62
378.802	77.62
379.027	81.62
379.253	90.62
379.478	96.62
379.704	94.62
379.929	87.62
380.155	86.62
380.38	84.62
380.606	88.62
380.831	71.62
381.057	84.62
381.282	83.62
381.507	80.62
381.733	86.62
381.958	101.62
382.184	81.62
382.409	92.62
382.634	92.62
382.86	97.62
383.085	94.62
383.31	97.62
383.535	105.62
383.761	102.62
383.986	103.62
384.211	95.62
384.436	79.62
384.662	95.62
384.887	102.62
385.112	90.62
385.337	101.62
385.562	103.62
385.787	88.62
386.013	92.62
386.238	91.62
386.463	105.62
386.688	93.62
386.913	99.62
387.138	89.62
387.363	95.62
387.588	87.62
387.813	91.62
388.038	89.62
388.263	92.62
388.488	86.62
388.713	101.62
388.938	93.62
389.163	94.62
389.387	85.62
389.612	86.62
389.837	98.62
390.062	91.62
390.287	82.62
390.512	76.62
390.736	96.62
390.961	99.62
391.186	96.62
391.411	103.62
391.636	97.62
391.86	89.62
392.085	100.62
392.31	93.62
392.534	86.62
392.759	100.62
392.984	88.62
393.208	97.62
393.433	87.62
393.658	98.62
393.882	85.62
394.107	93.62
394.331	89.62
394.556	88.62
394.78	96.62
395.005	105.62
395.229	90.62
395.454	96.62
395.678	98.62
395.903	96.62
396.127	101.62
396.352	102.62
396.576	98.62
396.801	97.62
397.025	87.62
397.249	87.62
397.474	93.62
397.698	97.62
397.922	99.62
398.147	107.62
398.371	87.62
398.595	96.62
398.82	99.62
399.044	97.62
399.268	76.62
399.492	87.62
399.717	115.62
399.941	101.62
400.165	114.62
400.389	106.62
400.613	103.62
400.837	95.62
401.062	100.62
401.286	106.62
401.51	98.62
401.734	96.62
401.958	89.62
402.182	92.62
402.406	115.62
402.63	97.62
402.854	94.62
403.078	85.62
403.302	83.62
403.526	106.62
403.75	90.62
403.974	103.62
404.198	95.62
404.422	81.62
404.645	107.62
404.869	95.62
405.093	96.62
405.317	102.62
405.541	90.62
405.765	81.62
405.988	93.62
406.212	99.62
406.436	93.62
406.66	99.62
406.883	94.62
407.107	107.62
407.331	107.62
407.555	103.62
407.778	95.62
408.002	104.62
408.226	102.62
408.449	85.62
408.673	85.62
408.896	97.62
409.12	112.62
409.344	106.62
409.567	100.62
409.791	95.62
410.014	90.62
410.238	86.62
410.461	93.62
410.685	86.62
410.908	96.62
411.132	108.62
411.355	93.62
411.578	79.62
411.802	106.62
412.025	95.62
412.249	90.62
412.472	84.62
412.695	100.62
412.919	93.62
413.142	101.62
413.365	94.62
413.589	87.62
413.812	99.62
414.035	103.62
414.258	100.62
414.482	94.62
414.705	84.62
414.928	106.62
415.151	102.62
415.374	91.62
415.597	99.62
415.821	118.62
416.044	94.62
416.267	98.62
416.49	94.62
416.713	95.62
416.936	100.62
417.159	90.62
417.382	85.62
417.605	86.62
417.828	95.62
418.051	92.62
418.274	103.62
418.497	105.62
418.72	84.62
418.943	101.62
419.166	96.62
419.389	86.62
419.611	97.62
419.834	94.62
420.057	94.62
420.28	102.62
420.503	100.62
420.726	105.62
420.948	87.62
421.171	107.62
421.394	99.62
421.617	97.62
421.839	92.62
422.062	82.62
422.285	99.62
422.507	97.62
422.73	83.62
422.953	103.62
423.175	85.62
423.398	83.62
423.621	108.62
423.843	102.62
424.066	103.62
424.288	86.62
424.511	81.62
424.733	98.62
424.956	104.62
425.178	92.62
425.401	96.62
425.623	90.62
425.846	87.62
426.068	78.62
426.291	85.62
426.513	101.62
426.735	95.62
426.958	89.62
427.18	98.62
427.402	95.62
427.625	94.62
427.847	75.62
428.069	79.62
428.292	89.62
428.514	99.62
428.736	104.62
428.958	82.62
429.181	87.62
429.403	103.62
429.625	85.62
429.847	93.62
430.069	87.62
430.292	92.62
430.514	92.62
430.736	86.62
430.958	90.62
431.18	96.62
431.402	84.62
431.624	90.62
431.846	100.62
432.068	101.62
432.29	110.62
432.512	95.62
432.734	98.62
432.956	93.62
433.178	97.62
433.4	106.62
433.622	75.62
433.844	99.62
434.066	106.62
434.287	80.62
434.509	82.62
434.731	91.62
434.953	77.62
435.175	79.62
435.397	95.62
435.618	94.62
435.84	100.62
436.062	109.62
436.284	90.62
436.505	98.62
436.727	99.62
436.949	86.62
437.17	83.62
437.392	82.62
437.614	92.62
437.835	103.62
438.057	96.62
438.278	85.62
438.5	89.62
438.721	102.62
438.943	91.62
439.165	94.62
439.386	102.62
439.608	80.62
439.829	102.62
440.05	109.62
440.272	98.62
440.493	75.62
440.715	92.62
440.936	94.62
441.158	94.62
441.379	93.62
441.6	111.62
441.822	84.62
442.043	105.62
442.264	94.62
442.486	87.62
442.707	91.62
442.928	86.62
443.149	94.62
443.371	101.62
443.592	85.62
443.813	85.62
444.034	96.62
444.255	95.62
444.476	89.62
444.698	94.62
444.919	96.62
445.14	210.62
445.361	145.62
445.582	82.62
445.803	95.62
446.024	93.62
446.245	98.62
446.466	102.62
446.687	88.62
446.908	81.62
447.129	98.62
447.35	97.62
447.571	84.62
447.792	106.62
448.013	94.62
448.234	100.62
448.455	91.62
448.675	88.62
448.896	96.62
449.117	96.62
449.338	72.62
449.559	88.62
449.779	90.62
450	91.62
450.221	85.62
450.442	105.62
450.662	86.62
450.883	95.62
451.104	82.62
451.324	88.62
451.545	95.62
451.766	104.62
451.986	93.62
452.207	97.62
452.428	92.62
452.648	91.62
452.869	87.62
453.089	86.62
453.31	75.62
453.53	85.62
453.751	71.62
453.971	90.62
454.192	88.62
454.412	91.62
454.633	84.62
454.853	85.62
455.073	87.62
455.294	94.62
455.514	92.62
455.734	93.62
455.955	101.62
456.175	106.62
456.395	85.62
456.616	99.62
456.836	88.62
457.056	85.62
457.276	85.62
457.497	98.62
457.717	87.62
457.937	80.62
458.157	87.62
458.377	78.62
458.598	101.62
458.818	89.62
459.038	85.62
459.258	96.62
459.478	95.62
459.698	110.62
459.918	101.62
460.138	95.62
460.358	99.62
460.578	105.62
460.798	90.62
461.018	96.62
461.238	94.62
461.458	98.62
461.678	102.62
461.898	99.62
462.118	88.62
462.338	100.62
462.558	95.62
462.777	89.62
462.997	99.62
463.217	98.62
463.437	106.62
463.657	90.62
463.876	103.62
464.096	120.62
464.316	85.62
464.536	102.62
464.755	115.62
464.975	98.62
465.195	98.62
465.414	89.62
465.634	98.62
465.854	96.62
466.073	96.62
466.293	105.62
466.512	94.62
466.732	97.62
466.951	93.62
467.171	83.62
467.391	87.62
467.61	96.62
467.829	100.62
468.049	92.62
468.268	95.62
468.488	92.62
468.707	104.62
468.927	102.62
469.146	83.62
469.365	97.62
469.585	80.62
469.804	89.62
470.023	85.62
470.243	94.62
470.462	100.62
470.681	104.62
470.901	78.62
471.12	88.62
471.339	89.62
471.558	103.62
471.777	109.62
471.997	85.62
472.216	94.62
472.435	93.62
472.654	93.62
472.873	106.62
473.092	93.62
473.311	102.62
473.53	97.62
473.749	88.62
473.968	100.62
474.187	92.62
474.406	90.62
474.625	85.62
474.844	94.62
475.063	97.62
475.282	88.62
475.501	100.62
475.72	102.62
475.939	82.62
476.158	94.62
476.377	85.62
476.596	81.62
476.814	100.62
477.033	87.62
477.252	98.62
477.471	107.62
477.69	98.62
477.908	102.62
478.127	107.62
478.346	94.62
478.564	92.62
478.783	101.62
479.002	103.62
479.22	103.62
479.439	100.62
479.658	85.62
479.876	98.62
480.095	98.62
480.313	116.62
480.532	101.62
480.751	107.62
480.969	92.62
481.188	94.62
481.406	91.62
481.624	85.62
481.843	79.62
482.061	98.62
482.28	90.62
482.498	104.62
482.717	93.62
482.935	91.62
483.153	111.62
483.372	101.62
483.59	106.62
483.808	102.62
484.027	106.62
484.245	96.62
484.463	101.62
484.681	106.62
484.9	89.62
485.118	96.62
485.336	109.62
485.554	104.62
485.772	109.62
485.99	104.62
486.209	106.62
486.427	85.62
486.645	96.62
486.863	95.62
487.081	96.62
487.299	91.62
487.517	91.62
487.735	112.62
487.953	107.62
488.171	120.62
488.389	104.62
488.607	116.62
488.825	112.62
489.043	94.62
489.261	100.62
489.479	90.62
489.696	112.62
489.914	104.62
490.132	101.62
490.35	103.62
490.568	97.62
490.786	101.62
491.003	102.62
491.221	119.62
491.439	105.62
491.657	107.62
491.874	117.62
492.092	109.62
492.31	127.62
492.527	126.62
492.745	93.62
492.963	122.62
493.18	125.62
493.398	114.62
493.615	116.62
493.833	103.62
494.05	98.62
494.268	101.62
494.485	113.62
494.703	113.62
494.92	115.62
495.138	108.62
495.355	99.62
495.573	99.62
495.79	118.62
496.008	105.62
496.225	107.62
496.442	112.62
496.66	118.62
496.877	115.62
497.094	123.62
497.312	101.62
497.529	109.62
497.746	101.62
497.963	111.62
498.181	102.62
498.398	118.62
498.615	118.62
498.832	113.62
499.049	130.62
499.267	116.62
499.484	127.62
499.701	140.62
499.918	115.62
500.135	137.62
500.352	141.62
500.569	163.62
500.786	170.62
501.003	157.62
501.22	154.62
501.437	130.62
501.654	130.62
501.871	121.62
502.088	116.62
502.305	106.62
502.522	112.62
502.739	103.62
502.956	121.62
503.172	106.62
503.389	111.62
503.606	121.62
503.823	123.62
504.04	110.62
504.256	122.62
504.473	101.62
504.69	109.62
504.907	90.62
505.123	104.62
505.34	117.62
505.557	107.62
505.773	96.62
505.99	95.62
506.207	115.62
506.423	110.62
506.64	112.62
506.856	96.62
507.073	108.62
507.289	96.62
507.506	102.62
507.722	112.62
507.939	101.62
508.155	93.62
508.372	102.62
508.588	95.62
508.805	114.62
509.021	93.62
509.238	112.62
509.454	94.62
509.67	98.62
509.887	87.62
510.103	100.62
510.319	93.62
510.536	110.62
510.752	99.62
510.968	98.62
511.184	99.62
511.401	116.62
511.617	104.62
511.833	104.62
512.049	103.62
512.265	101.62
512.481	98.62
512.698	99.62
512.914	99.62
513.13	110.62
513.346	90.62
513.562	103.62
513.778	101.62
513.994	114.62
514.21	95.62
514.426	105.62
514.642	95.62
514.858	106.62
515.074	78.62
515.29	82.62
