Data from Location5.07152019.Energy5.Lamp.07192019.3%Agarose_HRD10591_15-37-29-388.txt Node
Date: Fri Jul 19 15:37:29 EDT 2019
User: cochatt
Spectrometer: HR+D1059
Trigger mode: 1
Integration Time (sec): 1.000000E-1
Scans to average: 1
Electric dark correction enabled: true
Nonlinearity correction enabled: false
Boxcar width: 0
XAxis mode: Wavelengths
Number of Pixels in Spectrum: 2048
>>>>>Begin Spectral Data<<<<<
223.165	-15.88
223.4	-15.88
223.635	-15.88
223.869	-23.88
224.104	-14.88
224.338	-8.88
224.573	-12.88
224.808	-17.88
225.042	-14.88
225.277	-5.88
225.511	11.12
225.746	6.12
225.98	-0.88
226.215	9.12
226.449	15.12
226.683	20.12
226.918	16.12
227.152	38.12
227.387	35.12
227.621	52.12
227.856	58.12
228.09	53.12
228.324	64.12
228.559	68.12
228.793	60.12
229.027	63.12
229.262	79.12
229.496	77.12
229.73	76.12
229.964	84.12
230.199	66.12
230.433	78.12
230.667	87.12
230.901	87.12
231.136	74.12
231.37	70.12
231.604	81.12
231.838	93.12
232.072	92.12
232.306	77.12
232.541	86.12
232.775	76.12
233.009	99.12
233.243	81.12
233.477	93.12
233.711	78.12
233.945	81.12
234.179	90.12
234.413	90.12
234.647	91.12
234.881	81.12
235.115	83.12
235.349	86.12
235.583	89.12
235.817	67.12
236.051	78.12
236.285	77.12
236.519	84.12
236.753	80.12
236.987	92.12
237.221	84.12
237.455	86.12
237.689	80.12
237.922	86.12
238.156	68.12
238.39	77.12
238.624	84.12
238.858	80.12
239.091	59.12
239.325	77.12
239.559	93.12
239.793	78.12
240.027	77.12
240.26	80.12
240.494	69.12
240.728	70.12
240.961	76.12
241.195	75.12
241.429	82.12
241.662	87.12
241.896	78.12
242.13	78.12
242.363	78.12
242.597	82.12
242.83	75.12
243.064	79.12
243.298	71.12
243.531	80.12
243.765	88.12
243.998	77.12
244.232	70.12
244.465	73.12
244.699	89.12
244.932	84.12
245.166	77.12
245.399	74.12
245.633	84.12
245.866	78.12
246.099	76.12
246.333	73.12
246.566	66.12
246.8	70.12
247.033	78.12
247.266	79.12
247.5	87.12
247.733	87.12
247.966	81.12
248.2	68.12
248.433	66.12
248.666	79.12
248.899	84.12
249.133	81.12
249.366	86.12
249.599	65.12
249.832	94.12
250.066	104.12
250.299	80.12
250.532	87.12
250.765	82.12
250.998	79.12
251.231	81.12
251.465	87.12
251.698	78.12
251.931	82.12
252.164	91.12
252.397	78.12
252.63	74.12
252.863	76.12
253.096	92.12
253.329	74.12
253.562	82.12
253.795	82.12
254.028	93.12
254.261	86.12
254.494	75.12
254.727	97.12
254.96	105.12
255.193	81.12
255.426	80.12
255.659	86.12
255.892	91.12
256.124	93.12
256.357	85.12
256.59	83.12
256.823	70.12
257.056	94.12
257.289	92.12
257.521	90.12
257.754	85.12
257.987	80.12
258.22	79.12
258.452	86.12
258.685	91.12
258.918	80.12
259.151	73.12
259.383	81.12
259.616	73.12
259.849	79.12
260.081	87.12
260.314	72.12
260.547	87.12
260.779	80.12
261.012	86.12
261.244	68.12
261.477	103.12
261.71	82.12
261.942	85.12
262.175	91.12
262.407	80.12
262.64	103.12
262.872	78.12
263.105	84.12
263.337	89.12
263.57	71.12
263.802	96.12
264.035	88.12
264.267	83.12
264.499	84.12
264.732	86.12
264.964	79.12
265.197	86.12
265.429	87.12
265.661	79.12
265.894	89.12
266.126	83.12
266.358	79.12
266.591	80.12
266.823	78.12
267.055	82.12
267.287	82.12
267.52	82.12
267.752	85.12
267.984	97.12
268.216	95.12
268.448	86.12
268.681	102.12
268.913	88.12
269.145	85.12
269.377	88.12
269.609	89.12
269.841	88.12
270.073	91.12
270.306	83.12
270.538	61.12
270.77	80.12
271.002	89.12
271.234	97.12
271.466	95.12
271.698	86.12
271.93	91.12
272.162	82.12
272.394	90.12
272.626	83.12
272.858	81.12
273.09	86.12
273.322	96.12
273.553	92.12
273.785	80.12
274.017	76.12
274.249	92.12
274.481	87.12
274.713	86.12
274.945	84.12
275.176	83.12
275.408	73.12
275.64	87.12
275.872	87.12
276.104	94.12
276.335	88.12
276.567	78.12
276.799	92.12
277.031	77.12
277.262	86.12
277.494	101.12
277.726	87.12
277.957	81.12
278.189	73.12
278.421	94.12
278.652	83.12
278.884	97.12
279.115	86.12
279.347	87.12
279.579	82.12
279.81	86.12
280.042	94.12
280.273	91.12
280.505	92.12
280.736	85.12
280.968	92.12
281.199	80.12
281.431	80.12
281.662	89.12
281.894	83.12
282.125	90.12
282.356	92.12
282.588	76.12
282.819	96.12
283.051	78.12
283.282	80.12
283.513	94.12
283.745	96.12
283.976	94.12
284.207	89.12
284.439	87.12
284.67	85.12
284.901	78.12
285.132	86.12
285.364	93.12
285.595	89.12
285.826	87.12
286.057	90.12
286.288	96.12
286.52	89.12
286.751	83.12
286.982	102.12
287.213	86.12
287.444	92.12
287.675	87.12
287.906	92.12
288.138	93.12
288.369	85.12
288.6	91.12
288.831	90.12
289.062	86.12
289.293	104.12
289.524	82.12
289.755	95.12
289.986	87.12
290.217	94.12
290.448	87.12
290.679	85.12
290.91	90.12
291.141	81.12
291.371	87.12
291.602	83.12
291.833	92.12
292.064	89.12
292.295	106.12
292.526	86.12
292.757	92.12
292.987	93.12
293.218	88.12
293.449	94.12
293.68	89.12
293.91	73.12
294.141	99.12
294.372	90.12
294.603	100.12
294.833	87.12
295.064	78.12
295.295	87.12
295.525	93.12
295.756	99.12
295.987	89.12
296.217	87.12
296.448	92.12
296.679	85.12
296.909	94.12
297.14	84.12
297.37	85.12
297.601	101.12
297.831	94.12
298.062	98.12
298.292	87.12
298.523	86.12
298.753	83.12
298.984	89.12
299.214	92.12
299.445	82.12
299.675	94.12
299.905	80.12
300.136	91.12
300.366	90.12
300.597	84.12
300.827	88.12
301.057	81.12
301.288	83.12
301.518	83.12
301.748	87.12
301.979	86.12
302.209	80.12
302.439	87.12
302.669	79.12
302.9	82.12
303.13	90.12
303.36	90.12
303.59	83.12
303.82	80.12
304.051	90.12
304.281	78.12
304.511	82.12
304.741	83.12
304.971	95.12
305.201	108.12
305.431	95.12
305.661	89.12
305.891	90.12
306.121	88.12
306.352	93.12
306.582	103.12
306.812	86.12
307.042	74.12
307.272	94.12
307.502	78.12
307.731	97.12
307.961	76.12
308.191	86.12
308.421	83.12
308.651	87.12
308.881	95.12
309.111	84.12
309.341	97.12
309.571	81.12
309.8	95.12
310.03	93.12
310.26	87.12
310.49	88.12
310.72	90.12
310.949	77.12
311.179	94.12
311.409	89.12
311.639	95.12
311.868	84.12
312.098	86.12
312.328	84.12
312.557	94.12
312.787	86.12
313.017	100.12
313.246	87.12
313.476	97.12
313.706	100.12
313.935	97.12
314.165	86.12
314.394	72.12
314.624	79.12
314.853	80.12
315.083	86.12
315.312	84.12
315.542	100.12
315.771	93.12
316.001	80.12
316.23	90.12
316.46	86.12
316.689	78.12
316.919	80.12
317.148	92.12
317.377	83.12
317.607	79.12
317.836	79.12
318.065	73.12
318.295	95.12
318.524	82.12
318.753	99.12
318.983	73.12
319.212	93.12
319.441	99.12
319.67	93.12
319.9	86.12
320.129	87.12
320.358	96.12
320.587	88.12
320.816	76.12
321.046	87.12
321.275	85.12
321.504	83.12
321.733	87.12
321.962	70.12
322.191	86.12
322.42	86.12
322.649	94.12
322.878	58.12
323.108	95.12
323.337	83.12
323.566	89.12
323.795	94.12
324.024	105.12
324.253	81.12
324.482	88.12
324.71	74.12
324.939	83.12
325.168	88.12
325.397	95.12
325.626	78.12
325.855	76.12
326.084	77.12
326.313	83.12
326.542	101.12
326.77	89.12
326.999	86.12
327.228	82.12
327.457	101.12
327.686	88.12
327.914	80.12
328.143	83.12
328.372	80.12
328.6	95.12
328.829	78.12
329.058	92.12
329.287	94.12
329.515	79.12
329.744	90.12
329.972	93.12
330.201	91.12
330.43	95.12
330.658	88.12
330.887	81.12
331.115	84.12
331.344	80.12
331.572	92.12
331.801	85.12
332.03	80.12
332.258	82.12
332.486	93.12
332.715	82.12
332.943	93.12
333.172	98.12
333.4	87.12
333.629	86.12
333.857	92.12
334.085	94.12
334.314	102.12
334.542	82.12
334.771	92.12
334.999	86.12
335.227	79.12
335.455	85.12
335.684	88.12
335.912	93.12
336.14	91.12
336.369	102.12
336.597	88.12
336.825	92.12
337.053	88.12
337.281	99.12
337.51	90.12
337.738	107.12
337.966	93.12
338.194	90.12
338.422	94.12
338.65	78.12
338.878	91.12
339.106	86.12
339.334	104.12
339.562	79.12
339.79	91.12
340.018	78.12
340.246	97.12
340.474	91.12
340.702	86.12
340.93	82.12
341.158	81.12
341.386	93.12
341.614	83.12
341.842	86.12
342.07	89.12
342.298	97.12
342.526	84.12
342.754	83.12
342.981	97.12
343.209	80.12
343.437	88.12
343.665	96.12
343.893	88.12
344.12	84.12
344.348	83.12
344.576	85.12
344.804	89.12
345.031	88.12
345.259	83.12
345.487	90.12
345.714	93.12
345.942	84.12
346.17	68.12
346.397	92.12
346.625	93.12
346.853	101.12
347.08	99.12
347.308	89.12
347.535	82.12
347.763	88.12
347.99	99.12
348.218	94.12
348.445	92.12
348.673	90.12
348.9	91.12
349.128	101.12
349.355	84.12
349.583	90.12
349.81	81.12
350.037	95.12
350.265	92.12
350.492	89.12
350.72	86.12
350.947	92.12
351.174	86.12
351.402	83.12
351.629	79.12
351.856	87.12
352.083	91.12
352.311	85.12
352.538	90.12
352.765	86.12
352.992	87.12
353.22	69.12
353.447	87.12
353.674	91.12
353.901	86.12
354.128	90.12
354.355	78.12
354.583	76.12
354.81	90.12
355.037	95.12
355.264	95.12
355.491	90.12
355.718	85.12
355.945	84.12
356.172	81.12
356.399	80.12
356.626	85.12
356.853	90.12
357.08	90.12
357.307	76.12
357.534	92.12
357.761	94.12
357.988	87.12
358.215	75.12
358.441	95.12
358.668	90.12
358.895	87.12
359.122	95.12
359.349	87.12
359.576	99.12
359.802	86.12
360.029	73.12
360.256	97.12
360.483	75.12
360.709	91.12
360.936	100.12
361.163	85.12
361.39	81.12
361.616	87.12
361.843	97.12
362.07	86.12
362.296	78.12
362.523	94.12
362.749	88.12
362.976	92.12
363.203	90.12
363.429	86.12
363.656	85.12
363.882	87.12
364.109	79.12
364.335	100.12
364.562	90.12
364.788	87.12
365.015	98.12
365.241	81.12
365.468	81.12
365.694	96.12
365.92	93.12
366.147	88.12
366.373	80.12
366.599	90.12
366.826	85.12
367.052	102.12
367.278	88.12
367.505	85.12
367.731	103.12
367.957	77.12
368.184	77.12
368.41	91.12
368.636	96.12
368.862	81.12
369.089	72.12
369.315	96.12
369.541	89.12
369.767	84.12
369.993	86.12
370.219	85.12
370.445	88.12
370.672	92.12
370.898	78.12
371.124	92.12
371.35	89.12
371.576	96.12
371.802	85.12
372.028	92.12
372.254	72.12
372.48	84.12
372.706	89.12
372.932	75.12
373.158	85.12
373.384	89.12
373.61	101.12
373.835	87.12
374.061	91.12
374.287	92.12
374.513	99.12
374.739	80.12
374.965	91.12
375.191	74.12
375.416	92.12
375.642	71.12
375.868	99.12
376.094	94.12
376.319	84.12
376.545	88.12
376.771	83.12
376.997	85.12
377.222	88.12
377.448	91.12
377.674	82.12
377.899	81.12
378.125	93.12
378.35	89.12
378.576	81.12
378.802	86.12
379.027	83.12
379.253	81.12
379.478	85.12
379.704	81.12
379.929	101.12
380.155	85.12
380.38	86.12
380.606	92.12
380.831	95.12
381.057	93.12
381.282	86.12
381.507	86.12
381.733	92.12
381.958	96.12
382.184	95.12
382.409	96.12
382.634	84.12
382.86	75.12
383.085	77.12
383.31	96.12
383.535	87.12
383.761	94.12
383.986	92.12
384.211	90.12
384.436	96.12
384.662	94.12
384.887	89.12
385.112	85.12
385.337	88.12
385.562	72.12
385.787	88.12
386.013	101.12
386.238	86.12
386.463	97.12
386.688	90.12
386.913	76.12
387.138	78.12
387.363	96.12
387.588	93.12
387.813	99.12
388.038	92.12
388.263	88.12
388.488	83.12
388.713	88.12
388.938	81.12
389.163	95.12
389.387	83.12
389.612	105.12
389.837	80.12
390.062	90.12
390.287	96.12
390.512	105.12
390.736	89.12
390.961	109.12
391.186	99.12
391.411	99.12
391.636	92.12
391.86	93.12
392.085	98.12
392.31	93.12
392.534	95.12
392.759	102.12
392.984	92.12
393.208	102.12
393.433	85.12
393.658	99.12
393.882	95.12
394.107	88.12
394.331	92.12
394.556	81.12
394.78	83.12
395.005	75.12
395.229	89.12
395.454	98.12
395.678	103.12
395.903	93.12
396.127	94.12
396.352	96.12
396.576	90.12
396.801	94.12
397.025	89.12
397.249	75.12
397.474	93.12
397.698	91.12
397.922	95.12
398.147	97.12
398.371	93.12
398.595	83.12
398.82	87.12
399.044	79.12
399.268	97.12
399.492	92.12
399.717	96.12
399.941	97.12
400.165	91.12
400.389	78.12
400.613	90.12
400.837	106.12
401.062	88.12
401.286	79.12
401.51	97.12
401.734	80.12
401.958	94.12
402.182	91.12
402.406	90.12
402.63	86.12
402.854	88.12
403.078	87.12
403.302	92.12
403.526	93.12
403.75	94.12
403.974	85.12
404.198	96.12
404.422	87.12
404.645	107.12
404.869	89.12
405.093	104.12
405.317	87.12
405.541	92.12
405.765	87.12
405.988	92.12
406.212	100.12
406.436	85.12
406.66	90.12
406.883	92.12
407.107	94.12
407.331	84.12
407.555	95.12
407.778	95.12
408.002	83.12
408.226	91.12
408.449	89.12
408.673	86.12
408.896	96.12
409.12	103.12
409.344	80.12
409.567	90.12
409.791	90.12
410.014	91.12
410.238	91.12
410.461	96.12
410.685	86.12
410.908	93.12
411.132	92.12
411.355	92.12
411.578	94.12
411.802	98.12
412.025	101.12
412.249	95.12
412.472	91.12
412.695	91.12
412.919	96.12
413.142	104.12
413.365	91.12
413.589	86.12
413.812	93.12
414.035	104.12
414.258	90.12
414.482	101.12
414.705	101.12
414.928	91.12
415.151	102.12
415.374	109.12
415.597	111.12
415.821	103.12
416.044	100.12
416.267	91.12
416.49	100.12
416.713	103.12
416.936	108.12
417.159	92.12
417.382	97.12
417.605	95.12
417.828	93.12
418.051	92.12
418.274	95.12
418.497	97.12
418.72	93.12
418.943	97.12
419.166	100.12
419.389	97.12
419.611	122.12
419.834	97.12
420.057	91.12
420.28	85.12
420.503	91.12
420.726	91.12
420.948	86.12
421.171	87.12
421.394	110.12
421.617	96.12
421.839	98.12
422.062	91.12
422.285	97.12
422.507	99.12
422.73	93.12
422.953	95.12
423.175	117.12
423.398	96.12
423.621	117.12
423.843	99.12
424.066	97.12
424.288	93.12
424.511	90.12
424.733	91.12
424.956	99.12
425.178	97.12
425.401	101.12
425.623	106.12
425.846	102.12
426.068	88.12
426.291	98.12
426.513	101.12
426.735	100.12
426.958	102.12
427.18	91.12
427.402	92.12
427.625	107.12
427.847	96.12
428.069	93.12
428.292	96.12
428.514	116.12
428.736	105.12
428.958	95.12
429.181	106.12
429.403	99.12
429.625	94.12
429.847	105.12
430.069	100.12
430.292	111.12
430.514	88.12
430.736	110.12
430.958	102.12
431.18	99.12
431.402	113.12
431.624	105.12
431.846	95.12
432.068	85.12
432.29	105.12
432.512	101.12
432.734	100.12
432.956	84.12
433.178	85.12
433.4	104.12
433.622	116.12
433.844	88.12
434.066	87.12
434.287	84.12
434.509	74.12
434.731	82.12
434.953	89.12
435.175	110.12
435.397	90.12
435.618	83.12
435.84	87.12
436.062	100.12
436.284	85.12
436.505	98.12
436.727	99.12
436.949	102.12
437.17	92.12
437.392	100.12
437.614	99.12
437.835	95.12
438.057	79.12
438.278	92.12
438.5	96.12
438.721	102.12
438.943	111.12
439.165	94.12
439.386	93.12
439.608	81.12
439.829	102.12
440.05	94.12
440.272	98.12
440.493	98.12
440.715	96.12
440.936	105.12
441.158	105.12
441.379	89.12
441.6	87.12
441.822	97.12
442.043	103.12
442.264	89.12
442.486	95.12
442.707	101.12
442.928	113.12
443.149	119.12
443.371	105.12
443.592	93.12
443.813	99.12
444.034	80.12
444.255	94.12
444.476	85.12
444.698	91.12
444.919	103.12
445.14	229.12
445.361	168.12
445.582	108.12
445.803	103.12
446.024	100.12
446.245	99.12
446.466	81.12
446.687	96.12
446.908	112.12
447.129	103.12
447.35	99.12
447.571	101.12
447.792	94.12
448.013	110.12
448.234	106.12
448.455	102.12
448.675	99.12
448.896	103.12
449.117	96.12
449.338	95.12
449.559	106.12
449.779	110.12
450	96.12
450.221	79.12
450.442	96.12
450.662	102.12
450.883	103.12
451.104	108.12
451.324	105.12
451.545	89.12
451.766	108.12
451.986	98.12
452.207	86.12
452.428	90.12
452.648	109.12
452.869	93.12
453.089	104.12
453.31	100.12
453.53	81.12
453.751	95.12
453.971	79.12
454.192	92.12
454.412	85.12
454.633	85.12
454.853	95.12
455.073	83.12
455.294	99.12
455.514	82.12
455.734	106.12
455.955	97.12
456.175	101.12
456.395	103.12
456.616	81.12
456.836	101.12
457.056	80.12
457.276	85.12
457.497	94.12
457.717	97.12
457.937	108.12
458.157	95.12
458.377	88.12
458.598	100.12
458.818	84.12
459.038	86.12
459.258	83.12
459.478	92.12
459.698	73.12
459.918	87.12
460.138	93.12
460.358	91.12
460.578	96.12
460.798	92.12
461.018	84.12
461.238	93.12
461.458	104.12
461.678	83.12
461.898	96.12
462.118	101.12
462.338	90.12
462.558	103.12
462.777	91.12
462.997	93.12
463.217	89.12
463.437	85.12
463.657	90.12
463.876	101.12
464.096	85.12
464.316	90.12
464.536	99.12
464.755	86.12
464.975	94.12
465.195	90.12
465.414	108.12
465.634	103.12
465.854	91.12
466.073	85.12
466.293	102.12
466.512	97.12
466.732	91.12
466.951	89.12
467.171	101.12
467.391	92.12
467.61	102.12
467.829	90.12
468.049	112.12
468.268	110.12
468.488	95.12
468.707	95.12
468.927	95.12
469.146	105.12
469.365	109.12
469.585	102.12
469.804	104.12
470.023	95.12
470.243	101.12
470.462	115.12
470.681	109.12
470.901	101.12
471.12	97.12
471.339	102.12
471.558	82.12
471.777	107.12
471.997	113.12
472.216	92.12
472.435	91.12
472.654	96.12
472.873	96.12
473.092	99.12
473.311	108.12
473.53	96.12
473.749	90.12
473.968	100.12
474.187	88.12
474.406	91.12
474.625	100.12
474.844	104.12
475.063	104.12
475.282	112.12
475.501	94.12
475.72	101.12
475.939	89.12
476.158	99.12
476.377	90.12
476.596	87.12
476.814	95.12
477.033	87.12
477.252	97.12
477.471	98.12
477.69	94.12
477.908	96.12
478.127	104.12
478.346	93.12
478.564	88.12
478.783	87.12
479.002	99.12
479.22	99.12
479.439	100.12
479.658	92.12
479.876	75.12
480.095	93.12
480.313	92.12
480.532	101.12
480.751	99.12
480.969	92.12
481.188	69.12
481.406	92.12
481.624	76.12
481.843	90.12
482.061	98.12
482.28	85.12
482.498	109.12
482.717	95.12
482.935	94.12
483.153	114.12
483.372	100.12
483.59	97.12
483.808	96.12
484.027	96.12
484.245	102.12
484.463	115.12
484.681	110.12
484.9	117.12
485.118	114.12
485.336	91.12
485.554	96.12
485.772	91.12
485.99	86.12
486.209	101.12
486.427	101.12
486.645	103.12
486.863	101.12
487.081	94.12
487.299	107.12
487.517	114.12
487.735	103.12
487.953	117.12
488.171	119.12
488.389	108.12
488.607	118.12
488.825	112.12
489.043	92.12
489.261	87.12
489.479	94.12
489.696	113.12
489.914	103.12
490.132	95.12
490.35	101.12
490.568	106.12
490.786	99.12
491.003	123.12
491.221	117.12
491.439	97.12
491.657	118.12
491.874	112.12
492.092	118.12
492.31	131.12
492.527	120.12
492.745	115.12
492.963	113.12
493.18	119.12
493.398	111.12
493.615	119.12
493.833	109.12
494.05	98.12
494.268	113.12
494.485	115.12
494.703	107.12
494.92	114.12
495.138	98.12
495.355	96.12
495.573	100.12
495.79	119.12
496.008	121.12
496.225	107.12
496.442	124.12
496.66	123.12
496.877	96.12
497.094	129.12
497.312	122.12
497.529	119.12
497.746	111.12
497.963	101.12
498.181	101.12
498.398	99.12
498.615	90.12
498.832	96.12
499.049	94.12
499.267	97.12
499.484	96.12
499.701	86.12
499.918	97.12
500.135	106.12
500.352	107.12
500.569	93.12
500.786	107.12
501.003	109.12
501.22	92.12
501.437	112.12
501.654	108.12
501.871	100.12
502.088	102.12
502.305	101.12
502.522	93.12
502.739	107.12
502.956	114.12
503.172	107.12
503.389	110.12
503.606	86.12
503.823	101.12
504.04	105.12
504.256	101.12
504.473	114.12
504.69	97.12
504.907	90.12
505.123	104.12
505.34	97.12
505.557	90.12
505.773	98.12
505.99	94.12
506.207	101.12
506.423	82.12
506.64	94.12
506.856	96.12
507.073	96.12
507.289	96.12
507.506	98.12
507.722	103.12
507.939	91.12
508.155	99.12
508.372	96.12
508.588	96.12
508.805	112.12
509.021	98.12
509.238	96.12
509.454	104.12
509.67	88.12
509.887	81.12
510.103	84.12
510.319	94.12
510.536	91.12
510.752	97.12
510.968	86.12
511.184	79.12
511.401	81.12
511.617	94.12
511.833	89.12
512.049	92.12
512.265	85.12
512.481	83.12
512.698	88.12
512.914	94.12
513.13	106.12
513.346	92.12
513.562	76.12
513.778	96.12
513.994	80.12
514.21	88.12
514.426	78.12
514.642	89.12
514.858	95.12
515.074	75.12
515.29	84.12
515.506	97.12
515.721	92.12
515.937	88.12
516.153	91.12
