Data from Location5.07152019.Energy5.Lamp.07192019.3%Agarose_HRD10591_16-05-32-629.txt Node
Date: Fri Jul 19 16:05:32 EDT 2019
User: cochatt
Spectrometer: HR+D1059
Trigger mode: 1
Integration Time (sec): 1.000000E-1
Scans to average: 1
Electric dark correction enabled: true
Nonlinearity correction enabled: false
Boxcar width: 0
XAxis mode: Wavelengths
Number of Pixels in Spectrum: 2048
>>>>>Begin Spectral Data<<<<<
223.165	-21.12
223.4	-21.12
223.635	-21.12
223.869	-9.12
224.104	-25.12
224.338	-3.12
224.573	-13.12
224.808	-14.12
225.042	-4.12
225.277	-7.12
225.511	-5.12
225.746	10.88
225.98	-9.12
226.215	-4.12
226.449	14.88
226.683	20.88
226.918	39.88
227.152	28.88
227.387	39.88
227.621	39.88
227.856	50.88
228.09	57.88
228.324	57.88
228.559	56.88
228.793	64.88
229.027	58.88
229.262	72.88
229.496	69.88
229.73	74.88
229.964	79.88
230.199	75.88
230.433	71.88
230.667	78.88
230.901	75.88
231.136	95.88
231.37	77.88
231.604	77.88
231.838	82.88
232.072	80.88
232.306	70.88
232.541	83.88
232.775	73.88
233.009	66.88
233.243	76.88
233.477	80.88
233.711	78.88
233.945	76.88
234.179	82.88
234.413	78.88
234.647	91.88
234.881	73.88
235.115	78.88
235.349	76.88
235.583	77.88
235.817	80.88
236.051	76.88
236.285	86.88
236.519	96.88
236.753	89.88
236.987	80.88
237.221	84.88
237.455	73.88
237.689	78.88
237.922	70.88
238.156	90.88
238.39	84.88
238.624	73.88
238.858	84.88
239.091	74.88
239.325	72.88
239.559	73.88
239.793	87.88
240.027	72.88
240.26	73.88
240.494	72.88
240.728	63.88
240.961	79.88
241.195	63.88
241.429	75.88
241.662	86.88
241.896	87.88
242.13	81.88
242.363	73.88
242.597	77.88
242.83	85.88
243.064	84.88
243.298	84.88
243.531	83.88
243.765	71.88
243.998	84.88
244.232	91.88
244.465	88.88
244.699	79.88
244.932	65.88
245.166	92.88
245.399	81.88
245.633	85.88
245.866	70.88
246.099	66.88
246.333	70.88
246.566	77.88
246.8	76.88
247.033	77.88
247.266	88.88
247.5	81.88
247.733	81.88
247.966	96.88
248.2	84.88
248.433	75.88
248.666	77.88
248.899	77.88
249.133	91.88
249.366	96.88
249.599	83.88
249.832	73.88
250.066	90.88
250.299	89.88
250.532	93.88
250.765	80.88
250.998	86.88
251.231	83.88
251.465	76.88
251.698	82.88
251.931	76.88
252.164	77.88
252.397	70.88
252.63	69.88
252.863	85.88
253.096	84.88
253.329	83.88
253.562	73.88
253.795	76.88
254.028	80.88
254.261	80.88
254.494	86.88
254.727	85.88
254.96	81.88
255.193	92.88
255.426	88.88
255.659	84.88
255.892	82.88
256.124	79.88
256.357	78.88
256.59	83.88
256.823	77.88
257.056	99.88
257.289	77.88
257.521	93.88
257.754	106.88
257.987	80.88
258.22	75.88
258.452	87.88
258.685	86.88
258.918	76.88
259.151	80.88
259.383	75.88
259.616	73.88
259.849	83.88
260.081	81.88
260.314	85.88
260.547	78.88
260.779	93.88
261.012	87.88
261.244	81.88
261.477	86.88
261.71	67.88
261.942	89.88
262.175	91.88
262.407	85.88
262.64	94.88
262.872	84.88
263.105	95.88
263.337	78.88
263.57	71.88
263.802	88.88
264.035	76.88
264.267	77.88
264.499	88.88
264.732	79.88
264.964	74.88
265.197	92.88
265.429	85.88
265.661	87.88
265.894	70.88
266.126	87.88
266.358	83.88
266.591	94.88
266.823	90.88
267.055	79.88
267.287	78.88
267.52	84.88
267.752	86.88
267.984	85.88
268.216	86.88
268.448	88.88
268.681	85.88
268.913	80.88
269.145	82.88
269.377	83.88
269.609	84.88
269.841	87.88
270.073	90.88
270.306	76.88
270.538	80.88
270.77	86.88
271.002	80.88
271.234	89.88
271.466	73.88
271.698	78.88
271.93	90.88
272.162	80.88
272.394	85.88
272.626	91.88
272.858	74.88
273.09	75.88
273.322	92.88
273.553	88.88
273.785	74.88
274.017	80.88
274.249	81.88
274.481	91.88
274.713	77.88
274.945	82.88
275.176	83.88
275.408	76.88
275.64	86.88
275.872	80.88
276.104	87.88
276.335	73.88
276.567	88.88
276.799	79.88
277.031	87.88
277.262	77.88
277.494	99.88
277.726	87.88
277.957	83.88
278.189	90.88
278.421	92.88
278.652	99.88
278.884	81.88
279.115	104.88
279.347	93.88
279.579	66.88
279.81	89.88
280.042	82.88
280.273	93.88
280.505	85.88
280.736	93.88
280.968	72.88
281.199	81.88
281.431	94.88
281.662	74.88
281.894	74.88
282.125	78.88
282.356	92.88
282.588	81.88
282.819	88.88
283.051	84.88
283.282	82.88
283.513	87.88
283.745	98.88
283.976	88.88
284.207	87.88
284.439	91.88
284.67	91.88
284.901	95.88
285.132	83.88
285.364	83.88
285.595	76.88
285.826	97.88
286.057	84.88
286.288	86.88
286.52	90.88
286.751	92.88
286.982	88.88
287.213	104.88
287.444	84.88
287.675	72.88
287.906	93.88
288.138	82.88
288.369	74.88
288.6	78.88
288.831	69.88
289.062	76.88
289.293	90.88
289.524	96.88
289.755	71.88
289.986	80.88
290.217	83.88
290.448	95.88
290.679	76.88
290.91	93.88
291.141	92.88
291.371	103.88
291.602	95.88
291.833	100.88
292.064	81.88
292.295	95.88
292.526	96.88
292.757	84.88
292.987	95.88
293.218	81.88
293.449	76.88
293.68	107.88
293.91	91.88
294.141	90.88
294.372	82.88
294.603	93.88
294.833	89.88
295.064	102.88
295.295	84.88
295.525	92.88
295.756	85.88
295.987	85.88
296.217	71.88
296.448	94.88
296.679	89.88
296.909	81.88
297.14	95.88
297.37	89.88
297.601	103.88
297.831	96.88
298.062	84.88
298.292	87.88
298.523	85.88
298.753	95.88
298.984	104.88
299.214	76.88
299.445	92.88
299.675	97.88
299.905	93.88
300.136	84.88
300.366	84.88
300.597	95.88
300.827	101.88
301.057	85.88
301.288	74.88
301.518	93.88
301.748	88.88
301.979	91.88
302.209	97.88
302.439	81.88
302.669	82.88
302.9	84.88
303.13	88.88
303.36	83.88
303.59	93.88
303.82	87.88
304.051	95.88
304.281	92.88
304.511	83.88
304.741	84.88
304.971	81.88
305.201	99.88
305.431	81.88
305.661	98.88
305.891	93.88
306.121	91.88
306.352	84.88
306.582	91.88
306.812	84.88
307.042	99.88
307.272	74.88
307.502	93.88
307.731	82.88
307.961	92.88
308.191	88.88
308.421	105.88
308.651	83.88
308.881	83.88
309.111	85.88
309.341	90.88
309.571	68.88
309.8	83.88
310.03	90.88
310.26	93.88
310.49	94.88
310.72	87.88
310.949	88.88
311.179	99.88
311.409	83.88
311.639	88.88
311.868	86.88
312.098	70.88
312.328	86.88
312.557	89.88
312.787	70.88
313.017	95.88
313.246	89.88
313.476	83.88
313.706	95.88
313.935	79.88
314.165	82.88
314.394	83.88
314.624	73.88
314.853	89.88
315.083	81.88
315.312	87.88
315.542	84.88
315.771	81.88
316.001	77.88
316.23	91.88
316.46	97.88
316.689	79.88
316.919	103.88
317.148	100.88
317.377	99.88
317.607	87.88
317.836	80.88
318.065	93.88
318.295	103.88
318.524	84.88
318.753	90.88
318.983	97.88
319.212	76.88
319.441	77.88
319.67	95.88
319.9	83.88
320.129	91.88
320.358	78.88
320.587	85.88
320.816	97.88
321.046	92.88
321.275	98.88
321.504	88.88
321.733	103.88
321.962	97.88
322.191	85.88
322.42	81.88
322.649	98.88
322.878	92.88
323.108	69.88
323.337	92.88
323.566	67.88
323.795	95.88
324.024	95.88
324.253	94.88
324.482	84.88
324.71	78.88
324.939	89.88
325.168	81.88
325.397	80.88
325.626	98.88
325.855	77.88
326.084	97.88
326.313	82.88
326.542	98.88
326.77	82.88
326.999	95.88
327.228	69.88
327.457	84.88
327.686	93.88
327.914	98.88
328.143	79.88
328.372	87.88
328.6	87.88
328.829	91.88
329.058	80.88
329.287	93.88
329.515	93.88
329.744	83.88
329.972	73.88
330.201	92.88
330.43	89.88
330.658	88.88
330.887	91.88
331.115	74.88
331.344	102.88
331.572	94.88
331.801	98.88
332.03	102.88
332.258	97.88
332.486	87.88
332.715	104.88
332.943	102.88
333.172	83.88
333.4	95.88
333.629	91.88
333.857	87.88
334.085	90.88
334.314	88.88
334.542	100.88
334.771	91.88
334.999	86.88
335.227	95.88
335.455	87.88
335.684	86.88
335.912	88.88
336.14	85.88
336.369	92.88
336.597	106.88
336.825	72.88
337.053	99.88
337.281	96.88
337.51	95.88
337.738	106.88
337.966	92.88
338.194	91.88
338.422	85.88
338.65	101.88
338.878	83.88
339.106	89.88
339.334	90.88
339.562	85.88
339.79	86.88
340.018	97.88
340.246	91.88
340.474	79.88
340.702	83.88
340.93	97.88
341.158	101.88
341.386	79.88
341.614	73.88
341.842	92.88
342.07	93.88
342.298	91.88
342.526	98.88
342.754	84.88
342.981	88.88
343.209	96.88
343.437	83.88
343.665	77.88
343.893	86.88
344.12	96.88
344.348	94.88
344.576	99.88
344.804	104.88
345.031	92.88
345.259	98.88
345.487	97.88
345.714	85.88
345.942	91.88
346.17	88.88
346.397	86.88
346.625	95.88
346.853	86.88
347.08	85.88
347.308	86.88
347.535	92.88
347.763	83.88
347.99	92.88
348.218	90.88
348.445	92.88
348.673	95.88
348.9	103.88
349.128	92.88
349.355	103.88
349.583	83.88
349.81	99.88
350.037	87.88
350.265	98.88
350.492	88.88
350.72	83.88
350.947	77.88
351.174	99.88
351.402	85.88
351.629	86.88
351.856	82.88
352.083	69.88
352.311	88.88
352.538	81.88
352.765	107.88
352.992	85.88
353.22	82.88
353.447	92.88
353.674	99.88
353.901	105.88
354.128	83.88
354.355	88.88
354.583	83.88
354.81	83.88
355.037	81.88
355.264	90.88
355.491	93.88
355.718	91.88
355.945	84.88
356.172	82.88
356.399	97.88
356.626	84.88
356.853	92.88
357.08	92.88
357.307	88.88
357.534	99.88
357.761	93.88
357.988	80.88
358.215	90.88
358.441	82.88
358.668	88.88
358.895	96.88
359.122	103.88
359.349	93.88
359.576	91.88
359.802	85.88
360.029	91.88
360.256	85.88
360.483	96.88
360.709	100.88
360.936	106.88
361.163	74.88
361.39	101.88
361.616	87.88
361.843	82.88
362.07	98.88
362.296	85.88
362.523	86.88
362.749	80.88
362.976	95.88
363.203	89.88
363.429	99.88
363.656	82.88
363.882	90.88
364.109	69.88
364.335	77.88
364.562	93.88
364.788	95.88
365.015	99.88
365.241	74.88
365.468	88.88
365.694	85.88
365.92	109.88
366.147	90.88
366.373	82.88
366.599	94.88
366.826	89.88
367.052	96.88
367.278	93.88
367.505	87.88
367.731	73.88
367.957	89.88
368.184	83.88
368.41	91.88
368.636	95.88
368.862	85.88
369.089	84.88
369.315	81.88
369.541	81.88
369.767	82.88
369.993	76.88
370.219	93.88
370.445	94.88
370.672	88.88
370.898	94.88
371.124	91.88
371.35	101.88
371.576	98.88
371.802	93.88
372.028	97.88
372.254	88.88
372.48	85.88
372.706	85.88
372.932	92.88
373.158	91.88
373.384	87.88
373.61	90.88
373.835	92.88
374.061	90.88
374.287	90.88
374.513	101.88
374.739	84.88
374.965	98.88
375.191	78.88
375.416	89.88
375.642	91.88
375.868	109.88
376.094	106.88
376.319	95.88
376.545	91.88
376.771	75.88
376.997	73.88
377.222	92.88
377.448	87.88
377.674	83.88
377.899	83.88
378.125	90.88
378.35	100.88
378.576	87.88
378.802	97.88
379.027	74.88
379.253	84.88
379.478	78.88
379.704	82.88
379.929	100.88
380.155	83.88
380.38	93.88
380.606	82.88
380.831	106.88
381.057	92.88
381.282	93.88
381.507	88.88
381.733	82.88
381.958	103.88
382.184	96.88
382.409	100.88
382.634	96.88
382.86	86.88
383.085	89.88
383.31	95.88
383.535	89.88
383.761	81.88
383.986	94.88
384.211	91.88
384.436	97.88
384.662	91.88
384.887	104.88
385.112	85.88
385.337	91.88
385.562	89.88
385.787	77.88
386.013	95.88
386.238	81.88
386.463	91.88
386.688	87.88
386.913	96.88
387.138	90.88
387.363	81.88
387.588	91.88
387.813	88.88
388.038	82.88
388.263	83.88
388.488	88.88
388.713	84.88
388.938	84.88
389.163	95.88
389.387	105.88
389.612	91.88
389.837	105.88
390.062	93.88
390.287	84.88
390.512	101.88
390.736	84.88
390.961	87.88
391.186	90.88
391.411	98.88
391.636	106.88
391.86	87.88
392.085	97.88
392.31	83.88
392.534	100.88
392.759	97.88
392.984	84.88
393.208	88.88
393.433	75.88
393.658	91.88
393.882	95.88
394.107	77.88
394.331	90.88
394.556	84.88
394.78	88.88
395.005	93.88
395.229	109.88
395.454	98.88
395.678	95.88
395.903	97.88
396.127	92.88
396.352	84.88
396.576	99.88
396.801	92.88
397.025	93.88
397.249	83.88
397.474	93.88
397.698	101.88
397.922	91.88
398.147	85.88
398.371	99.88
398.595	105.88
398.82	104.88
399.044	104.88
399.268	83.88
399.492	83.88
399.717	96.88
399.941	111.88
400.165	101.88
400.389	95.88
400.613	93.88
400.837	97.88
401.062	101.88
401.286	87.88
401.51	87.88
401.734	85.88
401.958	93.88
402.182	92.88
402.406	100.88
402.63	77.88
402.854	91.88
403.078	88.88
403.302	100.88
403.526	107.88
403.75	86.88
403.974	92.88
404.198	88.88
404.422	98.88
404.645	99.88
404.869	105.88
405.093	96.88
405.317	80.88
405.541	105.88
405.765	95.88
405.988	91.88
406.212	91.88
406.436	90.88
406.66	86.88
406.883	89.88
407.107	90.88
407.331	97.88
407.555	107.88
407.778	92.88
408.002	91.88
408.226	91.88
408.449	91.88
408.673	95.88
408.896	92.88
409.12	94.88
409.344	102.88
409.567	95.88
409.791	101.88
410.014	101.88
410.238	85.88
410.461	84.88
410.685	90.88
410.908	109.88
411.132	96.88
411.355	94.88
411.578	112.88
411.802	82.88
412.025	95.88
412.249	89.88
412.472	84.88
412.695	84.88
412.919	81.88
413.142	87.88
413.365	89.88
413.589	89.88
413.812	94.88
414.035	87.88
414.258	82.88
414.482	91.88
414.705	76.88
414.928	86.88
415.151	99.88
415.374	97.88
415.597	103.88
415.821	95.88
416.044	104.88
416.267	107.88
416.49	100.88
416.713	94.88
416.936	81.88
417.159	97.88
417.382	84.88
417.605	95.88
417.828	74.88
418.051	89.88
418.274	100.88
418.497	88.88
418.72	93.88
418.943	95.88
419.166	92.88
419.389	98.88
419.611	81.88
419.834	81.88
420.057	90.88
420.28	97.88
420.503	90.88
420.726	101.88
420.948	79.88
421.171	81.88
421.394	97.88
421.617	81.88
421.839	94.88
422.062	85.88
422.285	92.88
422.507	92.88
422.73	91.88
422.953	91.88
423.175	94.88
423.398	83.88
423.621	99.88
423.843	92.88
424.066	107.88
424.288	89.88
424.511	104.88
424.733	88.88
424.956	75.88
425.178	92.88
425.401	85.88
425.623	91.88
425.846	91.88
426.068	84.88
426.291	92.88
426.513	87.88
426.735	98.88
426.958	95.88
427.18	98.88
427.402	103.88
427.625	84.88
427.847	89.88
428.069	93.88
428.292	100.88
428.514	92.88
428.736	93.88
428.958	93.88
429.181	91.88
429.403	84.88
429.625	85.88
429.847	92.88
430.069	87.88
430.292	98.88
430.514	81.88
430.736	86.88
430.958	104.88
431.18	94.88
431.402	98.88
431.624	74.88
431.846	94.88
432.068	90.88
432.29	88.88
432.512	95.88
432.734	87.88
432.956	79.88
433.178	95.88
433.4	86.88
433.622	95.88
433.844	94.88
434.066	97.88
434.287	85.88
434.509	82.88
434.731	90.88
434.953	93.88
435.175	105.88
435.397	90.88
435.618	91.88
435.84	83.88
436.062	111.88
436.284	91.88
436.505	74.88
436.727	89.88
436.949	103.88
437.17	90.88
437.392	94.88
437.614	86.88
437.835	92.88
438.057	103.88
438.278	96.88
438.5	88.88
438.721	83.88
438.943	84.88
439.165	90.88
439.386	100.88
439.608	94.88
439.829	84.88
440.05	98.88
440.272	101.88
440.493	101.88
440.715	103.88
440.936	97.88
441.158	78.88
441.379	100.88
441.6	96.88
441.822	89.88
442.043	97.88
442.264	90.88
442.486	82.88
442.707	89.88
442.928	96.88
443.149	81.88
443.371	92.88
443.592	92.88
443.813	80.88
444.034	89.88
444.255	98.88
444.476	97.88
444.698	93.88
444.919	88.88
445.14	224.88
445.361	148.88
445.582	103.88
445.803	95.88
446.024	84.88
446.245	82.88
446.466	91.88
446.687	98.88
446.908	80.88
447.129	89.88
447.35	90.88
447.571	84.88
447.792	84.88
448.013	88.88
448.234	86.88
448.455	89.88
448.675	91.88
448.896	82.88
449.117	87.88
449.338	98.88
449.559	88.88
449.779	94.88
450	98.88
450.221	82.88
450.442	92.88
450.662	88.88
450.883	89.88
451.104	95.88
451.324	85.88
451.545	83.88
451.766	90.88
451.986	99.88
452.207	84.88
452.428	86.88
452.648	93.88
452.869	79.88
453.089	80.88
453.31	90.88
453.53	83.88
453.751	91.88
453.971	105.88
454.192	79.88
454.412	79.88
454.633	85.88
454.853	90.88
455.073	95.88
455.294	81.88
455.514	89.88
455.734	98.88
455.955	92.88
456.175	99.88
456.395	103.88
456.616	91.88
456.836	83.88
457.056	102.88
457.276	97.88
457.497	74.88
457.717	97.88
457.937	90.88
458.157	86.88
458.377	95.88
458.598	65.88
458.818	107.88
459.038	89.88
459.258	72.88
459.478	79.88
459.698	98.88
459.918	98.88
460.138	89.88
460.358	85.88
460.578	92.88
460.798	101.88
461.018	95.88
461.238	98.88
461.458	105.88
461.678	91.88
461.898	93.88
462.118	100.88
462.338	112.88
462.558	92.88
462.777	99.88
462.997	98.88
463.217	95.88
463.437	97.88
463.657	98.88
463.876	98.88
464.096	90.88
464.316	102.88
464.536	102.88
464.755	82.88
464.975	83.88
465.195	79.88
465.414	80.88
465.634	98.88
465.854	95.88
466.073	99.88
466.293	84.88
466.512	103.88
466.732	87.88
466.951	95.88
467.171	78.88
467.391	82.88
467.61	98.88
467.829	101.88
468.049	81.88
468.268	98.88
468.488	91.88
468.707	91.88
468.927	92.88
469.146	86.88
469.365	84.88
469.585	91.88
469.804	99.88
470.023	79.88
470.243	79.88
470.462	93.88
470.681	109.88
470.901	105.88
471.12	96.88
471.339	75.88
471.558	91.88
471.777	94.88
471.997	108.88
472.216	94.88
472.435	94.88
472.654	92.88
472.873	89.88
473.092	88.88
473.311	96.88
473.53	97.88
473.749	91.88
473.968	87.88
474.187	94.88
474.406	95.88
474.625	99.88
474.844	103.88
475.063	100.88
475.282	91.88
475.501	96.88
475.72	107.88
475.939	97.88
476.158	95.88
476.377	92.88
476.596	91.88
476.814	79.88
477.033	103.88
477.252	88.88
477.471	88.88
477.69	82.88
477.908	98.88
478.127	100.88
478.346	96.88
478.564	92.88
478.783	91.88
479.002	91.88
479.22	115.88
479.439	100.88
479.658	99.88
479.876	103.88
480.095	99.88
480.313	90.88
480.532	88.88
480.751	112.88
480.969	98.88
481.188	89.88
481.406	93.88
481.624	89.88
481.843	92.88
482.061	102.88
482.28	89.88
482.498	83.88
482.717	104.88
482.935	94.88
483.153	101.88
483.372	103.88
483.59	112.88
483.808	91.88
484.027	97.88
484.245	96.88
484.463	90.88
484.681	98.88
484.9	100.88
485.118	106.88
485.336	98.88
485.554	102.88
485.772	98.88
485.99	99.88
486.209	107.88
486.427	88.88
486.645	96.88
486.863	107.88
487.081	102.88
487.299	110.88
487.517	112.88
487.735	94.88
487.953	97.88
488.171	101.88
488.389	92.88
488.607	101.88
488.825	104.88
489.043	109.88
489.261	109.88
489.479	101.88
489.696	116.88
489.914	105.88
490.132	107.88
490.35	88.88
490.568	91.88
490.786	97.88
491.003	91.88
491.221	112.88
491.439	104.88
491.657	100.88
491.874	102.88
492.092	124.88
492.31	111.88
492.527	112.88
492.745	121.88
492.963	97.88
493.18	104.88
493.398	117.88
493.615	104.88
493.833	106.88
494.05	109.88
494.268	113.88
494.485	114.88
494.703	92.88
494.92	105.88
495.138	91.88
495.355	100.88
495.573	101.88
495.79	110.88
496.008	117.88
496.225	115.88
496.442	108.88
496.66	118.88
496.877	103.88
497.094	111.88
497.312	104.88
497.529	109.88
497.746	100.88
497.963	106.88
498.181	105.88
498.398	99.88
498.615	112.88
498.832	107.88
499.049	107.88
499.267	115.88
499.484	114.88
499.701	116.88
499.918	131.88
500.135	127.88
500.352	141.88
500.569	134.88
500.786	137.88
501.003	156.88
501.22	146.88
501.437	111.88
501.654	112.88
501.871	114.88
502.088	106.88
502.305	124.88
502.522	118.88
502.739	105.88
502.956	100.88
503.172	112.88
503.389	103.88
503.606	98.88
503.823	103.88
504.04	100.88
504.256	108.88
504.473	96.88
504.69	93.88
504.907	110.88
505.123	100.88
505.34	119.88
505.557	106.88
505.773	97.88
505.99	109.88
506.207	100.88
506.423	88.88
506.64	100.88
506.856	106.88
507.073	97.88
507.289	102.88
507.506	96.88
507.722	103.88
507.939	100.88
508.155	108.88
508.372	99.88
508.588	98.88
508.805	92.88
509.021	100.88
509.238	90.88
509.454	101.88
509.67	82.88
509.887	116.88
510.103	101.88
510.319	91.88
510.536	98.88
510.752	108.88
510.968	85.88
511.184	96.88
511.401	101.88
511.617	95.88
511.833	94.88
512.049	98.88
512.265	97.88
512.481	96.88
512.698	106.88
512.914	90.88
513.13	96.88
513.346	96.88
513.562	102.88
513.778	91.88
513.994	102.88
514.21	112.88
514.426	97.88
514.642	110.88
514.858	91.88
515.074	86.88
515.29	99.88
515.506	104.88
515.721	96.88
515.937	103.88
516.153	86.88
516.369	93.88
