Data from Location5.07152019.Energy5.Lamp.07192019.3%Agarose_HRD10591_15-37-10-387.txt Node
Date: Fri Jul 19 15:37:10 EDT 2019
User: cochatt
Spectrometer: HR+D1059
Trigger mode: 1
Integration Time (sec): 1.000000E-1
Scans to average: 1
Electric dark correction enabled: true
Nonlinearity correction enabled: false
Boxcar width: 0
XAxis mode: Wavelengths
Number of Pixels in Spectrum: 2048
>>>>>Begin Spectral Data<<<<<
223.165	-9.38
223.4	-9.38
223.635	-9.38
223.869	-24.38
224.104	-31.38
224.338	-14.38
224.573	-17.38
224.808	-9.38
225.042	-15.38
225.277	-6.38
225.511	-7.38
225.746	3.62
225.98	1.62
226.215	27.62
226.449	26.62
226.683	13.62
226.918	30.62
227.152	31.62
227.387	37.62
227.621	30.62
227.856	52.62
228.09	36.62
228.324	43.62
228.559	44.62
228.793	50.62
229.027	51.62
229.262	74.62
229.496	71.62
229.73	66.62
229.964	74.62
230.199	65.62
230.433	69.62
230.667	77.62
230.901	71.62
231.136	68.62
231.37	64.62
231.604	79.62
231.838	63.62
232.072	72.62
232.306	81.62
232.541	79.62
232.775	71.62
233.009	85.62
233.243	84.62
233.477	80.62
233.711	60.62
233.945	65.62
234.179	74.62
234.413	80.62
234.647	69.62
234.881	72.62
235.115	79.62
235.349	66.62
235.583	69.62
235.817	77.62
236.051	74.62
236.285	63.62
236.519	69.62
236.753	86.62
236.987	69.62
237.221	63.62
237.455	77.62
237.689	63.62
237.922	73.62
238.156	72.62
238.39	75.62
238.624	76.62
238.858	68.62
239.091	65.62
239.325	64.62
239.559	67.62
239.793	68.62
240.027	80.62
240.26	63.62
240.494	69.62
240.728	73.62
240.961	70.62
241.195	63.62
241.429	67.62
241.662	78.62
241.896	73.62
242.13	65.62
242.363	74.62
242.597	80.62
242.83	77.62
243.064	64.62
243.298	79.62
243.531	75.62
243.765	90.62
243.998	78.62
244.232	86.62
244.465	73.62
244.699	69.62
244.932	87.62
245.166	75.62
245.399	66.62
245.633	72.62
245.866	63.62
246.099	67.62
246.333	75.62
246.566	81.62
246.8	78.62
247.033	68.62
247.266	77.62
247.5	76.62
247.733	79.62
247.966	71.62
248.2	80.62
248.433	78.62
248.666	75.62
248.899	70.62
249.133	92.62
249.366	85.62
249.599	61.62
249.832	72.62
250.066	84.62
250.299	83.62
250.532	81.62
250.765	66.62
250.998	72.62
251.231	67.62
251.465	67.62
251.698	75.62
251.931	67.62
252.164	89.62
252.397	77.62
252.63	81.62
252.863	81.62
253.096	66.62
253.329	79.62
253.562	69.62
253.795	80.62
254.028	62.62
254.261	70.62
254.494	88.62
254.727	82.62
254.96	76.62
255.193	73.62
255.426	86.62
255.659	76.62
255.892	81.62
256.124	81.62
256.357	80.62
256.59	82.62
256.823	65.62
257.056	91.62
257.289	75.62
257.521	75.62
257.754	69.62
257.987	67.62
258.22	90.62
258.452	62.62
258.685	70.62
258.918	68.62
259.151	72.62
259.383	82.62
259.616	75.62
259.849	86.62
260.081	77.62
260.314	76.62
260.547	66.62
260.779	83.62
261.012	72.62
261.244	78.62
261.477	66.62
261.71	72.62
261.942	81.62
262.175	91.62
262.407	77.62
262.64	73.62
262.872	76.62
263.105	75.62
263.337	90.62
263.57	71.62
263.802	69.62
264.035	69.62
264.267	77.62
264.499	85.62
264.732	84.62
264.964	90.62
265.197	79.62
265.429	84.62
265.661	80.62
265.894	80.62
266.126	86.62
266.358	75.62
266.591	72.62
266.823	71.62
267.055	76.62
267.287	80.62
267.52	71.62
267.752	79.62
267.984	92.62
268.216	72.62
268.448	78.62
268.681	80.62
268.913	93.62
269.145	74.62
269.377	86.62
269.609	79.62
269.841	77.62
270.073	70.62
270.306	70.62
270.538	78.62
270.77	100.62
271.002	77.62
271.234	72.62
271.466	74.62
271.698	82.62
271.93	86.62
272.162	74.62
272.394	65.62
272.626	77.62
272.858	89.62
273.09	75.62
273.322	68.62
273.553	70.62
273.785	63.62
274.017	77.62
274.249	71.62
274.481	83.62
274.713	78.62
274.945	71.62
275.176	74.62
275.408	83.62
275.64	77.62
275.872	90.62
276.104	81.62
276.335	69.62
276.567	75.62
276.799	87.62
277.031	84.62
277.262	72.62
277.494	77.62
277.726	89.62
277.957	76.62
278.189	68.62
278.421	76.62
278.652	72.62
278.884	77.62
279.115	70.62
279.347	80.62
279.579	81.62
279.81	72.62
280.042	88.62
280.273	71.62
280.505	85.62
280.736	80.62
280.968	71.62
281.199	75.62
281.431	84.62
281.662	63.62
281.894	77.62
282.125	75.62
282.356	85.62
282.588	87.62
282.819	87.62
283.051	68.62
283.282	82.62
283.513	77.62
283.745	73.62
283.976	75.62
284.207	70.62
284.439	77.62
284.67	77.62
284.901	80.62
285.132	98.62
285.364	84.62
285.595	84.62
285.826	73.62
286.057	85.62
286.288	73.62
286.52	86.62
286.751	93.62
286.982	82.62
287.213	66.62
287.444	85.62
287.675	81.62
287.906	84.62
288.138	64.62
288.369	73.62
288.6	75.62
288.831	76.62
289.062	84.62
289.293	62.62
289.524	78.62
289.755	76.62
289.986	73.62
290.217	85.62
290.448	71.62
290.679	72.62
290.91	82.62
291.141	71.62
291.371	81.62
291.602	75.62
291.833	92.62
292.064	93.62
292.295	74.62
292.526	78.62
292.757	75.62
292.987	88.62
293.218	86.62
293.449	89.62
293.68	73.62
293.91	83.62
294.141	75.62
294.372	67.62
294.603	72.62
294.833	91.62
295.064	82.62
295.295	80.62
295.525	74.62
295.756	81.62
295.987	72.62
296.217	90.62
296.448	74.62
296.679	69.62
296.909	79.62
297.14	77.62
297.37	75.62
297.601	84.62
297.831	88.62
298.062	75.62
298.292	78.62
298.523	78.62
298.753	70.62
298.984	68.62
299.214	84.62
299.445	80.62
299.675	74.62
299.905	93.62
300.136	69.62
300.366	80.62
300.597	76.62
300.827	83.62
301.057	91.62
301.288	71.62
301.518	80.62
301.748	79.62
301.979	85.62
302.209	79.62
302.439	81.62
302.669	62.62
302.9	77.62
303.13	84.62
303.36	78.62
303.59	69.62
303.82	76.62
304.051	81.62
304.281	73.62
304.511	93.62
304.741	80.62
304.971	90.62
305.201	80.62
305.431	81.62
305.661	59.62
305.891	82.62
306.121	92.62
306.352	88.62
306.582	93.62
306.812	86.62
307.042	82.62
307.272	73.62
307.502	70.62
307.731	85.62
307.961	88.62
308.191	84.62
308.421	64.62
308.651	77.62
308.881	94.62
309.111	83.62
309.341	77.62
309.571	67.62
309.8	71.62
310.03	80.62
310.26	74.62
310.49	72.62
310.72	81.62
310.949	88.62
311.179	64.62
311.409	74.62
311.639	78.62
311.868	80.62
312.098	65.62
312.328	83.62
312.557	78.62
312.787	89.62
313.017	82.62
313.246	85.62
313.476	94.62
313.706	68.62
313.935	75.62
314.165	73.62
314.394	75.62
314.624	75.62
314.853	90.62
315.083	76.62
315.312	66.62
315.542	80.62
315.771	87.62
316.001	74.62
316.23	79.62
316.46	78.62
316.689	77.62
316.919	83.62
317.148	107.62
317.377	88.62
317.607	65.62
317.836	91.62
318.065	84.62
318.295	79.62
318.524	76.62
318.753	80.62
318.983	65.62
319.212	66.62
319.441	72.62
319.67	89.62
319.9	79.62
320.129	76.62
320.358	80.62
320.587	88.62
320.816	77.62
321.046	77.62
321.275	86.62
321.504	76.62
321.733	92.62
321.962	73.62
322.191	94.62
322.42	66.62
322.649	74.62
322.878	80.62
323.108	73.62
323.337	69.62
323.566	70.62
323.795	80.62
324.024	85.62
324.253	85.62
324.482	86.62
324.71	90.62
324.939	79.62
325.168	81.62
325.397	72.62
325.626	72.62
325.855	77.62
326.084	64.62
326.313	76.62
326.542	86.62
326.77	89.62
326.999	88.62
327.228	77.62
327.457	81.62
327.686	84.62
327.914	87.62
328.143	64.62
328.372	85.62
328.6	80.62
328.829	84.62
329.058	82.62
329.287	83.62
329.515	78.62
329.744	83.62
329.972	80.62
330.201	84.62
330.43	68.62
330.658	88.62
330.887	81.62
331.115	71.62
331.344	92.62
331.572	71.62
331.801	71.62
332.03	88.62
332.258	84.62
332.486	79.62
332.715	71.62
332.943	87.62
333.172	89.62
333.4	73.62
333.629	77.62
333.857	85.62
334.085	82.62
334.314	82.62
334.542	84.62
334.771	92.62
334.999	82.62
335.227	73.62
335.455	81.62
335.684	87.62
335.912	77.62
336.14	90.62
336.369	89.62
336.597	78.62
336.825	85.62
337.053	76.62
337.281	73.62
337.51	76.62
337.738	77.62
337.966	85.62
338.194	71.62
338.422	83.62
338.65	72.62
338.878	87.62
339.106	80.62
339.334	94.62
339.562	77.62
339.79	81.62
340.018	71.62
340.246	85.62
340.474	76.62
340.702	88.62
340.93	85.62
341.158	61.62
341.386	72.62
341.614	88.62
341.842	86.62
342.07	63.62
342.298	87.62
342.526	75.62
342.754	78.62
342.981	82.62
343.209	96.62
343.437	88.62
343.665	76.62
343.893	82.62
344.12	79.62
344.348	79.62
344.576	83.62
344.804	76.62
345.031	80.62
345.259	82.62
345.487	78.62
345.714	90.62
345.942	77.62
346.17	77.62
346.397	82.62
346.625	65.62
346.853	74.62
347.08	79.62
347.308	89.62
347.535	96.62
347.763	82.62
347.99	81.62
348.218	69.62
348.445	81.62
348.673	76.62
348.9	83.62
349.128	79.62
349.355	96.62
349.583	79.62
349.81	74.62
350.037	83.62
350.265	60.62
350.492	71.62
350.72	80.62
350.947	65.62
351.174	78.62
351.402	76.62
351.629	63.62
351.856	85.62
352.083	73.62
352.311	69.62
352.538	76.62
352.765	78.62
352.992	85.62
353.22	85.62
353.447	74.62
353.674	87.62
353.901	88.62
354.128	68.62
354.355	76.62
354.583	87.62
354.81	80.62
355.037	78.62
355.264	69.62
355.491	78.62
355.718	69.62
355.945	77.62
356.172	77.62
356.399	78.62
356.626	76.62
356.853	77.62
357.08	80.62
357.307	72.62
357.534	73.62
357.761	70.62
357.988	83.62
358.215	70.62
358.441	77.62
358.668	83.62
358.895	75.62
359.122	77.62
359.349	65.62
359.576	64.62
359.802	73.62
360.029	66.62
360.256	75.62
360.483	73.62
360.709	73.62
360.936	79.62
361.163	77.62
361.39	81.62
361.616	71.62
361.843	72.62
362.07	80.62
362.296	75.62
362.523	76.62
362.749	62.62
362.976	103.62
363.203	85.62
363.429	77.62
363.656	73.62
363.882	89.62
364.109	76.62
364.335	79.62
364.562	81.62
364.788	55.62
365.015	84.62
365.241	77.62
365.468	86.62
365.694	89.62
365.92	76.62
366.147	84.62
366.373	75.62
366.599	77.62
366.826	78.62
367.052	85.62
367.278	81.62
367.505	73.62
367.731	76.62
367.957	90.62
368.184	76.62
368.41	83.62
368.636	73.62
368.862	80.62
369.089	76.62
369.315	77.62
369.541	78.62
369.767	79.62
369.993	79.62
370.219	70.62
370.445	63.62
370.672	53.62
370.898	87.62
371.124	71.62
371.35	70.62
371.576	73.62
371.802	83.62
372.028	73.62
372.254	83.62
372.48	82.62
372.706	73.62
372.932	78.62
373.158	79.62
373.384	83.62
373.61	93.62
373.835	74.62
374.061	74.62
374.287	81.62
374.513	79.62
374.739	71.62
374.965	80.62
375.191	78.62
375.416	73.62
375.642	74.62
375.868	89.62
376.094	93.62
376.319	71.62
376.545	80.62
376.771	81.62
376.997	91.62
377.222	71.62
377.448	81.62
377.674	69.62
377.899	82.62
378.125	84.62
378.35	86.62
378.576	87.62
378.802	83.62
379.027	65.62
379.253	90.62
379.478	75.62
379.704	90.62
379.929	76.62
380.155	64.62
380.38	82.62
380.606	90.62
380.831	87.62
381.057	81.62
381.282	96.62
381.507	85.62
381.733	82.62
381.958	76.62
382.184	76.62
382.409	76.62
382.634	80.62
382.86	86.62
383.085	58.62
383.31	98.62
383.535	77.62
383.761	82.62
383.986	89.62
384.211	76.62
384.436	77.62
384.662	69.62
384.887	92.62
385.112	74.62
385.337	77.62
385.562	90.62
385.787	84.62
386.013	83.62
386.238	83.62
386.463	88.62
386.688	77.62
386.913	74.62
387.138	83.62
387.363	86.62
387.588	86.62
387.813	68.62
388.038	77.62
388.263	78.62
388.488	79.62
388.713	89.62
388.938	73.62
389.163	89.62
389.387	90.62
389.612	100.62
389.837	93.62
390.062	76.62
390.287	82.62
390.512	68.62
390.736	74.62
390.961	88.62
391.186	101.62
391.411	76.62
391.636	74.62
391.86	85.62
392.085	74.62
392.31	90.62
392.534	87.62
392.759	92.62
392.984	86.62
393.208	89.62
393.433	84.62
393.658	83.62
393.882	78.62
394.107	80.62
394.331	77.62
394.556	78.62
394.78	86.62
395.005	83.62
395.229	84.62
395.454	81.62
395.678	70.62
395.903	80.62
396.127	70.62
396.352	90.62
396.576	93.62
396.801	77.62
397.025	82.62
397.249	76.62
397.474	87.62
397.698	84.62
397.922	74.62
398.147	84.62
398.371	65.62
398.595	81.62
398.82	70.62
399.044	78.62
399.268	96.62
399.492	69.62
399.717	75.62
399.941	85.62
400.165	83.62
400.389	83.62
400.613	79.62
400.837	85.62
401.062	81.62
401.286	81.62
401.51	88.62
401.734	73.62
401.958	84.62
402.182	77.62
402.406	97.62
402.63	95.62
402.854	77.62
403.078	74.62
403.302	96.62
403.526	84.62
403.75	86.62
403.974	79.62
404.198	63.62
404.422	74.62
404.645	80.62
404.869	73.62
405.093	65.62
405.317	83.62
405.541	98.62
405.765	86.62
405.988	82.62
406.212	93.62
406.436	73.62
406.66	85.62
406.883	97.62
407.107	80.62
407.331	70.62
407.555	87.62
407.778	69.62
408.002	82.62
408.226	75.62
408.449	85.62
408.673	83.62
408.896	82.62
409.12	86.62
409.344	93.62
409.567	80.62
409.791	80.62
410.014	75.62
410.238	94.62
410.461	104.62
410.685	75.62
410.908	77.62
411.132	78.62
411.355	74.62
411.578	93.62
411.802	93.62
412.025	84.62
412.249	85.62
412.472	83.62
412.695	86.62
412.919	85.62
413.142	89.62
413.365	78.62
413.589	89.62
413.812	78.62
414.035	74.62
414.258	82.62
414.482	88.62
414.705	86.62
414.928	72.62
415.151	96.62
415.374	75.62
415.597	88.62
415.821	80.62
416.044	72.62
416.267	84.62
416.49	64.62
416.713	87.62
416.936	90.62
417.159	92.62
417.382	84.62
417.605	72.62
417.828	92.62
418.051	90.62
418.274	83.62
418.497	82.62
418.72	82.62
418.943	87.62
419.166	94.62
419.389	89.62
419.611	89.62
419.834	81.62
420.057	97.62
420.28	68.62
420.503	98.62
420.726	84.62
420.948	99.62
421.171	83.62
421.394	92.62
421.617	105.62
421.839	91.62
422.062	80.62
422.285	88.62
422.507	87.62
422.73	96.62
422.953	92.62
423.175	88.62
423.398	100.62
423.621	82.62
423.843	89.62
424.066	75.62
424.288	90.62
424.511	87.62
424.733	101.62
424.956	76.62
425.178	90.62
425.401	89.62
425.623	91.62
425.846	84.62
426.068	70.62
426.291	81.62
426.513	82.62
426.735	77.62
426.958	94.62
427.18	87.62
427.402	76.62
427.625	80.62
427.847	83.62
428.069	97.62
428.292	88.62
428.514	95.62
428.736	97.62
428.958	91.62
429.181	90.62
429.403	78.62
429.625	91.62
429.847	80.62
430.069	89.62
430.292	87.62
430.514	69.62
430.736	79.62
430.958	94.62
431.18	92.62
431.402	102.62
431.624	86.62
431.846	78.62
432.068	97.62
432.29	74.62
432.512	77.62
432.734	72.62
432.956	90.62
433.178	92.62
433.4	94.62
433.622	90.62
433.844	96.62
434.066	93.62
434.287	76.62
434.509	83.62
434.731	72.62
434.953	91.62
435.175	84.62
435.397	95.62
435.618	89.62
435.84	84.62
436.062	95.62
436.284	96.62
436.505	99.62
436.727	88.62
436.949	80.62
437.17	89.62
437.392	94.62
437.614	79.62
437.835	84.62
438.057	77.62
438.278	83.62
438.5	83.62
438.721	90.62
438.943	106.62
439.165	90.62
439.386	89.62
439.608	99.62
439.829	81.62
440.05	84.62
440.272	99.62
440.493	94.62
440.715	87.62
440.936	91.62
441.158	88.62
441.379	87.62
441.6	85.62
441.822	90.62
442.043	100.62
442.264	87.62
442.486	93.62
442.707	86.62
442.928	93.62
443.149	80.62
443.371	88.62
443.592	105.62
443.813	76.62
444.034	95.62
444.255	96.62
444.476	95.62
444.698	76.62
444.919	67.62
445.14	188.62
445.361	128.62
445.582	86.62
445.803	88.62
446.024	92.62
446.245	86.62
446.466	100.62
446.687	94.62
446.908	77.62
447.129	82.62
447.35	77.62
447.571	90.62
447.792	90.62
448.013	84.62
448.234	91.62
448.455	77.62
448.675	90.62
448.896	89.62
449.117	94.62
449.338	100.62
449.559	101.62
449.779	102.62
450	94.62
450.221	89.62
450.442	93.62
450.662	92.62
450.883	90.62
451.104	96.62
451.324	111.62
451.545	97.62
451.766	107.62
451.986	112.62
452.207	84.62
452.428	91.62
452.648	100.62
452.869	85.62
453.089	80.62
453.31	86.62
453.53	75.62
453.751	82.62
453.971	76.62
454.192	89.62
454.412	78.62
454.633	63.62
454.853	96.62
455.073	91.62
455.294	89.62
455.514	93.62
455.734	81.62
455.955	78.62
456.175	87.62
456.395	80.62
456.616	76.62
456.836	77.62
457.056	66.62
457.276	79.62
457.497	77.62
457.717	87.62
457.937	72.62
458.157	85.62
458.377	75.62
458.598	77.62
458.818	75.62
459.038	70.62
459.258	68.62
459.478	82.62
459.698	79.62
459.918	73.62
460.138	77.62
460.358	77.62
460.578	83.62
460.798	89.62
461.018	72.62
461.238	71.62
461.458	85.62
461.678	82.62
461.898	88.62
462.118	84.62
462.338	81.62
462.558	76.62
462.777	80.62
462.997	79.62
463.217	91.62
463.437	84.62
463.657	83.62
463.876	80.62
464.096	92.62
464.316	85.62
464.536	66.62
464.755	82.62
464.975	107.62
465.195	72.62
465.414	89.62
465.634	83.62
465.854	89.62
466.073	74.62
466.293	91.62
466.512	103.62
466.732	82.62
466.951	93.62
467.171	89.62
467.391	91.62
467.61	93.62
467.829	98.62
468.049	93.62
468.268	88.62
468.488	91.62
468.707	95.62
468.927	102.62
469.146	97.62
469.365	85.62
469.585	83.62
469.804	93.62
470.023	93.62
470.243	94.62
470.462	94.62
470.681	91.62
470.901	96.62
471.12	91.62
471.339	97.62
471.558	91.62
471.777	87.62
471.997	96.62
472.216	100.62
472.435	91.62
472.654	78.62
472.873	80.62
473.092	81.62
473.311	86.62
473.53	81.62
473.749	77.62
473.968	88.62
474.187	95.62
474.406	87.62
474.625	92.62
474.844	89.62
475.063	86.62
475.282	92.62
475.501	80.62
475.72	101.62
475.939	80.62
476.158	83.62
476.377	89.62
476.596	98.62
476.814	66.62
477.033	74.62
477.252	76.62
477.471	76.62
477.69	95.62
477.908	96.62
478.127	82.62
478.346	95.62
478.564	85.62
478.783	94.62
479.002	97.62
479.22	100.62
479.439	93.62
479.658	91.62
479.876	92.62
480.095	97.62
480.313	83.62
480.532	82.62
480.751	81.62
480.969	85.62
481.188	73.62
481.406	85.62
481.624	78.62
481.843	77.62
482.061	78.62
482.28	91.62
482.498	90.62
482.717	68.62
482.935	74.62
483.153	95.62
483.372	80.62
483.59	86.62
483.808	88.62
484.027	94.62
484.245	84.62
484.463	104.62
484.681	99.62
484.9	78.62
485.118	90.62
485.336	85.62
485.554	98.62
485.772	80.62
485.99	80.62
486.209	71.62
486.427	87.62
486.645	93.62
486.863	80.62
487.081	95.62
487.299	92.62
487.517	97.62
487.735	96.62
487.953	101.62
488.171	103.62
488.389	104.62
488.607	97.62
488.825	92.62
489.043	85.62
489.261	101.62
489.479	87.62
489.696	89.62
489.914	93.62
490.132	83.62
490.35	103.62
490.568	84.62
490.786	101.62
491.003	101.62
491.221	106.62
491.439	109.62
491.657	106.62
491.874	113.62
492.092	113.62
492.31	121.62
492.527	112.62
492.745	108.62
492.963	111.62
493.18	108.62
493.398	115.62
493.615	98.62
493.833	101.62
494.05	93.62
494.268	107.62
494.485	102.62
494.703	102.62
494.92	116.62
495.138	108.62
495.355	87.62
495.573	101.62
495.79	94.62
496.008	97.62
496.225	107.62
496.442	97.62
496.66	114.62
496.877	96.62
497.094	109.62
497.312	94.62
497.529	99.62
497.746	102.62
497.963	91.62
498.181	97.62
498.398	91.62
498.615	86.62
498.832	80.62
499.049	96.62
499.267	83.62
499.484	82.62
499.701	95.62
499.918	100.62
500.135	85.62
500.352	101.62
500.569	94.62
500.786	101.62
501.003	79.62
501.22	88.62
501.437	85.62
501.654	88.62
501.871	78.62
502.088	89.62
502.305	83.62
502.522	80.62
502.739	85.62
502.956	95.62
503.172	98.62
503.389	94.62
503.606	89.62
503.823	77.62
504.04	104.62
504.256	80.62
504.473	74.62
504.69	88.62
504.907	87.62
505.123	85.62
505.34	89.62
505.557	93.62
505.773	87.62
505.99	80.62
506.207	80.62
506.423	91.62
506.64	75.62
506.856	80.62
507.073	79.62
507.289	74.62
507.506	90.62
507.722	84.62
507.939	80.62
508.155	82.62
508.372	75.62
508.588	74.62
508.805	78.62
509.021	74.62
509.238	94.62
509.454	96.62
509.67	79.62
509.887	77.62
510.103	79.62
510.319	81.62
510.536	77.62
510.752	64.62
510.968	92.62
511.184	76.62
511.401	80.62
511.617	62.62
511.833	81.62
512.049	80.62
512.265	80.62
512.481	81.62
512.698	80.62
512.914	74.62
513.13	80.62
513.346	77.62
513.562	74.62
513.778	87.62
513.994	81.62
514.21	80.62
514.426	81.62
514.642	67.62
514.858	71.62
515.074	89.62
515.29	91.62
515.506	80.62
515.721	81.62
515.937	80.62
516.153	79.62
516.369	78.62
516.585	81.62
516.801	74.62
517.016	73.62
517.232	59.62
517.448	84.62
517.664	93.62
517.879	73.62
518.095	89.62
518.311	85.62
518.527	75.62
518.742	70.62
