Data from Location5.07152019.Energy5.Lamp.07192019.3%Agarose_HRD10591_15-36-28-386.txt Node
Date: Fri Jul 19 15:36:28 EDT 2019
User: cochatt
Spectrometer: HR+D1059
Trigger mode: 1
Integration Time (sec): 1.000000E-1
Scans to average: 1
Electric dark correction enabled: true
Nonlinearity correction enabled: false
Boxcar width: 0
XAxis mode: Wavelengths
Number of Pixels in Spectrum: 2048
>>>>>Begin Spectral Data<<<<<
223.165	-12.88
223.4	-12.88
223.635	-12.88
223.869	-24.88
224.104	-26.88
224.338	-9.88
224.573	-13.88
224.808	-28.88
225.042	-5.88
225.277	18.12
225.511	3.12
225.746	11.12
225.98	0.12
226.215	13.12
226.449	4.12
226.683	19.12
226.918	23.12
227.152	31.12
227.387	37.12
227.621	48.12
227.856	32.12
228.09	42.12
228.324	47.12
228.559	54.12
228.793	64.12
229.027	58.12
229.262	79.12
229.496	64.12
229.73	66.12
229.964	63.12
230.199	71.12
230.433	85.12
230.667	71.12
230.901	74.12
231.136	84.12
231.37	71.12
231.604	76.12
231.838	76.12
232.072	86.12
232.306	87.12
232.541	75.12
232.775	74.12
233.009	71.12
233.243	70.12
233.477	88.12
233.711	97.12
233.945	97.12
234.179	75.12
234.413	85.12
234.647	78.12
234.881	78.12
235.115	89.12
235.349	82.12
235.583	79.12
235.817	88.12
236.051	74.12
236.285	72.12
236.519	75.12
236.753	72.12
236.987	82.12
237.221	82.12
237.455	68.12
237.689	82.12
237.922	86.12
238.156	80.12
238.39	70.12
238.624	80.12
238.858	76.12
239.091	80.12
239.325	71.12
239.559	85.12
239.793	71.12
240.027	62.12
240.26	80.12
240.494	80.12
240.728	79.12
240.961	58.12
241.195	83.12
241.429	82.12
241.662	86.12
241.896	82.12
242.13	83.12
242.363	75.12
242.597	82.12
242.83	72.12
243.064	84.12
243.298	74.12
243.531	71.12
243.765	93.12
243.998	93.12
244.232	81.12
244.465	84.12
244.699	74.12
244.932	82.12
245.166	67.12
245.399	87.12
245.633	84.12
245.866	75.12
246.099	78.12
246.333	79.12
246.566	68.12
246.8	78.12
247.033	82.12
247.266	77.12
247.5	72.12
247.733	84.12
247.966	89.12
248.2	79.12
248.433	81.12
248.666	78.12
248.899	75.12
249.133	62.12
249.366	85.12
249.599	81.12
249.832	88.12
250.066	83.12
250.299	84.12
250.532	72.12
250.765	85.12
250.998	87.12
251.231	79.12
251.465	76.12
251.698	72.12
251.931	71.12
252.164	83.12
252.397	79.12
252.63	79.12
252.863	89.12
253.096	83.12
253.329	88.12
253.562	87.12
253.795	89.12
254.028	96.12
254.261	81.12
254.494	73.12
254.727	78.12
254.96	85.12
255.193	82.12
255.426	78.12
255.659	80.12
255.892	75.12
256.124	80.12
256.357	70.12
256.59	74.12
256.823	89.12
257.056	71.12
257.289	90.12
257.521	80.12
257.754	70.12
257.987	88.12
258.22	76.12
258.452	89.12
258.685	76.12
258.918	80.12
259.151	74.12
259.383	86.12
259.616	66.12
259.849	80.12
260.081	85.12
260.314	82.12
260.547	88.12
260.779	79.12
261.012	73.12
261.244	71.12
261.477	87.12
261.71	84.12
261.942	78.12
262.175	84.12
262.407	83.12
262.64	86.12
262.872	70.12
263.105	90.12
263.337	89.12
263.57	79.12
263.802	90.12
264.035	84.12
264.267	97.12
264.499	83.12
264.732	80.12
264.964	81.12
265.197	89.12
265.429	84.12
265.661	76.12
265.894	85.12
266.126	88.12
266.358	68.12
266.591	75.12
266.823	97.12
267.055	97.12
267.287	84.12
267.52	64.12
267.752	80.12
267.984	81.12
268.216	94.12
268.448	78.12
268.681	88.12
268.913	75.12
269.145	87.12
269.377	86.12
269.609	67.12
269.841	96.12
270.073	98.12
270.306	84.12
270.538	86.12
270.77	96.12
271.002	83.12
271.234	80.12
271.466	83.12
271.698	63.12
271.93	81.12
272.162	81.12
272.394	85.12
272.626	84.12
272.858	82.12
273.09	73.12
273.322	83.12
273.553	83.12
273.785	95.12
274.017	75.12
274.249	74.12
274.481	86.12
274.713	66.12
274.945	81.12
275.176	71.12
275.408	96.12
275.64	73.12
275.872	79.12
276.104	82.12
276.335	79.12
276.567	84.12
276.799	63.12
277.031	93.12
277.262	95.12
277.494	76.12
277.726	84.12
277.957	95.12
278.189	75.12
278.421	89.12
278.652	79.12
278.884	85.12
279.115	77.12
279.347	73.12
279.579	86.12
279.81	89.12
280.042	83.12
280.273	75.12
280.505	86.12
280.736	80.12
280.968	68.12
281.199	85.12
281.431	74.12
281.662	75.12
281.894	77.12
282.125	81.12
282.356	83.12
282.588	93.12
282.819	76.12
283.051	71.12
283.282	79.12
283.513	79.12
283.745	79.12
283.976	85.12
284.207	81.12
284.439	101.12
284.67	81.12
284.901	75.12
285.132	91.12
285.364	71.12
285.595	92.12
285.826	86.12
286.057	76.12
286.288	75.12
286.52	86.12
286.751	73.12
286.982	91.12
287.213	84.12
287.444	93.12
287.675	81.12
287.906	88.12
288.138	95.12
288.369	96.12
288.6	90.12
288.831	89.12
289.062	75.12
289.293	81.12
289.524	92.12
289.755	83.12
289.986	82.12
290.217	79.12
290.448	87.12
290.679	80.12
290.91	80.12
291.141	83.12
291.371	84.12
291.602	79.12
291.833	81.12
292.064	88.12
292.295	90.12
292.526	96.12
292.757	95.12
292.987	82.12
293.218	77.12
293.449	86.12
293.68	76.12
293.91	91.12
294.141	87.12
294.372	82.12
294.603	83.12
294.833	79.12
295.064	85.12
295.295	98.12
295.525	93.12
295.756	93.12
295.987	85.12
296.217	90.12
296.448	98.12
296.679	64.12
296.909	84.12
297.14	84.12
297.37	85.12
297.601	89.12
297.831	79.12
298.062	86.12
298.292	89.12
298.523	83.12
298.753	75.12
298.984	95.12
299.214	80.12
299.445	95.12
299.675	82.12
299.905	77.12
300.136	73.12
300.366	74.12
300.597	85.12
300.827	86.12
301.057	92.12
301.288	84.12
301.518	88.12
301.748	61.12
301.979	79.12
302.209	76.12
302.439	96.12
302.669	93.12
302.9	91.12
303.13	79.12
303.36	90.12
303.59	79.12
303.82	81.12
304.051	79.12
304.281	89.12
304.511	88.12
304.741	88.12
304.971	79.12
305.201	88.12
305.431	95.12
305.661	84.12
305.891	78.12
306.121	75.12
306.352	73.12
306.582	82.12
306.812	81.12
307.042	86.12
307.272	83.12
307.502	82.12
307.731	91.12
307.961	86.12
308.191	84.12
308.421	75.12
308.651	99.12
308.881	76.12
309.111	89.12
309.341	82.12
309.571	84.12
309.8	91.12
310.03	90.12
310.26	87.12
310.49	82.12
310.72	87.12
310.949	92.12
311.179	80.12
311.409	92.12
311.639	88.12
311.868	79.12
312.098	90.12
312.328	85.12
312.557	73.12
312.787	86.12
313.017	88.12
313.246	86.12
313.476	86.12
313.706	87.12
313.935	79.12
314.165	95.12
314.394	71.12
314.624	96.12
314.853	82.12
315.083	87.12
315.312	100.12
315.542	77.12
315.771	71.12
316.001	83.12
316.23	83.12
316.46	90.12
316.689	73.12
316.919	92.12
317.148	85.12
317.377	87.12
317.607	79.12
317.836	82.12
318.065	95.12
318.295	94.12
318.524	78.12
318.753	89.12
318.983	80.12
319.212	82.12
319.441	75.12
319.67	107.12
319.9	97.12
320.129	89.12
320.358	96.12
320.587	92.12
320.816	80.12
321.046	98.12
321.275	88.12
321.504	84.12
321.733	78.12
321.962	85.12
322.191	81.12
322.42	68.12
322.649	87.12
322.878	86.12
323.108	94.12
323.337	89.12
323.566	76.12
323.795	88.12
324.024	80.12
324.253	88.12
324.482	79.12
324.71	76.12
324.939	77.12
325.168	88.12
325.397	88.12
325.626	67.12
325.855	76.12
326.084	72.12
326.313	95.12
326.542	88.12
326.77	69.12
326.999	76.12
327.228	85.12
327.457	97.12
327.686	87.12
327.914	87.12
328.143	108.12
328.372	90.12
328.6	89.12
328.829	90.12
329.058	78.12
329.287	85.12
329.515	95.12
329.744	81.12
329.972	76.12
330.201	84.12
330.43	82.12
330.658	82.12
330.887	62.12
331.115	83.12
331.344	88.12
331.572	79.12
331.801	96.12
332.03	87.12
332.258	83.12
332.486	79.12
332.715	95.12
332.943	93.12
333.172	80.12
333.4	104.12
333.629	82.12
333.857	84.12
334.085	67.12
334.314	98.12
334.542	75.12
334.771	85.12
334.999	103.12
335.227	82.12
335.455	97.12
335.684	75.12
335.912	86.12
336.14	88.12
336.369	98.12
336.597	101.12
336.825	78.12
337.053	81.12
337.281	90.12
337.51	84.12
337.738	90.12
337.966	74.12
338.194	83.12
338.422	88.12
338.65	91.12
338.878	73.12
339.106	92.12
339.334	90.12
339.562	76.12
339.79	87.12
340.018	94.12
340.246	68.12
340.474	85.12
340.702	72.12
340.93	88.12
341.158	82.12
341.386	71.12
341.614	82.12
341.842	74.12
342.07	95.12
342.298	106.12
342.526	82.12
342.754	87.12
342.981	85.12
343.209	95.12
343.437	100.12
343.665	86.12
343.893	100.12
344.12	90.12
344.348	91.12
344.576	88.12
344.804	81.12
345.031	65.12
345.259	90.12
345.487	76.12
345.714	87.12
345.942	83.12
346.17	92.12
346.397	84.12
346.625	82.12
346.853	80.12
347.08	85.12
347.308	86.12
347.535	77.12
347.763	91.12
347.99	91.12
348.218	83.12
348.445	83.12
348.673	78.12
348.9	75.12
349.128	85.12
349.355	71.12
349.583	82.12
349.81	80.12
350.037	91.12
350.265	88.12
350.492	78.12
350.72	74.12
350.947	84.12
351.174	90.12
351.402	91.12
351.629	81.12
351.856	98.12
352.083	92.12
352.311	106.12
352.538	81.12
352.765	76.12
352.992	80.12
353.22	91.12
353.447	98.12
353.674	90.12
353.901	79.12
354.128	88.12
354.355	96.12
354.583	81.12
354.81	91.12
355.037	87.12
355.264	77.12
355.491	87.12
355.718	82.12
355.945	77.12
356.172	86.12
356.399	78.12
356.626	86.12
356.853	85.12
357.08	77.12
357.307	79.12
357.534	92.12
357.761	68.12
357.988	68.12
358.215	100.12
358.441	73.12
358.668	84.12
358.895	80.12
359.122	84.12
359.349	74.12
359.576	78.12
359.802	77.12
360.029	72.12
360.256	82.12
360.483	84.12
360.709	90.12
360.936	80.12
361.163	86.12
361.39	84.12
361.616	77.12
361.843	90.12
362.07	101.12
362.296	76.12
362.523	64.12
362.749	88.12
362.976	81.12
363.203	82.12
363.429	89.12
363.656	88.12
363.882	72.12
364.109	83.12
364.335	91.12
364.562	83.12
364.788	75.12
365.015	103.12
365.241	83.12
365.468	83.12
365.694	87.12
365.92	95.12
366.147	84.12
366.373	83.12
366.599	76.12
366.826	81.12
367.052	94.12
367.278	79.12
367.505	73.12
367.731	74.12
367.957	76.12
368.184	82.12
368.41	86.12
368.636	87.12
368.862	90.12
369.089	89.12
369.315	89.12
369.541	100.12
369.767	82.12
369.993	92.12
370.219	86.12
370.445	82.12
370.672	83.12
370.898	95.12
371.124	89.12
371.35	76.12
371.576	67.12
371.802	87.12
372.028	82.12
372.254	77.12
372.48	86.12
372.706	89.12
372.932	81.12
373.158	73.12
373.384	88.12
373.61	90.12
373.835	89.12
374.061	84.12
374.287	87.12
374.513	86.12
374.739	75.12
374.965	76.12
375.191	83.12
375.416	88.12
375.642	97.12
375.868	95.12
376.094	89.12
376.319	75.12
376.545	82.12
376.771	66.12
376.997	77.12
377.222	82.12
377.448	75.12
377.674	87.12
377.899	75.12
378.125	81.12
378.35	86.12
378.576	76.12
378.802	92.12
379.027	90.12
379.253	78.12
379.478	77.12
379.704	82.12
379.929	87.12
380.155	84.12
380.38	87.12
380.606	86.12
380.831	79.12
381.057	76.12
381.282	87.12
381.507	89.12
381.733	82.12
381.958	99.12
382.184	90.12
382.409	88.12
382.634	86.12
382.86	99.12
383.085	90.12
383.31	84.12
383.535	81.12
383.761	75.12
383.986	77.12
384.211	99.12
384.436	84.12
384.662	72.12
384.887	81.12
385.112	90.12
385.337	86.12
385.562	83.12
385.787	72.12
386.013	86.12
386.238	82.12
386.463	94.12
386.688	87.12
386.913	82.12
387.138	77.12
387.363	80.12
387.588	74.12
387.813	75.12
388.038	88.12
388.263	95.12
388.488	90.12
388.713	83.12
388.938	86.12
389.163	86.12
389.387	86.12
389.612	85.12
389.837	92.12
390.062	82.12
390.287	93.12
390.512	86.12
390.736	88.12
390.961	68.12
391.186	74.12
391.411	81.12
391.636	87.12
391.86	98.12
392.085	86.12
392.31	95.12
392.534	80.12
392.759	88.12
392.984	94.12
393.208	99.12
393.433	87.12
393.658	85.12
393.882	96.12
394.107	79.12
394.331	86.12
394.556	99.12
394.78	96.12
395.005	81.12
395.229	68.12
395.454	90.12
395.678	87.12
395.903	84.12
396.127	91.12
396.352	81.12
396.576	86.12
396.801	94.12
397.025	91.12
397.249	91.12
397.474	93.12
397.698	90.12
397.922	95.12
398.147	84.12
398.371	77.12
398.595	91.12
398.82	98.12
399.044	82.12
399.268	96.12
399.492	91.12
399.717	89.12
399.941	83.12
400.165	91.12
400.389	76.12
400.613	90.12
400.837	94.12
401.062	95.12
401.286	86.12
401.51	78.12
401.734	80.12
401.958	104.12
402.182	88.12
402.406	86.12
402.63	69.12
402.854	86.12
403.078	82.12
403.302	73.12
403.526	90.12
403.75	81.12
403.974	91.12
404.198	85.12
404.422	82.12
404.645	80.12
404.869	97.12
405.093	92.12
405.317	80.12
405.541	85.12
405.765	91.12
405.988	89.12
406.212	83.12
406.436	85.12
406.66	94.12
406.883	92.12
407.107	91.12
407.331	81.12
407.555	101.12
407.778	83.12
408.002	84.12
408.226	90.12
408.449	98.12
408.673	95.12
408.896	83.12
409.12	97.12
409.344	106.12
409.567	94.12
409.791	80.12
410.014	99.12
410.238	81.12
410.461	91.12
410.685	91.12
410.908	81.12
411.132	94.12
411.355	97.12
411.578	90.12
411.802	93.12
412.025	94.12
412.249	95.12
412.472	96.12
412.695	99.12
412.919	87.12
413.142	82.12
413.365	87.12
413.589	84.12
413.812	89.12
414.035	102.12
414.258	98.12
414.482	96.12
414.705	88.12
414.928	88.12
415.151	92.12
415.374	81.12
415.597	87.12
415.821	80.12
416.044	89.12
416.267	79.12
416.49	85.12
416.713	82.12
416.936	93.12
417.159	94.12
417.382	97.12
417.605	81.12
417.828	83.12
418.051	70.12
418.274	94.12
418.497	101.12
418.72	88.12
418.943	88.12
419.166	107.12
419.389	89.12
419.611	93.12
419.834	103.12
420.057	100.12
420.28	114.12
420.503	97.12
420.726	93.12
420.948	92.12
421.171	113.12
421.394	104.12
421.617	92.12
421.839	94.12
422.062	91.12
422.285	95.12
422.507	100.12
422.73	89.12
422.953	82.12
423.175	81.12
423.398	92.12
423.621	103.12
423.843	90.12
424.066	100.12
424.288	103.12
424.511	85.12
424.733	97.12
424.956	91.12
425.178	103.12
425.401	89.12
425.623	94.12
425.846	92.12
426.068	94.12
426.291	98.12
426.513	88.12
426.735	86.12
426.958	78.12
427.18	91.12
427.402	104.12
427.625	101.12
427.847	88.12
428.069	97.12
428.292	103.12
428.514	95.12
428.736	102.12
428.958	81.12
429.181	81.12
429.403	95.12
429.625	85.12
429.847	100.12
430.069	95.12
430.292	97.12
430.514	95.12
430.736	90.12
430.958	104.12
431.18	103.12
431.402	95.12
431.624	89.12
431.846	83.12
432.068	82.12
432.29	82.12
432.512	84.12
432.734	86.12
432.956	99.12
433.178	96.12
433.4	93.12
433.622	92.12
433.844	90.12
434.066	97.12
434.287	79.12
434.509	80.12
434.731	86.12
434.953	86.12
435.175	92.12
435.397	82.12
435.618	91.12
435.84	89.12
436.062	93.12
436.284	83.12
436.505	91.12
436.727	88.12
436.949	104.12
437.17	88.12
437.392	86.12
437.614	110.12
437.835	84.12
438.057	80.12
438.278	79.12
438.5	91.12
438.721	90.12
438.943	94.12
439.165	98.12
439.386	92.12
439.608	97.12
439.829	90.12
440.05	89.12
440.272	102.12
440.493	98.12
440.715	100.12
440.936	86.12
441.158	98.12
441.379	94.12
441.6	105.12
441.822	99.12
442.043	91.12
442.264	88.12
442.486	95.12
442.707	82.12
442.928	94.12
443.149	68.12
443.371	96.12
443.592	89.12
443.813	92.12
444.034	89.12
444.255	98.12
444.476	86.12
444.698	93.12
444.919	78.12
445.14	225.12
445.361	145.12
445.582	107.12
445.803	101.12
446.024	103.12
446.245	92.12
446.466	106.12
446.687	109.12
446.908	106.12
447.129	121.12
447.35	101.12
447.571	96.12
447.792	96.12
448.013	84.12
448.234	88.12
448.455	86.12
448.675	77.12
448.896	78.12
449.117	102.12
449.338	110.12
449.559	99.12
449.779	84.12
450	93.12
450.221	100.12
450.442	95.12
450.662	91.12
450.883	86.12
451.104	87.12
451.324	75.12
451.545	80.12
451.766	80.12
451.986	88.12
452.207	100.12
452.428	81.12
452.648	87.12
452.869	90.12
453.089	78.12
453.31	92.12
453.53	88.12
453.751	88.12
453.971	86.12
454.192	86.12
454.412	82.12
454.633	98.12
454.853	94.12
455.073	76.12
455.294	100.12
455.514	92.12
455.734	95.12
455.955	91.12
456.175	98.12
456.395	82.12
456.616	86.12
456.836	89.12
457.056	82.12
457.276	79.12
457.497	82.12
457.717	94.12
457.937	83.12
458.157	87.12
458.377	89.12
458.598	83.12
458.818	88.12
459.038	102.12
459.258	93.12
459.478	88.12
459.698	97.12
459.918	80.12
460.138	83.12
460.358	84.12
460.578	96.12
460.798	82.12
461.018	90.12
461.238	83.12
461.458	94.12
461.678	75.12
461.898	86.12
462.118	86.12
462.338	88.12
462.558	90.12
462.777	71.12
462.997	91.12
463.217	107.12
463.437	72.12
463.657	83.12
463.876	96.12
464.096	92.12
464.316	84.12
464.536	82.12
464.755	92.12
464.975	80.12
465.195	93.12
465.414	81.12
465.634	98.12
465.854	87.12
466.073	97.12
466.293	100.12
466.512	88.12
466.732	89.12
466.951	97.12
467.171	96.12
467.391	83.12
467.61	92.12
467.829	98.12
468.049	95.12
468.268	91.12
468.488	86.12
468.707	107.12
468.927	90.12
469.146	99.12
469.365	89.12
469.585	79.12
469.804	82.12
470.023	94.12
470.243	101.12
470.462	99.12
470.681	97.12
470.901	86.12
471.12	93.12
471.339	110.12
471.558	94.12
471.777	87.12
471.997	97.12
472.216	97.12
472.435	98.12
472.654	79.12
472.873	82.12
473.092	96.12
473.311	105.12
473.53	84.12
473.749	89.12
473.968	98.12
474.187	96.12
474.406	102.12
474.625	96.12
474.844	95.12
475.063	95.12
475.282	90.12
475.501	99.12
475.72	94.12
475.939	80.12
476.158	98.12
476.377	89.12
476.596	84.12
476.814	83.12
477.033	83.12
477.252	88.12
477.471	84.12
477.69	103.12
477.908	95.12
478.127	91.12
478.346	94.12
478.564	107.12
478.783	90.12
479.002	108.12
479.22	106.12
479.439	88.12
479.658	95.12
479.876	96.12
480.095	94.12
480.313	91.12
480.532	84.12
480.751	95.12
480.969	86.12
481.188	97.12
481.406	92.12
481.624	76.12
481.843	80.12
482.061	85.12
482.28	95.12
482.498	72.12
482.717	92.12
482.935	95.12
483.153	110.12
483.372	103.12
483.59	96.12
483.808	86.12
484.027	91.12
484.245	87.12
484.463	91.12
484.681	98.12
484.9	99.12
485.118	91.12
485.336	77.12
485.554	78.12
485.772	79.12
485.99	84.12
486.209	87.12
486.427	90.12
486.645	75.12
486.863	98.12
487.081	101.12
487.299	95.12
487.517	94.12
487.735	104.12
487.953	104.12
488.171	106.12
488.389	104.12
488.607	114.12
488.825	101.12
489.043	95.12
489.261	90.12
489.479	92.12
489.696	95.12
489.914	90.12
490.132	97.12
490.35	98.12
490.568	109.12
490.786	110.12
491.003	131.12
491.221	100.12
491.439	121.12
491.657	98.12
491.874	120.12
492.092	109.12
492.31	124.12
492.527	119.12
492.745	110.12
492.963	101.12
493.18	108.12
493.398	119.12
493.615	100.12
493.833	105.12
494.05	110.12
494.268	100.12
494.485	110.12
494.703	91.12
494.92	104.12
495.138	105.12
495.355	122.12
495.573	116.12
495.79	114.12
496.008	108.12
496.225	103.12
496.442	81.12
496.66	96.12
496.877	111.12
497.094	99.12
497.312	103.12
497.529	113.12
497.746	98.12
497.963	90.12
498.181	96.12
498.398	96.12
498.615	88.12
498.832	101.12
499.049	91.12
499.267	106.12
499.484	99.12
499.701	93.12
499.918	108.12
500.135	93.12
500.352	105.12
500.569	101.12
500.786	104.12
501.003	98.12
501.22	103.12
501.437	95.12
501.654	96.12
501.871	113.12
502.088	107.12
502.305	98.12
502.522	75.12
502.739	89.12
502.956	95.12
503.172	76.12
503.389	93.12
503.606	104.12
503.823	84.12
504.04	99.12
504.256	90.12
504.473	92.12
504.69	91.12
504.907	99.12
505.123	95.12
505.34	86.12
505.557	96.12
505.773	101.12
505.99	107.12
506.207	94.12
506.423	86.12
506.64	94.12
506.856	87.12
507.073	89.12
507.289	103.12
507.506	90.12
507.722	80.12
507.939	77.12
508.155	86.12
508.372	92.12
508.588	80.12
508.805	86.12
509.021	84.12
509.238	91.12
509.454	78.12
509.67	79.12
509.887	84.12
510.103	88.12
510.319	91.12
510.536	91.12
510.752	86.12
510.968	83.12
511.184	81.12
511.401	87.12
511.617	82.12
511.833	94.12
512.049	94.12
512.265	79.12
512.481	86.12
512.698	86.12
512.914	81.12
513.13	91.12
513.346	85.12
513.562	86.12
513.778	90.12
513.994	80.12
514.21	85.12
514.426	89.12
514.642	76.12
514.858	85.12
515.074	93.12
515.29	84.12
515.506	88.12
515.721	86.12
515.937	86.12
516.153	91.12
516.369	102.12
516.585	83.12
516.801	87.12
517.016	96.12
517.232	98.12
517.448	86.12
517.664	81.12
517.879	75.12
