Data from Location5.07152019.Energy5.Lamp.07192019.3%Agarose_HRD10591_16-05-41-629.txt Node
Date: Fri Jul 19 16:05:41 EDT 2019
User: cochatt
Spectrometer: HR+D1059
Trigger mode: 1
Integration Time (sec): 1.000000E-1
Scans to average: 1
Electric dark correction enabled: true
Nonlinearity correction enabled: false
Boxcar width: 0
XAxis mode: Wavelengths
Number of Pixels in Spectrum: 2048
>>>>>Begin Spectral Data<<<<<
223.165	-23.06
223.4	-23.06
223.635	-23.06
223.869	-16.06
224.104	-12.06
224.338	-23.06
224.573	-14.06
224.808	-2.06
225.042	-13.06
225.277	-16.06
225.511	8.94
225.746	-11.06
225.98	9.94
226.215	19.94
226.449	14.94
226.683	6.94
226.918	22.94
227.152	46.94
227.387	41.94
227.621	33.94
227.856	28.94
228.09	40.94
228.324	38.94
228.559	45.94
228.793	60.94
229.027	57.94
229.262	59.94
229.496	68.94
229.73	76.94
229.964	76.94
230.199	80.94
230.433	85.94
230.667	66.94
230.901	74.94
231.136	95.94
231.37	88.94
231.604	77.94
231.838	91.94
232.072	84.94
232.306	81.94
232.541	75.94
232.775	76.94
233.009	93.94
233.243	80.94
233.477	82.94
233.711	75.94
233.945	67.94
234.179	78.94
234.413	77.94
234.647	66.94
234.881	98.94
235.115	86.94
235.349	81.94
235.583	88.94
235.817	78.94
236.051	97.94
236.285	67.94
236.519	88.94
236.753	83.94
236.987	87.94
237.221	81.94
237.455	82.94
237.689	77.94
237.922	74.94
238.156	82.94
238.39	70.94
238.624	60.94
238.858	75.94
239.091	85.94
239.325	76.94
239.559	76.94
239.793	81.94
240.027	74.94
240.26	84.94
240.494	74.94
240.728	74.94
240.961	84.94
241.195	87.94
241.429	96.94
241.662	65.94
241.896	94.94
242.13	87.94
242.363	75.94
242.597	80.94
242.83	80.94
243.064	72.94
243.298	77.94
243.531	70.94
243.765	67.94
243.998	67.94
244.232	75.94
244.465	75.94
244.699	85.94
244.932	83.94
245.166	77.94
245.399	74.94
245.633	62.94
245.866	85.94
246.099	81.94
246.333	82.94
246.566	91.94
246.8	83.94
247.033	77.94
247.266	79.94
247.5	82.94
247.733	77.94
247.966	72.94
248.2	85.94
248.433	91.94
248.666	84.94
248.899	102.94
249.133	82.94
249.366	86.94
249.599	79.94
249.832	80.94
250.066	80.94
250.299	84.94
250.532	79.94
250.765	83.94
250.998	76.94
251.231	75.94
251.465	70.94
251.698	77.94
251.931	77.94
252.164	68.94
252.397	92.94
252.63	82.94
252.863	95.94
253.096	91.94
253.329	74.94
253.562	85.94
253.795	71.94
254.028	87.94
254.261	76.94
254.494	86.94
254.727	83.94
254.96	86.94
255.193	84.94
255.426	87.94
255.659	75.94
255.892	79.94
256.124	94.94
256.357	89.94
256.59	80.94
256.823	76.94
257.056	92.94
257.289	75.94
257.521	76.94
257.754	82.94
257.987	79.94
258.22	93.94
258.452	84.94
258.685	87.94
258.918	85.94
259.151	101.94
259.383	78.94
259.616	67.94
259.849	82.94
260.081	83.94
260.314	80.94
260.547	79.94
260.779	83.94
261.012	78.94
261.244	69.94
261.477	83.94
261.71	85.94
261.942	86.94
262.175	79.94
262.407	83.94
262.64	88.94
262.872	78.94
263.105	72.94
263.337	81.94
263.57	75.94
263.802	89.94
264.035	77.94
264.267	86.94
264.499	95.94
264.732	90.94
264.964	83.94
265.197	85.94
265.429	76.94
265.661	82.94
265.894	103.94
266.126	89.94
266.358	102.94
266.591	71.94
266.823	82.94
267.055	75.94
267.287	78.94
267.52	81.94
267.752	76.94
267.984	84.94
268.216	90.94
268.448	91.94
268.681	96.94
268.913	97.94
269.145	97.94
269.377	77.94
269.609	85.94
269.841	74.94
270.073	79.94
270.306	97.94
270.538	89.94
270.77	80.94
271.002	82.94
271.234	88.94
271.466	96.94
271.698	64.94
271.93	83.94
272.162	86.94
272.394	82.94
272.626	82.94
272.858	83.94
273.09	93.94
273.322	87.94
273.553	95.94
273.785	89.94
274.017	85.94
274.249	89.94
274.481	87.94
274.713	92.94
274.945	92.94
275.176	92.94
275.408	92.94
275.64	79.94
275.872	76.94
276.104	91.94
276.335	93.94
276.567	70.94
276.799	86.94
277.031	90.94
277.262	98.94
277.494	64.94
277.726	91.94
277.957	91.94
278.189	80.94
278.421	70.94
278.652	78.94
278.884	85.94
279.115	84.94
279.347	88.94
279.579	75.94
279.81	84.94
280.042	90.94
280.273	104.94
280.505	85.94
280.736	96.94
280.968	96.94
281.199	84.94
281.431	95.94
281.662	80.94
281.894	82.94
282.125	87.94
282.356	92.94
282.588	88.94
282.819	86.94
283.051	89.94
283.282	80.94
283.513	95.94
283.745	112.94
283.976	91.94
284.207	92.94
284.439	88.94
284.67	91.94
284.901	82.94
285.132	102.94
285.364	77.94
285.595	81.94
285.826	90.94
286.057	88.94
286.288	99.94
286.52	85.94
286.751	98.94
286.982	96.94
287.213	86.94
287.444	91.94
287.675	88.94
287.906	91.94
288.138	71.94
288.369	87.94
288.6	95.94
288.831	95.94
289.062	93.94
289.293	90.94
289.524	89.94
289.755	83.94
289.986	67.94
290.217	73.94
290.448	84.94
290.679	90.94
290.91	105.94
291.141	95.94
291.371	89.94
291.602	92.94
291.833	78.94
292.064	77.94
292.295	76.94
292.526	90.94
292.757	77.94
292.987	98.94
293.218	83.94
293.449	87.94
293.68	92.94
293.91	98.94
294.141	94.94
294.372	102.94
294.603	74.94
294.833	94.94
295.064	96.94
295.295	87.94
295.525	83.94
295.756	83.94
295.987	82.94
296.217	79.94
296.448	105.94
296.679	106.94
296.909	106.94
297.14	93.94
297.37	103.94
297.601	82.94
297.831	90.94
298.062	97.94
298.292	90.94
298.523	75.94
298.753	84.94
298.984	90.94
299.214	84.94
299.445	97.94
299.675	96.94
299.905	93.94
300.136	82.94
300.366	90.94
300.597	93.94
300.827	90.94
301.057	106.94
301.288	88.94
301.518	89.94
301.748	93.94
301.979	80.94
302.209	98.94
302.439	92.94
302.669	88.94
302.9	90.94
303.13	92.94
303.36	90.94
303.59	90.94
303.82	88.94
304.051	96.94
304.281	107.94
304.511	78.94
304.741	98.94
304.971	92.94
305.201	59.94
305.431	93.94
305.661	98.94
305.891	84.94
306.121	63.94
306.352	96.94
306.582	83.94
306.812	89.94
307.042	95.94
307.272	94.94
307.502	92.94
307.731	85.94
307.961	81.94
308.191	90.94
308.421	87.94
308.651	90.94
308.881	89.94
309.111	101.94
309.341	94.94
309.571	105.94
309.8	95.94
310.03	95.94
310.26	90.94
310.49	110.94
310.72	77.94
310.949	85.94
311.179	79.94
311.409	95.94
311.639	75.94
311.868	92.94
312.098	84.94
312.328	99.94
312.557	89.94
312.787	89.94
313.017	84.94
313.246	84.94
313.476	86.94
313.706	103.94
313.935	85.94
314.165	97.94
314.394	99.94
314.624	87.94
314.853	89.94
315.083	83.94
315.312	87.94
315.542	72.94
315.771	89.94
316.001	92.94
316.23	89.94
316.46	98.94
316.689	88.94
316.919	87.94
317.148	79.94
317.377	88.94
317.607	88.94
317.836	96.94
318.065	68.94
318.295	87.94
318.524	81.94
318.753	81.94
318.983	97.94
319.212	92.94
319.441	97.94
319.67	83.94
319.9	95.94
320.129	106.94
320.358	94.94
320.587	101.94
320.816	94.94
321.046	89.94
321.275	95.94
321.504	99.94
321.733	91.94
321.962	89.94
322.191	83.94
322.42	91.94
322.649	94.94
322.878	96.94
323.108	86.94
323.337	92.94
323.566	88.94
323.795	96.94
324.024	82.94
324.253	87.94
324.482	107.94
324.71	92.94
324.939	78.94
325.168	99.94
325.397	97.94
325.626	85.94
325.855	92.94
326.084	78.94
326.313	97.94
326.542	96.94
326.77	94.94
326.999	90.94
327.228	87.94
327.457	82.94
327.686	88.94
327.914	92.94
328.143	102.94
328.372	96.94
328.6	91.94
328.829	72.94
329.058	96.94
329.287	89.94
329.515	92.94
329.744	93.94
329.972	86.94
330.201	92.94
330.43	100.94
330.658	96.94
330.887	88.94
331.115	88.94
331.344	81.94
331.572	93.94
331.801	83.94
332.03	94.94
332.258	91.94
332.486	95.94
332.715	84.94
332.943	98.94
333.172	99.94
333.4	113.94
333.629	97.94
333.857	90.94
334.085	96.94
334.314	76.94
334.542	86.94
334.771	76.94
334.999	98.94
335.227	97.94
335.455	94.94
335.684	96.94
335.912	87.94
336.14	102.94
336.369	105.94
336.597	97.94
336.825	95.94
337.053	95.94
337.281	111.94
337.51	89.94
337.738	87.94
337.966	108.94
338.194	98.94
338.422	98.94
338.65	95.94
338.878	97.94
339.106	90.94
339.334	87.94
339.562	87.94
339.79	91.94
340.018	86.94
340.246	99.94
340.474	99.94
340.702	95.94
340.93	89.94
341.158	98.94
341.386	94.94
341.614	109.94
341.842	94.94
342.07	91.94
342.298	93.94
342.526	96.94
342.754	90.94
342.981	86.94
343.209	82.94
343.437	78.94
343.665	99.94
343.893	76.94
344.12	99.94
344.348	95.94
344.576	92.94
344.804	82.94
345.031	69.94
345.259	81.94
345.487	102.94
345.714	93.94
345.942	103.94
346.17	103.94
346.397	90.94
346.625	81.94
346.853	95.94
347.08	84.94
347.308	86.94
347.535	84.94
347.763	80.94
347.99	100.94
348.218	87.94
348.445	82.94
348.673	95.94
348.9	92.94
349.128	92.94
349.355	96.94
349.583	98.94
349.81	84.94
350.037	83.94
350.265	76.94
350.492	92.94
350.72	86.94
350.947	95.94
351.174	83.94
351.402	88.94
351.629	98.94
351.856	98.94
352.083	91.94
352.311	91.94
352.538	89.94
352.765	89.94
352.992	75.94
353.22	87.94
353.447	96.94
353.674	92.94
353.901	95.94
354.128	87.94
354.355	87.94
354.583	90.94
354.81	87.94
355.037	76.94
355.264	83.94
355.491	97.94
355.718	98.94
355.945	85.94
356.172	89.94
356.399	82.94
356.626	94.94
356.853	88.94
357.08	86.94
357.307	91.94
357.534	83.94
357.761	102.94
357.988	100.94
358.215	99.94
358.441	100.94
358.668	93.94
358.895	104.94
359.122	86.94
359.349	89.94
359.576	93.94
359.802	86.94
360.029	96.94
360.256	88.94
360.483	81.94
360.709	86.94
360.936	78.94
361.163	81.94
361.39	81.94
361.616	75.94
361.843	83.94
362.07	84.94
362.296	90.94
362.523	96.94
362.749	89.94
362.976	88.94
363.203	95.94
363.429	91.94
363.656	86.94
363.882	96.94
364.109	86.94
364.335	81.94
364.562	102.94
364.788	100.94
365.015	98.94
365.241	77.94
365.468	99.94
365.694	108.94
365.92	91.94
366.147	86.94
366.373	89.94
366.599	88.94
366.826	93.94
367.052	90.94
367.278	85.94
367.505	96.94
367.731	87.94
367.957	83.94
368.184	96.94
368.41	77.94
368.636	95.94
368.862	99.94
369.089	85.94
369.315	82.94
369.541	76.94
369.767	88.94
369.993	90.94
370.219	94.94
370.445	80.94
370.672	79.94
370.898	93.94
371.124	87.94
371.35	94.94
371.576	88.94
371.802	103.94
372.028	88.94
372.254	98.94
372.48	80.94
372.706	86.94
372.932	83.94
373.158	84.94
373.384	86.94
373.61	93.94
373.835	97.94
374.061	92.94
374.287	89.94
374.513	92.94
374.739	93.94
374.965	93.94
375.191	98.94
375.416	89.94
375.642	87.94
375.868	92.94
376.094	80.94
376.319	95.94
376.545	93.94
376.771	87.94
376.997	92.94
377.222	88.94
377.448	83.94
377.674	87.94
377.899	101.94
378.125	87.94
378.35	86.94
378.576	92.94
378.802	98.94
379.027	108.94
379.253	111.94
379.478	90.94
379.704	85.94
379.929	91.94
380.155	88.94
380.38	90.94
380.606	91.94
380.831	92.94
381.057	84.94
381.282	99.94
381.507	109.94
381.733	87.94
381.958	103.94
382.184	87.94
382.409	102.94
382.634	93.94
382.86	77.94
383.085	79.94
383.31	88.94
383.535	82.94
383.761	85.94
383.986	101.94
384.211	87.94
384.436	92.94
384.662	101.94
384.887	73.94
385.112	95.94
385.337	84.94
385.562	102.94
385.787	85.94
386.013	89.94
386.238	100.94
386.463	96.94
386.688	72.94
386.913	91.94
387.138	81.94
387.363	98.94
387.588	106.94
387.813	81.94
388.038	105.94
388.263	108.94
388.488	88.94
388.713	85.94
388.938	101.94
389.163	99.94
389.387	104.94
389.612	84.94
389.837	91.94
390.062	86.94
390.287	101.94
390.512	84.94
390.736	81.94
390.961	94.94
391.186	86.94
391.411	83.94
391.636	107.94
391.86	97.94
392.085	84.94
392.31	92.94
392.534	92.94
392.759	91.94
392.984	92.94
393.208	94.94
393.433	85.94
393.658	96.94
393.882	96.94
394.107	100.94
394.331	106.94
394.556	97.94
394.78	100.94
395.005	85.94
395.229	102.94
395.454	95.94
395.678	87.94
395.903	97.94
396.127	93.94
396.352	115.94
396.576	101.94
396.801	103.94
397.025	98.94
397.249	113.94
397.474	94.94
397.698	83.94
397.922	96.94
398.147	102.94
398.371	97.94
398.595	87.94
398.82	96.94
399.044	89.94
399.268	85.94
399.492	100.94
399.717	119.94
399.941	108.94
400.165	92.94
400.389	85.94
400.613	88.94
400.837	77.94
401.062	82.94
401.286	89.94
401.51	95.94
401.734	93.94
401.958	104.94
402.182	106.94
402.406	87.94
402.63	91.94
402.854	96.94
403.078	91.94
403.302	76.94
403.526	87.94
403.75	82.94
403.974	97.94
404.198	90.94
404.422	97.94
404.645	98.94
404.869	95.94
405.093	97.94
405.317	82.94
405.541	85.94
405.765	93.94
405.988	102.94
406.212	92.94
406.436	97.94
406.66	106.94
406.883	87.94
407.107	100.94
407.331	90.94
407.555	101.94
407.778	109.94
408.002	99.94
408.226	89.94
408.449	91.94
408.673	87.94
408.896	101.94
409.12	103.94
409.344	87.94
409.567	103.94
409.791	119.94
410.014	101.94
410.238	98.94
410.461	93.94
410.685	100.94
410.908	90.94
411.132	85.94
411.355	92.94
411.578	93.94
411.802	79.94
412.025	83.94
412.249	90.94
412.472	95.94
412.695	97.94
412.919	96.94
413.142	103.94
413.365	89.94
413.589	103.94
413.812	86.94
414.035	97.94
414.258	105.94
414.482	96.94
414.705	107.94
414.928	85.94
415.151	98.94
415.374	95.94
415.597	102.94
415.821	88.94
416.044	98.94
416.267	95.94
416.49	95.94
416.713	86.94
416.936	104.94
417.159	88.94
417.382	101.94
417.605	101.94
417.828	95.94
418.051	98.94
418.274	94.94
418.497	106.94
418.72	83.94
418.943	100.94
419.166	91.94
419.389	77.94
419.611	70.94
419.834	106.94
420.057	92.94
420.28	90.94
420.503	88.94
420.726	104.94
420.948	105.94
421.171	102.94
421.394	89.94
421.617	90.94
421.839	75.94
422.062	99.94
422.285	98.94
422.507	93.94
422.73	83.94
422.953	98.94
423.175	100.94
423.398	87.94
423.621	94.94
423.843	99.94
424.066	91.94
424.288	102.94
424.511	100.94
424.733	95.94
424.956	82.94
425.178	100.94
425.401	93.94
425.623	101.94
425.846	94.94
426.068	96.94
426.291	101.94
426.513	105.94
426.735	98.94
426.958	93.94
427.18	106.94
427.402	93.94
427.625	86.94
427.847	93.94
428.069	83.94
428.292	86.94
428.514	90.94
428.736	94.94
428.958	83.94
429.181	99.94
429.403	97.94
429.625	94.94
429.847	90.94
430.069	99.94
430.292	88.94
430.514	99.94
430.736	93.94
430.958	94.94
431.18	100.94
431.402	92.94
431.624	90.94
431.846	93.94
432.068	89.94
432.29	90.94
432.512	103.94
432.734	95.94
432.956	91.94
433.178	100.94
433.4	87.94
433.622	88.94
433.844	92.94
434.066	87.94
434.287	87.94
434.509	90.94
434.731	99.94
434.953	88.94
435.175	97.94
435.397	96.94
435.618	80.94
435.84	104.94
436.062	84.94
436.284	83.94
436.505	77.94
436.727	94.94
436.949	101.94
437.17	95.94
437.392	81.94
437.614	104.94
437.835	86.94
438.057	82.94
438.278	84.94
438.5	98.94
438.721	90.94
438.943	91.94
439.165	87.94
439.386	99.94
439.608	102.94
439.829	92.94
440.05	90.94
440.272	91.94
440.493	111.94
440.715	96.94
440.936	106.94
441.158	92.94
441.379	83.94
441.6	96.94
441.822	88.94
442.043	92.94
442.264	89.94
442.486	84.94
442.707	102.94
442.928	98.94
443.149	82.94
443.371	96.94
443.592	102.94
443.813	82.94
444.034	92.94
444.255	98.94
444.476	86.94
444.698	100.94
444.919	108.94
445.14	212.94
445.361	163.94
445.582	93.94
445.803	99.94
446.024	91.94
446.245	82.94
446.466	99.94
446.687	102.94
446.908	89.94
447.129	102.94
447.35	87.94
447.571	94.94
447.792	101.94
448.013	90.94
448.234	91.94
448.455	82.94
448.675	94.94
448.896	83.94
449.117	90.94
449.338	83.94
449.559	93.94
449.779	108.94
450	95.94
450.221	96.94
450.442	87.94
450.662	91.94
450.883	88.94
451.104	99.94
451.324	101.94
451.545	92.94
451.766	88.94
451.986	87.94
452.207	99.94
452.428	97.94
452.648	78.94
452.869	82.94
453.089	88.94
453.31	97.94
453.53	83.94
453.751	92.94
453.971	92.94
454.192	83.94
454.412	102.94
454.633	93.94
454.853	93.94
455.073	86.94
455.294	85.94
455.514	69.94
455.734	77.94
455.955	83.94
456.175	87.94
456.395	77.94
456.616	107.94
456.836	87.94
457.056	84.94
457.276	80.94
457.497	96.94
457.717	94.94
457.937	113.94
458.157	93.94
458.377	90.94
458.598	93.94
458.818	107.94
459.038	114.94
459.258	96.94
459.478	95.94
459.698	93.94
459.918	94.94
460.138	95.94
460.358	83.94
460.578	95.94
460.798	92.94
461.018	111.94
461.238	103.94
461.458	90.94
461.678	102.94
461.898	82.94
462.118	81.94
462.338	100.94
462.558	105.94
462.777	99.94
462.997	109.94
463.217	95.94
463.437	96.94
463.657	103.94
463.876	93.94
464.096	98.94
464.316	109.94
464.536	117.94
464.755	102.94
464.975	88.94
465.195	95.94
465.414	93.94
465.634	92.94
465.854	86.94
466.073	91.94
466.293	100.94
466.512	90.94
466.732	96.94
466.951	91.94
467.171	100.94
467.391	105.94
467.61	95.94
467.829	95.94
468.049	100.94
468.268	85.94
468.488	73.94
468.707	95.94
468.927	94.94
469.146	97.94
469.365	105.94
469.585	101.94
469.804	80.94
470.023	89.94
470.243	96.94
470.462	108.94
470.681	97.94
470.901	88.94
471.12	93.94
471.339	94.94
471.558	95.94
471.777	89.94
471.997	112.94
472.216	119.94
472.435	93.94
472.654	99.94
472.873	73.94
473.092	108.94
473.311	90.94
473.53	98.94
473.749	87.94
473.968	105.94
474.187	84.94
474.406	102.94
474.625	88.94
474.844	86.94
475.063	92.94
475.282	87.94
475.501	82.94
475.72	117.94
475.939	104.94
476.158	89.94
476.377	106.94
476.596	89.94
476.814	90.94
477.033	79.94
477.252	73.94
477.471	95.94
477.69	108.94
477.908	92.94
478.127	106.94
478.346	110.94
478.564	89.94
478.783	91.94
479.002	99.94
479.22	99.94
479.439	106.94
479.658	78.94
479.876	104.94
480.095	96.94
480.313	108.94
480.532	110.94
480.751	97.94
480.969	87.94
481.188	97.94
481.406	103.94
481.624	84.94
481.843	93.94
482.061	92.94
482.28	98.94
482.498	107.94
482.717	106.94
482.935	85.94
483.153	102.94
483.372	101.94
483.59	107.94
483.808	106.94
484.027	100.94
484.245	92.94
484.463	105.94
484.681	110.94
484.9	102.94
485.118	109.94
485.336	107.94
485.554	93.94
485.772	97.94
485.99	115.94
486.209	99.94
486.427	81.94
486.645	102.94
486.863	94.94
487.081	101.94
487.299	103.94
487.517	117.94
487.735	101.94
487.953	113.94
488.171	92.94
488.389	116.94
488.607	110.94
488.825	95.94
489.043	105.94
489.261	101.94
489.479	107.94
489.696	100.94
489.914	98.94
490.132	101.94
490.35	107.94
490.568	105.94
490.786	90.94
491.003	105.94
491.221	102.94
491.439	108.94
491.657	106.94
491.874	117.94
492.092	106.94
492.31	118.94
492.527	111.94
492.745	108.94
492.963	101.94
493.18	110.94
493.398	101.94
493.615	113.94
493.833	105.94
494.05	97.94
494.268	111.94
494.485	104.94
494.703	109.94
494.92	118.94
495.138	108.94
495.355	96.94
495.573	89.94
495.79	104.94
496.008	103.94
496.225	120.94
496.442	104.94
496.66	101.94
496.877	104.94
497.094	104.94
497.312	100.94
497.529	98.94
497.746	120.94
497.963	105.94
498.181	99.94
498.398	105.94
498.615	94.94
498.832	112.94
499.049	104.94
499.267	113.94
499.484	121.94
499.701	133.94
499.918	123.94
500.135	134.94
500.352	144.94
500.569	149.94
500.786	161.94
501.003	136.94
501.22	123.94
501.437	142.94
501.654	113.94
501.871	113.94
502.088	115.94
502.305	117.94
502.522	119.94
502.739	115.94
502.956	109.94
503.172	113.94
503.389	95.94
503.606	98.94
503.823	93.94
504.04	93.94
504.256	88.94
504.473	113.94
504.69	112.94
504.907	99.94
505.123	107.94
505.34	111.94
505.557	101.94
505.773	109.94
505.99	112.94
506.207	105.94
506.423	91.94
506.64	98.94
506.856	85.94
507.073	100.94
507.289	104.94
507.506	104.94
507.722	115.94
507.939	92.94
508.155	96.94
508.372	107.94
508.588	97.94
508.805	90.94
509.021	94.94
509.238	82.94
509.454	92.94
509.67	100.94
509.887	97.94
510.103	112.94
510.319	90.94
510.536	92.94
510.752	106.94
510.968	91.94
511.184	89.94
511.401	102.94
511.617	90.94
511.833	94.94
512.049	90.94
512.265	87.94
512.481	111.94
512.698	95.94
512.914	96.94
513.13	95.94
513.346	97.94
513.562	100.94
513.778	99.94
513.994	92.94
514.21	88.94
514.426	96.94
514.642	99.94
514.858	106.94
515.074	106.94
515.29	100.94
515.506	92.94
515.721	105.94
