Data from Location5.07152019.Energy5.Lamp.07192019.3%Agarose_HRD10591_15-37-22-386.txt Node
Date: Fri Jul 19 15:37:22 EDT 2019
User: cochatt
Spectrometer: HR+D1059
Trigger mode: 1
Integration Time (sec): 1.000000E-1
Scans to average: 1
Electric dark correction enabled: true
Nonlinearity correction enabled: false
Boxcar width: 0
XAxis mode: Wavelengths
Number of Pixels in Spectrum: 2048
>>>>>Begin Spectral Data<<<<<
223.165	-16.44
223.4	-16.44
223.635	-16.44
223.869	-11.44
224.104	-15.44
224.338	-14.44
224.573	-9.44
224.808	-22.44
225.042	-16.44
225.277	0.56
225.511	6.56
225.746	14.56
225.98	-1.44
226.215	7.56
226.449	13.56
226.683	11.56
226.918	26.56
227.152	26.56
227.387	34.56
227.621	33.56
227.856	47.56
228.09	58.56
228.324	59.56
228.559	41.56
228.793	63.56
229.027	68.56
229.262	60.56
229.496	53.56
229.73	64.56
229.964	69.56
230.199	75.56
230.433	68.56
230.667	70.56
230.901	73.56
231.136	58.56
231.37	65.56
231.604	83.56
231.838	80.56
232.072	88.56
232.306	79.56
232.541	74.56
232.775	83.56
233.009	72.56
233.243	67.56
233.477	80.56
233.711	89.56
233.945	89.56
234.179	89.56
234.413	76.56
234.647	69.56
234.881	77.56
235.115	69.56
235.349	84.56
235.583	71.56
235.817	77.56
236.051	69.56
236.285	70.56
236.519	71.56
236.753	79.56
236.987	74.56
237.221	72.56
237.455	79.56
237.689	73.56
237.922	87.56
238.156	70.56
238.39	74.56
238.624	89.56
238.858	73.56
239.091	81.56
239.325	75.56
239.559	70.56
239.793	84.56
240.027	67.56
240.26	70.56
240.494	79.56
240.728	70.56
240.961	73.56
241.195	73.56
241.429	77.56
241.662	67.56
241.896	82.56
242.13	67.56
242.363	79.56
242.597	77.56
242.83	65.56
243.064	84.56
243.298	79.56
243.531	71.56
243.765	65.56
243.998	73.56
244.232	78.56
244.465	73.56
244.699	71.56
244.932	84.56
245.166	74.56
245.399	77.56
245.633	76.56
245.866	83.56
246.099	68.56
246.333	72.56
246.566	90.56
246.8	77.56
247.033	75.56
247.266	66.56
247.5	86.56
247.733	78.56
247.966	68.56
248.2	79.56
248.433	69.56
248.666	78.56
248.899	79.56
249.133	87.56
249.366	79.56
249.599	70.56
249.832	73.56
250.066	87.56
250.299	83.56
250.532	73.56
250.765	71.56
250.998	70.56
251.231	75.56
251.465	79.56
251.698	64.56
251.931	67.56
252.164	92.56
252.397	82.56
252.63	78.56
252.863	72.56
253.096	75.56
253.329	95.56
253.562	72.56
253.795	73.56
254.028	76.56
254.261	90.56
254.494	57.56
254.727	85.56
254.96	91.56
255.193	72.56
255.426	84.56
255.659	82.56
255.892	76.56
256.124	84.56
256.357	79.56
256.59	89.56
256.823	80.56
257.056	75.56
257.289	82.56
257.521	86.56
257.754	70.56
257.987	63.56
258.22	83.56
258.452	84.56
258.685	78.56
258.918	63.56
259.151	69.56
259.383	81.56
259.616	77.56
259.849	76.56
260.081	81.56
260.314	76.56
260.547	85.56
260.779	80.56
261.012	58.56
261.244	78.56
261.477	78.56
261.71	75.56
261.942	79.56
262.175	68.56
262.407	70.56
262.64	65.56
262.872	88.56
263.105	61.56
263.337	71.56
263.57	76.56
263.802	67.56
264.035	80.56
264.267	77.56
264.499	78.56
264.732	72.56
264.964	86.56
265.197	81.56
265.429	74.56
265.661	78.56
265.894	68.56
266.126	90.56
266.358	87.56
266.591	73.56
266.823	80.56
267.055	73.56
267.287	83.56
267.52	86.56
267.752	92.56
267.984	72.56
268.216	79.56
268.448	77.56
268.681	94.56
268.913	92.56
269.145	78.56
269.377	76.56
269.609	83.56
269.841	91.56
270.073	78.56
270.306	83.56
270.538	70.56
270.77	82.56
271.002	61.56
271.234	81.56
271.466	89.56
271.698	79.56
271.93	72.56
272.162	91.56
272.394	79.56
272.626	75.56
272.858	78.56
273.09	82.56
273.322	92.56
273.553	80.56
273.785	79.56
274.017	74.56
274.249	78.56
274.481	77.56
274.713	90.56
274.945	86.56
275.176	74.56
275.408	90.56
275.64	83.56
275.872	79.56
276.104	72.56
276.335	89.56
276.567	71.56
276.799	85.56
277.031	71.56
277.262	73.56
277.494	75.56
277.726	83.56
277.957	73.56
278.189	68.56
278.421	96.56
278.652	85.56
278.884	87.56
279.115	78.56
279.347	78.56
279.579	77.56
279.81	71.56
280.042	79.56
280.273	86.56
280.505	69.56
280.736	87.56
280.968	87.56
281.199	90.56
281.431	95.56
281.662	91.56
281.894	86.56
282.125	82.56
282.356	91.56
282.588	77.56
282.819	71.56
283.051	79.56
283.282	81.56
283.513	83.56
283.745	84.56
283.976	87.56
284.207	76.56
284.439	77.56
284.67	77.56
284.901	70.56
285.132	84.56
285.364	92.56
285.595	73.56
285.826	82.56
286.057	77.56
286.288	70.56
286.52	87.56
286.751	94.56
286.982	90.56
287.213	81.56
287.444	83.56
287.675	89.56
287.906	79.56
288.138	78.56
288.369	79.56
288.6	79.56
288.831	91.56
289.062	80.56
289.293	83.56
289.524	72.56
289.755	87.56
289.986	87.56
290.217	97.56
290.448	79.56
290.679	94.56
290.91	74.56
291.141	63.56
291.371	84.56
291.602	72.56
291.833	83.56
292.064	82.56
292.295	78.56
292.526	80.56
292.757	88.56
292.987	78.56
293.218	81.56
293.449	86.56
293.68	72.56
293.91	72.56
294.141	78.56
294.372	85.56
294.603	94.56
294.833	77.56
295.064	78.56
295.295	77.56
295.525	89.56
295.756	76.56
295.987	68.56
296.217	75.56
296.448	77.56
296.679	98.56
296.909	74.56
297.14	85.56
297.37	98.56
297.601	83.56
297.831	79.56
298.062	73.56
298.292	79.56
298.523	90.56
298.753	83.56
298.984	79.56
299.214	79.56
299.445	79.56
299.675	83.56
299.905	79.56
300.136	75.56
300.366	75.56
300.597	79.56
300.827	76.56
301.057	96.56
301.288	82.56
301.518	91.56
301.748	87.56
301.979	94.56
302.209	88.56
302.439	80.56
302.669	65.56
302.9	82.56
303.13	99.56
303.36	88.56
303.59	87.56
303.82	72.56
304.051	73.56
304.281	78.56
304.511	70.56
304.741	72.56
304.971	100.56
305.201	85.56
305.431	86.56
305.661	77.56
305.891	82.56
306.121	87.56
306.352	77.56
306.582	84.56
306.812	73.56
307.042	93.56
307.272	84.56
307.502	73.56
307.731	83.56
307.961	71.56
308.191	83.56
308.421	76.56
308.651	92.56
308.881	86.56
309.111	80.56
309.341	87.56
309.571	72.56
309.8	89.56
310.03	79.56
310.26	75.56
310.49	83.56
310.72	81.56
310.949	74.56
311.179	90.56
311.409	95.56
311.639	73.56
311.868	73.56
312.098	70.56
312.328	82.56
312.557	74.56
312.787	83.56
313.017	83.56
313.246	84.56
313.476	80.56
313.706	82.56
313.935	82.56
314.165	81.56
314.394	82.56
314.624	93.56
314.853	76.56
315.083	81.56
315.312	82.56
315.542	70.56
315.771	72.56
316.001	81.56
316.23	79.56
316.46	64.56
316.689	86.56
316.919	87.56
317.148	93.56
317.377	67.56
317.607	88.56
317.836	78.56
318.065	79.56
318.295	80.56
318.524	79.56
318.753	80.56
318.983	86.56
319.212	78.56
319.441	69.56
319.67	76.56
319.9	83.56
320.129	82.56
320.358	70.56
320.587	92.56
320.816	91.56
321.046	74.56
321.275	85.56
321.504	87.56
321.733	93.56
321.962	75.56
322.191	68.56
322.42	81.56
322.649	76.56
322.878	86.56
323.108	89.56
323.337	83.56
323.566	98.56
323.795	91.56
324.024	79.56
324.253	82.56
324.482	80.56
324.71	79.56
324.939	91.56
325.168	79.56
325.397	81.56
325.626	87.56
325.855	83.56
326.084	75.56
326.313	66.56
326.542	76.56
326.77	71.56
326.999	90.56
327.228	78.56
327.457	80.56
327.686	81.56
327.914	76.56
328.143	85.56
328.372	88.56
328.6	72.56
328.829	77.56
329.058	88.56
329.287	77.56
329.515	86.56
329.744	91.56
329.972	80.56
330.201	72.56
330.43	77.56
330.658	83.56
330.887	86.56
331.115	89.56
331.344	86.56
331.572	64.56
331.801	88.56
332.03	68.56
332.258	91.56
332.486	81.56
332.715	92.56
332.943	92.56
333.172	87.56
333.4	75.56
333.629	94.56
333.857	79.56
334.085	80.56
334.314	79.56
334.542	87.56
334.771	74.56
334.999	78.56
335.227	75.56
335.455	87.56
335.684	77.56
335.912	77.56
336.14	76.56
336.369	75.56
336.597	91.56
336.825	81.56
337.053	95.56
337.281	89.56
337.51	85.56
337.738	88.56
337.966	93.56
338.194	96.56
338.422	82.56
338.65	75.56
338.878	71.56
339.106	71.56
339.334	83.56
339.562	70.56
339.79	80.56
340.018	77.56
340.246	77.56
340.474	93.56
340.702	81.56
340.93	76.56
341.158	70.56
341.386	83.56
341.614	89.56
341.842	86.56
342.07	87.56
342.298	82.56
342.526	75.56
342.754	84.56
342.981	88.56
343.209	69.56
343.437	90.56
343.665	67.56
343.893	72.56
344.12	99.56
344.348	93.56
344.576	83.56
344.804	71.56
345.031	86.56
345.259	77.56
345.487	79.56
345.714	72.56
345.942	96.56
346.17	67.56
346.397	82.56
346.625	71.56
346.853	77.56
347.08	72.56
347.308	79.56
347.535	71.56
347.763	71.56
347.99	78.56
348.218	76.56
348.445	78.56
348.673	72.56
348.9	69.56
349.128	76.56
349.355	76.56
349.583	83.56
349.81	76.56
350.037	78.56
350.265	72.56
350.492	68.56
350.72	81.56
350.947	83.56
351.174	80.56
351.402	73.56
351.629	76.56
351.856	63.56
352.083	63.56
352.311	75.56
352.538	87.56
352.765	73.56
352.992	73.56
353.22	83.56
353.447	83.56
353.674	70.56
353.901	61.56
354.128	77.56
354.355	80.56
354.583	90.56
354.81	77.56
355.037	101.56
355.264	77.56
355.491	78.56
355.718	76.56
355.945	77.56
356.172	76.56
356.399	83.56
356.626	72.56
356.853	72.56
357.08	85.56
357.307	83.56
357.534	77.56
357.761	85.56
357.988	86.56
358.215	95.56
358.441	67.56
358.668	74.56
358.895	81.56
359.122	95.56
359.349	77.56
359.576	68.56
359.802	70.56
360.029	72.56
360.256	88.56
360.483	81.56
360.709	81.56
360.936	71.56
361.163	97.56
361.39	80.56
361.616	79.56
361.843	77.56
362.07	81.56
362.296	70.56
362.523	73.56
362.749	92.56
362.976	85.56
363.203	86.56
363.429	66.56
363.656	79.56
363.882	74.56
364.109	77.56
364.335	74.56
364.562	86.56
364.788	69.56
365.015	91.56
365.241	73.56
365.468	85.56
365.694	72.56
365.92	81.56
366.147	71.56
366.373	92.56
366.599	73.56
366.826	91.56
367.052	83.56
367.278	86.56
367.505	84.56
367.731	88.56
367.957	72.56
368.184	86.56
368.41	79.56
368.636	85.56
368.862	77.56
369.089	87.56
369.315	89.56
369.541	76.56
369.767	86.56
369.993	69.56
370.219	80.56
370.445	89.56
370.672	88.56
370.898	90.56
371.124	89.56
371.35	70.56
371.576	87.56
371.802	83.56
372.028	74.56
372.254	81.56
372.48	75.56
372.706	64.56
372.932	88.56
373.158	67.56
373.384	85.56
373.61	84.56
373.835	68.56
374.061	77.56
374.287	74.56
374.513	80.56
374.739	82.56
374.965	71.56
375.191	88.56
375.416	82.56
375.642	78.56
375.868	84.56
376.094	66.56
376.319	80.56
376.545	89.56
376.771	74.56
376.997	73.56
377.222	84.56
377.448	88.56
377.674	75.56
377.899	77.56
378.125	71.56
378.35	76.56
378.576	80.56
378.802	77.56
379.027	89.56
379.253	99.56
379.478	74.56
379.704	100.56
379.929	79.56
380.155	79.56
380.38	81.56
380.606	93.56
380.831	70.56
381.057	77.56
381.282	79.56
381.507	73.56
381.733	86.56
381.958	73.56
382.184	78.56
382.409	93.56
382.634	88.56
382.86	78.56
383.085	76.56
383.31	74.56
383.535	81.56
383.761	94.56
383.986	86.56
384.211	83.56
384.436	82.56
384.662	76.56
384.887	87.56
385.112	74.56
385.337	73.56
385.562	75.56
385.787	72.56
386.013	93.56
386.238	84.56
386.463	83.56
386.688	63.56
386.913	82.56
387.138	83.56
387.363	79.56
387.588	83.56
387.813	88.56
388.038	79.56
388.263	82.56
388.488	98.56
388.713	83.56
388.938	90.56
389.163	78.56
389.387	83.56
389.612	78.56
389.837	81.56
390.062	81.56
390.287	93.56
390.512	79.56
390.736	83.56
390.961	81.56
391.186	76.56
391.411	81.56
391.636	85.56
391.86	70.56
392.085	75.56
392.31	105.56
392.534	88.56
392.759	93.56
392.984	82.56
393.208	91.56
393.433	84.56
393.658	76.56
393.882	89.56
394.107	91.56
394.331	88.56
394.556	75.56
394.78	78.56
395.005	86.56
395.229	80.56
395.454	98.56
395.678	84.56
395.903	77.56
396.127	79.56
396.352	86.56
396.576	89.56
396.801	89.56
397.025	87.56
397.249	84.56
397.474	80.56
397.698	71.56
397.922	100.56
398.147	81.56
398.371	87.56
398.595	76.56
398.82	106.56
399.044	79.56
399.268	65.56
399.492	96.56
399.717	87.56
399.941	77.56
400.165	101.56
400.389	83.56
400.613	91.56
400.837	96.56
401.062	74.56
401.286	85.56
401.51	97.56
401.734	84.56
401.958	91.56
402.182	64.56
402.406	96.56
402.63	101.56
402.854	93.56
403.078	100.56
403.302	85.56
403.526	74.56
403.75	95.56
403.974	72.56
404.198	96.56
404.422	97.56
404.645	91.56
404.869	70.56
405.093	88.56
405.317	85.56
405.541	91.56
405.765	88.56
405.988	83.56
406.212	84.56
406.436	96.56
406.66	88.56
406.883	89.56
407.107	86.56
407.331	86.56
407.555	83.56
407.778	83.56
408.002	83.56
408.226	84.56
408.449	87.56
408.673	89.56
408.896	86.56
409.12	90.56
409.344	88.56
409.567	92.56
409.791	91.56
410.014	79.56
410.238	84.56
410.461	97.56
410.685	78.56
410.908	82.56
411.132	93.56
411.355	82.56
411.578	86.56
411.802	89.56
412.025	79.56
412.249	84.56
412.472	85.56
412.695	89.56
412.919	84.56
413.142	87.56
413.365	84.56
413.589	92.56
413.812	88.56
414.035	97.56
414.258	89.56
414.482	90.56
414.705	89.56
414.928	78.56
415.151	84.56
415.374	78.56
415.597	87.56
415.821	79.56
416.044	86.56
416.267	88.56
416.49	88.56
416.713	100.56
416.936	83.56
417.159	83.56
417.382	101.56
417.605	92.56
417.828	78.56
418.051	100.56
418.274	109.56
418.497	81.56
418.72	96.56
418.943	91.56
419.166	70.56
419.389	93.56
419.611	88.56
419.834	91.56
420.057	93.56
420.28	78.56
420.503	95.56
420.726	77.56
420.948	89.56
421.171	77.56
421.394	98.56
421.617	90.56
421.839	104.56
422.062	101.56
422.285	96.56
422.507	81.56
422.73	83.56
422.953	68.56
423.175	91.56
423.398	89.56
423.621	96.56
423.843	85.56
424.066	76.56
424.288	89.56
424.511	93.56
424.733	96.56
424.956	93.56
425.178	89.56
425.401	79.56
425.623	89.56
425.846	77.56
426.068	89.56
426.291	102.56
426.513	93.56
426.735	61.56
426.958	78.56
427.18	87.56
427.402	85.56
427.625	91.56
427.847	91.56
428.069	82.56
428.292	91.56
428.514	92.56
428.736	89.56
428.958	93.56
429.181	79.56
429.403	87.56
429.625	85.56
429.847	73.56
430.069	95.56
430.292	95.56
430.514	89.56
430.736	89.56
430.958	105.56
431.18	88.56
431.402	80.56
431.624	96.56
431.846	83.56
432.068	84.56
432.29	78.56
432.512	90.56
432.734	94.56
432.956	95.56
433.178	78.56
433.4	83.56
433.622	91.56
433.844	87.56
434.066	92.56
434.287	81.56
434.509	68.56
434.731	77.56
434.953	85.56
435.175	87.56
435.397	96.56
435.618	82.56
435.84	73.56
436.062	84.56
436.284	84.56
436.505	90.56
436.727	83.56
436.949	84.56
437.17	83.56
437.392	78.56
437.614	84.56
437.835	84.56
438.057	77.56
438.278	82.56
438.5	89.56
438.721	75.56
438.943	89.56
439.165	83.56
439.386	83.56
439.608	88.56
439.829	95.56
440.05	99.56
440.272	101.56
440.493	111.56
440.715	79.56
440.936	94.56
441.158	76.56
441.379	108.56
441.6	108.56
441.822	84.56
442.043	88.56
442.264	79.56
442.486	98.56
442.707	87.56
442.928	96.56
443.149	102.56
443.371	85.56
443.592	97.56
443.813	89.56
444.034	95.56
444.255	97.56
444.476	93.56
444.698	91.56
444.919	82.56
445.14	222.56
445.361	161.56
445.582	78.56
445.803	92.56
446.024	78.56
446.245	93.56
446.466	98.56
446.687	88.56
446.908	101.56
447.129	83.56
447.35	96.56
447.571	100.56
447.792	86.56
448.013	91.56
448.234	115.56
448.455	79.56
448.675	97.56
448.896	98.56
449.117	102.56
449.338	94.56
449.559	86.56
449.779	98.56
450	99.56
450.221	94.56
450.442	73.56
450.662	84.56
450.883	85.56
451.104	96.56
451.324	92.56
451.545	89.56
451.766	92.56
451.986	83.56
452.207	87.56
452.428	91.56
452.648	86.56
452.869	99.56
453.089	89.56
453.31	80.56
453.53	82.56
453.751	91.56
453.971	67.56
454.192	67.56
454.412	105.56
454.633	87.56
454.853	85.56
455.073	87.56
455.294	78.56
455.514	95.56
455.734	76.56
455.955	76.56
456.175	85.56
456.395	76.56
456.616	89.56
456.836	87.56
457.056	90.56
457.276	88.56
457.497	84.56
457.717	89.56
457.937	64.56
458.157	81.56
458.377	67.56
458.598	84.56
458.818	84.56
459.038	84.56
459.258	91.56
459.478	81.56
459.698	72.56
459.918	79.56
460.138	75.56
460.358	95.56
460.578	81.56
460.798	94.56
461.018	94.56
461.238	92.56
461.458	67.56
461.678	74.56
461.898	85.56
462.118	75.56
462.338	68.56
462.558	89.56
462.777	74.56
462.997	87.56
463.217	86.56
463.437	72.56
463.657	82.56
463.876	92.56
464.096	85.56
464.316	69.56
464.536	70.56
464.755	82.56
464.975	98.56
465.195	95.56
465.414	93.56
465.634	85.56
465.854	100.56
466.073	85.56
466.293	82.56
466.512	89.56
466.732	99.56
466.951	86.56
467.171	94.56
467.391	89.56
467.61	95.56
467.829	87.56
468.049	91.56
468.268	93.56
468.488	100.56
468.707	91.56
468.927	88.56
469.146	81.56
469.365	106.56
469.585	85.56
469.804	101.56
470.023	106.56
470.243	96.56
470.462	93.56
470.681	97.56
470.901	99.56
471.12	91.56
471.339	88.56
471.558	94.56
471.777	88.56
471.997	88.56
472.216	91.56
472.435	86.56
472.654	84.56
472.873	92.56
473.092	95.56
473.311	91.56
473.53	88.56
473.749	97.56
473.968	96.56
474.187	86.56
474.406	80.56
474.625	97.56
474.844	88.56
475.063	95.56
475.282	88.56
475.501	85.56
475.72	90.56
475.939	79.56
476.158	93.56
476.377	89.56
476.596	83.56
476.814	80.56
477.033	83.56
477.252	87.56
477.471	91.56
477.69	95.56
477.908	97.56
478.127	83.56
478.346	97.56
478.564	103.56
478.783	92.56
479.002	93.56
479.22	105.56
479.439	89.56
479.658	87.56
479.876	75.56
480.095	84.56
480.313	85.56
480.532	82.56
480.751	87.56
480.969	87.56
481.188	75.56
481.406	75.56
481.624	72.56
481.843	84.56
482.061	90.56
482.28	81.56
482.498	89.56
482.717	89.56
482.935	83.56
483.153	93.56
483.372	102.56
483.59	92.56
483.808	83.56
484.027	86.56
484.245	76.56
484.463	88.56
484.681	106.56
484.9	89.56
485.118	98.56
485.336	103.56
485.554	90.56
485.772	79.56
485.99	82.56
486.209	72.56
486.427	89.56
486.645	99.56
486.863	100.56
487.081	84.56
487.299	84.56
487.517	79.56
487.735	98.56
487.953	107.56
488.171	106.56
488.389	109.56
488.607	110.56
488.825	83.56
489.043	92.56
489.261	97.56
489.479	86.56
489.696	95.56
489.914	95.56
490.132	81.56
490.35	84.56
490.568	102.56
490.786	92.56
491.003	105.56
491.221	99.56
491.439	89.56
491.657	97.56
491.874	111.56
492.092	116.56
492.31	126.56
492.527	104.56
492.745	109.56
492.963	129.56
493.18	104.56
493.398	96.56
493.615	93.56
493.833	110.56
494.05	96.56
494.268	96.56
494.485	102.56
494.703	101.56
494.92	101.56
495.138	90.56
495.355	100.56
495.573	108.56
495.79	98.56
496.008	111.56
496.225	111.56
496.442	111.56
496.66	97.56
496.877	102.56
497.094	108.56
497.312	96.56
497.529	99.56
497.746	110.56
497.963	98.56
498.181	84.56
498.398	87.56
498.615	76.56
498.832	79.56
499.049	91.56
499.267	95.56
499.484	89.56
499.701	86.56
499.918	94.56
500.135	87.56
500.352	78.56
500.569	102.56
500.786	99.56
501.003	84.56
501.22	79.56
501.437	84.56
501.654	71.56
501.871	100.56
502.088	107.56
502.305	90.56
502.522	79.56
502.739	87.56
502.956	104.56
503.172	88.56
503.389	85.56
503.606	89.56
503.823	83.56
504.04	95.56
504.256	83.56
504.473	89.56
504.69	104.56
504.907	102.56
505.123	89.56
505.34	91.56
505.557	91.56
505.773	104.56
505.99	76.56
506.207	89.56
506.423	83.56
506.64	83.56
506.856	83.56
507.073	96.56
507.289	89.56
507.506	89.56
507.722	81.56
507.939	85.56
508.155	86.56
508.372	79.56
508.588	86.56
508.805	79.56
509.021	85.56
509.238	97.56
509.454	90.56
509.67	85.56
509.887	87.56
510.103	84.56
510.319	87.56
510.536	85.56
510.752	86.56
510.968	99.56
511.184	76.56
511.401	59.56
511.617	94.56
511.833	81.56
512.049	75.56
512.265	86.56
512.481	79.56
512.698	86.56
512.914	81.56
513.13	84.56
513.346	73.56
513.562	80.56
513.778	77.56
513.994	73.56
514.21	84.56
514.426	82.56
514.642	83.56
514.858	86.56
515.074	77.56
515.29	73.56
515.506	91.56
515.721	77.56
515.937	85.56
516.153	81.56
516.369	69.56
516.585	75.56
516.801	103.56
517.016	82.56
517.232	89.56
517.448	84.56
517.664	88.56
517.879	88.56
518.095	82.56
518.311	83.56
518.527	70.56
