Data from Location5.07152019.Energy5.Lamp.07192019.3%Agarose_HRD10591_15-39-02-388.txt Node
Date: Fri Jul 19 15:39:02 EDT 2019
User: cochatt
Spectrometer: HR+D1059
Trigger mode: 1
Integration Time (sec): 1.000000E-1
Scans to average: 1
Electric dark correction enabled: true
Nonlinearity correction enabled: false
Boxcar width: 0
XAxis mode: Wavelengths
Number of Pixels in Spectrum: 2048
>>>>>Begin Spectral Data<<<<<
223.165	-15.56
223.4	-15.56
223.635	-15.56
223.869	-21.56
224.104	-16.56
224.338	-14.56
224.573	-19.56
224.808	-12.56
225.042	-10.56
225.277	-9.56
225.511	-2.56
225.746	12.44
225.98	12.44
226.215	12.44
226.449	5.44
226.683	37.44
226.918	26.44
227.152	16.44
227.387	14.44
227.621	31.44
227.856	48.44
228.09	45.44
228.324	33.44
228.559	47.44
228.793	70.44
229.027	62.44
229.262	64.44
229.496	60.44
229.73	63.44
229.964	68.44
230.199	73.44
230.433	74.44
230.667	74.44
230.901	74.44
231.136	79.44
231.37	89.44
231.604	83.44
231.838	82.44
232.072	79.44
232.306	83.44
232.541	78.44
232.775	75.44
233.009	63.44
233.243	76.44
233.477	81.44
233.711	89.44
233.945	84.44
234.179	82.44
234.413	92.44
234.647	76.44
234.881	84.44
235.115	73.44
235.349	91.44
235.583	80.44
235.817	73.44
236.051	80.44
236.285	74.44
236.519	90.44
236.753	84.44
236.987	86.44
237.221	77.44
237.455	64.44
237.689	80.44
237.922	82.44
238.156	72.44
238.39	76.44
238.624	84.44
238.858	71.44
239.091	79.44
239.325	76.44
239.559	82.44
239.793	80.44
240.027	77.44
240.26	76.44
240.494	81.44
240.728	73.44
240.961	77.44
241.195	74.44
241.429	86.44
241.662	83.44
241.896	64.44
242.13	72.44
242.363	73.44
242.597	77.44
242.83	71.44
243.064	55.44
243.298	73.44
243.531	73.44
243.765	73.44
243.998	81.44
244.232	94.44
244.465	73.44
244.699	80.44
244.932	95.44
245.166	74.44
245.399	70.44
245.633	68.44
245.866	81.44
246.099	85.44
246.333	74.44
246.566	77.44
246.8	82.44
247.033	76.44
247.266	92.44
247.5	83.44
247.733	83.44
247.966	96.44
248.2	74.44
248.433	81.44
248.666	65.44
248.899	73.44
249.133	75.44
249.366	73.44
249.599	95.44
249.832	64.44
250.066	72.44
250.299	75.44
250.532	56.44
250.765	87.44
250.998	81.44
251.231	74.44
251.465	75.44
251.698	69.44
251.931	73.44
252.164	73.44
252.397	58.44
252.63	67.44
252.863	82.44
253.096	92.44
253.329	76.44
253.562	80.44
253.795	73.44
254.028	81.44
254.261	91.44
254.494	89.44
254.727	81.44
254.96	92.44
255.193	69.44
255.426	78.44
255.659	76.44
255.892	97.44
256.124	87.44
256.357	86.44
256.59	78.44
256.823	82.44
257.056	83.44
257.289	67.44
257.521	79.44
257.754	84.44
257.987	87.44
258.22	96.44
258.452	84.44
258.685	60.44
258.918	75.44
259.151	80.44
259.383	80.44
259.616	71.44
259.849	90.44
260.081	65.44
260.314	70.44
260.547	79.44
260.779	81.44
261.012	86.44
261.244	85.44
261.477	86.44
261.71	78.44
261.942	92.44
262.175	78.44
262.407	88.44
262.64	77.44
262.872	77.44
263.105	83.44
263.337	94.44
263.57	86.44
263.802	80.44
264.035	77.44
264.267	90.44
264.499	72.44
264.732	82.44
264.964	105.44
265.197	74.44
265.429	77.44
265.661	69.44
265.894	68.44
266.126	80.44
266.358	84.44
266.591	84.44
266.823	81.44
267.055	91.44
267.287	82.44
267.52	75.44
267.752	92.44
267.984	83.44
268.216	87.44
268.448	83.44
268.681	87.44
268.913	79.44
269.145	81.44
269.377	89.44
269.609	81.44
269.841	69.44
270.073	88.44
270.306	80.44
270.538	73.44
270.77	73.44
271.002	90.44
271.234	83.44
271.466	88.44
271.698	87.44
271.93	85.44
272.162	77.44
272.394	77.44
272.626	89.44
272.858	105.44
273.09	74.44
273.322	78.44
273.553	65.44
273.785	88.44
274.017	72.44
274.249	80.44
274.481	69.44
274.713	61.44
274.945	88.44
275.176	96.44
275.408	74.44
275.64	81.44
275.872	80.44
276.104	76.44
276.335	78.44
276.567	74.44
276.799	83.44
277.031	76.44
277.262	77.44
277.494	95.44
277.726	80.44
277.957	77.44
278.189	76.44
278.421	76.44
278.652	88.44
278.884	75.44
279.115	77.44
279.347	80.44
279.579	82.44
279.81	85.44
280.042	85.44
280.273	89.44
280.505	83.44
280.736	72.44
280.968	95.44
281.199	94.44
281.431	75.44
281.662	96.44
281.894	85.44
282.125	77.44
282.356	80.44
282.588	80.44
282.819	88.44
283.051	93.44
283.282	76.44
283.513	81.44
283.745	69.44
283.976	81.44
284.207	90.44
284.439	90.44
284.67	88.44
284.901	81.44
285.132	86.44
285.364	75.44
285.595	87.44
285.826	78.44
286.057	79.44
286.288	83.44
286.52	75.44
286.751	83.44
286.982	84.44
287.213	73.44
287.444	81.44
287.675	98.44
287.906	68.44
288.138	78.44
288.369	63.44
288.6	78.44
288.831	86.44
289.062	102.44
289.293	84.44
289.524	75.44
289.755	80.44
289.986	87.44
290.217	91.44
290.448	84.44
290.679	84.44
290.91	81.44
291.141	82.44
291.371	87.44
291.602	83.44
291.833	83.44
292.064	82.44
292.295	85.44
292.526	89.44
292.757	78.44
292.987	82.44
293.218	74.44
293.449	66.44
293.68	94.44
293.91	91.44
294.141	80.44
294.372	71.44
294.603	77.44
294.833	86.44
295.064	83.44
295.295	70.44
295.525	83.44
295.756	72.44
295.987	98.44
296.217	91.44
296.448	78.44
296.679	77.44
296.909	100.44
297.14	85.44
297.37	85.44
297.601	88.44
297.831	96.44
298.062	98.44
298.292	78.44
298.523	83.44
298.753	76.44
298.984	94.44
299.214	89.44
299.445	91.44
299.675	82.44
299.905	70.44
300.136	85.44
300.366	76.44
300.597	92.44
300.827	101.44
301.057	78.44
301.288	90.44
301.518	80.44
301.748	82.44
301.979	73.44
302.209	90.44
302.439	79.44
302.669	80.44
302.9	84.44
303.13	104.44
303.36	93.44
303.59	99.44
303.82	72.44
304.051	85.44
304.281	86.44
304.511	98.44
304.741	81.44
304.971	82.44
305.201	82.44
305.431	75.44
305.661	89.44
305.891	85.44
306.121	91.44
306.352	89.44
306.582	85.44
306.812	89.44
307.042	95.44
307.272	85.44
307.502	76.44
307.731	83.44
307.961	84.44
308.191	85.44
308.421	80.44
308.651	75.44
308.881	75.44
309.111	90.44
309.341	77.44
309.571	80.44
309.8	83.44
310.03	91.44
310.26	71.44
310.49	95.44
310.72	85.44
310.949	91.44
311.179	80.44
311.409	75.44
311.639	84.44
311.868	84.44
312.098	84.44
312.328	95.44
312.557	76.44
312.787	82.44
313.017	93.44
313.246	91.44
313.476	83.44
313.706	85.44
313.935	84.44
314.165	91.44
314.394	81.44
314.624	74.44
314.853	96.44
315.083	92.44
315.312	80.44
315.542	72.44
315.771	90.44
316.001	80.44
316.23	85.44
316.46	84.44
316.689	79.44
316.919	87.44
317.148	88.44
317.377	82.44
317.607	81.44
317.836	94.44
318.065	92.44
318.295	95.44
318.524	87.44
318.753	92.44
318.983	84.44
319.212	79.44
319.441	83.44
319.67	71.44
319.9	82.44
320.129	88.44
320.358	75.44
320.587	95.44
320.816	81.44
321.046	81.44
321.275	84.44
321.504	85.44
321.733	75.44
321.962	80.44
322.191	85.44
322.42	96.44
322.649	101.44
322.878	76.44
323.108	96.44
323.337	92.44
323.566	88.44
323.795	82.44
324.024	81.44
324.253	93.44
324.482	92.44
324.71	90.44
324.939	67.44
325.168	85.44
325.397	78.44
325.626	85.44
325.855	83.44
326.084	85.44
326.313	97.44
326.542	85.44
326.77	87.44
326.999	88.44
327.228	93.44
327.457	76.44
327.686	82.44
327.914	91.44
328.143	94.44
328.372	86.44
328.6	99.44
328.829	89.44
329.058	91.44
329.287	92.44
329.515	76.44
329.744	75.44
329.972	94.44
330.201	77.44
330.43	87.44
330.658	84.44
330.887	83.44
331.115	77.44
331.344	90.44
331.572	81.44
331.801	83.44
332.03	84.44
332.258	93.44
332.486	74.44
332.715	79.44
332.943	76.44
333.172	78.44
333.4	90.44
333.629	81.44
333.857	89.44
334.085	83.44
334.314	82.44
334.542	92.44
334.771	91.44
334.999	91.44
335.227	91.44
335.455	74.44
335.684	78.44
335.912	83.44
336.14	88.44
336.369	84.44
336.597	76.44
336.825	84.44
337.053	88.44
337.281	85.44
337.51	92.44
337.738	98.44
337.966	83.44
338.194	79.44
338.422	79.44
338.65	75.44
338.878	95.44
339.106	88.44
339.334	81.44
339.562	84.44
339.79	91.44
340.018	91.44
340.246	97.44
340.474	89.44
340.702	74.44
340.93	103.44
341.158	92.44
341.386	80.44
341.614	92.44
341.842	87.44
342.07	85.44
342.298	81.44
342.526	94.44
342.754	75.44
342.981	83.44
343.209	98.44
343.437	85.44
343.665	87.44
343.893	77.44
344.12	92.44
344.348	89.44
344.576	69.44
344.804	84.44
345.031	87.44
345.259	76.44
345.487	77.44
345.714	72.44
345.942	75.44
346.17	86.44
346.397	87.44
346.625	88.44
346.853	89.44
347.08	74.44
347.308	86.44
347.535	77.44
347.763	80.44
347.99	78.44
348.218	93.44
348.445	83.44
348.673	67.44
348.9	87.44
349.128	86.44
349.355	81.44
349.583	70.44
349.81	71.44
350.037	80.44
350.265	82.44
350.492	79.44
350.72	80.44
350.947	90.44
351.174	86.44
351.402	86.44
351.629	80.44
351.856	84.44
352.083	85.44
352.311	69.44
352.538	81.44
352.765	79.44
352.992	73.44
353.22	71.44
353.447	80.44
353.674	67.44
353.901	70.44
354.128	72.44
354.355	79.44
354.583	80.44
354.81	92.44
355.037	92.44
355.264	83.44
355.491	79.44
355.718	90.44
355.945	70.44
356.172	68.44
356.399	61.44
356.626	75.44
356.853	90.44
357.08	76.44
357.307	82.44
357.534	83.44
357.761	80.44
357.988	88.44
358.215	92.44
358.441	88.44
358.668	78.44
358.895	82.44
359.122	76.44
359.349	81.44
359.576	91.44
359.802	81.44
360.029	89.44
360.256	83.44
360.483	74.44
360.709	87.44
360.936	99.44
361.163	82.44
361.39	75.44
361.616	73.44
361.843	78.44
362.07	87.44
362.296	80.44
362.523	84.44
362.749	76.44
362.976	86.44
363.203	98.44
363.429	81.44
363.656	87.44
363.882	72.44
364.109	88.44
364.335	82.44
364.562	85.44
364.788	93.44
365.015	80.44
365.241	88.44
365.468	84.44
365.694	99.44
365.92	85.44
366.147	90.44
366.373	73.44
366.599	94.44
366.826	91.44
367.052	83.44
367.278	88.44
367.505	99.44
367.731	109.44
367.957	75.44
368.184	75.44
368.41	89.44
368.636	78.44
368.862	88.44
369.089	85.44
369.315	95.44
369.541	77.44
369.767	98.44
369.993	92.44
370.219	86.44
370.445	93.44
370.672	85.44
370.898	85.44
371.124	85.44
371.35	81.44
371.576	95.44
371.802	73.44
372.028	73.44
372.254	69.44
372.48	87.44
372.706	78.44
372.932	99.44
373.158	103.44
373.384	87.44
373.61	96.44
373.835	85.44
374.061	73.44
374.287	77.44
374.513	87.44
374.739	83.44
374.965	90.44
375.191	96.44
375.416	100.44
375.642	80.44
375.868	89.44
376.094	80.44
376.319	92.44
376.545	78.44
376.771	95.44
376.997	68.44
377.222	96.44
377.448	82.44
377.674	79.44
377.899	84.44
378.125	91.44
378.35	92.44
378.576	83.44
378.802	82.44
379.027	87.44
379.253	89.44
379.478	86.44
379.704	80.44
379.929	83.44
380.155	83.44
380.38	78.44
380.606	77.44
380.831	81.44
381.057	83.44
381.282	86.44
381.507	71.44
381.733	72.44
381.958	87.44
382.184	76.44
382.409	83.44
382.634	90.44
382.86	88.44
383.085	75.44
383.31	87.44
383.535	99.44
383.761	83.44
383.986	77.44
384.211	74.44
384.436	92.44
384.662	99.44
384.887	92.44
385.112	85.44
385.337	86.44
385.562	80.44
385.787	79.44
386.013	88.44
386.238	94.44
386.463	86.44
386.688	89.44
386.913	74.44
387.138	80.44
387.363	75.44
387.588	81.44
387.813	74.44
388.038	76.44
388.263	91.44
388.488	98.44
388.713	96.44
388.938	82.44
389.163	88.44
389.387	83.44
389.612	74.44
389.837	84.44
390.062	83.44
390.287	81.44
390.512	93.44
390.736	79.44
390.961	85.44
391.186	78.44
391.411	90.44
391.636	81.44
391.86	96.44
392.085	88.44
392.31	96.44
392.534	104.44
392.759	83.44
392.984	89.44
393.208	96.44
393.433	93.44
393.658	98.44
393.882	89.44
394.107	98.44
394.331	83.44
394.556	89.44
394.78	67.44
395.005	83.44
395.229	89.44
395.454	77.44
395.678	93.44
395.903	94.44
396.127	84.44
396.352	68.44
396.576	78.44
396.801	84.44
397.025	91.44
397.249	74.44
397.474	85.44
397.698	92.44
397.922	87.44
398.147	79.44
398.371	90.44
398.595	90.44
398.82	82.44
399.044	86.44
399.268	85.44
399.492	101.44
399.717	91.44
399.941	86.44
400.165	76.44
400.389	90.44
400.613	71.44
400.837	90.44
401.062	89.44
401.286	80.44
401.51	82.44
401.734	88.44
401.958	93.44
402.182	90.44
402.406	79.44
402.63	81.44
402.854	88.44
403.078	71.44
403.302	83.44
403.526	77.44
403.75	80.44
403.974	80.44
404.198	90.44
404.422	83.44
404.645	94.44
404.869	88.44
405.093	85.44
405.317	91.44
405.541	84.44
405.765	85.44
405.988	84.44
406.212	87.44
406.436	89.44
406.66	83.44
406.883	81.44
407.107	79.44
407.331	79.44
407.555	84.44
407.778	89.44
408.002	88.44
408.226	76.44
408.449	95.44
408.673	86.44
408.896	90.44
409.12	91.44
409.344	84.44
409.567	89.44
409.791	87.44
410.014	89.44
410.238	72.44
410.461	90.44
410.685	105.44
410.908	83.44
411.132	105.44
411.355	95.44
411.578	89.44
411.802	85.44
412.025	76.44
412.249	85.44
412.472	95.44
412.695	83.44
412.919	96.44
413.142	70.44
413.365	90.44
413.589	92.44
413.812	87.44
414.035	89.44
414.258	84.44
414.482	91.44
414.705	81.44
414.928	79.44
415.151	103.44
415.374	81.44
415.597	103.44
415.821	95.44
416.044	108.44
416.267	98.44
416.49	87.44
416.713	95.44
416.936	88.44
417.159	92.44
417.382	93.44
417.605	77.44
417.828	89.44
418.051	88.44
418.274	85.44
418.497	100.44
418.72	90.44
418.943	106.44
419.166	81.44
419.389	102.44
419.611	100.44
419.834	95.44
420.057	94.44
420.28	81.44
420.503	101.44
420.726	95.44
420.948	92.44
421.171	105.44
421.394	85.44
421.617	103.44
421.839	92.44
422.062	92.44
422.285	90.44
422.507	103.44
422.73	98.44
422.953	89.44
423.175	100.44
423.398	89.44
423.621	95.44
423.843	91.44
424.066	105.44
424.288	99.44
424.511	101.44
424.733	83.44
424.956	97.44
425.178	96.44
425.401	106.44
425.623	102.44
425.846	100.44
426.068	87.44
426.291	98.44
426.513	96.44
426.735	97.44
426.958	101.44
427.18	101.44
427.402	87.44
427.625	95.44
427.847	93.44
428.069	85.44
428.292	97.44
428.514	95.44
428.736	110.44
428.958	82.44
429.181	102.44
429.403	85.44
429.625	88.44
429.847	96.44
430.069	86.44
430.292	107.44
430.514	90.44
430.736	99.44
430.958	103.44
431.18	87.44
431.402	98.44
431.624	97.44
431.846	87.44
432.068	82.44
432.29	74.44
432.512	99.44
432.734	77.44
432.956	90.44
433.178	91.44
433.4	85.44
433.622	93.44
433.844	102.44
434.066	83.44
434.287	90.44
434.509	87.44
434.731	93.44
434.953	87.44
435.175	99.44
435.397	102.44
435.618	99.44
435.84	99.44
436.062	106.44
436.284	81.44
436.505	91.44
436.727	104.44
436.949	96.44
437.17	81.44
437.392	86.44
437.614	98.44
437.835	78.44
438.057	91.44
438.278	82.44
438.5	83.44
438.721	97.44
438.943	88.44
439.165	97.44
439.386	102.44
439.608	102.44
439.829	100.44
440.05	85.44
440.272	89.44
440.493	95.44
440.715	77.44
440.936	95.44
441.158	93.44
441.379	89.44
441.6	99.44
441.822	99.44
442.043	96.44
442.264	99.44
442.486	84.44
442.707	88.44
442.928	90.44
443.149	98.44
443.371	97.44
443.592	91.44
443.813	84.44
444.034	88.44
444.255	111.44
444.476	105.44
444.698	89.44
444.919	89.44
445.14	215.44
445.361	131.44
445.582	95.44
445.803	100.44
446.024	108.44
446.245	114.44
446.466	101.44
446.687	97.44
446.908	106.44
447.129	90.44
447.35	97.44
447.571	97.44
447.792	91.44
448.013	96.44
448.234	80.44
448.455	75.44
448.675	97.44
448.896	93.44
449.117	102.44
449.338	107.44
449.559	91.44
449.779	104.44
450	80.44
450.221	98.44
450.442	94.44
450.662	75.44
450.883	93.44
451.104	87.44
451.324	97.44
451.545	76.44
451.766	96.44
451.986	102.44
452.207	88.44
452.428	84.44
452.648	91.44
452.869	89.44
453.089	94.44
453.31	90.44
453.53	88.44
453.751	90.44
453.971	89.44
454.192	87.44
454.412	93.44
454.633	98.44
454.853	105.44
455.073	96.44
455.294	79.44
455.514	90.44
455.734	85.44
455.955	87.44
456.175	102.44
456.395	90.44
456.616	88.44
456.836	91.44
457.056	93.44
457.276	93.44
457.497	83.44
457.717	89.44
457.937	77.44
458.157	91.44
458.377	90.44
458.598	87.44
458.818	85.44
459.038	86.44
459.258	79.44
459.478	84.44
459.698	79.44
459.918	74.44
460.138	88.44
460.358	105.44
460.578	87.44
460.798	82.44
461.018	72.44
461.238	85.44
461.458	93.44
461.678	87.44
461.898	102.44
462.118	97.44
462.338	92.44
462.558	92.44
462.777	90.44
462.997	90.44
463.217	92.44
463.437	100.44
463.657	82.44
463.876	93.44
464.096	93.44
464.316	91.44
464.536	88.44
464.755	100.44
464.975	102.44
465.195	95.44
465.414	94.44
465.634	85.44
465.854	102.44
466.073	80.44
466.293	81.44
466.512	83.44
466.732	62.44
466.951	97.44
467.171	96.44
467.391	95.44
467.61	115.44
467.829	108.44
468.049	98.44
468.268	99.44
468.488	98.44
468.707	95.44
468.927	120.44
469.146	108.44
469.365	90.44
469.585	100.44
469.804	87.44
470.023	89.44
470.243	90.44
470.462	111.44
470.681	91.44
470.901	91.44
471.12	93.44
471.339	97.44
471.558	108.44
471.777	99.44
471.997	97.44
472.216	116.44
472.435	100.44
472.654	96.44
472.873	86.44
473.092	90.44
473.311	102.44
473.53	99.44
473.749	101.44
473.968	100.44
474.187	103.44
474.406	78.44
474.625	100.44
474.844	81.44
475.063	86.44
475.282	100.44
475.501	103.44
475.72	100.44
475.939	84.44
476.158	99.44
476.377	101.44
476.596	101.44
476.814	90.44
477.033	89.44
477.252	90.44
477.471	86.44
477.69	91.44
477.908	91.44
478.127	89.44
478.346	100.44
478.564	87.44
478.783	109.44
479.002	105.44
479.22	97.44
479.439	94.44
479.658	100.44
479.876	79.44
480.095	87.44
480.313	86.44
480.532	88.44
480.751	102.44
480.969	85.44
481.188	92.44
481.406	87.44
481.624	83.44
481.843	89.44
482.061	93.44
482.28	93.44
482.498	90.44
482.717	93.44
482.935	87.44
483.153	98.44
483.372	105.44
483.59	88.44
483.808	90.44
484.027	86.44
484.245	84.44
484.463	106.44
484.681	93.44
484.9	102.44
485.118	109.44
485.336	107.44
485.554	98.44
485.772	95.44
485.99	72.44
486.209	81.44
486.427	85.44
486.645	91.44
486.863	82.44
487.081	102.44
487.299	95.44
487.517	98.44
487.735	113.44
487.953	121.44
488.171	100.44
488.389	102.44
488.607	113.44
488.825	113.44
489.043	103.44
489.261	90.44
489.479	93.44
489.696	121.44
489.914	93.44
490.132	95.44
490.35	111.44
490.568	100.44
490.786	106.44
491.003	103.44
491.221	113.44
491.439	103.44
491.657	110.44
491.874	113.44
492.092	119.44
492.31	107.44
492.527	114.44
492.745	106.44
492.963	106.44
493.18	102.44
493.398	107.44
493.615	100.44
493.833	104.44
494.05	115.44
494.268	95.44
494.485	92.44
494.703	117.44
494.92	106.44
495.138	97.44
495.355	99.44
495.573	100.44
495.79	106.44
496.008	105.44
496.225	110.44
496.442	102.44
496.66	103.44
496.877	100.44
497.094	102.44
497.312	91.44
497.529	93.44
497.746	104.44
497.963	115.44
498.181	105.44
498.398	89.44
498.615	97.44
498.832	81.44
499.049	93.44
499.267	98.44
499.484	103.44
499.701	97.44
499.918	111.44
500.135	92.44
500.352	93.44
500.569	97.44
500.786	101.44
501.003	103.44
501.22	104.44
501.437	102.44
501.654	98.44
501.871	92.44
502.088	94.44
502.305	96.44
502.522	97.44
502.739	106.44
502.956	83.44
503.172	88.44
503.389	77.44
503.606	90.44
503.823	93.44
504.04	99.44
504.256	81.44
504.473	80.44
504.69	100.44
504.907	88.44
505.123	92.44
505.34	87.44
505.557	99.44
505.773	94.44
505.99	100.44
506.207	70.44
506.423	93.44
506.64	108.44
506.856	92.44
507.073	89.44
507.289	79.44
507.506	97.44
507.722	98.44
507.939	97.44
508.155	84.44
508.372	88.44
508.588	92.44
508.805	97.44
509.021	75.44
509.238	89.44
509.454	90.44
509.67	82.44
509.887	84.44
510.103	89.44
510.319	85.44
510.536	88.44
510.752	79.44
510.968	68.44
511.184	80.44
511.401	87.44
511.617	94.44
511.833	88.44
512.049	90.44
512.265	83.44
512.481	85.44
512.698	86.44
512.914	97.44
513.13	72.44
513.346	90.44
513.562	87.44
513.778	83.44
513.994	82.44
514.21	90.44
514.426	75.44
514.642	89.44
514.858	88.44
515.074	74.44
515.29	86.44
515.506	86.44
515.721	86.44
515.937	85.44
516.153	84.44
516.369	78.44
516.585	90.44
516.801	94.44
517.016	90.44
517.232	83.44
517.448	81.44
