Data from Location5.07152019.Energy5.Lamp.07192019.3%Agarose_HRD10591_15-39-17-387.txt Node
Date: Fri Jul 19 15:39:17 EDT 2019
User: cochatt
Spectrometer: HR+D1059
Trigger mode: 1
Integration Time (sec): 1.000000E-1
Scans to average: 1
Electric dark correction enabled: true
Nonlinearity correction enabled: false
Boxcar width: 0
XAxis mode: Wavelengths
Number of Pixels in Spectrum: 2048
>>>>>Begin Spectral Data<<<<<
223.165	-20.75
223.4	-20.75
223.635	-20.75
223.869	-13.75
224.104	-22.75
224.338	-28.75
224.573	-12.75
224.808	-11.75
225.042	-1.75
225.277	-5.75
225.511	-5.75
225.746	16.25
225.98	-2.75
226.215	15.25
226.449	18.25
226.683	22.25
226.918	27.25
227.152	27.25
227.387	19.25
227.621	21.25
227.856	39.25
228.09	33.25
228.324	48.25
228.559	56.25
228.793	57.25
229.027	51.25
229.262	55.25
229.496	62.25
229.73	72.25
229.964	83.25
230.199	66.25
230.433	75.25
230.667	56.25
230.901	66.25
231.136	80.25
231.37	78.25
231.604	76.25
231.838	84.25
232.072	83.25
232.306	65.25
232.541	81.25
232.775	76.25
233.009	82.25
233.243	85.25
233.477	90.25
233.711	75.25
233.945	73.25
234.179	81.25
234.413	75.25
234.647	82.25
234.881	79.25
235.115	80.25
235.349	82.25
235.583	79.25
235.817	76.25
236.051	75.25
236.285	72.25
236.519	84.25
236.753	67.25
236.987	92.25
237.221	82.25
237.455	75.25
237.689	51.25
237.922	82.25
238.156	77.25
238.39	68.25
238.624	83.25
238.858	74.25
239.091	76.25
239.325	69.25
239.559	82.25
239.793	83.25
240.027	61.25
240.26	62.25
240.494	77.25
240.728	72.25
240.961	74.25
241.195	76.25
241.429	91.25
241.662	79.25
241.896	70.25
242.13	76.25
242.363	83.25
242.597	58.25
242.83	67.25
243.064	78.25
243.298	66.25
243.531	61.25
243.765	91.25
243.998	87.25
244.232	80.25
244.465	90.25
244.699	86.25
244.932	87.25
245.166	80.25
245.399	94.25
245.633	75.25
245.866	83.25
246.099	89.25
246.333	76.25
246.566	71.25
246.8	69.25
247.033	71.25
247.266	79.25
247.5	82.25
247.733	76.25
247.966	74.25
248.2	80.25
248.433	90.25
248.666	82.25
248.899	75.25
249.133	74.25
249.366	95.25
249.599	84.25
249.832	81.25
250.066	77.25
250.299	85.25
250.532	85.25
250.765	87.25
250.998	90.25
251.231	71.25
251.465	65.25
251.698	68.25
251.931	67.25
252.164	84.25
252.397	75.25
252.63	82.25
252.863	81.25
253.096	68.25
253.329	86.25
253.562	86.25
253.795	75.25
254.028	77.25
254.261	93.25
254.494	72.25
254.727	95.25
254.96	77.25
255.193	75.25
255.426	85.25
255.659	75.25
255.892	76.25
256.124	91.25
256.357	87.25
256.59	78.25
256.823	76.25
257.056	75.25
257.289	81.25
257.521	71.25
257.754	86.25
257.987	67.25
258.22	72.25
258.452	90.25
258.685	70.25
258.918	69.25
259.151	89.25
259.383	87.25
259.616	78.25
259.849	82.25
260.081	71.25
260.314	80.25
260.547	87.25
260.779	88.25
261.012	90.25
261.244	80.25
261.477	84.25
261.71	69.25
261.942	80.25
262.175	76.25
262.407	83.25
262.64	92.25
262.872	85.25
263.105	78.25
263.337	83.25
263.57	85.25
263.802	87.25
264.035	84.25
264.267	86.25
264.499	84.25
264.732	80.25
264.964	88.25
265.197	75.25
265.429	91.25
265.661	78.25
265.894	91.25
266.126	88.25
266.358	81.25
266.591	83.25
266.823	67.25
267.055	87.25
267.287	74.25
267.52	76.25
267.752	74.25
267.984	100.25
268.216	81.25
268.448	74.25
268.681	72.25
268.913	75.25
269.145	84.25
269.377	90.25
269.609	84.25
269.841	64.25
270.073	88.25
270.306	75.25
270.538	92.25
270.77	82.25
271.002	79.25
271.234	82.25
271.466	82.25
271.698	82.25
271.93	83.25
272.162	91.25
272.394	85.25
272.626	77.25
272.858	73.25
273.09	90.25
273.322	83.25
273.553	62.25
273.785	81.25
274.017	83.25
274.249	83.25
274.481	88.25
274.713	95.25
274.945	74.25
275.176	87.25
275.408	94.25
275.64	73.25
275.872	59.25
276.104	68.25
276.335	82.25
276.567	76.25
276.799	75.25
277.031	74.25
277.262	70.25
277.494	87.25
277.726	82.25
277.957	101.25
278.189	85.25
278.421	77.25
278.652	72.25
278.884	77.25
279.115	78.25
279.347	70.25
279.579	82.25
279.81	70.25
280.042	93.25
280.273	83.25
280.505	79.25
280.736	76.25
280.968	95.25
281.199	104.25
281.431	101.25
281.662	89.25
281.894	90.25
282.125	94.25
282.356	87.25
282.588	88.25
282.819	82.25
283.051	83.25
283.282	94.25
283.513	85.25
283.745	93.25
283.976	76.25
284.207	97.25
284.439	77.25
284.67	74.25
284.901	82.25
285.132	95.25
285.364	75.25
285.595	78.25
285.826	79.25
286.057	89.25
286.288	87.25
286.52	88.25
286.751	86.25
286.982	76.25
287.213	76.25
287.444	83.25
287.675	107.25
287.906	88.25
288.138	75.25
288.369	98.25
288.6	87.25
288.831	90.25
289.062	82.25
289.293	80.25
289.524	81.25
289.755	76.25
289.986	75.25
290.217	74.25
290.448	85.25
290.679	94.25
290.91	82.25
291.141	83.25
291.371	89.25
291.602	76.25
291.833	62.25
292.064	68.25
292.295	81.25
292.526	86.25
292.757	88.25
292.987	88.25
293.218	81.25
293.449	88.25
293.68	84.25
293.91	92.25
294.141	80.25
294.372	74.25
294.603	90.25
294.833	76.25
295.064	75.25
295.295	84.25
295.525	86.25
295.756	84.25
295.987	79.25
296.217	83.25
296.448	71.25
296.679	94.25
296.909	82.25
297.14	78.25
297.37	92.25
297.601	100.25
297.831	83.25
298.062	75.25
298.292	71.25
298.523	94.25
298.753	75.25
298.984	79.25
299.214	85.25
299.445	99.25
299.675	99.25
299.905	79.25
300.136	90.25
300.366	80.25
300.597	89.25
300.827	89.25
301.057	80.25
301.288	74.25
301.518	75.25
301.748	81.25
301.979	94.25
302.209	97.25
302.439	93.25
302.669	89.25
302.9	78.25
303.13	91.25
303.36	79.25
303.59	88.25
303.82	85.25
304.051	101.25
304.281	84.25
304.511	76.25
304.741	84.25
304.971	74.25
305.201	86.25
305.431	76.25
305.661	87.25
305.891	83.25
306.121	82.25
306.352	97.25
306.582	95.25
306.812	92.25
307.042	92.25
307.272	77.25
307.502	76.25
307.731	83.25
307.961	96.25
308.191	75.25
308.421	83.25
308.651	89.25
308.881	85.25
309.111	82.25
309.341	80.25
309.571	69.25
309.8	82.25
310.03	94.25
310.26	89.25
310.49	88.25
310.72	79.25
310.949	74.25
311.179	92.25
311.409	82.25
311.639	84.25
311.868	81.25
312.098	82.25
312.328	87.25
312.557	97.25
312.787	87.25
313.017	83.25
313.246	90.25
313.476	69.25
313.706	79.25
313.935	96.25
314.165	83.25
314.394	84.25
314.624	91.25
314.853	83.25
315.083	93.25
315.312	93.25
315.542	96.25
315.771	94.25
316.001	85.25
316.23	68.25
316.46	86.25
316.689	90.25
316.919	94.25
317.148	80.25
317.377	73.25
317.607	75.25
317.836	79.25
318.065	99.25
318.295	84.25
318.524	84.25
318.753	89.25
318.983	82.25
319.212	67.25
319.441	64.25
319.67	82.25
319.9	94.25
320.129	87.25
320.358	80.25
320.587	76.25
320.816	75.25
321.046	74.25
321.275	90.25
321.504	85.25
321.733	87.25
321.962	88.25
322.191	63.25
322.42	88.25
322.649	75.25
322.878	82.25
323.108	84.25
323.337	84.25
323.566	90.25
323.795	80.25
324.024	89.25
324.253	77.25
324.482	73.25
324.71	91.25
324.939	92.25
325.168	89.25
325.397	78.25
325.626	85.25
325.855	88.25
326.084	88.25
326.313	83.25
326.542	104.25
326.77	82.25
326.999	86.25
327.228	90.25
327.457	81.25
327.686	77.25
327.914	87.25
328.143	91.25
328.372	79.25
328.6	86.25
328.829	74.25
329.058	95.25
329.287	82.25
329.515	87.25
329.744	88.25
329.972	87.25
330.201	86.25
330.43	92.25
330.658	90.25
330.887	92.25
331.115	71.25
331.344	92.25
331.572	93.25
331.801	89.25
332.03	82.25
332.258	97.25
332.486	74.25
332.715	89.25
332.943	79.25
333.172	87.25
333.4	88.25
333.629	89.25
333.857	91.25
334.085	85.25
334.314	100.25
334.542	87.25
334.771	79.25
334.999	94.25
335.227	84.25
335.455	84.25
335.684	85.25
335.912	87.25
336.14	103.25
336.369	92.25
336.597	92.25
336.825	95.25
337.053	93.25
337.281	87.25
337.51	89.25
337.738	87.25
337.966	89.25
338.194	87.25
338.422	79.25
338.65	88.25
338.878	91.25
339.106	77.25
339.334	70.25
339.562	81.25
339.79	91.25
340.018	90.25
340.246	91.25
340.474	83.25
340.702	83.25
340.93	77.25
341.158	81.25
341.386	86.25
341.614	78.25
341.842	67.25
342.07	79.25
342.298	73.25
342.526	83.25
342.754	74.25
342.981	81.25
343.209	80.25
343.437	93.25
343.665	93.25
343.893	80.25
344.12	92.25
344.348	87.25
344.576	84.25
344.804	93.25
345.031	87.25
345.259	85.25
345.487	98.25
345.714	96.25
345.942	87.25
346.17	77.25
346.397	86.25
346.625	94.25
346.853	89.25
347.08	92.25
347.308	80.25
347.535	81.25
347.763	89.25
347.99	84.25
348.218	92.25
348.445	97.25
348.673	86.25
348.9	95.25
349.128	78.25
349.355	74.25
349.583	82.25
349.81	96.25
350.037	97.25
350.265	84.25
350.492	89.25
350.72	83.25
350.947	88.25
351.174	80.25
351.402	82.25
351.629	95.25
351.856	76.25
352.083	84.25
352.311	82.25
352.538	74.25
352.765	87.25
352.992	82.25
353.22	79.25
353.447	73.25
353.674	76.25
353.901	103.25
354.128	76.25
354.355	81.25
354.583	80.25
354.81	94.25
355.037	89.25
355.264	88.25
355.491	83.25
355.718	84.25
355.945	85.25
356.172	74.25
356.399	91.25
356.626	88.25
356.853	86.25
357.08	75.25
357.307	83.25
357.534	73.25
357.761	75.25
357.988	89.25
358.215	83.25
358.441	86.25
358.668	74.25
358.895	82.25
359.122	75.25
359.349	71.25
359.576	96.25
359.802	88.25
360.029	86.25
360.256	90.25
360.483	99.25
360.709	75.25
360.936	109.25
361.163	88.25
361.39	82.25
361.616	91.25
361.843	84.25
362.07	95.25
362.296	90.25
362.523	73.25
362.749	97.25
362.976	86.25
363.203	90.25
363.429	78.25
363.656	75.25
363.882	74.25
364.109	97.25
364.335	80.25
364.562	81.25
364.788	99.25
365.015	98.25
365.241	100.25
365.468	79.25
365.694	98.25
365.92	75.25
366.147	87.25
366.373	90.25
366.599	91.25
366.826	93.25
367.052	82.25
367.278	94.25
367.505	83.25
367.731	97.25
367.957	70.25
368.184	78.25
368.41	73.25
368.636	93.25
368.862	76.25
369.089	97.25
369.315	93.25
369.541	90.25
369.767	95.25
369.993	82.25
370.219	86.25
370.445	84.25
370.672	83.25
370.898	92.25
371.124	83.25
371.35	70.25
371.576	93.25
371.802	80.25
372.028	81.25
372.254	83.25
372.48	95.25
372.706	85.25
372.932	95.25
373.158	92.25
373.384	94.25
373.61	88.25
373.835	99.25
374.061	89.25
374.287	75.25
374.513	87.25
374.739	83.25
374.965	85.25
375.191	80.25
375.416	94.25
375.642	92.25
375.868	70.25
376.094	82.25
376.319	75.25
376.545	93.25
376.771	83.25
376.997	82.25
377.222	84.25
377.448	81.25
377.674	75.25
377.899	93.25
378.125	84.25
378.35	91.25
378.576	67.25
378.802	88.25
379.027	88.25
379.253	88.25
379.478	75.25
379.704	90.25
379.929	87.25
380.155	87.25
380.38	75.25
380.606	89.25
380.831	74.25
381.057	90.25
381.282	99.25
381.507	83.25
381.733	68.25
381.958	87.25
382.184	81.25
382.409	94.25
382.634	79.25
382.86	80.25
383.085	86.25
383.31	82.25
383.535	72.25
383.761	86.25
383.986	74.25
384.211	88.25
384.436	92.25
384.662	87.25
384.887	87.25
385.112	85.25
385.337	98.25
385.562	81.25
385.787	88.25
386.013	85.25
386.238	80.25
386.463	82.25
386.688	90.25
386.913	69.25
387.138	78.25
387.363	98.25
387.588	86.25
387.813	95.25
388.038	84.25
388.263	99.25
388.488	99.25
388.713	89.25
388.938	84.25
389.163	89.25
389.387	81.25
389.612	100.25
389.837	81.25
390.062	77.25
390.287	83.25
390.512	76.25
390.736	71.25
390.961	91.25
391.186	85.25
391.411	89.25
391.636	77.25
391.86	88.25
392.085	69.25
392.31	86.25
392.534	86.25
392.759	87.25
392.984	87.25
393.208	101.25
393.433	99.25
393.658	98.25
393.882	92.25
394.107	90.25
394.331	81.25
394.556	75.25
394.78	97.25
395.005	95.25
395.229	96.25
395.454	88.25
395.678	86.25
395.903	75.25
396.127	73.25
396.352	84.25
396.576	83.25
396.801	90.25
397.025	80.25
397.249	76.25
397.474	90.25
397.698	89.25
397.922	84.25
398.147	75.25
398.371	86.25
398.595	102.25
398.82	87.25
399.044	80.25
399.268	88.25
399.492	90.25
399.717	91.25
399.941	78.25
400.165	89.25
400.389	94.25
400.613	84.25
400.837	77.25
401.062	83.25
401.286	81.25
401.51	88.25
401.734	93.25
401.958	90.25
402.182	85.25
402.406	83.25
402.63	90.25
402.854	78.25
403.078	85.25
403.302	88.25
403.526	86.25
403.75	85.25
403.974	78.25
404.198	75.25
404.422	89.25
404.645	84.25
404.869	87.25
405.093	102.25
405.317	80.25
405.541	90.25
405.765	87.25
405.988	79.25
406.212	96.25
406.436	98.25
406.66	82.25
406.883	85.25
407.107	100.25
407.331	87.25
407.555	98.25
407.778	87.25
408.002	95.25
408.226	94.25
408.449	86.25
408.673	91.25
408.896	83.25
409.12	99.25
409.344	91.25
409.567	101.25
409.791	89.25
410.014	84.25
410.238	83.25
410.461	92.25
410.685	93.25
410.908	82.25
411.132	95.25
411.355	98.25
411.578	86.25
411.802	92.25
412.025	87.25
412.249	83.25
412.472	91.25
412.695	81.25
412.919	97.25
413.142	89.25
413.365	85.25
413.589	84.25
413.812	90.25
414.035	90.25
414.258	81.25
414.482	96.25
414.705	101.25
414.928	96.25
415.151	83.25
415.374	93.25
415.597	94.25
415.821	89.25
416.044	71.25
416.267	89.25
416.49	89.25
416.713	90.25
416.936	100.25
417.159	95.25
417.382	85.25
417.605	100.25
417.828	99.25
418.051	86.25
418.274	90.25
418.497	103.25
418.72	95.25
418.943	110.25
419.166	80.25
419.389	95.25
419.611	84.25
419.834	96.25
420.057	94.25
420.28	96.25
420.503	84.25
420.726	98.25
420.948	87.25
421.171	87.25
421.394	83.25
421.617	91.25
421.839	91.25
422.062	87.25
422.285	92.25
422.507	108.25
422.73	89.25
422.953	88.25
423.175	94.25
423.398	93.25
423.621	99.25
423.843	85.25
424.066	86.25
424.288	98.25
424.511	96.25
424.733	90.25
424.956	96.25
425.178	89.25
425.401	88.25
425.623	80.25
425.846	96.25
426.068	92.25
426.291	76.25
426.513	96.25
426.735	100.25
426.958	105.25
427.18	104.25
427.402	98.25
427.625	98.25
427.847	93.25
428.069	88.25
428.292	102.25
428.514	93.25
428.736	91.25
428.958	100.25
429.181	83.25
429.403	94.25
429.625	95.25
429.847	86.25
430.069	95.25
430.292	95.25
430.514	83.25
430.736	98.25
430.958	94.25
431.18	102.25
431.402	101.25
431.624	76.25
431.846	72.25
432.068	95.25
432.29	78.25
432.512	93.25
432.734	92.25
432.956	98.25
433.178	104.25
433.4	103.25
433.622	95.25
433.844	105.25
434.066	96.25
434.287	82.25
434.509	78.25
434.731	89.25
434.953	90.25
435.175	98.25
435.397	87.25
435.618	95.25
435.84	96.25
436.062	99.25
436.284	96.25
436.505	79.25
436.727	94.25
436.949	105.25
437.17	96.25
437.392	78.25
437.614	83.25
437.835	91.25
438.057	71.25
438.278	73.25
438.5	92.25
438.721	94.25
438.943	82.25
439.165	85.25
439.386	93.25
439.608	81.25
439.829	105.25
440.05	102.25
440.272	96.25
440.493	90.25
440.715	83.25
440.936	94.25
441.158	111.25
441.379	92.25
441.6	104.25
441.822	96.25
442.043	91.25
442.264	103.25
442.486	91.25
442.707	105.25
442.928	99.25
443.149	88.25
443.371	82.25
443.592	79.25
443.813	91.25
444.034	82.25
444.255	97.25
444.476	82.25
444.698	96.25
444.919	111.25
445.14	194.25
445.361	154.25
445.582	103.25
445.803	91.25
446.024	86.25
446.245	105.25
446.466	104.25
446.687	121.25
446.908	86.25
447.129	122.25
447.35	91.25
447.571	100.25
447.792	93.25
448.013	93.25
448.234	93.25
448.455	98.25
448.675	108.25
448.896	91.25
449.117	95.25
449.338	91.25
449.559	100.25
449.779	84.25
450	93.25
450.221	104.25
450.442	97.25
450.662	76.25
450.883	94.25
451.104	92.25
451.324	92.25
451.545	99.25
451.766	90.25
451.986	100.25
452.207	84.25
452.428	94.25
452.648	91.25
452.869	88.25
453.089	93.25
453.31	98.25
453.53	96.25
453.751	97.25
453.971	102.25
454.192	86.25
454.412	79.25
454.633	98.25
454.853	79.25
455.073	91.25
455.294	97.25
455.514	84.25
455.734	86.25
455.955	86.25
456.175	92.25
456.395	92.25
456.616	85.25
456.836	85.25
457.056	89.25
457.276	91.25
457.497	91.25
457.717	92.25
457.937	88.25
458.157	89.25
458.377	89.25
458.598	91.25
458.818	101.25
459.038	80.25
459.258	82.25
459.478	78.25
459.698	87.25
459.918	85.25
460.138	98.25
460.358	85.25
460.578	89.25
460.798	82.25
461.018	94.25
461.238	92.25
461.458	93.25
461.678	106.25
461.898	97.25
462.118	78.25
462.338	86.25
462.558	95.25
462.777	89.25
462.997	74.25
463.217	88.25
463.437	90.25
463.657	96.25
463.876	87.25
464.096	95.25
464.316	95.25
464.536	96.25
464.755	99.25
464.975	95.25
465.195	86.25
465.414	91.25
465.634	75.25
465.854	93.25
466.073	95.25
466.293	86.25
466.512	104.25
466.732	96.25
466.951	100.25
467.171	98.25
467.391	99.25
467.61	91.25
467.829	107.25
468.049	84.25
468.268	91.25
468.488	89.25
468.707	101.25
468.927	106.25
469.146	96.25
469.365	99.25
469.585	87.25
469.804	104.25
470.023	103.25
470.243	90.25
470.462	82.25
470.681	112.25
470.901	97.25
471.12	106.25
471.339	104.25
471.558	90.25
471.777	100.25
471.997	104.25
472.216	82.25
472.435	104.25
472.654	80.25
472.873	91.25
473.092	67.25
473.311	87.25
473.53	105.25
473.749	103.25
473.968	96.25
474.187	92.25
474.406	113.25
474.625	100.25
474.844	83.25
475.063	86.25
475.282	88.25
475.501	90.25
475.72	94.25
475.939	76.25
476.158	88.25
476.377	84.25
476.596	91.25
476.814	89.25
477.033	92.25
477.252	81.25
477.471	82.25
477.69	96.25
477.908	96.25
478.127	108.25
478.346	105.25
478.564	99.25
478.783	88.25
479.002	96.25
479.22	104.25
479.439	87.25
479.658	92.25
479.876	97.25
480.095	95.25
480.313	93.25
480.532	74.25
480.751	91.25
480.969	79.25
481.188	90.25
481.406	82.25
481.624	75.25
481.843	78.25
482.061	89.25
482.28	82.25
482.498	84.25
482.717	93.25
482.935	107.25
483.153	105.25
483.372	105.25
483.59	87.25
483.808	102.25
484.027	104.25
484.245	87.25
484.463	112.25
484.681	105.25
484.9	100.25
485.118	98.25
485.336	91.25
485.554	80.25
485.772	91.25
485.99	89.25
486.209	101.25
486.427	79.25
486.645	93.25
486.863	100.25
487.081	94.25
487.299	91.25
487.517	98.25
487.735	113.25
487.953	115.25
488.171	118.25
488.389	97.25
488.607	87.25
488.825	106.25
489.043	91.25
489.261	95.25
489.479	86.25
489.696	91.25
489.914	93.25
490.132	89.25
490.35	113.25
490.568	103.25
490.786	99.25
491.003	97.25
491.221	99.25
491.439	102.25
491.657	92.25
491.874	111.25
492.092	128.25
492.31	122.25
492.527	127.25
492.745	106.25
492.963	108.25
493.18	111.25
493.398	93.25
493.615	103.25
493.833	99.25
494.05	111.25
494.268	98.25
494.485	98.25
494.703	120.25
494.92	106.25
495.138	107.25
495.355	106.25
495.573	105.25
495.79	102.25
496.008	110.25
496.225	104.25
496.442	106.25
496.66	112.25
496.877	107.25
497.094	98.25
497.312	97.25
497.529	93.25
497.746	122.25
497.963	102.25
498.181	91.25
498.398	86.25
498.615	85.25
498.832	86.25
499.049	96.25
499.267	95.25
499.484	105.25
499.701	91.25
499.918	111.25
500.135	95.25
500.352	80.25
500.569	84.25
500.786	94.25
501.003	100.25
501.22	100.25
501.437	95.25
501.654	76.25
501.871	102.25
502.088	94.25
502.305	113.25
502.522	90.25
502.739	95.25
502.956	94.25
503.172	87.25
503.389	82.25
503.606	90.25
503.823	98.25
504.04	100.25
504.256	95.25
504.473	92.25
504.69	102.25
504.907	88.25
505.123	91.25
505.34	80.25
505.557	106.25
505.773	85.25
505.99	75.25
506.207	95.25
506.423	94.25
506.64	97.25
506.856	97.25
507.073	88.25
507.289	98.25
507.506	101.25
507.722	88.25
507.939	86.25
508.155	103.25
508.372	92.25
508.588	96.25
508.805	99.25
509.021	84.25
509.238	97.25
509.454	93.25
509.67	86.25
509.887	84.25
510.103	95.25
510.319	92.25
510.536	81.25
510.752	89.25
510.968	85.25
511.184	79.25
511.401	80.25
511.617	83.25
511.833	80.25
512.049	84.25
512.265	88.25
512.481	89.25
512.698	78.25
512.914	86.25
513.13	97.25
513.346	71.25
513.562	93.25
513.778	77.25
513.994	82.25
514.21	90.25
514.426	82.25
514.642	79.25
514.858	92.25
515.074	83.25
515.29	82.25
515.506	95.25
515.721	78.25
515.937	98.25
516.153	86.25
516.369	71.25
516.585	83.25
516.801	88.25
517.016	85.25
517.232	83.25
517.448	83.25
517.664	78.25
