Data from Location5.07152019.Energy5.Lamp.07192019.3%Agarose_HRD10591_16-03-01-628.txt Node
Date: Fri Jul 19 16:03:01 EDT 2019
User: cochatt
Spectrometer: HR+D1059
Trigger mode: 1
Integration Time (sec): 1.000000E-1
Scans to average: 1
Electric dark correction enabled: true
Nonlinearity correction enabled: false
Boxcar width: 0
XAxis mode: Wavelengths
Number of Pixels in Spectrum: 2048
>>>>>Begin Spectral Data<<<<<
223.165	-11.44
223.4	-11.44
223.635	-11.44
223.869	-11.44
224.104	-22.44
224.338	-22.44
224.573	-21.44
224.808	-10.44
225.042	-11.44
225.277	5.56
225.511	-3.44
225.746	0.56
225.98	11.56
226.215	18.56
226.449	13.56
226.683	15.56
226.918	25.56
227.152	23.56
227.387	25.56
227.621	39.56
227.856	43.56
228.09	43.56
228.324	66.56
228.559	37.56
228.793	64.56
229.027	50.56
229.262	59.56
229.496	64.56
229.73	78.56
229.964	72.56
230.199	65.56
230.433	81.56
230.667	84.56
230.901	85.56
231.136	83.56
231.37	65.56
231.604	90.56
231.838	96.56
232.072	85.56
232.306	85.56
232.541	84.56
232.775	81.56
233.009	80.56
233.243	73.56
233.477	92.56
233.711	86.56
233.945	86.56
234.179	91.56
234.413	91.56
234.647	76.56
234.881	88.56
235.115	84.56
235.349	89.56
235.583	83.56
235.817	76.56
236.051	76.56
236.285	82.56
236.519	71.56
236.753	81.56
236.987	74.56
237.221	77.56
237.455	81.56
237.689	74.56
237.922	73.56
238.156	72.56
238.39	69.56
238.624	78.56
238.858	65.56
239.091	81.56
239.325	84.56
239.559	78.56
239.793	85.56
240.027	85.56
240.26	66.56
240.494	91.56
240.728	84.56
240.961	67.56
241.195	80.56
241.429	79.56
241.662	86.56
241.896	79.56
242.13	70.56
242.363	93.56
242.597	69.56
242.83	86.56
243.064	72.56
243.298	69.56
243.531	52.56
243.765	72.56
243.998	84.56
244.232	69.56
244.465	82.56
244.699	75.56
244.932	81.56
245.166	82.56
245.399	64.56
245.633	81.56
245.866	84.56
246.099	79.56
246.333	74.56
246.566	80.56
246.8	75.56
247.033	76.56
247.266	86.56
247.5	73.56
247.733	74.56
247.966	65.56
248.2	81.56
248.433	85.56
248.666	74.56
248.899	96.56
249.133	84.56
249.366	94.56
249.599	83.56
249.832	73.56
250.066	95.56
250.299	91.56
250.532	83.56
250.765	87.56
250.998	79.56
251.231	81.56
251.465	79.56
251.698	81.56
251.931	82.56
252.164	90.56
252.397	77.56
252.63	88.56
252.863	84.56
253.096	87.56
253.329	76.56
253.562	78.56
253.795	106.56
254.028	81.56
254.261	82.56
254.494	82.56
254.727	76.56
254.96	82.56
255.193	89.56
255.426	84.56
255.659	84.56
255.892	85.56
256.124	96.56
256.357	97.56
256.59	85.56
256.823	93.56
257.056	91.56
257.289	88.56
257.521	92.56
257.754	80.56
257.987	98.56
258.22	94.56
258.452	73.56
258.685	88.56
258.918	81.56
259.151	73.56
259.383	81.56
259.616	94.56
259.849	74.56
260.081	78.56
260.314	89.56
260.547	81.56
260.779	103.56
261.012	85.56
261.244	85.56
261.477	82.56
261.71	80.56
261.942	85.56
262.175	93.56
262.407	93.56
262.64	94.56
262.872	87.56
263.105	91.56
263.337	95.56
263.57	100.56
263.802	88.56
264.035	90.56
264.267	79.56
264.499	99.56
264.732	83.56
264.964	78.56
265.197	82.56
265.429	83.56
265.661	92.56
265.894	90.56
266.126	96.56
266.358	87.56
266.591	98.56
266.823	84.56
267.055	94.56
267.287	78.56
267.52	93.56
267.752	98.56
267.984	94.56
268.216	94.56
268.448	91.56
268.681	87.56
268.913	107.56
269.145	91.56
269.377	98.56
269.609	89.56
269.841	83.56
270.073	92.56
270.306	84.56
270.538	96.56
270.77	87.56
271.002	94.56
271.234	82.56
271.466	75.56
271.698	91.56
271.93	98.56
272.162	90.56
272.394	98.56
272.626	70.56
272.858	82.56
273.09	86.56
273.322	101.56
273.553	86.56
273.785	81.56
274.017	78.56
274.249	97.56
274.481	101.56
274.713	91.56
274.945	92.56
275.176	88.56
275.408	90.56
275.64	87.56
275.872	89.56
276.104	97.56
276.335	83.56
276.567	85.56
276.799	95.56
277.031	83.56
277.262	76.56
277.494	78.56
277.726	90.56
277.957	96.56
278.189	96.56
278.421	100.56
278.652	100.56
278.884	84.56
279.115	89.56
279.347	83.56
279.579	92.56
279.81	97.56
280.042	91.56
280.273	100.56
280.505	97.56
280.736	87.56
280.968	87.56
281.199	92.56
281.431	86.56
281.662	81.56
281.894	102.56
282.125	73.56
282.356	94.56
282.588	96.56
282.819	92.56
283.051	90.56
283.282	82.56
283.513	97.56
283.745	77.56
283.976	96.56
284.207	89.56
284.439	86.56
284.67	88.56
284.901	79.56
285.132	94.56
285.364	103.56
285.595	96.56
285.826	85.56
286.057	91.56
286.288	100.56
286.52	92.56
286.751	82.56
286.982	87.56
287.213	93.56
287.444	94.56
287.675	82.56
287.906	103.56
288.138	92.56
288.369	103.56
288.6	93.56
288.831	88.56
289.062	93.56
289.293	93.56
289.524	92.56
289.755	89.56
289.986	93.56
290.217	105.56
290.448	82.56
290.679	91.56
290.91	89.56
291.141	90.56
291.371	82.56
291.602	93.56
291.833	98.56
292.064	93.56
292.295	97.56
292.526	89.56
292.757	81.56
292.987	86.56
293.218	98.56
293.449	91.56
293.68	87.56
293.91	88.56
294.141	95.56
294.372	96.56
294.603	101.56
294.833	92.56
295.064	92.56
295.295	96.56
295.525	86.56
295.756	85.56
295.987	80.56
296.217	97.56
296.448	96.56
296.679	91.56
296.909	86.56
297.14	98.56
297.37	93.56
297.601	75.56
297.831	74.56
298.062	78.56
298.292	86.56
298.523	93.56
298.753	92.56
298.984	99.56
299.214	94.56
299.445	82.56
299.675	92.56
299.905	98.56
300.136	94.56
300.366	92.56
300.597	93.56
300.827	105.56
301.057	91.56
301.288	98.56
301.518	98.56
301.748	101.56
301.979	96.56
302.209	88.56
302.439	104.56
302.669	89.56
302.9	84.56
303.13	97.56
303.36	101.56
303.59	79.56
303.82	95.56
304.051	104.56
304.281	103.56
304.511	88.56
304.741	81.56
304.971	89.56
305.201	85.56
305.431	95.56
305.661	119.56
305.891	92.56
306.121	99.56
306.352	95.56
306.582	91.56
306.812	83.56
307.042	98.56
307.272	94.56
307.502	92.56
307.731	97.56
307.961	96.56
308.191	95.56
308.421	99.56
308.651	80.56
308.881	97.56
309.111	94.56
309.341	90.56
309.571	96.56
309.8	92.56
310.03	99.56
310.26	78.56
310.49	80.56
310.72	87.56
310.949	91.56
311.179	96.56
311.409	99.56
311.639	100.56
311.868	84.56
312.098	95.56
312.328	108.56
312.557	99.56
312.787	96.56
313.017	96.56
313.246	87.56
313.476	99.56
313.706	109.56
313.935	81.56
314.165	90.56
314.394	93.56
314.624	94.56
314.853	95.56
315.083	97.56
315.312	81.56
315.542	89.56
315.771	88.56
316.001	108.56
316.23	105.56
316.46	90.56
316.689	94.56
316.919	94.56
317.148	98.56
317.377	100.56
317.607	98.56
317.836	83.56
318.065	80.56
318.295	108.56
318.524	84.56
318.753	90.56
318.983	91.56
319.212	103.56
319.441	97.56
319.67	96.56
319.9	83.56
320.129	92.56
320.358	95.56
320.587	94.56
320.816	98.56
321.046	97.56
321.275	97.56
321.504	98.56
321.733	104.56
321.962	100.56
322.191	81.56
322.42	85.56
322.649	89.56
322.878	104.56
323.108	103.56
323.337	96.56
323.566	92.56
323.795	99.56
324.024	91.56
324.253	102.56
324.482	93.56
324.71	93.56
324.939	105.56
325.168	101.56
325.397	95.56
325.626	107.56
325.855	106.56
326.084	102.56
326.313	90.56
326.542	112.56
326.77	100.56
326.999	86.56
327.228	116.56
327.457	103.56
327.686	86.56
327.914	112.56
328.143	98.56
328.372	112.56
328.6	104.56
328.829	86.56
329.058	107.56
329.287	93.56
329.515	103.56
329.744	83.56
329.972	86.56
330.201	96.56
330.43	78.56
330.658	97.56
330.887	85.56
331.115	83.56
331.344	99.56
331.572	108.56
331.801	104.56
332.03	93.56
332.258	91.56
332.486	95.56
332.715	90.56
332.943	106.56
333.172	101.56
333.4	89.56
333.629	105.56
333.857	96.56
334.085	93.56
334.314	93.56
334.542	95.56
334.771	100.56
334.999	101.56
335.227	96.56
335.455	92.56
335.684	106.56
335.912	91.56
336.14	92.56
336.369	79.56
336.597	100.56
336.825	97.56
337.053	99.56
337.281	115.56
337.51	94.56
337.738	106.56
337.966	86.56
338.194	88.56
338.422	105.56
338.65	106.56
338.878	86.56
339.106	96.56
339.334	94.56
339.562	106.56
339.79	92.56
340.018	99.56
340.246	92.56
340.474	95.56
340.702	94.56
340.93	86.56
341.158	99.56
341.386	99.56
341.614	109.56
341.842	94.56
342.07	100.56
342.298	99.56
342.526	100.56
342.754	92.56
342.981	102.56
343.209	100.56
343.437	93.56
343.665	89.56
343.893	94.56
344.12	90.56
344.348	91.56
344.576	98.56
344.804	94.56
345.031	84.56
345.259	94.56
345.487	85.56
345.714	103.56
345.942	96.56
346.17	90.56
346.397	95.56
346.625	93.56
346.853	91.56
347.08	94.56
347.308	99.56
347.535	84.56
347.763	100.56
347.99	90.56
348.218	93.56
348.445	85.56
348.673	103.56
348.9	92.56
349.128	110.56
349.355	112.56
349.583	90.56
349.81	90.56
350.037	97.56
350.265	110.56
350.492	93.56
350.72	87.56
350.947	86.56
351.174	92.56
351.402	83.56
351.629	90.56
351.856	99.56
352.083	99.56
352.311	93.56
352.538	98.56
352.765	107.56
352.992	89.56
353.22	104.56
353.447	107.56
353.674	88.56
353.901	84.56
354.128	83.56
354.355	97.56
354.583	84.56
354.81	94.56
355.037	88.56
355.264	99.56
355.491	100.56
355.718	100.56
355.945	97.56
356.172	99.56
356.399	81.56
356.626	85.56
356.853	98.56
357.08	96.56
357.307	86.56
357.534	102.56
357.761	98.56
357.988	106.56
358.215	100.56
358.441	90.56
358.668	95.56
358.895	99.56
359.122	85.56
359.349	105.56
359.576	89.56
359.802	100.56
360.029	106.56
360.256	83.56
360.483	101.56
360.709	98.56
360.936	97.56
361.163	86.56
361.39	96.56
361.616	101.56
361.843	101.56
362.07	91.56
362.296	91.56
362.523	86.56
362.749	94.56
362.976	92.56
363.203	95.56
363.429	97.56
363.656	89.56
363.882	84.56
364.109	94.56
364.335	88.56
364.562	101.56
364.788	108.56
365.015	101.56
365.241	91.56
365.468	87.56
365.694	87.56
365.92	90.56
366.147	86.56
366.373	101.56
366.599	88.56
366.826	93.56
367.052	96.56
367.278	100.56
367.505	92.56
367.731	93.56
367.957	103.56
368.184	97.56
368.41	104.56
368.636	93.56
368.862	82.56
369.089	97.56
369.315	88.56
369.541	88.56
369.767	86.56
369.993	95.56
370.219	90.56
370.445	91.56
370.672	104.56
370.898	84.56
371.124	114.56
371.35	90.56
371.576	97.56
371.802	100.56
372.028	102.56
372.254	88.56
372.48	93.56
372.706	87.56
372.932	93.56
373.158	106.56
373.384	106.56
373.61	84.56
373.835	91.56
374.061	97.56
374.287	92.56
374.513	92.56
374.739	104.56
374.965	100.56
375.191	88.56
375.416	92.56
375.642	83.56
375.868	83.56
376.094	82.56
376.319	101.56
376.545	98.56
376.771	94.56
376.997	98.56
377.222	102.56
377.448	95.56
377.674	112.56
377.899	104.56
378.125	92.56
378.35	104.56
378.576	104.56
378.802	99.56
379.027	97.56
379.253	85.56
379.478	95.56
379.704	96.56
379.929	104.56
380.155	99.56
380.38	85.56
380.606	92.56
380.831	91.56
381.057	104.56
381.282	98.56
381.507	106.56
381.733	94.56
381.958	86.56
382.184	87.56
382.409	86.56
382.634	107.56
382.86	100.56
383.085	106.56
383.31	106.56
383.535	96.56
383.761	96.56
383.986	96.56
384.211	84.56
384.436	98.56
384.662	101.56
384.887	106.56
385.112	103.56
385.337	88.56
385.562	92.56
385.787	94.56
386.013	102.56
386.238	103.56
386.463	93.56
386.688	109.56
386.913	108.56
387.138	92.56
387.363	84.56
387.588	90.56
387.813	89.56
388.038	98.56
388.263	101.56
388.488	106.56
388.713	102.56
388.938	103.56
389.163	104.56
389.387	80.56
389.612	94.56
389.837	106.56
390.062	84.56
390.287	97.56
390.512	114.56
390.736	92.56
390.961	100.56
391.186	90.56
391.411	115.56
391.636	96.56
391.86	101.56
392.085	99.56
392.31	91.56
392.534	97.56
392.759	101.56
392.984	90.56
393.208	99.56
393.433	102.56
393.658	93.56
393.882	97.56
394.107	93.56
394.331	91.56
394.556	94.56
394.78	95.56
395.005	96.56
395.229	90.56
395.454	118.56
395.678	100.56
395.903	100.56
396.127	104.56
396.352	93.56
396.576	118.56
396.801	97.56
397.025	94.56
397.249	92.56
397.474	98.56
397.698	106.56
397.922	89.56
398.147	112.56
398.371	99.56
398.595	104.56
398.82	105.56
399.044	84.56
399.268	107.56
399.492	106.56
399.717	108.56
399.941	116.56
400.165	110.56
400.389	108.56
400.613	100.56
400.837	109.56
401.062	97.56
401.286	101.56
401.51	100.56
401.734	78.56
401.958	99.56
402.182	114.56
402.406	92.56
402.63	95.56
402.854	103.56
403.078	102.56
403.302	101.56
403.526	99.56
403.75	106.56
403.974	88.56
404.198	98.56
404.422	93.56
404.645	105.56
404.869	119.56
405.093	105.56
405.317	95.56
405.541	85.56
405.765	100.56
405.988	96.56
406.212	111.56
406.436	88.56
406.66	90.56
406.883	114.56
407.107	112.56
407.331	111.56
407.555	97.56
407.778	102.56
408.002	106.56
408.226	93.56
408.449	103.56
408.673	98.56
408.896	100.56
409.12	95.56
409.344	89.56
409.567	98.56
409.791	100.56
410.014	102.56
410.238	103.56
410.461	100.56
410.685	98.56
410.908	98.56
411.132	104.56
411.355	110.56
411.578	119.56
411.802	103.56
412.025	100.56
412.249	96.56
412.472	100.56
412.695	119.56
412.919	105.56
413.142	109.56
413.365	89.56
413.589	109.56
413.812	107.56
414.035	98.56
414.258	97.56
414.482	102.56
414.705	94.56
414.928	113.56
415.151	100.56
415.374	98.56
415.597	111.56
415.821	100.56
416.044	96.56
416.267	101.56
416.49	100.56
416.713	95.56
416.936	97.56
417.159	95.56
417.382	82.56
417.605	105.56
417.828	99.56
418.051	105.56
418.274	99.56
418.497	112.56
418.72	105.56
418.943	93.56
419.166	110.56
419.389	100.56
419.611	114.56
419.834	104.56
420.057	104.56
420.28	106.56
420.503	103.56
420.726	102.56
420.948	95.56
421.171	104.56
421.394	105.56
421.617	113.56
421.839	99.56
422.062	91.56
422.285	86.56
422.507	101.56
422.73	107.56
422.953	92.56
423.175	90.56
423.398	100.56
423.621	94.56
423.843	115.56
424.066	104.56
424.288	107.56
424.511	96.56
424.733	92.56
424.956	102.56
425.178	97.56
425.401	92.56
425.623	114.56
425.846	103.56
426.068	97.56
426.291	106.56
426.513	89.56
426.735	97.56
426.958	92.56
427.18	99.56
427.402	107.56
427.625	92.56
427.847	105.56
428.069	93.56
428.292	95.56
428.514	81.56
428.736	110.56
428.958	86.56
429.181	89.56
429.403	93.56
429.625	101.56
429.847	113.56
430.069	92.56
430.292	122.56
430.514	97.56
430.736	102.56
430.958	106.56
431.18	113.56
431.402	104.56
431.624	98.56
431.846	106.56
432.068	88.56
432.29	90.56
432.512	82.56
432.734	97.56
432.956	104.56
433.178	100.56
433.4	96.56
433.622	96.56
433.844	107.56
434.066	89.56
434.287	101.56
434.509	107.56
434.731	90.56
434.953	88.56
435.175	102.56
435.397	100.56
435.618	94.56
435.84	104.56
436.062	101.56
436.284	101.56
436.505	99.56
436.727	100.56
436.949	85.56
437.17	104.56
437.392	101.56
437.614	96.56
437.835	82.56
438.057	83.56
438.278	90.56
438.5	96.56
438.721	76.56
438.943	93.56
439.165	100.56
439.386	108.56
439.608	101.56
439.829	109.56
440.05	109.56
440.272	105.56
440.493	101.56
440.715	101.56
440.936	96.56
441.158	100.56
441.379	97.56
441.6	102.56
441.822	117.56
442.043	106.56
442.264	104.56
442.486	106.56
442.707	100.56
442.928	87.56
443.149	103.56
443.371	101.56
443.592	109.56
443.813	97.56
444.034	112.56
444.255	98.56
444.476	106.56
444.698	92.56
444.919	98.56
445.14	249.56
445.361	161.56
445.582	104.56
445.803	108.56
446.024	93.56
446.245	97.56
446.466	100.56
446.687	95.56
446.908	92.56
447.129	92.56
447.35	94.56
447.571	105.56
447.792	104.56
448.013	98.56
448.234	99.56
448.455	108.56
448.675	104.56
448.896	103.56
449.117	92.56
449.338	106.56
449.559	99.56
449.779	89.56
450	88.56
450.221	93.56
450.442	107.56
450.662	91.56
450.883	109.56
451.104	106.56
451.324	95.56
451.545	89.56
451.766	99.56
451.986	98.56
452.207	96.56
452.428	98.56
452.648	98.56
452.869	100.56
453.089	95.56
453.31	97.56
453.53	97.56
453.751	67.56
453.971	98.56
454.192	81.56
454.412	93.56
454.633	102.56
454.853	96.56
455.073	88.56
455.294	86.56
455.514	96.56
455.734	92.56
455.955	96.56
456.175	82.56
456.395	83.56
456.616	92.56
456.836	112.56
457.056	102.56
457.276	89.56
457.497	90.56
457.717	93.56
457.937	88.56
458.157	117.56
458.377	103.56
458.598	99.56
458.818	87.56
459.038	94.56
459.258	112.56
459.478	100.56
459.698	107.56
459.918	116.56
460.138	95.56
460.358	89.56
460.578	104.56
460.798	109.56
461.018	97.56
461.238	98.56
461.458	101.56
461.678	88.56
461.898	118.56
462.118	96.56
462.338	97.56
462.558	115.56
462.777	116.56
462.997	105.56
463.217	105.56
463.437	115.56
463.657	108.56
463.876	104.56
464.096	104.56
464.316	96.56
464.536	92.56
464.755	107.56
464.975	97.56
465.195	117.56
465.414	87.56
465.634	101.56
465.854	100.56
466.073	105.56
466.293	101.56
466.512	87.56
466.732	105.56
466.951	106.56
467.171	101.56
467.391	104.56
467.61	106.56
467.829	103.56
468.049	102.56
468.268	96.56
468.488	99.56
468.707	85.56
468.927	99.56
469.146	104.56
469.365	106.56
469.585	108.56
469.804	115.56
470.023	98.56
470.243	93.56
470.462	114.56
470.681	105.56
470.901	100.56
471.12	101.56
471.339	95.56
471.558	99.56
471.777	109.56
471.997	104.56
472.216	92.56
472.435	96.56
472.654	90.56
472.873	104.56
473.092	99.56
473.311	97.56
473.53	82.56
473.749	107.56
473.968	101.56
474.187	119.56
474.406	94.56
474.625	99.56
474.844	103.56
475.063	109.56
475.282	107.56
475.501	101.56
475.72	97.56
475.939	106.56
476.158	108.56
476.377	102.56
476.596	80.56
476.814	96.56
477.033	97.56
477.252	104.56
477.471	102.56
477.69	105.56
477.908	130.56
478.127	114.56
478.346	108.56
478.564	128.56
478.783	113.56
479.002	104.56
479.22	106.56
479.439	100.56
479.658	112.56
479.876	101.56
480.095	97.56
480.313	97.56
480.532	104.56
480.751	102.56
480.969	104.56
481.188	100.56
481.406	94.56
481.624	89.56
481.843	97.56
482.061	108.56
482.28	93.56
482.498	94.56
482.717	99.56
482.935	106.56
483.153	107.56
483.372	120.56
483.59	117.56
483.808	109.56
484.027	108.56
484.245	113.56
484.463	109.56
484.681	114.56
484.9	107.56
485.118	102.56
485.336	98.56
485.554	108.56
485.772	107.56
485.99	100.56
486.209	112.56
486.427	100.56
486.645	93.56
486.863	114.56
487.081	117.56
487.299	106.56
487.517	98.56
487.735	104.56
487.953	115.56
488.171	108.56
488.389	114.56
488.607	115.56
488.825	105.56
489.043	97.56
489.261	123.56
489.479	124.56
489.696	106.56
489.914	122.56
490.132	102.56
490.35	97.56
490.568	109.56
490.786	100.56
491.003	108.56
491.221	109.56
491.439	104.56
491.657	129.56
491.874	130.56
492.092	116.56
492.31	128.56
492.527	120.56
492.745	123.56
492.963	132.56
493.18	120.56
493.398	110.56
493.615	117.56
493.833	108.56
494.05	116.56
494.268	124.56
494.485	125.56
494.703	114.56
494.92	108.56
495.138	133.56
495.355	109.56
495.573	117.56
495.79	116.56
496.008	105.56
496.225	105.56
496.442	124.56
496.66	118.56
496.877	117.56
497.094	116.56
497.312	117.56
497.529	115.56
497.746	119.56
497.963	118.56
498.181	105.56
498.398	112.56
498.615	120.56
498.832	130.56
499.049	124.56
499.267	138.56
499.484	126.56
499.701	124.56
499.918	148.56
500.135	155.56
500.352	172.56
500.569	176.56
500.786	164.56
501.003	162.56
501.22	138.56
501.437	133.56
501.654	134.56
501.871	142.56
502.088	127.56
502.305	131.56
502.522	123.56
502.739	121.56
502.956	121.56
503.172	107.56
503.389	116.56
503.606	114.56
503.823	122.56
504.04	118.56
504.256	133.56
504.473	109.56
504.69	122.56
504.907	119.56
505.123	113.56
505.34	90.56
505.557	104.56
505.773	118.56
505.99	115.56
506.207	104.56
506.423	120.56
506.64	107.56
506.856	107.56
507.073	101.56
507.289	107.56
507.506	99.56
507.722	102.56
507.939	100.56
508.155	104.56
508.372	99.56
508.588	107.56
508.805	110.56
509.021	104.56
509.238	104.56
509.454	111.56
509.67	98.56
509.887	99.56
510.103	112.56
510.319	96.56
510.536	94.56
510.752	101.56
510.968	114.56
511.184	100.56
511.401	103.56
511.617	91.56
511.833	104.56
512.049	101.56
512.265	98.56
512.481	97.56
512.698	113.56
