Data from Location5.07152019.Energy5.Lamp.07192019.3%Agarose_HRD10591_16-04-12-629.txt Node
Date: Fri Jul 19 16:04:12 EDT 2019
User: cochatt
Spectrometer: HR+D1059
Trigger mode: 1
Integration Time (sec): 1.000000E-1
Scans to average: 1
Electric dark correction enabled: true
Nonlinearity correction enabled: false
Boxcar width: 0
XAxis mode: Wavelengths
Number of Pixels in Spectrum: 2048
>>>>>Begin Spectral Data<<<<<
223.165	-10.75
223.4	-10.75
223.635	-10.75
223.869	-18.75
224.104	-21.75
224.338	-29.75
224.573	-4.75
224.808	-13.75
225.042	6.25
225.277	-18.75
225.511	-3.75
225.746	8.25
225.98	5.25
226.215	21.25
226.449	22.25
226.683	-0.75
226.918	26.25
227.152	33.25
227.387	36.25
227.621	42.25
227.856	33.25
228.09	38.25
228.324	34.25
228.559	57.25
228.793	57.25
229.027	67.25
229.262	60.25
229.496	56.25
229.73	66.25
229.964	58.25
230.199	73.25
230.433	69.25
230.667	68.25
230.901	71.25
231.136	77.25
231.37	85.25
231.604	79.25
231.838	70.25
232.072	76.25
232.306	74.25
232.541	89.25
232.775	76.25
233.009	67.25
233.243	72.25
233.477	85.25
233.711	79.25
233.945	68.25
234.179	82.25
234.413	79.25
234.647	83.25
234.881	82.25
235.115	66.25
235.349	81.25
235.583	78.25
235.817	79.25
236.051	73.25
236.285	74.25
236.519	73.25
236.753	73.25
236.987	69.25
237.221	70.25
237.455	65.25
237.689	82.25
237.922	74.25
238.156	81.25
238.39	76.25
238.624	77.25
238.858	72.25
239.091	75.25
239.325	80.25
239.559	63.25
239.793	73.25
240.027	65.25
240.26	69.25
240.494	65.25
240.728	74.25
240.961	72.25
241.195	78.25
241.429	90.25
241.662	72.25
241.896	66.25
242.13	77.25
242.363	66.25
242.597	85.25
242.83	79.25
243.064	70.25
243.298	80.25
243.531	71.25
243.765	70.25
243.998	82.25
244.232	83.25
244.465	69.25
244.699	70.25
244.932	72.25
245.166	67.25
245.399	75.25
245.633	85.25
245.866	87.25
246.099	89.25
246.333	72.25
246.566	88.25
246.8	88.25
247.033	83.25
247.266	66.25
247.5	70.25
247.733	73.25
247.966	81.25
248.2	72.25
248.433	79.25
248.666	73.25
248.899	94.25
249.133	72.25
249.366	80.25
249.599	74.25
249.832	64.25
250.066	82.25
250.299	67.25
250.532	66.25
250.765	82.25
250.998	86.25
251.231	74.25
251.465	91.25
251.698	79.25
251.931	87.25
252.164	71.25
252.397	80.25
252.63	74.25
252.863	82.25
253.096	84.25
253.329	82.25
253.562	91.25
253.795	75.25
254.028	88.25
254.261	78.25
254.494	82.25
254.727	88.25
254.96	83.25
255.193	95.25
255.426	80.25
255.659	67.25
255.892	96.25
256.124	96.25
256.357	68.25
256.59	66.25
256.823	90.25
257.056	64.25
257.289	74.25
257.521	82.25
257.754	88.25
257.987	92.25
258.22	83.25
258.452	79.25
258.685	94.25
258.918	71.25
259.151	70.25
259.383	81.25
259.616	81.25
259.849	81.25
260.081	87.25
260.314	74.25
260.547	90.25
260.779	80.25
261.012	92.25
261.244	75.25
261.477	87.25
261.71	82.25
261.942	86.25
262.175	83.25
262.407	88.25
262.64	84.25
262.872	82.25
263.105	77.25
263.337	77.25
263.57	80.25
263.802	78.25
264.035	70.25
264.267	87.25
264.499	88.25
264.732	78.25
264.964	77.25
265.197	73.25
265.429	76.25
265.661	90.25
265.894	89.25
266.126	77.25
266.358	90.25
266.591	94.25
266.823	89.25
267.055	73.25
267.287	69.25
267.52	81.25
267.752	89.25
267.984	87.25
268.216	74.25
268.448	73.25
268.681	88.25
268.913	93.25
269.145	82.25
269.377	83.25
269.609	85.25
269.841	85.25
270.073	89.25
270.306	93.25
270.538	79.25
270.77	77.25
271.002	65.25
271.234	68.25
271.466	89.25
271.698	90.25
271.93	83.25
272.162	86.25
272.394	81.25
272.626	84.25
272.858	99.25
273.09	82.25
273.322	78.25
273.553	77.25
273.785	93.25
274.017	83.25
274.249	90.25
274.481	85.25
274.713	74.25
274.945	67.25
275.176	72.25
275.408	88.25
275.64	84.25
275.872	82.25
276.104	103.25
276.335	80.25
276.567	101.25
276.799	66.25
277.031	90.25
277.262	88.25
277.494	82.25
277.726	80.25
277.957	86.25
278.189	84.25
278.421	92.25
278.652	81.25
278.884	77.25
279.115	82.25
279.347	84.25
279.579	90.25
279.81	87.25
280.042	79.25
280.273	103.25
280.505	83.25
280.736	76.25
280.968	85.25
281.199	85.25
281.431	77.25
281.662	95.25
281.894	95.25
282.125	81.25
282.356	91.25
282.588	65.25
282.819	90.25
283.051	72.25
283.282	76.25
283.513	90.25
283.745	86.25
283.976	93.25
284.207	88.25
284.439	90.25
284.67	86.25
284.901	86.25
285.132	93.25
285.364	85.25
285.595	95.25
285.826	86.25
286.057	92.25
286.288	88.25
286.52	91.25
286.751	92.25
286.982	90.25
287.213	92.25
287.444	94.25
287.675	95.25
287.906	94.25
288.138	86.25
288.369	79.25
288.6	92.25
288.831	90.25
289.062	91.25
289.293	87.25
289.524	87.25
289.755	103.25
289.986	80.25
290.217	88.25
290.448	95.25
290.679	79.25
290.91	80.25
291.141	83.25
291.371	99.25
291.602	89.25
291.833	70.25
292.064	73.25
292.295	88.25
292.526	84.25
292.757	98.25
292.987	78.25
293.218	92.25
293.449	96.25
293.68	80.25
293.91	94.25
294.141	88.25
294.372	90.25
294.603	90.25
294.833	98.25
295.064	94.25
295.295	83.25
295.525	97.25
295.756	95.25
295.987	91.25
296.217	108.25
296.448	114.25
296.679	89.25
296.909	102.25
297.14	94.25
297.37	92.25
297.601	88.25
297.831	94.25
298.062	93.25
298.292	83.25
298.523	87.25
298.753	88.25
298.984	88.25
299.214	85.25
299.445	85.25
299.675	86.25
299.905	72.25
300.136	81.25
300.366	73.25
300.597	104.25
300.827	87.25
301.057	95.25
301.288	86.25
301.518	92.25
301.748	85.25
301.979	78.25
302.209	85.25
302.439	86.25
302.669	95.25
302.9	85.25
303.13	92.25
303.36	78.25
303.59	81.25
303.82	87.25
304.051	83.25
304.281	92.25
304.511	83.25
304.741	94.25
304.971	95.25
305.201	78.25
305.431	81.25
305.661	89.25
305.891	89.25
306.121	87.25
306.352	96.25
306.582	83.25
306.812	87.25
307.042	82.25
307.272	88.25
307.502	80.25
307.731	84.25
307.961	85.25
308.191	83.25
308.421	94.25
308.651	97.25
308.881	89.25
309.111	85.25
309.341	88.25
309.571	82.25
309.8	76.25
310.03	97.25
310.26	85.25
310.49	88.25
310.72	100.25
310.949	74.25
311.179	88.25
311.409	80.25
311.639	86.25
311.868	93.25
312.098	94.25
312.328	95.25
312.557	101.25
312.787	87.25
313.017	83.25
313.246	82.25
313.476	95.25
313.706	99.25
313.935	90.25
314.165	85.25
314.394	86.25
314.624	79.25
314.853	88.25
315.083	89.25
315.312	83.25
315.542	77.25
315.771	69.25
316.001	87.25
316.23	82.25
316.46	78.25
316.689	81.25
316.919	86.25
317.148	90.25
317.377	76.25
317.607	82.25
317.836	91.25
318.065	71.25
318.295	92.25
318.524	80.25
318.753	96.25
318.983	84.25
319.212	95.25
319.441	92.25
319.67	86.25
319.9	94.25
320.129	87.25
320.358	86.25
320.587	82.25
320.816	99.25
321.046	88.25
321.275	101.25
321.504	94.25
321.733	93.25
321.962	95.25
322.191	91.25
322.42	93.25
322.649	99.25
322.878	92.25
323.108	86.25
323.337	89.25
323.566	87.25
323.795	91.25
324.024	82.25
324.253	78.25
324.482	92.25
324.71	85.25
324.939	78.25
325.168	94.25
325.397	98.25
325.626	88.25
325.855	82.25
326.084	93.25
326.313	78.25
326.542	92.25
326.77	77.25
326.999	85.25
327.228	99.25
327.457	86.25
327.686	78.25
327.914	86.25
328.143	85.25
328.372	84.25
328.6	100.25
328.829	77.25
329.058	83.25
329.287	89.25
329.515	86.25
329.744	92.25
329.972	82.25
330.201	95.25
330.43	86.25
330.658	84.25
330.887	90.25
331.115	108.25
331.344	88.25
331.572	82.25
331.801	85.25
332.03	88.25
332.258	86.25
332.486	98.25
332.715	93.25
332.943	87.25
333.172	102.25
333.4	105.25
333.629	103.25
333.857	92.25
334.085	81.25
334.314	74.25
334.542	92.25
334.771	80.25
334.999	97.25
335.227	86.25
335.455	94.25
335.684	98.25
335.912	91.25
336.14	80.25
336.369	105.25
336.597	82.25
336.825	90.25
337.053	98.25
337.281	89.25
337.51	87.25
337.738	104.25
337.966	86.25
338.194	89.25
338.422	83.25
338.65	90.25
338.878	86.25
339.106	94.25
339.334	94.25
339.562	93.25
339.79	96.25
340.018	76.25
340.246	89.25
340.474	92.25
340.702	91.25
340.93	89.25
341.158	91.25
341.386	81.25
341.614	94.25
341.842	91.25
342.07	91.25
342.298	72.25
342.526	104.25
342.754	91.25
342.981	103.25
343.209	87.25
343.437	98.25
343.665	102.25
343.893	78.25
344.12	94.25
344.348	93.25
344.576	84.25
344.804	92.25
345.031	90.25
345.259	94.25
345.487	91.25
345.714	102.25
345.942	90.25
346.17	100.25
346.397	69.25
346.625	83.25
346.853	93.25
347.08	86.25
347.308	94.25
347.535	92.25
347.763	84.25
347.99	103.25
348.218	99.25
348.445	84.25
348.673	94.25
348.9	103.25
349.128	97.25
349.355	81.25
349.583	99.25
349.81	86.25
350.037	94.25
350.265	84.25
350.492	94.25
350.72	92.25
350.947	97.25
351.174	89.25
351.402	77.25
351.629	84.25
351.856	106.25
352.083	97.25
352.311	85.25
352.538	81.25
352.765	99.25
352.992	103.25
353.22	102.25
353.447	91.25
353.674	90.25
353.901	96.25
354.128	94.25
354.355	97.25
354.583	93.25
354.81	105.25
355.037	89.25
355.264	85.25
355.491	94.25
355.718	92.25
355.945	92.25
356.172	81.25
356.399	89.25
356.626	99.25
356.853	87.25
357.08	102.25
357.307	82.25
357.534	85.25
357.761	88.25
357.988	84.25
358.215	83.25
358.441	86.25
358.668	81.25
358.895	95.25
359.122	75.25
359.349	92.25
359.576	85.25
359.802	88.25
360.029	84.25
360.256	79.25
360.483	90.25
360.709	93.25
360.936	104.25
361.163	85.25
361.39	89.25
361.616	79.25
361.843	93.25
362.07	91.25
362.296	97.25
362.523	91.25
362.749	75.25
362.976	95.25
363.203	91.25
363.429	85.25
363.656	87.25
363.882	98.25
364.109	99.25
364.335	84.25
364.562	87.25
364.788	88.25
365.015	84.25
365.241	93.25
365.468	84.25
365.694	76.25
365.92	85.25
366.147	81.25
366.373	82.25
366.599	78.25
366.826	84.25
367.052	76.25
367.278	85.25
367.505	73.25
367.731	86.25
367.957	92.25
368.184	96.25
368.41	91.25
368.636	97.25
368.862	85.25
369.089	88.25
369.315	91.25
369.541	99.25
369.767	86.25
369.993	84.25
370.219	93.25
370.445	95.25
370.672	114.25
370.898	95.25
371.124	100.25
371.35	96.25
371.576	90.25
371.802	81.25
372.028	81.25
372.254	99.25
372.48	84.25
372.706	101.25
372.932	87.25
373.158	96.25
373.384	93.25
373.61	82.25
373.835	96.25
374.061	87.25
374.287	102.25
374.513	84.25
374.739	100.25
374.965	87.25
375.191	92.25
375.416	98.25
375.642	104.25
375.868	96.25
376.094	94.25
376.319	97.25
376.545	96.25
376.771	93.25
376.997	89.25
377.222	89.25
377.448	92.25
377.674	85.25
377.899	94.25
378.125	99.25
378.35	84.25
378.576	86.25
378.802	86.25
379.027	66.25
379.253	90.25
379.478	82.25
379.704	80.25
379.929	97.25
380.155	98.25
380.38	87.25
380.606	72.25
380.831	102.25
381.057	79.25
381.282	100.25
381.507	86.25
381.733	98.25
381.958	105.25
382.184	82.25
382.409	93.25
382.634	96.25
382.86	96.25
383.085	89.25
383.31	103.25
383.535	78.25
383.761	96.25
383.986	88.25
384.211	102.25
384.436	90.25
384.662	92.25
384.887	83.25
385.112	88.25
385.337	98.25
385.562	96.25
385.787	85.25
386.013	82.25
386.238	93.25
386.463	95.25
386.688	86.25
386.913	96.25
387.138	86.25
387.363	73.25
387.588	96.25
387.813	104.25
388.038	96.25
388.263	99.25
388.488	88.25
388.713	91.25
388.938	105.25
389.163	83.25
389.387	84.25
389.612	96.25
389.837	98.25
390.062	84.25
390.287	82.25
390.512	83.25
390.736	93.25
390.961	102.25
391.186	103.25
391.411	100.25
391.636	85.25
391.86	92.25
392.085	81.25
392.31	94.25
392.534	102.25
392.759	98.25
392.984	87.25
393.208	89.25
393.433	104.25
393.658	95.25
393.882	96.25
394.107	104.25
394.331	91.25
394.556	84.25
394.78	94.25
395.005	88.25
395.229	91.25
395.454	121.25
395.678	87.25
395.903	99.25
396.127	93.25
396.352	90.25
396.576	92.25
396.801	84.25
397.025	84.25
397.249	95.25
397.474	94.25
397.698	97.25
397.922	85.25
398.147	112.25
398.371	97.25
398.595	112.25
398.82	95.25
399.044	90.25
399.268	98.25
399.492	87.25
399.717	108.25
399.941	108.25
400.165	102.25
400.389	84.25
400.613	86.25
400.837	103.25
401.062	89.25
401.286	102.25
401.51	95.25
401.734	77.25
401.958	99.25
402.182	102.25
402.406	96.25
402.63	105.25
402.854	95.25
403.078	97.25
403.302	113.25
403.526	85.25
403.75	104.25
403.974	96.25
404.198	101.25
404.422	104.25
404.645	96.25
404.869	81.25
405.093	98.25
405.317	83.25
405.541	79.25
405.765	83.25
405.988	100.25
406.212	100.25
406.436	104.25
406.66	102.25
406.883	92.25
407.107	97.25
407.331	94.25
407.555	105.25
407.778	103.25
408.002	101.25
408.226	105.25
408.449	93.25
408.673	102.25
408.896	89.25
409.12	95.25
409.344	104.25
409.567	102.25
409.791	85.25
410.014	97.25
410.238	89.25
410.461	104.25
410.685	81.25
410.908	91.25
411.132	100.25
411.355	80.25
411.578	116.25
411.802	100.25
412.025	86.25
412.249	89.25
412.472	94.25
412.695	102.25
412.919	93.25
413.142	90.25
413.365	97.25
413.589	90.25
413.812	98.25
414.035	88.25
414.258	92.25
414.482	81.25
414.705	93.25
414.928	90.25
415.151	82.25
415.374	93.25
415.597	95.25
415.821	101.25
416.044	76.25
416.267	82.25
416.49	109.25
416.713	84.25
416.936	90.25
417.159	97.25
417.382	107.25
417.605	103.25
417.828	108.25
418.051	95.25
418.274	97.25
418.497	100.25
418.72	96.25
418.943	110.25
419.166	89.25
419.389	100.25
419.611	96.25
419.834	90.25
420.057	101.25
420.28	102.25
420.503	93.25
420.726	109.25
420.948	103.25
421.171	82.25
421.394	92.25
421.617	101.25
421.839	97.25
422.062	91.25
422.285	84.25
422.507	83.25
422.73	100.25
422.953	102.25
423.175	116.25
423.398	100.25
423.621	95.25
423.843	97.25
424.066	94.25
424.288	82.25
424.511	105.25
424.733	109.25
424.956	99.25
425.178	103.25
425.401	89.25
425.623	93.25
425.846	95.25
426.068	80.25
426.291	93.25
426.513	96.25
426.735	88.25
426.958	83.25
427.18	85.25
427.402	88.25
427.625	89.25
427.847	82.25
428.069	93.25
428.292	88.25
428.514	89.25
428.736	79.25
428.958	86.25
429.181	75.25
429.403	96.25
429.625	109.25
429.847	76.25
430.069	90.25
430.292	105.25
430.514	93.25
430.736	92.25
430.958	74.25
431.18	92.25
431.402	100.25
431.624	90.25
431.846	94.25
432.068	89.25
432.29	85.25
432.512	93.25
432.734	101.25
432.956	94.25
433.178	98.25
433.4	85.25
433.622	76.25
433.844	93.25
434.066	82.25
434.287	81.25
434.509	85.25
434.731	90.25
434.953	101.25
435.175	96.25
435.397	89.25
435.618	104.25
435.84	89.25
436.062	77.25
436.284	88.25
436.505	95.25
436.727	86.25
436.949	91.25
437.17	88.25
437.392	91.25
437.614	80.25
437.835	79.25
438.057	98.25
438.278	92.25
438.5	74.25
438.721	83.25
438.943	83.25
439.165	101.25
439.386	102.25
439.608	94.25
439.829	88.25
440.05	86.25
440.272	78.25
440.493	91.25
440.715	99.25
440.936	93.25
441.158	102.25
441.379	86.25
441.6	103.25
441.822	107.25
442.043	90.25
442.264	103.25
442.486	79.25
442.707	82.25
442.928	89.25
443.149	105.25
443.371	95.25
443.592	99.25
443.813	96.25
444.034	87.25
444.255	83.25
444.476	96.25
444.698	106.25
444.919	102.25
445.14	192.25
445.361	137.25
445.582	100.25
445.803	86.25
446.024	108.25
446.245	98.25
446.466	76.25
446.687	94.25
446.908	81.25
447.129	93.25
447.35	98.25
447.571	96.25
447.792	91.25
448.013	95.25
448.234	97.25
448.455	101.25
448.675	92.25
448.896	89.25
449.117	79.25
449.338	80.25
449.559	92.25
449.779	98.25
450	113.25
450.221	96.25
450.442	76.25
450.662	88.25
450.883	100.25
451.104	118.25
451.324	84.25
451.545	90.25
451.766	89.25
451.986	76.25
452.207	89.25
452.428	92.25
452.648	88.25
452.869	93.25
453.089	84.25
453.31	89.25
453.53	93.25
453.751	74.25
453.971	82.25
454.192	93.25
454.412	88.25
454.633	98.25
454.853	91.25
455.073	106.25
455.294	83.25
455.514	95.25
455.734	89.25
455.955	85.25
456.175	85.25
456.395	92.25
456.616	88.25
456.836	83.25
457.056	96.25
457.276	101.25
457.497	87.25
457.717	97.25
457.937	89.25
458.157	79.25
458.377	78.25
458.598	93.25
458.818	90.25
459.038	93.25
459.258	89.25
459.478	115.25
459.698	100.25
459.918	99.25
460.138	89.25
460.358	97.25
460.578	105.25
460.798	102.25
461.018	86.25
461.238	93.25
461.458	101.25
461.678	99.25
461.898	96.25
462.118	89.25
462.338	92.25
462.558	116.25
462.777	83.25
462.997	97.25
463.217	102.25
463.437	103.25
463.657	83.25
463.876	97.25
464.096	95.25
464.316	95.25
464.536	98.25
464.755	111.25
464.975	89.25
465.195	88.25
465.414	94.25
465.634	109.25
465.854	93.25
466.073	81.25
466.293	102.25
466.512	105.25
466.732	101.25
466.951	94.25
467.171	94.25
467.391	93.25
467.61	80.25
467.829	92.25
468.049	98.25
468.268	95.25
468.488	102.25
468.707	87.25
468.927	117.25
469.146	84.25
469.365	90.25
469.585	97.25
469.804	91.25
470.023	96.25
470.243	102.25
470.462	80.25
470.681	85.25
470.901	103.25
471.12	94.25
471.339	98.25
471.558	100.25
471.777	86.25
471.997	103.25
472.216	115.25
472.435	89.25
472.654	110.25
472.873	97.25
473.092	96.25
473.311	100.25
473.53	96.25
473.749	100.25
473.968	97.25
474.187	89.25
474.406	108.25
474.625	104.25
474.844	105.25
475.063	91.25
475.282	98.25
475.501	83.25
475.72	87.25
475.939	118.25
476.158	92.25
476.377	86.25
476.596	95.25
476.814	105.25
477.033	112.25
477.252	102.25
477.471	94.25
477.69	93.25
477.908	94.25
478.127	96.25
478.346	110.25
478.564	96.25
478.783	102.25
479.002	107.25
479.22	108.25
479.439	103.25
479.658	122.25
479.876	82.25
480.095	97.25
480.313	96.25
480.532	101.25
480.751	98.25
480.969	108.25
481.188	91.25
481.406	103.25
481.624	87.25
481.843	102.25
482.061	96.25
482.28	97.25
482.498	101.25
482.717	90.25
482.935	81.25
483.153	97.25
483.372	90.25
483.59	99.25
483.808	99.25
484.027	99.25
484.245	93.25
484.463	98.25
484.681	103.25
484.9	80.25
485.118	99.25
485.336	105.25
485.554	95.25
485.772	106.25
485.99	95.25
486.209	92.25
486.427	98.25
486.645	89.25
486.863	95.25
487.081	94.25
487.299	102.25
487.517	124.25
487.735	105.25
487.953	102.25
488.171	117.25
488.389	112.25
488.607	103.25
488.825	105.25
489.043	109.25
489.261	110.25
489.479	105.25
489.696	99.25
489.914	100.25
490.132	108.25
490.35	108.25
490.568	89.25
490.786	102.25
491.003	116.25
491.221	102.25
491.439	115.25
491.657	112.25
491.874	116.25
492.092	122.25
492.31	120.25
492.527	115.25
492.745	115.25
492.963	100.25
493.18	103.25
493.398	115.25
493.615	100.25
493.833	114.25
494.05	112.25
494.268	107.25
494.485	110.25
494.703	111.25
494.92	117.25
495.138	112.25
495.355	97.25
495.573	99.25
495.79	105.25
496.008	107.25
496.225	117.25
496.442	108.25
496.66	96.25
496.877	94.25
497.094	103.25
497.312	106.25
497.529	115.25
497.746	92.25
497.963	123.25
498.181	101.25
498.398	113.25
498.615	112.25
498.832	104.25
499.049	116.25
499.267	121.25
499.484	128.25
499.701	130.25
499.918	130.25
500.135	129.25
500.352	154.25
500.569	149.25
500.786	145.25
501.003	147.25
501.22	130.25
501.437	120.25
501.654	114.25
501.871	120.25
502.088	133.25
502.305	128.25
502.522	125.25
502.739	122.25
502.956	117.25
503.172	100.25
503.389	116.25
503.606	117.25
503.823	114.25
504.04	114.25
504.256	115.25
504.473	114.25
504.69	112.25
504.907	107.25
505.123	101.25
505.34	90.25
505.557	84.25
505.773	113.25
505.99	92.25
506.207	101.25
506.423	102.25
506.64	117.25
506.856	118.25
507.073	100.25
507.289	93.25
507.506	99.25
507.722	101.25
507.939	93.25
508.155	96.25
508.372	113.25
508.588	116.25
508.805	104.25
509.021	87.25
509.238	107.25
509.454	97.25
509.67	102.25
509.887	75.25
510.103	95.25
510.319	101.25
510.536	86.25
510.752	92.25
510.968	98.25
511.184	98.25
511.401	99.25
511.617	97.25
511.833	101.25
512.049	85.25
512.265	107.25
512.481	92.25
512.698	109.25
512.914	93.25
513.13	98.25
513.346	93.25
513.562	93.25
513.778	96.25
513.994	92.25
514.21	90.25
514.426	96.25
514.642	109.25
514.858	93.25
515.074	105.25
515.29	109.25
515.506	97.25
515.721	95.25
