Data from Location5.07152019.Energy5.Lamp.07192019.3%Agarose_HRD10591_15-38-19-388.txt Node
Date: Fri Jul 19 15:38:19 EDT 2019
User: cochatt
Spectrometer: HR+D1059
Trigger mode: 1
Integration Time (sec): 1.000000E-1
Scans to average: 1
Electric dark correction enabled: true
Nonlinearity correction enabled: false
Boxcar width: 0
XAxis mode: Wavelengths
Number of Pixels in Spectrum: 2048
>>>>>Begin Spectral Data<<<<<
223.165	-10.62
223.4	-10.62
223.635	-10.62
223.869	-10.62
224.104	-17.62
224.338	-14.62
224.573	-30.62
224.808	-17.62
225.042	-11.62
225.277	0.38
225.511	-9.62
225.746	16.38
225.98	22.38
226.215	12.38
226.449	13.38
226.683	19.38
226.918	10.38
227.152	28.38
227.387	39.38
227.621	22.38
227.856	47.38
228.09	50.38
228.324	38.38
228.559	59.38
228.793	52.38
229.027	59.38
229.262	66.38
229.496	64.38
229.73	67.38
229.964	73.38
230.199	65.38
230.433	78.38
230.667	84.38
230.901	71.38
231.136	81.38
231.37	72.38
231.604	78.38
231.838	68.38
232.072	83.38
232.306	86.38
232.541	85.38
232.775	74.38
233.009	75.38
233.243	86.38
233.477	93.38
233.711	79.38
233.945	91.38
234.179	88.38
234.413	81.38
234.647	74.38
234.881	75.38
235.115	69.38
235.349	84.38
235.583	80.38
235.817	74.38
236.051	77.38
236.285	77.38
236.519	72.38
236.753	89.38
236.987	79.38
237.221	76.38
237.455	70.38
237.689	76.38
237.922	72.38
238.156	80.38
238.39	72.38
238.624	73.38
238.858	74.38
239.091	85.38
239.325	68.38
239.559	82.38
239.793	73.38
240.027	68.38
240.26	86.38
240.494	86.38
240.728	88.38
240.961	84.38
241.195	87.38
241.429	89.38
241.662	81.38
241.896	80.38
242.13	92.38
242.363	79.38
242.597	64.38
242.83	72.38
243.064	64.38
243.298	79.38
243.531	83.38
243.765	73.38
243.998	88.38
244.232	83.38
244.465	86.38
244.699	77.38
244.932	71.38
245.166	69.38
245.399	94.38
245.633	85.38
245.866	76.38
246.099	84.38
246.333	87.38
246.566	94.38
246.8	87.38
247.033	73.38
247.266	81.38
247.5	81.38
247.733	73.38
247.966	73.38
248.2	84.38
248.433	73.38
248.666	80.38
248.899	92.38
249.133	83.38
249.366	93.38
249.599	78.38
249.832	83.38
250.066	86.38
250.299	75.38
250.532	82.38
250.765	76.38
250.998	72.38
251.231	76.38
251.465	77.38
251.698	88.38
251.931	81.38
252.164	82.38
252.397	95.38
252.63	76.38
252.863	63.38
253.096	69.38
253.329	77.38
253.562	76.38
253.795	90.38
254.028	82.38
254.261	80.38
254.494	77.38
254.727	76.38
254.96	80.38
255.193	73.38
255.426	78.38
255.659	77.38
255.892	80.38
256.124	75.38
256.357	79.38
256.59	91.38
256.823	80.38
257.056	73.38
257.289	84.38
257.521	76.38
257.754	80.38
257.987	74.38
258.22	81.38
258.452	87.38
258.685	75.38
258.918	86.38
259.151	93.38
259.383	71.38
259.616	75.38
259.849	87.38
260.081	87.38
260.314	81.38
260.547	73.38
260.779	75.38
261.012	71.38
261.244	89.38
261.477	81.38
261.71	76.38
261.942	78.38
262.175	82.38
262.407	87.38
262.64	90.38
262.872	86.38
263.105	76.38
263.337	75.38
263.57	95.38
263.802	84.38
264.035	85.38
264.267	79.38
264.499	71.38
264.732	73.38
264.964	84.38
265.197	98.38
265.429	96.38
265.661	83.38
265.894	88.38
266.126	91.38
266.358	83.38
266.591	84.38
266.823	90.38
267.055	96.38
267.287	79.38
267.52	97.38
267.752	90.38
267.984	82.38
268.216	82.38
268.448	94.38
268.681	84.38
268.913	87.38
269.145	80.38
269.377	77.38
269.609	60.38
269.841	81.38
270.073	84.38
270.306	82.38
270.538	74.38
270.77	92.38
271.002	80.38
271.234	71.38
271.466	76.38
271.698	87.38
271.93	88.38
272.162	76.38
272.394	94.38
272.626	71.38
272.858	79.38
273.09	87.38
273.322	84.38
273.553	92.38
273.785	94.38
274.017	85.38
274.249	71.38
274.481	90.38
274.713	82.38
274.945	83.38
275.176	75.38
275.408	84.38
275.64	75.38
275.872	55.38
276.104	87.38
276.335	85.38
276.567	71.38
276.799	74.38
277.031	82.38
277.262	96.38
277.494	75.38
277.726	70.38
277.957	68.38
278.189	73.38
278.421	75.38
278.652	77.38
278.884	74.38
279.115	78.38
279.347	71.38
279.579	83.38
279.81	91.38
280.042	84.38
280.273	72.38
280.505	90.38
280.736	79.38
280.968	66.38
281.199	72.38
281.431	92.38
281.662	90.38
281.894	83.38
282.125	90.38
282.356	91.38
282.588	79.38
282.819	81.38
283.051	80.38
283.282	70.38
283.513	86.38
283.745	83.38
283.976	80.38
284.207	100.38
284.439	77.38
284.67	83.38
284.901	87.38
285.132	94.38
285.364	92.38
285.595	88.38
285.826	97.38
286.057	87.38
286.288	81.38
286.52	88.38
286.751	88.38
286.982	99.38
287.213	64.38
287.444	79.38
287.675	81.38
287.906	81.38
288.138	100.38
288.369	76.38
288.6	79.38
288.831	89.38
289.062	96.38
289.293	96.38
289.524	86.38
289.755	86.38
289.986	84.38
290.217	90.38
290.448	88.38
290.679	94.38
290.91	80.38
291.141	74.38
291.371	84.38
291.602	96.38
291.833	84.38
292.064	87.38
292.295	75.38
292.526	75.38
292.757	83.38
292.987	91.38
293.218	74.38
293.449	90.38
293.68	83.38
293.91	70.38
294.141	87.38
294.372	99.38
294.603	91.38
294.833	96.38
295.064	89.38
295.295	79.38
295.525	92.38
295.756	98.38
295.987	70.38
296.217	71.38
296.448	89.38
296.679	72.38
296.909	73.38
297.14	82.38
297.37	68.38
297.601	83.38
297.831	62.38
298.062	76.38
298.292	93.38
298.523	88.38
298.753	95.38
298.984	88.38
299.214	99.38
299.445	99.38
299.675	82.38
299.905	90.38
300.136	84.38
300.366	86.38
300.597	87.38
300.827	82.38
301.057	79.38
301.288	84.38
301.518	79.38
301.748	79.38
301.979	74.38
302.209	79.38
302.439	72.38
302.669	82.38
302.9	71.38
303.13	89.38
303.36	94.38
303.59	93.38
303.82	87.38
304.051	87.38
304.281	87.38
304.511	79.38
304.741	79.38
304.971	87.38
305.201	87.38
305.431	87.38
305.661	83.38
305.891	71.38
306.121	83.38
306.352	70.38
306.582	92.38
306.812	75.38
307.042	76.38
307.272	75.38
307.502	79.38
307.731	87.38
307.961	75.38
308.191	78.38
308.421	79.38
308.651	82.38
308.881	88.38
309.111	89.38
309.341	89.38
309.571	79.38
309.8	97.38
310.03	91.38
310.26	83.38
310.49	93.38
310.72	94.38
310.949	63.38
311.179	77.38
311.409	76.38
311.639	104.38
311.868	84.38
312.098	74.38
312.328	90.38
312.557	105.38
312.787	96.38
313.017	88.38
313.246	88.38
313.476	90.38
313.706	67.38
313.935	87.38
314.165	82.38
314.394	86.38
314.624	78.38
314.853	67.38
315.083	88.38
315.312	100.38
315.542	82.38
315.771	74.38
316.001	94.38
316.23	86.38
316.46	95.38
316.689	90.38
316.919	87.38
317.148	86.38
317.377	81.38
317.607	89.38
317.836	82.38
318.065	97.38
318.295	89.38
318.524	86.38
318.753	86.38
318.983	85.38
319.212	76.38
319.441	82.38
319.67	73.38
319.9	89.38
320.129	87.38
320.358	87.38
320.587	84.38
320.816	73.38
321.046	89.38
321.275	83.38
321.504	80.38
321.733	83.38
321.962	80.38
322.191	90.38
322.42	73.38
322.649	95.38
322.878	84.38
323.108	82.38
323.337	91.38
323.566	77.38
323.795	99.38
324.024	74.38
324.253	76.38
324.482	74.38
324.71	83.38
324.939	87.38
325.168	89.38
325.397	98.38
325.626	90.38
325.855	89.38
326.084	99.38
326.313	82.38
326.542	79.38
326.77	85.38
326.999	84.38
327.228	80.38
327.457	76.38
327.686	90.38
327.914	74.38
328.143	87.38
328.372	67.38
328.6	75.38
328.829	92.38
329.058	72.38
329.287	78.38
329.515	83.38
329.744	87.38
329.972	89.38
330.201	78.38
330.43	74.38
330.658	83.38
330.887	72.38
331.115	87.38
331.344	91.38
331.572	89.38
331.801	92.38
332.03	79.38
332.258	89.38
332.486	80.38
332.715	70.38
332.943	82.38
333.172	80.38
333.4	85.38
333.629	81.38
333.857	96.38
334.085	85.38
334.314	79.38
334.542	86.38
334.771	88.38
334.999	75.38
335.227	80.38
335.455	84.38
335.684	92.38
335.912	80.38
336.14	83.38
336.369	96.38
336.597	79.38
336.825	81.38
337.053	90.38
337.281	85.38
337.51	79.38
337.738	90.38
337.966	83.38
338.194	89.38
338.422	93.38
338.65	86.38
338.878	83.38
339.106	84.38
339.334	84.38
339.562	97.38
339.79	67.38
340.018	76.38
340.246	86.38
340.474	80.38
340.702	83.38
340.93	80.38
341.158	74.38
341.386	79.38
341.614	90.38
341.842	75.38
342.07	99.38
342.298	90.38
342.526	83.38
342.754	86.38
342.981	68.38
343.209	82.38
343.437	82.38
343.665	88.38
343.893	86.38
344.12	84.38
344.348	90.38
344.576	77.38
344.804	86.38
345.031	94.38
345.259	82.38
345.487	89.38
345.714	83.38
345.942	80.38
346.17	88.38
346.397	82.38
346.625	71.38
346.853	74.38
347.08	74.38
347.308	87.38
347.535	82.38
347.763	71.38
347.99	81.38
348.218	91.38
348.445	84.38
348.673	87.38
348.9	77.38
349.128	77.38
349.355	82.38
349.583	80.38
349.81	93.38
350.037	79.38
350.265	82.38
350.492	68.38
350.72	86.38
350.947	86.38
351.174	81.38
351.402	96.38
351.629	75.38
351.856	87.38
352.083	82.38
352.311	76.38
352.538	86.38
352.765	91.38
352.992	84.38
353.22	80.38
353.447	88.38
353.674	77.38
353.901	90.38
354.128	87.38
354.355	90.38
354.583	89.38
354.81	87.38
355.037	79.38
355.264	79.38
355.491	93.38
355.718	81.38
355.945	82.38
356.172	74.38
356.399	91.38
356.626	76.38
356.853	84.38
357.08	82.38
357.307	79.38
357.534	78.38
357.761	82.38
357.988	88.38
358.215	80.38
358.441	70.38
358.668	83.38
358.895	85.38
359.122	74.38
359.349	90.38
359.576	83.38
359.802	87.38
360.029	86.38
360.256	92.38
360.483	88.38
360.709	95.38
360.936	81.38
361.163	83.38
361.39	83.38
361.616	73.38
361.843	84.38
362.07	88.38
362.296	79.38
362.523	82.38
362.749	82.38
362.976	81.38
363.203	91.38
363.429	69.38
363.656	102.38
363.882	84.38
364.109	80.38
364.335	87.38
364.562	77.38
364.788	84.38
365.015	73.38
365.241	81.38
365.468	80.38
365.694	86.38
365.92	87.38
366.147	88.38
366.373	73.38
366.599	90.38
366.826	84.38
367.052	86.38
367.278	82.38
367.505	80.38
367.731	94.38
367.957	82.38
368.184	79.38
368.41	80.38
368.636	86.38
368.862	90.38
369.089	94.38
369.315	80.38
369.541	91.38
369.767	83.38
369.993	73.38
370.219	77.38
370.445	87.38
370.672	83.38
370.898	76.38
371.124	75.38
371.35	65.38
371.576	96.38
371.802	101.38
372.028	79.38
372.254	81.38
372.48	86.38
372.706	78.38
372.932	89.38
373.158	77.38
373.384	90.38
373.61	61.38
373.835	86.38
374.061	70.38
374.287	76.38
374.513	86.38
374.739	89.38
374.965	94.38
375.191	78.38
375.416	74.38
375.642	93.38
375.868	91.38
376.094	83.38
376.319	93.38
376.545	82.38
376.771	79.38
376.997	74.38
377.222	82.38
377.448	89.38
377.674	83.38
377.899	81.38
378.125	74.38
378.35	78.38
378.576	76.38
378.802	83.38
379.027	81.38
379.253	89.38
379.478	79.38
379.704	80.38
379.929	92.38
380.155	71.38
380.38	93.38
380.606	95.38
380.831	90.38
381.057	84.38
381.282	79.38
381.507	76.38
381.733	82.38
381.958	95.38
382.184	74.38
382.409	99.38
382.634	94.38
382.86	81.38
383.085	81.38
383.31	95.38
383.535	111.38
383.761	97.38
383.986	75.38
384.211	81.38
384.436	74.38
384.662	66.38
384.887	93.38
385.112	85.38
385.337	80.38
385.562	88.38
385.787	82.38
386.013	88.38
386.238	87.38
386.463	85.38
386.688	81.38
386.913	88.38
387.138	94.38
387.363	85.38
387.588	92.38
387.813	92.38
388.038	68.38
388.263	90.38
388.488	78.38
388.713	80.38
388.938	97.38
389.163	70.38
389.387	88.38
389.612	83.38
389.837	91.38
390.062	84.38
390.287	92.38
390.512	72.38
390.736	81.38
390.961	84.38
391.186	87.38
391.411	91.38
391.636	80.38
391.86	97.38
392.085	90.38
392.31	99.38
392.534	98.38
392.759	86.38
392.984	99.38
393.208	89.38
393.433	80.38
393.658	83.38
393.882	83.38
394.107	82.38
394.331	83.38
394.556	86.38
394.78	75.38
395.005	94.38
395.229	76.38
395.454	88.38
395.678	87.38
395.903	87.38
396.127	97.38
396.352	86.38
396.576	86.38
396.801	89.38
397.025	94.38
397.249	80.38
397.474	84.38
397.698	91.38
397.922	96.38
398.147	82.38
398.371	84.38
398.595	84.38
398.82	94.38
399.044	88.38
399.268	84.38
399.492	89.38
399.717	72.38
399.941	103.38
400.165	89.38
400.389	82.38
400.613	84.38
400.837	90.38
401.062	84.38
401.286	79.38
401.51	89.38
401.734	78.38
401.958	86.38
402.182	91.38
402.406	79.38
402.63	79.38
402.854	99.38
403.078	86.38
403.302	86.38
403.526	88.38
403.75	83.38
403.974	83.38
404.198	89.38
404.422	94.38
404.645	81.38
404.869	79.38
405.093	78.38
405.317	103.38
405.541	89.38
405.765	87.38
405.988	91.38
406.212	81.38
406.436	84.38
406.66	90.38
406.883	89.38
407.107	92.38
407.331	82.38
407.555	104.38
407.778	96.38
408.002	94.38
408.226	91.38
408.449	91.38
408.673	94.38
408.896	90.38
409.12	95.38
409.344	90.38
409.567	88.38
409.791	99.38
410.014	94.38
410.238	90.38
410.461	86.38
410.685	93.38
410.908	96.38
411.132	90.38
411.355	78.38
411.578	91.38
411.802	90.38
412.025	104.38
412.249	92.38
412.472	87.38
412.695	87.38
412.919	111.38
413.142	100.38
413.365	80.38
413.589	80.38
413.812	87.38
414.035	90.38
414.258	77.38
414.482	94.38
414.705	96.38
414.928	97.38
415.151	81.38
415.374	89.38
415.597	93.38
415.821	90.38
416.044	81.38
416.267	87.38
416.49	87.38
416.713	96.38
416.936	92.38
417.159	80.38
417.382	89.38
417.605	83.38
417.828	85.38
418.051	104.38
418.274	87.38
418.497	87.38
418.72	102.38
418.943	101.38
419.166	94.38
419.389	70.38
419.611	89.38
419.834	83.38
420.057	93.38
420.28	95.38
420.503	102.38
420.726	90.38
420.948	96.38
421.171	102.38
421.394	84.38
421.617	106.38
421.839	107.38
422.062	88.38
422.285	86.38
422.507	95.38
422.73	100.38
422.953	92.38
423.175	81.38
423.398	107.38
423.621	98.38
423.843	98.38
424.066	86.38
424.288	101.38
424.511	92.38
424.733	89.38
424.956	107.38
425.178	99.38
425.401	92.38
425.623	97.38
425.846	96.38
426.068	93.38
426.291	98.38
426.513	90.38
426.735	99.38
426.958	103.38
427.18	100.38
427.402	110.38
427.625	107.38
427.847	88.38
428.069	82.38
428.292	84.38
428.514	76.38
428.736	86.38
428.958	83.38
429.181	95.38
429.403	94.38
429.625	91.38
429.847	89.38
430.069	98.38
430.292	84.38
430.514	81.38
430.736	91.38
430.958	92.38
431.18	98.38
431.402	95.38
431.624	91.38
431.846	85.38
432.068	87.38
432.29	72.38
432.512	79.38
432.734	95.38
432.956	97.38
433.178	99.38
433.4	95.38
433.622	99.38
433.844	93.38
434.066	83.38
434.287	86.38
434.509	82.38
434.731	85.38
434.953	80.38
435.175	99.38
435.397	90.38
435.618	88.38
435.84	99.38
436.062	92.38
436.284	89.38
436.505	92.38
436.727	68.38
436.949	85.38
437.17	88.38
437.392	91.38
437.614	97.38
437.835	82.38
438.057	76.38
438.278	84.38
438.5	88.38
438.721	97.38
438.943	83.38
439.165	99.38
439.386	83.38
439.608	97.38
439.829	99.38
440.05	95.38
440.272	102.38
440.493	94.38
440.715	80.38
440.936	98.38
441.158	94.38
441.379	97.38
441.6	98.38
441.822	100.38
442.043	80.38
442.264	87.38
442.486	96.38
442.707	90.38
442.928	98.38
443.149	88.38
443.371	103.38
443.592	90.38
443.813	77.38
444.034	97.38
444.255	98.38
444.476	98.38
444.698	91.38
444.919	98.38
445.14	224.38
445.361	161.38
445.582	103.38
445.803	91.38
446.024	91.38
446.245	99.38
446.466	98.38
446.687	88.38
446.908	99.38
447.129	96.38
447.35	95.38
447.571	85.38
447.792	92.38
448.013	89.38
448.234	84.38
448.455	86.38
448.675	88.38
448.896	106.38
449.117	107.38
449.338	92.38
449.559	107.38
449.779	102.38
450	88.38
450.221	97.38
450.442	80.38
450.662	100.38
450.883	96.38
451.104	110.38
451.324	100.38
451.545	95.38
451.766	88.38
451.986	96.38
452.207	104.38
452.428	90.38
452.648	99.38
452.869	88.38
453.089	85.38
453.31	94.38
453.53	82.38
453.751	80.38
453.971	87.38
454.192	85.38
454.412	87.38
454.633	78.38
454.853	92.38
455.073	79.38
455.294	88.38
455.514	96.38
455.734	79.38
455.955	92.38
456.175	90.38
456.395	99.38
456.616	90.38
456.836	78.38
457.056	86.38
457.276	81.38
457.497	80.38
457.717	96.38
457.937	83.38
458.157	73.38
458.377	87.38
458.598	82.38
458.818	97.38
459.038	79.38
459.258	88.38
459.478	80.38
459.698	90.38
459.918	90.38
460.138	96.38
460.358	96.38
460.578	95.38
460.798	99.38
461.018	87.38
461.238	86.38
461.458	94.38
461.678	85.38
461.898	90.38
462.118	73.38
462.338	92.38
462.558	87.38
462.777	94.38
462.997	86.38
463.217	85.38
463.437	95.38
463.657	82.38
463.876	74.38
464.096	99.38
464.316	97.38
464.536	94.38
464.755	77.38
464.975	94.38
465.195	92.38
465.414	74.38
465.634	86.38
465.854	104.38
466.073	91.38
466.293	98.38
466.512	88.38
466.732	103.38
466.951	98.38
467.171	94.38
467.391	93.38
467.61	96.38
467.829	84.38
468.049	99.38
468.268	102.38
468.488	83.38
468.707	94.38
468.927	102.38
469.146	84.38
469.365	89.38
469.585	88.38
469.804	72.38
470.023	112.38
470.243	107.38
470.462	91.38
470.681	94.38
470.901	98.38
471.12	91.38
471.339	92.38
471.558	91.38
471.777	104.38
471.997	101.38
472.216	91.38
472.435	86.38
472.654	76.38
472.873	79.38
473.092	87.38
473.311	84.38
473.53	105.38
473.749	90.38
473.968	105.38
474.187	90.38
474.406	94.38
474.625	81.38
474.844	91.38
475.063	86.38
475.282	89.38
475.501	90.38
475.72	88.38
475.939	89.38
476.158	98.38
476.377	83.38
476.596	87.38
476.814	92.38
477.033	79.38
477.252	87.38
477.471	84.38
477.69	99.38
477.908	92.38
478.127	98.38
478.346	104.38
478.564	105.38
478.783	96.38
479.002	93.38
479.22	87.38
479.439	95.38
479.658	90.38
479.876	97.38
480.095	85.38
480.313	74.38
480.532	94.38
480.751	87.38
480.969	88.38
481.188	73.38
481.406	90.38
481.624	69.38
481.843	87.38
482.061	87.38
482.28	86.38
482.498	98.38
482.717	101.38
482.935	90.38
483.153	99.38
483.372	103.38
483.59	84.38
483.808	96.38
484.027	109.38
484.245	103.38
484.463	88.38
484.681	110.38
484.9	85.38
485.118	91.38
485.336	99.38
485.554	100.38
485.772	100.38
485.99	94.38
486.209	100.38
486.427	85.38
486.645	96.38
486.863	94.38
487.081	99.38
487.299	94.38
487.517	96.38
487.735	106.38
487.953	110.38
488.171	106.38
488.389	102.38
488.607	89.38
488.825	89.38
489.043	82.38
489.261	95.38
489.479	90.38
489.696	97.38
489.914	93.38
490.132	103.38
490.35	97.38
490.568	100.38
490.786	117.38
491.003	107.38
491.221	118.38
491.439	110.38
491.657	115.38
491.874	114.38
492.092	117.38
492.31	122.38
492.527	113.38
492.745	85.38
492.963	113.38
493.18	119.38
493.398	126.38
493.615	97.38
493.833	106.38
494.05	111.38
494.268	96.38
494.485	100.38
494.703	114.38
494.92	102.38
495.138	108.38
495.355	108.38
495.573	100.38
495.79	97.38
496.008	114.38
496.225	105.38
496.442	89.38
496.66	109.38
496.877	102.38
497.094	118.38
497.312	107.38
497.529	107.38
497.746	105.38
497.963	102.38
498.181	97.38
498.398	85.38
498.615	80.38
498.832	87.38
499.049	100.38
499.267	100.38
499.484	92.38
499.701	100.38
499.918	91.38
500.135	90.38
500.352	87.38
500.569	114.38
500.786	94.38
501.003	92.38
501.22	92.38
501.437	99.38
501.654	100.38
501.871	98.38
502.088	103.38
502.305	93.38
502.522	93.38
502.739	85.38
502.956	88.38
503.172	99.38
503.389	102.38
503.606	98.38
503.823	93.38
504.04	82.38
504.256	84.38
504.473	92.38
504.69	92.38
504.907	98.38
505.123	97.38
505.34	82.38
505.557	84.38
505.773	105.38
505.99	94.38
506.207	91.38
506.423	88.38
506.64	81.38
506.856	105.38
507.073	91.38
507.289	97.38
507.506	85.38
507.722	99.38
507.939	101.38
508.155	98.38
508.372	90.38
508.588	85.38
508.805	95.38
509.021	91.38
509.238	79.38
509.454	89.38
509.67	86.38
509.887	86.38
510.103	85.38
510.319	98.38
510.536	68.38
510.752	91.38
510.968	69.38
511.184	87.38
511.401	95.38
511.617	87.38
511.833	87.38
512.049	74.38
512.265	76.38
512.481	72.38
512.698	83.38
512.914	82.38
513.13	96.38
513.346	77.38
513.562	86.38
513.778	89.38
513.994	94.38
514.21	81.38
514.426	86.38
514.642	75.38
514.858	81.38
515.074	76.38
515.29	82.38
515.506	74.38
515.721	79.38
515.937	86.38
516.153	92.38
516.369	86.38
516.585	92.38
516.801	78.38
517.016	80.38
517.232	83.38
517.448	88.38
517.664	84.38
517.879	87.38
