Data from Location5.07152019.Energy5.Lamp.07192019.3%Agarose_HRD10591_15-37-02-389.txt Node
Date: Fri Jul 19 15:37:02 EDT 2019
User: cochatt
Spectrometer: HR+D1059
Trigger mode: 1
Integration Time (sec): 1.000000E-1
Scans to average: 1
Electric dark correction enabled: true
Nonlinearity correction enabled: false
Boxcar width: 0
XAxis mode: Wavelengths
Number of Pixels in Spectrum: 2048
>>>>>Begin Spectral Data<<<<<
223.165	-24.06
223.4	-24.06
223.635	-24.06
223.869	-6.06
224.104	-23.06
224.338	-10.06
224.573	-10.06
224.808	-11.06
225.042	-19.06
225.277	-0.06
225.511	9.94
225.746	4.94
225.98	15.94
226.215	11.94
226.449	7.94
226.683	18.94
226.918	15.94
227.152	17.94
227.387	39.94
227.621	37.94
227.856	57.94
228.09	53.94
228.324	54.94
228.559	61.94
228.793	63.94
229.027	62.94
229.262	59.94
229.496	56.94
229.73	67.94
229.964	75.94
230.199	77.94
230.433	77.94
230.667	89.94
230.901	76.94
231.136	78.94
231.37	70.94
231.604	58.94
231.838	72.94
232.072	78.94
232.306	79.94
232.541	91.94
232.775	82.94
233.009	94.94
233.243	83.94
233.477	98.94
233.711	77.94
233.945	83.94
234.179	79.94
234.413	90.94
234.647	84.94
234.881	85.94
235.115	84.94
235.349	88.94
235.583	72.94
235.817	63.94
236.051	84.94
236.285	71.94
236.519	81.94
236.753	81.94
236.987	79.94
237.221	71.94
237.455	80.94
237.689	89.94
237.922	87.94
238.156	66.94
238.39	80.94
238.624	74.94
238.858	73.94
239.091	68.94
239.325	74.94
239.559	66.94
239.793	72.94
240.027	101.94
240.26	77.94
240.494	89.94
240.728	83.94
240.961	75.94
241.195	71.94
241.429	79.94
241.662	79.94
241.896	89.94
242.13	75.94
242.363	77.94
242.597	71.94
242.83	77.94
243.064	67.94
243.298	84.94
243.531	67.94
243.765	76.94
243.998	74.94
244.232	74.94
244.465	73.94
244.699	77.94
244.932	76.94
245.166	76.94
245.399	82.94
245.633	71.94
245.866	81.94
246.099	78.94
246.333	82.94
246.566	82.94
246.8	75.94
247.033	90.94
247.266	74.94
247.5	90.94
247.733	66.94
247.966	85.94
248.2	78.94
248.433	73.94
248.666	93.94
248.899	83.94
249.133	80.94
249.366	78.94
249.599	68.94
249.832	65.94
250.066	89.94
250.299	82.94
250.532	61.94
250.765	79.94
250.998	84.94
251.231	85.94
251.465	77.94
251.698	62.94
251.931	83.94
252.164	64.94
252.397	79.94
252.63	90.94
252.863	85.94
253.096	84.94
253.329	85.94
253.562	90.94
253.795	81.94
254.028	91.94
254.261	90.94
254.494	67.94
254.727	80.94
254.96	79.94
255.193	75.94
255.426	84.94
255.659	74.94
255.892	94.94
256.124	87.94
256.357	76.94
256.59	67.94
256.823	89.94
257.056	89.94
257.289	83.94
257.521	87.94
257.754	81.94
257.987	86.94
258.22	77.94
258.452	73.94
258.685	93.94
258.918	89.94
259.151	80.94
259.383	84.94
259.616	72.94
259.849	72.94
260.081	90.94
260.314	85.94
260.547	83.94
260.779	85.94
261.012	85.94
261.244	83.94
261.477	87.94
261.71	82.94
261.942	81.94
262.175	89.94
262.407	71.94
262.64	87.94
262.872	89.94
263.105	84.94
263.337	84.94
263.57	77.94
263.802	90.94
264.035	71.94
264.267	80.94
264.499	74.94
264.732	77.94
264.964	92.94
265.197	76.94
265.429	84.94
265.661	84.94
265.894	80.94
266.126	82.94
266.358	80.94
266.591	85.94
266.823	85.94
267.055	86.94
267.287	90.94
267.52	87.94
267.752	84.94
267.984	77.94
268.216	77.94
268.448	75.94
268.681	90.94
268.913	91.94
269.145	85.94
269.377	95.94
269.609	82.94
269.841	82.94
270.073	80.94
270.306	88.94
270.538	59.94
270.77	86.94
271.002	75.94
271.234	73.94
271.466	71.94
271.698	89.94
271.93	86.94
272.162	101.94
272.394	81.94
272.626	77.94
272.858	90.94
273.09	88.94
273.322	83.94
273.553	84.94
273.785	90.94
274.017	73.94
274.249	82.94
274.481	90.94
274.713	83.94
274.945	80.94
275.176	74.94
275.408	90.94
275.64	87.94
275.872	82.94
276.104	74.94
276.335	87.94
276.567	80.94
276.799	87.94
277.031	81.94
277.262	74.94
277.494	86.94
277.726	77.94
277.957	78.94
278.189	81.94
278.421	71.94
278.652	93.94
278.884	95.94
279.115	83.94
279.347	77.94
279.579	100.94
279.81	76.94
280.042	84.94
280.273	88.94
280.505	90.94
280.736	69.94
280.968	81.94
281.199	73.94
281.431	77.94
281.662	81.94
281.894	86.94
282.125	95.94
282.356	96.94
282.588	80.94
282.819	85.94
283.051	83.94
283.282	71.94
283.513	81.94
283.745	88.94
283.976	77.94
284.207	96.94
284.439	85.94
284.67	96.94
284.901	85.94
285.132	86.94
285.364	93.94
285.595	100.94
285.826	82.94
286.057	85.94
286.288	92.94
286.52	77.94
286.751	84.94
286.982	78.94
287.213	90.94
287.444	97.94
287.675	84.94
287.906	78.94
288.138	86.94
288.369	82.94
288.6	76.94
288.831	79.94
289.062	82.94
289.293	72.94
289.524	70.94
289.755	91.94
289.986	83.94
290.217	87.94
290.448	90.94
290.679	73.94
290.91	87.94
291.141	86.94
291.371	84.94
291.602	86.94
291.833	89.94
292.064	80.94
292.295	74.94
292.526	87.94
292.757	88.94
292.987	87.94
293.218	96.94
293.449	69.94
293.68	91.94
293.91	83.94
294.141	88.94
294.372	82.94
294.603	77.94
294.833	77.94
295.064	96.94
295.295	87.94
295.525	78.94
295.756	76.94
295.987	84.94
296.217	76.94
296.448	77.94
296.679	88.94
296.909	96.94
297.14	86.94
297.37	87.94
297.601	88.94
297.831	84.94
298.062	88.94
298.292	73.94
298.523	82.94
298.753	76.94
298.984	88.94
299.214	82.94
299.445	84.94
299.675	68.94
299.905	82.94
300.136	97.94
300.366	89.94
300.597	84.94
300.827	89.94
301.057	82.94
301.288	84.94
301.518	101.94
301.748	83.94
301.979	75.94
302.209	73.94
302.439	84.94
302.669	92.94
302.9	83.94
303.13	77.94
303.36	82.94
303.59	81.94
303.82	80.94
304.051	95.94
304.281	89.94
304.511	92.94
304.741	92.94
304.971	78.94
305.201	91.94
305.431	90.94
305.661	81.94
305.891	89.94
306.121	82.94
306.352	76.94
306.582	89.94
306.812	85.94
307.042	97.94
307.272	98.94
307.502	79.94
307.731	77.94
307.961	89.94
308.191	87.94
308.421	88.94
308.651	84.94
308.881	85.94
309.111	91.94
309.341	90.94
309.571	98.94
309.8	104.94
310.03	99.94
310.26	89.94
310.49	75.94
310.72	72.94
310.949	77.94
311.179	93.94
311.409	94.94
311.639	86.94
311.868	93.94
312.098	75.94
312.328	86.94
312.557	96.94
312.787	89.94
313.017	73.94
313.246	97.94
313.476	88.94
313.706	83.94
313.935	82.94
314.165	81.94
314.394	101.94
314.624	81.94
314.853	85.94
315.083	85.94
315.312	84.94
315.542	85.94
315.771	89.94
316.001	82.94
316.23	88.94
316.46	96.94
316.689	67.94
316.919	82.94
317.148	75.94
317.377	90.94
317.607	92.94
317.836	84.94
318.065	82.94
318.295	81.94
318.524	100.94
318.753	87.94
318.983	96.94
319.212	97.94
319.441	75.94
319.67	98.94
319.9	91.94
320.129	81.94
320.358	81.94
320.587	78.94
320.816	73.94
321.046	69.94
321.275	76.94
321.504	93.94
321.733	89.94
321.962	76.94
322.191	91.94
322.42	76.94
322.649	89.94
322.878	81.94
323.108	102.94
323.337	74.94
323.566	73.94
323.795	76.94
324.024	84.94
324.253	88.94
324.482	78.94
324.71	95.94
324.939	95.94
325.168	90.94
325.397	81.94
325.626	80.94
325.855	84.94
326.084	98.94
326.313	102.94
326.542	95.94
326.77	95.94
326.999	86.94
327.228	75.94
327.457	84.94
327.686	93.94
327.914	83.94
328.143	97.94
328.372	84.94
328.6	87.94
328.829	85.94
329.058	93.94
329.287	91.94
329.515	73.94
329.744	78.94
329.972	73.94
330.201	86.94
330.43	78.94
330.658	80.94
330.887	91.94
331.115	90.94
331.344	81.94
331.572	87.94
331.801	83.94
332.03	86.94
332.258	93.94
332.486	85.94
332.715	84.94
332.943	87.94
333.172	96.94
333.4	83.94
333.629	84.94
333.857	82.94
334.085	76.94
334.314	85.94
334.542	71.94
334.771	89.94
334.999	92.94
335.227	84.94
335.455	83.94
335.684	93.94
335.912	72.94
336.14	86.94
336.369	75.94
336.597	84.94
336.825	101.94
337.053	98.94
337.281	99.94
337.51	94.94
337.738	91.94
337.966	88.94
338.194	84.94
338.422	84.94
338.65	90.94
338.878	76.94
339.106	76.94
339.334	90.94
339.562	101.94
339.79	97.94
340.018	97.94
340.246	88.94
340.474	95.94
340.702	98.94
340.93	100.94
341.158	89.94
341.386	88.94
341.614	89.94
341.842	80.94
342.07	98.94
342.298	96.94
342.526	98.94
342.754	96.94
342.981	77.94
343.209	97.94
343.437	82.94
343.665	78.94
343.893	87.94
344.12	97.94
344.348	84.94
344.576	83.94
344.804	89.94
345.031	92.94
345.259	94.94
345.487	73.94
345.714	91.94
345.942	84.94
346.17	91.94
346.397	71.94
346.625	82.94
346.853	92.94
347.08	79.94
347.308	85.94
347.535	64.94
347.763	82.94
347.99	95.94
348.218	98.94
348.445	84.94
348.673	88.94
348.9	80.94
349.128	80.94
349.355	89.94
349.583	83.94
349.81	101.94
350.037	83.94
350.265	86.94
350.492	75.94
350.72	83.94
350.947	90.94
351.174	81.94
351.402	77.94
351.629	84.94
351.856	89.94
352.083	95.94
352.311	85.94
352.538	82.94
352.765	82.94
352.992	82.94
353.22	91.94
353.447	87.94
353.674	84.94
353.901	92.94
354.128	102.94
354.355	84.94
354.583	84.94
354.81	84.94
355.037	86.94
355.264	77.94
355.491	89.94
355.718	75.94
355.945	85.94
356.172	73.94
356.399	85.94
356.626	85.94
356.853	84.94
357.08	92.94
357.307	87.94
357.534	78.94
357.761	70.94
357.988	83.94
358.215	84.94
358.441	70.94
358.668	81.94
358.895	73.94
359.122	88.94
359.349	104.94
359.576	72.94
359.802	81.94
360.029	90.94
360.256	75.94
360.483	88.94
360.709	83.94
360.936	91.94
361.163	91.94
361.39	71.94
361.616	88.94
361.843	81.94
362.07	84.94
362.296	71.94
362.523	88.94
362.749	79.94
362.976	85.94
363.203	101.94
363.429	88.94
363.656	95.94
363.882	98.94
364.109	95.94
364.335	88.94
364.562	85.94
364.788	79.94
365.015	98.94
365.241	80.94
365.468	92.94
365.694	77.94
365.92	88.94
366.147	92.94
366.373	83.94
366.599	66.94
366.826	91.94
367.052	87.94
367.278	85.94
367.505	89.94
367.731	78.94
367.957	88.94
368.184	82.94
368.41	76.94
368.636	76.94
368.862	94.94
369.089	84.94
369.315	72.94
369.541	88.94
369.767	104.94
369.993	84.94
370.219	97.94
370.445	92.94
370.672	80.94
370.898	88.94
371.124	77.94
371.35	84.94
371.576	91.94
371.802	77.94
372.028	84.94
372.254	94.94
372.48	74.94
372.706	89.94
372.932	84.94
373.158	71.94
373.384	100.94
373.61	85.94
373.835	77.94
374.061	84.94
374.287	86.94
374.513	97.94
374.739	82.94
374.965	75.94
375.191	80.94
375.416	79.94
375.642	89.94
375.868	82.94
376.094	104.94
376.319	86.94
376.545	99.94
376.771	85.94
376.997	65.94
377.222	77.94
377.448	89.94
377.674	89.94
377.899	96.94
378.125	97.94
378.35	91.94
378.576	77.94
378.802	76.94
379.027	88.94
379.253	80.94
379.478	90.94
379.704	80.94
379.929	81.94
380.155	75.94
380.38	74.94
380.606	88.94
380.831	79.94
381.057	109.94
381.282	89.94
381.507	94.94
381.733	82.94
381.958	80.94
382.184	80.94
382.409	93.94
382.634	75.94
382.86	84.94
383.085	84.94
383.31	75.94
383.535	81.94
383.761	69.94
383.986	85.94
384.211	86.94
384.436	81.94
384.662	85.94
384.887	85.94
385.112	85.94
385.337	86.94
385.562	87.94
385.787	82.94
386.013	88.94
386.238	80.94
386.463	74.94
386.688	99.94
386.913	99.94
387.138	93.94
387.363	87.94
387.588	100.94
387.813	81.94
388.038	82.94
388.263	85.94
388.488	86.94
388.713	78.94
388.938	79.94
389.163	86.94
389.387	83.94
389.612	95.94
389.837	89.94
390.062	89.94
390.287	89.94
390.512	81.94
390.736	99.94
390.961	85.94
391.186	86.94
391.411	71.94
391.636	98.94
391.86	104.94
392.085	87.94
392.31	83.94
392.534	77.94
392.759	86.94
392.984	72.94
393.208	86.94
393.433	92.94
393.658	96.94
393.882	73.94
394.107	72.94
394.331	88.94
394.556	85.94
394.78	97.94
395.005	75.94
395.229	81.94
395.454	92.94
395.678	78.94
395.903	93.94
396.127	92.94
396.352	93.94
396.576	93.94
396.801	91.94
397.025	91.94
397.249	102.94
397.474	88.94
397.698	82.94
397.922	93.94
398.147	78.94
398.371	92.94
398.595	84.94
398.82	89.94
399.044	96.94
399.268	92.94
399.492	78.94
399.717	90.94
399.941	101.94
400.165	78.94
400.389	95.94
400.613	99.94
400.837	87.94
401.062	87.94
401.286	94.94
401.51	81.94
401.734	92.94
401.958	83.94
402.182	89.94
402.406	82.94
402.63	89.94
402.854	100.94
403.078	83.94
403.302	84.94
403.526	91.94
403.75	101.94
403.974	89.94
404.198	98.94
404.422	95.94
404.645	96.94
404.869	97.94
405.093	103.94
405.317	89.94
405.541	112.94
405.765	71.94
405.988	89.94
406.212	95.94
406.436	81.94
406.66	91.94
406.883	81.94
407.107	96.94
407.331	96.94
407.555	84.94
407.778	84.94
408.002	95.94
408.226	89.94
408.449	97.94
408.673	111.94
408.896	100.94
409.12	82.94
409.344	89.94
409.567	98.94
409.791	99.94
410.014	89.94
410.238	92.94
410.461	87.94
410.685	85.94
410.908	83.94
411.132	88.94
411.355	88.94
411.578	87.94
411.802	80.94
412.025	106.94
412.249	72.94
412.472	89.94
412.695	86.94
412.919	81.94
413.142	78.94
413.365	90.94
413.589	93.94
413.812	98.94
414.035	95.94
414.258	96.94
414.482	77.94
414.705	94.94
414.928	91.94
415.151	102.94
415.374	74.94
415.597	93.94
415.821	100.94
416.044	107.94
416.267	90.94
416.49	88.94
416.713	92.94
416.936	78.94
417.159	88.94
417.382	99.94
417.605	91.94
417.828	76.94
418.051	100.94
418.274	100.94
418.497	88.94
418.72	93.94
418.943	113.94
419.166	99.94
419.389	91.94
419.611	92.94
419.834	103.94
420.057	100.94
420.28	103.94
420.503	81.94
420.726	90.94
420.948	99.94
421.171	99.94
421.394	107.94
421.617	92.94
421.839	99.94
422.062	84.94
422.285	76.94
422.507	97.94
422.73	96.94
422.953	99.94
423.175	90.94
423.398	87.94
423.621	95.94
423.843	102.94
424.066	97.94
424.288	84.94
424.511	91.94
424.733	96.94
424.956	101.94
425.178	97.94
425.401	98.94
425.623	121.94
425.846	90.94
426.068	95.94
426.291	96.94
426.513	99.94
426.735	103.94
426.958	90.94
427.18	79.94
427.402	101.94
427.625	80.94
427.847	94.94
428.069	105.94
428.292	82.94
428.514	92.94
428.736	103.94
428.958	105.94
429.181	96.94
429.403	96.94
429.625	99.94
429.847	86.94
430.069	106.94
430.292	99.94
430.514	111.94
430.736	87.94
430.958	102.94
431.18	93.94
431.402	87.94
431.624	88.94
431.846	77.94
432.068	85.94
432.29	92.94
432.512	95.94
432.734	99.94
432.956	88.94
433.178	107.94
433.4	100.94
433.622	93.94
433.844	100.94
434.066	92.94
434.287	93.94
434.509	89.94
434.731	87.94
434.953	89.94
435.175	105.94
435.397	100.94
435.618	79.94
435.84	94.94
436.062	77.94
436.284	95.94
436.505	92.94
436.727	97.94
436.949	90.94
437.17	105.94
437.392	89.94
437.614	83.94
437.835	93.94
438.057	87.94
438.278	73.94
438.5	78.94
438.721	80.94
438.943	84.94
439.165	97.94
439.386	87.94
439.608	86.94
439.829	93.94
440.05	97.94
440.272	87.94
440.493	98.94
440.715	102.94
440.936	99.94
441.158	85.94
441.379	87.94
441.6	97.94
441.822	89.94
442.043	105.94
442.264	92.94
442.486	97.94
442.707	86.94
442.928	97.94
443.149	93.94
443.371	106.94
443.592	91.94
443.813	84.94
444.034	89.94
444.255	98.94
444.476	86.94
444.698	87.94
444.919	98.94
445.14	175.94
445.361	140.94
445.582	94.94
445.803	99.94
446.024	101.94
446.245	97.94
446.466	95.94
446.687	105.94
446.908	103.94
447.129	95.94
447.35	105.94
447.571	99.94
447.792	103.94
448.013	77.94
448.234	113.94
448.455	110.94
448.675	94.94
448.896	89.94
449.117	108.94
449.338	92.94
449.559	104.94
449.779	97.94
450	91.94
450.221	86.94
450.442	91.94
450.662	94.94
450.883	114.94
451.104	101.94
451.324	90.94
451.545	81.94
451.766	97.94
451.986	97.94
452.207	94.94
452.428	104.94
452.648	106.94
452.869	105.94
453.089	104.94
453.31	79.94
453.53	84.94
453.751	87.94
453.971	91.94
454.192	97.94
454.412	84.94
454.633	88.94
454.853	84.94
455.073	86.94
455.294	100.94
455.514	84.94
455.734	100.94
455.955	80.94
456.175	99.94
456.395	101.94
456.616	97.94
456.836	100.94
457.056	75.94
457.276	85.94
457.497	97.94
457.717	89.94
457.937	99.94
458.157	81.94
458.377	80.94
458.598	82.94
458.818	88.94
459.038	92.94
459.258	101.94
459.478	87.94
459.698	82.94
459.918	96.94
460.138	83.94
460.358	98.94
460.578	84.94
460.798	83.94
461.018	96.94
461.238	82.94
461.458	86.94
461.678	75.94
461.898	83.94
462.118	88.94
462.338	88.94
462.558	88.94
462.777	84.94
462.997	88.94
463.217	93.94
463.437	100.94
463.657	81.94
463.876	92.94
464.096	81.94
464.316	99.94
464.536	86.94
464.755	88.94
464.975	84.94
465.195	86.94
465.414	81.94
465.634	82.94
465.854	98.94
466.073	88.94
466.293	90.94
466.512	83.94
466.732	84.94
466.951	100.94
467.171	94.94
467.391	93.94
467.61	97.94
467.829	86.94
468.049	106.94
468.268	99.94
468.488	101.94
468.707	91.94
468.927	98.94
469.146	102.94
469.365	92.94
469.585	88.94
469.804	106.94
470.023	94.94
470.243	96.94
470.462	93.94
470.681	93.94
470.901	98.94
471.12	86.94
471.339	95.94
471.558	84.94
471.777	89.94
471.997	101.94
472.216	81.94
472.435	99.94
472.654	106.94
472.873	91.94
473.092	89.94
473.311	102.94
473.53	96.94
473.749	98.94
473.968	102.94
474.187	89.94
474.406	85.94
474.625	117.94
474.844	85.94
475.063	90.94
475.282	96.94
475.501	96.94
475.72	97.94
475.939	99.94
476.158	105.94
476.377	113.94
476.596	88.94
476.814	100.94
477.033	99.94
477.252	92.94
477.471	96.94
477.69	103.94
477.908	82.94
478.127	94.94
478.346	99.94
478.564	83.94
478.783	86.94
479.002	89.94
479.22	92.94
479.439	96.94
479.658	80.94
479.876	91.94
480.095	88.94
480.313	85.94
480.532	103.94
480.751	83.94
480.969	91.94
481.188	97.94
481.406	70.94
481.624	97.94
481.843	76.94
482.061	90.94
482.28	84.94
482.498	84.94
482.717	91.94
482.935	93.94
483.153	100.94
483.372	96.94
483.59	108.94
483.808	88.94
484.027	94.94
484.245	95.94
484.463	97.94
484.681	91.94
484.9	104.94
485.118	104.94
485.336	89.94
485.554	93.94
485.772	97.94
485.99	83.94
486.209	102.94
486.427	88.94
486.645	71.94
486.863	102.94
487.081	77.94
487.299	102.94
487.517	96.94
487.735	113.94
487.953	91.94
488.171	104.94
488.389	107.94
488.607	102.94
488.825	103.94
489.043	103.94
489.261	96.94
489.479	97.94
489.696	92.94
489.914	83.94
490.132	121.94
490.35	97.94
490.568	100.94
490.786	90.94
491.003	109.94
491.221	102.94
491.439	114.94
491.657	115.94
491.874	117.94
492.092	120.94
492.31	123.94
492.527	125.94
492.745	98.94
492.963	105.94
493.18	102.94
493.398	113.94
493.615	107.94
493.833	111.94
494.05	110.94
494.268	99.94
494.485	105.94
494.703	107.94
494.92	120.94
495.138	107.94
495.355	110.94
495.573	123.94
495.79	114.94
496.008	117.94
496.225	97.94
496.442	98.94
496.66	112.94
496.877	113.94
497.094	106.94
497.312	99.94
497.529	97.94
497.746	99.94
497.963	94.94
498.181	95.94
498.398	88.94
498.615	91.94
498.832	93.94
499.049	91.94
499.267	98.94
499.484	105.94
499.701	87.94
499.918	100.94
500.135	107.94
500.352	101.94
500.569	92.94
500.786	112.94
501.003	104.94
501.22	99.94
501.437	109.94
501.654	79.94
501.871	95.94
502.088	112.94
502.305	117.94
502.522	99.94
502.739	103.94
502.956	100.94
503.172	96.94
503.389	85.94
503.606	101.94
503.823	101.94
504.04	90.94
504.256	97.94
504.473	102.94
504.69	102.94
504.907	97.94
505.123	94.94
505.34	88.94
505.557	85.94
505.773	104.94
505.99	93.94
506.207	90.94
506.423	97.94
506.64	94.94
506.856	93.94
507.073	105.94
507.289	91.94
507.506	87.94
507.722	93.94
507.939	84.94
508.155	102.94
508.372	98.94
508.588	80.94
508.805	90.94
509.021	77.94
509.238	81.94
509.454	82.94
509.67	98.94
509.887	92.94
510.103	86.94
510.319	89.94
510.536	99.94
510.752	82.94
510.968	90.94
511.184	90.94
511.401	91.94
511.617	90.94
511.833	83.94
512.049	81.94
512.265	74.94
512.481	97.94
512.698	99.94
512.914	87.94
513.13	89.94
513.346	86.94
513.562	92.94
513.778	95.94
513.994	90.94
514.21	93.94
514.426	89.94
514.642	104.94
514.858	89.94
515.074	96.94
515.29	88.94
515.506	79.94
515.721	97.94
515.937	83.94
516.153	92.94
516.369	92.94
516.585	73.94
516.801	76.94
517.016	85.94
517.232	74.94
