Data from Location5.07152019.Energy5.Lamp.07192019.3%Agarose_HRD10591_15-36-48-386.txt Node
Date: Fri Jul 19 15:36:48 EDT 2019
User: cochatt
Spectrometer: HR+D1059
Trigger mode: 1
Integration Time (sec): 1.000000E-1
Scans to average: 1
Electric dark correction enabled: true
Nonlinearity correction enabled: false
Boxcar width: 0
XAxis mode: Wavelengths
Number of Pixels in Spectrum: 2048
>>>>>Begin Spectral Data<<<<<
223.165	-26.38
223.4	-26.38
223.635	-26.38
223.869	-8.38
224.104	-19.38
224.338	-19.38
224.573	-7.38
224.808	-3.38
225.042	-8.38
225.277	2.62
225.511	-11.38
225.746	-2.38
225.98	9.62
226.215	9.62
226.449	9.62
226.683	21.62
226.918	18.62
227.152	34.62
227.387	20.62
227.621	40.62
227.856	49.62
228.09	51.62
228.324	41.62
228.559	60.62
228.793	45.62
229.027	62.62
229.262	68.62
229.496	69.62
229.73	55.62
229.964	68.62
230.199	80.62
230.433	50.62
230.667	67.62
230.901	80.62
231.136	71.62
231.37	75.62
231.604	66.62
231.838	81.62
232.072	69.62
232.306	86.62
232.541	86.62
232.775	87.62
233.009	90.62
233.243	74.62
233.477	84.62
233.711	85.62
233.945	80.62
234.179	61.62
234.413	77.62
234.647	74.62
234.881	81.62
235.115	73.62
235.349	72.62
235.583	88.62
235.817	94.62
236.051	85.62
236.285	84.62
236.519	69.62
236.753	76.62
236.987	80.62
237.221	77.62
237.455	76.62
237.689	73.62
237.922	74.62
238.156	68.62
238.39	68.62
238.624	82.62
238.858	68.62
239.091	63.62
239.325	80.62
239.559	63.62
239.793	65.62
240.027	68.62
240.26	84.62
240.494	74.62
240.728	69.62
240.961	68.62
241.195	73.62
241.429	72.62
241.662	76.62
241.896	64.62
242.13	73.62
242.363	83.62
242.597	66.62
242.83	72.62
243.064	81.62
243.298	83.62
243.531	66.62
243.765	74.62
243.998	69.62
244.232	84.62
244.465	80.62
244.699	79.62
244.932	73.62
245.166	76.62
245.399	69.62
245.633	72.62
245.866	80.62
246.099	84.62
246.333	57.62
246.566	81.62
246.8	79.62
247.033	84.62
247.266	79.62
247.5	79.62
247.733	69.62
247.966	65.62
248.2	83.62
248.433	69.62
248.666	74.62
248.899	82.62
249.133	79.62
249.366	85.62
249.599	87.62
249.832	76.62
250.066	72.62
250.299	84.62
250.532	77.62
250.765	77.62
250.998	85.62
251.231	65.62
251.465	74.62
251.698	78.62
251.931	72.62
252.164	73.62
252.397	65.62
252.63	82.62
252.863	84.62
253.096	79.62
253.329	70.62
253.562	74.62
253.795	79.62
254.028	83.62
254.261	86.62
254.494	76.62
254.727	73.62
254.96	78.62
255.193	74.62
255.426	80.62
255.659	74.62
255.892	77.62
256.124	79.62
256.357	72.62
256.59	74.62
256.823	86.62
257.056	69.62
257.289	73.62
257.521	66.62
257.754	70.62
257.987	80.62
258.22	86.62
258.452	87.62
258.685	74.62
258.918	74.62
259.151	81.62
259.383	76.62
259.616	73.62
259.849	64.62
260.081	72.62
260.314	71.62
260.547	82.62
260.779	75.62
261.012	74.62
261.244	77.62
261.477	82.62
261.71	70.62
261.942	77.62
262.175	70.62
262.407	85.62
262.64	74.62
262.872	61.62
263.105	86.62
263.337	83.62
263.57	77.62
263.802	73.62
264.035	79.62
264.267	71.62
264.499	70.62
264.732	83.62
264.964	84.62
265.197	78.62
265.429	78.62
265.661	92.62
265.894	69.62
266.126	93.62
266.358	82.62
266.591	80.62
266.823	92.62
267.055	85.62
267.287	75.62
267.52	89.62
267.752	77.62
267.984	85.62
268.216	85.62
268.448	84.62
268.681	90.62
268.913	72.62
269.145	81.62
269.377	83.62
269.609	75.62
269.841	69.62
270.073	86.62
270.306	79.62
270.538	80.62
270.77	69.62
271.002	80.62
271.234	96.62
271.466	77.62
271.698	77.62
271.93	73.62
272.162	73.62
272.394	84.62
272.626	87.62
272.858	76.62
273.09	74.62
273.322	81.62
273.553	68.62
273.785	72.62
274.017	54.62
274.249	80.62
274.481	76.62
274.713	88.62
274.945	86.62
275.176	73.62
275.408	81.62
275.64	68.62
275.872	71.62
276.104	97.62
276.335	78.62
276.567	72.62
276.799	79.62
277.031	73.62
277.262	77.62
277.494	76.62
277.726	81.62
277.957	82.62
278.189	92.62
278.421	85.62
278.652	79.62
278.884	100.62
279.115	76.62
279.347	91.62
279.579	77.62
279.81	80.62
280.042	87.62
280.273	92.62
280.505	82.62
280.736	89.62
280.968	61.62
281.199	85.62
281.431	80.62
281.662	93.62
281.894	79.62
282.125	76.62
282.356	82.62
282.588	85.62
282.819	78.62
283.051	74.62
283.282	78.62
283.513	80.62
283.745	89.62
283.976	77.62
284.207	85.62
284.439	72.62
284.67	88.62
284.901	68.62
285.132	91.62
285.364	81.62
285.595	72.62
285.826	78.62
286.057	80.62
286.288	85.62
286.52	94.62
286.751	74.62
286.982	71.62
287.213	79.62
287.444	90.62
287.675	90.62
287.906	84.62
288.138	92.62
288.369	80.62
288.6	73.62
288.831	82.62
289.062	89.62
289.293	92.62
289.524	90.62
289.755	87.62
289.986	77.62
290.217	81.62
290.448	78.62
290.679	97.62
290.91	94.62
291.141	80.62
291.371	79.62
291.602	100.62
291.833	82.62
292.064	81.62
292.295	74.62
292.526	90.62
292.757	74.62
292.987	91.62
293.218	76.62
293.449	98.62
293.68	85.62
293.91	82.62
294.141	86.62
294.372	69.62
294.603	84.62
294.833	95.62
295.064	86.62
295.295	81.62
295.525	76.62
295.756	93.62
295.987	72.62
296.217	77.62
296.448	72.62
296.679	74.62
296.909	78.62
297.14	69.62
297.37	73.62
297.601	78.62
297.831	82.62
298.062	89.62
298.292	74.62
298.523	89.62
298.753	95.62
298.984	86.62
299.214	84.62
299.445	81.62
299.675	78.62
299.905	81.62
300.136	82.62
300.366	83.62
300.597	80.62
300.827	78.62
301.057	84.62
301.288	77.62
301.518	88.62
301.748	90.62
301.979	71.62
302.209	90.62
302.439	80.62
302.669	86.62
302.9	98.62
303.13	93.62
303.36	87.62
303.59	84.62
303.82	65.62
304.051	70.62
304.281	80.62
304.511	76.62
304.741	74.62
304.971	76.62
305.201	85.62
305.431	79.62
305.661	81.62
305.891	75.62
306.121	78.62
306.352	83.62
306.582	86.62
306.812	91.62
307.042	89.62
307.272	92.62
307.502	82.62
307.731	89.62
307.961	87.62
308.191	78.62
308.421	89.62
308.651	77.62
308.881	78.62
309.111	80.62
309.341	83.62
309.571	81.62
309.8	65.62
310.03	95.62
310.26	71.62
310.49	95.62
310.72	84.62
310.949	94.62
311.179	74.62
311.409	92.62
311.639	89.62
311.868	89.62
312.098	75.62
312.328	89.62
312.557	84.62
312.787	73.62
313.017	95.62
313.246	88.62
313.476	82.62
313.706	70.62
313.935	86.62
314.165	82.62
314.394	79.62
314.624	72.62
314.853	88.62
315.083	76.62
315.312	87.62
315.542	80.62
315.771	94.62
316.001	108.62
316.23	88.62
316.46	73.62
316.689	80.62
316.919	79.62
317.148	83.62
317.377	92.62
317.607	80.62
317.836	67.62
318.065	81.62
318.295	85.62
318.524	69.62
318.753	87.62
318.983	80.62
319.212	78.62
319.441	75.62
319.67	88.62
319.9	90.62
320.129	77.62
320.358	83.62
320.587	82.62
320.816	89.62
321.046	78.62
321.275	80.62
321.504	81.62
321.733	83.62
321.962	81.62
322.191	78.62
322.42	83.62
322.649	84.62
322.878	94.62
323.108	97.62
323.337	96.62
323.566	78.62
323.795	70.62
324.024	89.62
324.253	79.62
324.482	73.62
324.71	78.62
324.939	85.62
325.168	79.62
325.397	77.62
325.626	93.62
325.855	81.62
326.084	83.62
326.313	75.62
326.542	104.62
326.77	84.62
326.999	90.62
327.228	91.62
327.457	95.62
327.686	87.62
327.914	81.62
328.143	88.62
328.372	90.62
328.6	75.62
328.829	68.62
329.058	89.62
329.287	93.62
329.515	87.62
329.744	79.62
329.972	100.62
330.201	84.62
330.43	78.62
330.658	95.62
330.887	88.62
331.115	80.62
331.344	80.62
331.572	81.62
331.801	88.62
332.03	87.62
332.258	80.62
332.486	72.62
332.715	94.62
332.943	73.62
333.172	76.62
333.4	81.62
333.629	71.62
333.857	83.62
334.085	88.62
334.314	76.62
334.542	82.62
334.771	78.62
334.999	82.62
335.227	83.62
335.455	87.62
335.684	72.62
335.912	74.62
336.14	88.62
336.369	100.62
336.597	80.62
336.825	82.62
337.053	82.62
337.281	90.62
337.51	85.62
337.738	83.62
337.966	74.62
338.194	80.62
338.422	81.62
338.65	76.62
338.878	74.62
339.106	79.62
339.334	80.62
339.562	89.62
339.79	77.62
340.018	85.62
340.246	83.62
340.474	105.62
340.702	86.62
340.93	72.62
341.158	86.62
341.386	72.62
341.614	87.62
341.842	73.62
342.07	75.62
342.298	96.62
342.526	85.62
342.754	86.62
342.981	79.62
343.209	80.62
343.437	85.62
343.665	71.62
343.893	70.62
344.12	76.62
344.348	81.62
344.576	76.62
344.804	85.62
345.031	75.62
345.259	79.62
345.487	79.62
345.714	86.62
345.942	84.62
346.17	87.62
346.397	92.62
346.625	78.62
346.853	86.62
347.08	87.62
347.308	94.62
347.535	95.62
347.763	85.62
347.99	78.62
348.218	84.62
348.445	86.62
348.673	74.62
348.9	85.62
349.128	71.62
349.355	80.62
349.583	93.62
349.81	80.62
350.037	68.62
350.265	86.62
350.492	73.62
350.72	96.62
350.947	75.62
351.174	73.62
351.402	76.62
351.629	79.62
351.856	85.62
352.083	95.62
352.311	86.62
352.538	90.62
352.765	77.62
352.992	71.62
353.22	93.62
353.447	85.62
353.674	80.62
353.901	85.62
354.128	80.62
354.355	84.62
354.583	73.62
354.81	85.62
355.037	83.62
355.264	81.62
355.491	87.62
355.718	81.62
355.945	82.62
356.172	85.62
356.399	93.62
356.626	105.62
356.853	96.62
357.08	80.62
357.307	86.62
357.534	95.62
357.761	78.62
357.988	88.62
358.215	80.62
358.441	65.62
358.668	82.62
358.895	70.62
359.122	85.62
359.349	72.62
359.576	77.62
359.802	82.62
360.029	84.62
360.256	90.62
360.483	78.62
360.709	81.62
360.936	88.62
361.163	96.62
361.39	74.62
361.616	70.62
361.843	79.62
362.07	84.62
362.296	69.62
362.523	71.62
362.749	74.62
362.976	75.62
363.203	89.62
363.429	84.62
363.656	92.62
363.882	64.62
364.109	71.62
364.335	83.62
364.562	78.62
364.788	82.62
365.015	73.62
365.241	66.62
365.468	81.62
365.694	84.62
365.92	73.62
366.147	86.62
366.373	84.62
366.599	81.62
366.826	79.62
367.052	75.62
367.278	77.62
367.505	87.62
367.731	91.62
367.957	77.62
368.184	80.62
368.41	90.62
368.636	84.62
368.862	73.62
369.089	74.62
369.315	78.62
369.541	72.62
369.767	85.62
369.993	67.62
370.219	86.62
370.445	77.62
370.672	93.62
370.898	73.62
371.124	87.62
371.35	76.62
371.576	80.62
371.802	80.62
372.028	77.62
372.254	84.62
372.48	94.62
372.706	77.62
372.932	73.62
373.158	80.62
373.384	94.62
373.61	77.62
373.835	83.62
374.061	72.62
374.287	71.62
374.513	84.62
374.739	83.62
374.965	76.62
375.191	70.62
375.416	82.62
375.642	74.62
375.868	83.62
376.094	93.62
376.319	82.62
376.545	91.62
376.771	89.62
376.997	82.62
377.222	84.62
377.448	82.62
377.674	68.62
377.899	78.62
378.125	90.62
378.35	77.62
378.576	85.62
378.802	84.62
379.027	74.62
379.253	92.62
379.478	71.62
379.704	80.62
379.929	78.62
380.155	82.62
380.38	80.62
380.606	78.62
380.831	79.62
381.057	84.62
381.282	77.62
381.507	75.62
381.733	77.62
381.958	96.62
382.184	70.62
382.409	70.62
382.634	78.62
382.86	78.62
383.085	73.62
383.31	96.62
383.535	90.62
383.761	78.62
383.986	79.62
384.211	77.62
384.436	74.62
384.662	80.62
384.887	84.62
385.112	80.62
385.337	75.62
385.562	84.62
385.787	86.62
386.013	93.62
386.238	75.62
386.463	86.62
386.688	88.62
386.913	65.62
387.138	88.62
387.363	90.62
387.588	78.62
387.813	99.62
388.038	85.62
388.263	78.62
388.488	82.62
388.713	92.62
388.938	95.62
389.163	89.62
389.387	83.62
389.612	79.62
389.837	94.62
390.062	85.62
390.287	69.62
390.512	79.62
390.736	64.62
390.961	77.62
391.186	97.62
391.411	82.62
391.636	79.62
391.86	84.62
392.085	81.62
392.31	69.62
392.534	86.62
392.759	88.62
392.984	74.62
393.208	86.62
393.433	86.62
393.658	84.62
393.882	78.62
394.107	90.62
394.331	84.62
394.556	82.62
394.78	90.62
395.005	84.62
395.229	80.62
395.454	81.62
395.678	84.62
395.903	78.62
396.127	70.62
396.352	83.62
396.576	70.62
396.801	81.62
397.025	80.62
397.249	96.62
397.474	96.62
397.698	82.62
397.922	86.62
398.147	82.62
398.371	83.62
398.595	78.62
398.82	100.62
399.044	78.62
399.268	84.62
399.492	80.62
399.717	90.62
399.941	81.62
400.165	81.62
400.389	79.62
400.613	89.62
400.837	81.62
401.062	87.62
401.286	92.62
401.51	84.62
401.734	84.62
401.958	87.62
402.182	72.62
402.406	83.62
402.63	98.62
402.854	96.62
403.078	89.62
403.302	70.62
403.526	71.62
403.75	89.62
403.974	84.62
404.198	85.62
404.422	89.62
404.645	100.62
404.869	77.62
405.093	88.62
405.317	89.62
405.541	79.62
405.765	99.62
405.988	84.62
406.212	85.62
406.436	84.62
406.66	86.62
406.883	80.62
407.107	83.62
407.331	89.62
407.555	93.62
407.778	87.62
408.002	87.62
408.226	75.62
408.449	79.62
408.673	81.62
408.896	74.62
409.12	87.62
409.344	88.62
409.567	89.62
409.791	95.62
410.014	88.62
410.238	85.62
410.461	84.62
410.685	82.62
410.908	86.62
411.132	100.62
411.355	91.62
411.578	90.62
411.802	93.62
412.025	81.62
412.249	82.62
412.472	82.62
412.695	93.62
412.919	95.62
413.142	98.62
413.365	83.62
413.589	81.62
413.812	73.62
414.035	97.62
414.258	73.62
414.482	81.62
414.705	84.62
414.928	92.62
415.151	90.62
415.374	86.62
415.597	96.62
415.821	86.62
416.044	91.62
416.267	89.62
416.49	90.62
416.713	79.62
416.936	85.62
417.159	75.62
417.382	91.62
417.605	70.62
417.828	85.62
418.051	88.62
418.274	89.62
418.497	91.62
418.72	98.62
418.943	88.62
419.166	95.62
419.389	94.62
419.611	84.62
419.834	94.62
420.057	100.62
420.28	83.62
420.503	92.62
420.726	89.62
420.948	91.62
421.171	85.62
421.394	89.62
421.617	77.62
421.839	84.62
422.062	79.62
422.285	73.62
422.507	82.62
422.73	92.62
422.953	77.62
423.175	87.62
423.398	90.62
423.621	93.62
423.843	89.62
424.066	97.62
424.288	96.62
424.511	104.62
424.733	102.62
424.956	108.62
425.178	88.62
425.401	90.62
425.623	93.62
425.846	90.62
426.068	94.62
426.291	94.62
426.513	85.62
426.735	90.62
426.958	91.62
427.18	89.62
427.402	86.62
427.625	88.62
427.847	96.62
428.069	87.62
428.292	88.62
428.514	97.62
428.736	91.62
428.958	85.62
429.181	86.62
429.403	86.62
429.625	93.62
429.847	80.62
430.069	99.62
430.292	89.62
430.514	81.62
430.736	86.62
430.958	87.62
431.18	85.62
431.402	74.62
431.624	85.62
431.846	76.62
432.068	69.62
432.29	86.62
432.512	91.62
432.734	83.62
432.956	97.62
433.178	100.62
433.4	88.62
433.622	88.62
433.844	93.62
434.066	97.62
434.287	87.62
434.509	82.62
434.731	83.62
434.953	73.62
435.175	89.62
435.397	96.62
435.618	94.62
435.84	97.62
436.062	77.62
436.284	84.62
436.505	92.62
436.727	105.62
436.949	92.62
437.17	90.62
437.392	81.62
437.614	86.62
437.835	89.62
438.057	80.62
438.278	89.62
438.5	84.62
438.721	90.62
438.943	97.62
439.165	107.62
439.386	90.62
439.608	100.62
439.829	92.62
440.05	92.62
440.272	84.62
440.493	68.62
440.715	91.62
440.936	96.62
441.158	99.62
441.379	94.62
441.6	89.62
441.822	94.62
442.043	97.62
442.264	96.62
442.486	83.62
442.707	90.62
442.928	94.62
443.149	85.62
443.371	99.62
443.592	94.62
443.813	84.62
444.034	87.62
444.255	95.62
444.476	97.62
444.698	88.62
444.919	89.62
445.14	224.62
445.361	148.62
445.582	108.62
445.803	88.62
446.024	90.62
446.245	103.62
446.466	104.62
446.687	100.62
446.908	108.62
447.129	93.62
447.35	98.62
447.571	89.62
447.792	96.62
448.013	95.62
448.234	101.62
448.455	102.62
448.675	98.62
448.896	94.62
449.117	106.62
449.338	94.62
449.559	87.62
449.779	84.62
450	81.62
450.221	93.62
450.442	90.62
450.662	91.62
450.883	80.62
451.104	101.62
451.324	93.62
451.545	78.62
451.766	85.62
451.986	85.62
452.207	89.62
452.428	83.62
452.648	82.62
452.869	77.62
453.089	94.62
453.31	96.62
453.53	92.62
453.751	89.62
453.971	91.62
454.192	82.62
454.412	89.62
454.633	76.62
454.853	81.62
455.073	87.62
455.294	88.62
455.514	88.62
455.734	90.62
455.955	91.62
456.175	91.62
456.395	75.62
456.616	97.62
456.836	88.62
457.056	100.62
457.276	80.62
457.497	88.62
457.717	85.62
457.937	92.62
458.157	88.62
458.377	85.62
458.598	88.62
458.818	78.62
459.038	83.62
459.258	77.62
459.478	89.62
459.698	84.62
459.918	72.62
460.138	80.62
460.358	90.62
460.578	74.62
460.798	95.62
461.018	71.62
461.238	82.62
461.458	93.62
461.678	73.62
461.898	95.62
462.118	87.62
462.338	100.62
462.558	80.62
462.777	80.62
462.997	86.62
463.217	74.62
463.437	94.62
463.657	73.62
463.876	75.62
464.096	72.62
464.316	76.62
464.536	99.62
464.755	87.62
464.975	89.62
465.195	95.62
465.414	86.62
465.634	84.62
465.854	95.62
466.073	85.62
466.293	85.62
466.512	80.62
466.732	97.62
466.951	86.62
467.171	85.62
467.391	86.62
467.61	72.62
467.829	95.62
468.049	82.62
468.268	92.62
468.488	86.62
468.707	100.62
468.927	97.62
469.146	96.62
469.365	85.62
469.585	87.62
469.804	91.62
470.023	96.62
470.243	99.62
470.462	84.62
470.681	83.62
470.901	100.62
471.12	93.62
471.339	97.62
471.558	86.62
471.777	88.62
471.997	92.62
472.216	85.62
472.435	82.62
472.654	79.62
472.873	97.62
473.092	75.62
473.311	99.62
473.53	90.62
473.749	93.62
473.968	98.62
474.187	74.62
474.406	74.62
474.625	95.62
474.844	84.62
475.063	90.62
475.282	93.62
475.501	92.62
475.72	96.62
475.939	70.62
476.158	88.62
476.377	78.62
476.596	82.62
476.814	77.62
477.033	80.62
477.252	95.62
477.471	75.62
477.69	96.62
477.908	96.62
478.127	105.62
478.346	89.62
478.564	95.62
478.783	100.62
479.002	99.62
479.22	96.62
479.439	100.62
479.658	93.62
479.876	111.62
480.095	80.62
480.313	97.62
480.532	96.62
480.751	75.62
480.969	95.62
481.188	89.62
481.406	80.62
481.624	73.62
481.843	84.62
482.061	85.62
482.28	71.62
482.498	77.62
482.717	85.62
482.935	98.62
483.153	120.62
483.372	90.62
483.59	101.62
483.808	91.62
484.027	99.62
484.245	87.62
484.463	92.62
484.681	108.62
484.9	87.62
485.118	101.62
485.336	84.62
485.554	82.62
485.772	96.62
485.99	75.62
486.209	76.62
486.427	84.62
486.645	83.62
486.863	87.62
487.081	99.62
487.299	97.62
487.517	97.62
487.735	95.62
487.953	109.62
488.171	111.62
488.389	87.62
488.607	100.62
488.825	89.62
489.043	83.62
489.261	90.62
489.479	90.62
489.696	88.62
489.914	90.62
490.132	89.62
490.35	78.62
490.568	112.62
490.786	82.62
491.003	91.62
491.221	112.62
491.439	92.62
491.657	113.62
491.874	116.62
492.092	114.62
492.31	117.62
492.527	114.62
492.745	111.62
492.963	116.62
493.18	104.62
493.398	106.62
493.615	105.62
493.833	101.62
494.05	99.62
494.268	82.62
494.485	94.62
494.703	111.62
494.92	104.62
495.138	104.62
495.355	103.62
495.573	104.62
495.79	108.62
496.008	104.62
496.225	113.62
496.442	114.62
496.66	103.62
496.877	112.62
497.094	111.62
497.312	94.62
497.529	88.62
497.746	97.62
497.963	89.62
498.181	93.62
498.398	101.62
498.615	88.62
498.832	99.62
499.049	82.62
499.267	89.62
499.484	81.62
499.701	82.62
499.918	80.62
500.135	83.62
500.352	87.62
500.569	96.62
500.786	95.62
501.003	85.62
501.22	85.62
501.437	78.62
501.654	94.62
501.871	95.62
502.088	92.62
502.305	89.62
502.522	102.62
502.739	83.62
502.956	105.62
503.172	117.62
503.389	94.62
503.606	80.62
503.823	83.62
504.04	82.62
504.256	88.62
504.473	87.62
504.69	97.62
504.907	89.62
505.123	87.62
505.34	107.62
505.557	95.62
505.773	94.62
505.99	99.62
506.207	78.62
506.423	95.62
506.64	85.62
506.856	110.62
507.073	88.62
507.289	101.62
507.506	83.62
507.722	85.62
507.939	84.62
508.155	94.62
508.372	104.62
508.588	93.62
508.805	92.62
509.021	93.62
509.238	95.62
509.454	83.62
509.67	95.62
509.887	88.62
510.103	82.62
510.319	92.62
510.536	70.62
510.752	83.62
510.968	84.62
511.184	76.62
511.401	82.62
511.617	94.62
511.833	76.62
512.049	83.62
512.265	90.62
512.481	87.62
512.698	77.62
512.914	91.62
513.13	95.62
513.346	94.62
513.562	76.62
513.778	84.62
513.994	77.62
514.21	78.62
514.426	77.62
514.642	81.62
514.858	76.62
515.074	71.62
515.29	87.62
515.506	81.62
515.721	82.62
515.937	88.62
516.153	87.62
516.369	89.62
516.585	74.62
516.801	85.62
517.016	80.62
517.232	88.62
517.448	92.62
517.664	80.62
517.879	89.62
518.095	81.62
518.311	93.62
518.527	79.62
