Data from Location5.07152019.Energy5.Lamp.07192019.3%Agarose_HRD10591_16-03-40-629.txt Node
Date: Fri Jul 19 16:03:40 EDT 2019
User: cochatt
Spectrometer: HR+D1059
Trigger mode: 1
Integration Time (sec): 1.000000E-1
Scans to average: 1
Electric dark correction enabled: true
Nonlinearity correction enabled: false
Boxcar width: 0
XAxis mode: Wavelengths
Number of Pixels in Spectrum: 2048
>>>>>Begin Spectral Data<<<<<
223.165	-17.5
223.4	-17.5
223.635	-17.5
223.869	-16.5
224.104	-23.5
224.338	-15.5
224.573	-3.5
224.808	-11.5
225.042	-10.5
225.277	-4.5
225.511	-4.5
225.746	-6.5
225.98	0.5
226.215	8.5
226.449	23.5
226.683	31.5
226.918	21.5
227.152	28.5
227.387	38.5
227.621	50.5
227.856	44.5
228.09	44.5
228.324	36.5
228.559	58.5
228.793	67.5
229.027	68.5
229.262	69.5
229.496	57.5
229.73	76.5
229.964	73.5
230.199	84.5
230.433	67.5
230.667	82.5
230.901	75.5
231.136	83.5
231.37	87.5
231.604	96.5
231.838	87.5
232.072	66.5
232.306	76.5
232.541	78.5
232.775	84.5
233.009	90.5
233.243	82.5
233.477	80.5
233.711	89.5
233.945	60.5
234.179	96.5
234.413	88.5
234.647	77.5
234.881	86.5
235.115	78.5
235.349	92.5
235.583	83.5
235.817	78.5
236.051	86.5
236.285	78.5
236.519	81.5
236.753	80.5
236.987	91.5
237.221	84.5
237.455	84.5
237.689	91.5
237.922	73.5
238.156	75.5
238.39	73.5
238.624	88.5
238.858	85.5
239.091	77.5
239.325	53.5
239.559	66.5
239.793	74.5
240.027	84.5
240.26	72.5
240.494	90.5
240.728	83.5
240.961	94.5
241.195	90.5
241.429	88.5
241.662	80.5
241.896	66.5
242.13	71.5
242.363	91.5
242.597	91.5
242.83	78.5
243.064	79.5
243.298	69.5
243.531	54.5
243.765	72.5
243.998	71.5
244.232	73.5
244.465	73.5
244.699	87.5
244.932	66.5
245.166	80.5
245.399	94.5
245.633	98.5
245.866	81.5
246.099	85.5
246.333	84.5
246.566	82.5
246.8	76.5
247.033	72.5
247.266	80.5
247.5	88.5
247.733	86.5
247.966	85.5
248.2	73.5
248.433	74.5
248.666	52.5
248.899	90.5
249.133	70.5
249.366	79.5
249.599	80.5
249.832	96.5
250.066	95.5
250.299	83.5
250.532	80.5
250.765	84.5
250.998	89.5
251.231	97.5
251.465	84.5
251.698	83.5
251.931	81.5
252.164	82.5
252.397	79.5
252.63	99.5
252.863	78.5
253.096	84.5
253.329	70.5
253.562	69.5
253.795	80.5
254.028	86.5
254.261	84.5
254.494	85.5
254.727	89.5
254.96	77.5
255.193	82.5
255.426	76.5
255.659	95.5
255.892	94.5
256.124	77.5
256.357	83.5
256.59	71.5
256.823	72.5
257.056	76.5
257.289	83.5
257.521	77.5
257.754	69.5
257.987	70.5
258.22	79.5
258.452	86.5
258.685	85.5
258.918	87.5
259.151	83.5
259.383	83.5
259.616	76.5
259.849	68.5
260.081	90.5
260.314	93.5
260.547	97.5
260.779	88.5
261.012	86.5
261.244	79.5
261.477	88.5
261.71	86.5
261.942	76.5
262.175	84.5
262.407	92.5
262.64	75.5
262.872	94.5
263.105	82.5
263.337	95.5
263.57	92.5
263.802	80.5
264.035	80.5
264.267	88.5
264.499	94.5
264.732	91.5
264.964	102.5
265.197	94.5
265.429	82.5
265.661	73.5
265.894	100.5
266.126	85.5
266.358	91.5
266.591	76.5
266.823	70.5
267.055	85.5
267.287	83.5
267.52	82.5
267.752	93.5
267.984	89.5
268.216	87.5
268.448	103.5
268.681	74.5
268.913	68.5
269.145	105.5
269.377	84.5
269.609	107.5
269.841	75.5
270.073	77.5
270.306	79.5
270.538	82.5
270.77	94.5
271.002	83.5
271.234	72.5
271.466	79.5
271.698	95.5
271.93	94.5
272.162	87.5
272.394	77.5
272.626	96.5
272.858	80.5
273.09	81.5
273.322	83.5
273.553	80.5
273.785	94.5
274.017	102.5
274.249	78.5
274.481	86.5
274.713	87.5
274.945	96.5
275.176	76.5
275.408	68.5
275.64	83.5
275.872	87.5
276.104	80.5
276.335	89.5
276.567	105.5
276.799	89.5
277.031	93.5
277.262	82.5
277.494	87.5
277.726	96.5
277.957	83.5
278.189	84.5
278.421	87.5
278.652	88.5
278.884	89.5
279.115	97.5
279.347	73.5
279.579	68.5
279.81	87.5
280.042	86.5
280.273	100.5
280.505	87.5
280.736	83.5
280.968	99.5
281.199	87.5
281.431	98.5
281.662	106.5
281.894	82.5
282.125	91.5
282.356	99.5
282.588	75.5
282.819	99.5
283.051	84.5
283.282	74.5
283.513	91.5
283.745	75.5
283.976	105.5
284.207	91.5
284.439	80.5
284.67	87.5
284.901	101.5
285.132	90.5
285.364	87.5
285.595	83.5
285.826	86.5
286.057	79.5
286.288	102.5
286.52	95.5
286.751	82.5
286.982	106.5
287.213	89.5
287.444	79.5
287.675	88.5
287.906	91.5
288.138	91.5
288.369	86.5
288.6	102.5
288.831	85.5
289.062	91.5
289.293	73.5
289.524	80.5
289.755	94.5
289.986	80.5
290.217	98.5
290.448	95.5
290.679	95.5
290.91	95.5
291.141	94.5
291.371	90.5
291.602	107.5
291.833	91.5
292.064	83.5
292.295	85.5
292.526	84.5
292.757	85.5
292.987	91.5
293.218	81.5
293.449	86.5
293.68	92.5
293.91	85.5
294.141	86.5
294.372	94.5
294.603	87.5
294.833	93.5
295.064	103.5
295.295	99.5
295.525	88.5
295.756	97.5
295.987	94.5
296.217	101.5
296.448	100.5
296.679	91.5
296.909	88.5
297.14	94.5
297.37	88.5
297.601	87.5
297.831	90.5
298.062	104.5
298.292	92.5
298.523	85.5
298.753	88.5
298.984	104.5
299.214	95.5
299.445	95.5
299.675	100.5
299.905	102.5
300.136	89.5
300.366	96.5
300.597	95.5
300.827	100.5
301.057	99.5
301.288	81.5
301.518	95.5
301.748	87.5
301.979	83.5
302.209	92.5
302.439	107.5
302.669	90.5
302.9	84.5
303.13	84.5
303.36	95.5
303.59	89.5
303.82	99.5
304.051	83.5
304.281	91.5
304.511	77.5
304.741	98.5
304.971	101.5
305.201	96.5
305.431	90.5
305.661	101.5
305.891	80.5
306.121	82.5
306.352	93.5
306.582	99.5
306.812	96.5
307.042	95.5
307.272	74.5
307.502	88.5
307.731	91.5
307.961	82.5
308.191	69.5
308.421	100.5
308.651	104.5
308.881	96.5
309.111	100.5
309.341	97.5
309.571	98.5
309.8	83.5
310.03	107.5
310.26	85.5
310.49	96.5
310.72	115.5
310.949	89.5
311.179	99.5
311.409	89.5
311.639	95.5
311.868	103.5
312.098	81.5
312.328	96.5
312.557	80.5
312.787	83.5
313.017	84.5
313.246	91.5
313.476	96.5
313.706	107.5
313.935	92.5
314.165	91.5
314.394	105.5
314.624	97.5
314.853	82.5
315.083	90.5
315.312	103.5
315.542	99.5
315.771	103.5
316.001	87.5
316.23	94.5
316.46	85.5
316.689	93.5
316.919	93.5
317.148	87.5
317.377	101.5
317.607	99.5
317.836	84.5
318.065	94.5
318.295	81.5
318.524	84.5
318.753	95.5
318.983	91.5
319.212	78.5
319.441	90.5
319.67	97.5
319.9	96.5
320.129	83.5
320.358	88.5
320.587	105.5
320.816	94.5
321.046	84.5
321.275	89.5
321.504	92.5
321.733	94.5
321.962	92.5
322.191	85.5
322.42	100.5
322.649	101.5
322.878	94.5
323.108	84.5
323.337	98.5
323.566	91.5
323.795	88.5
324.024	98.5
324.253	98.5
324.482	92.5
324.71	86.5
324.939	106.5
325.168	84.5
325.397	79.5
325.626	105.5
325.855	92.5
326.084	103.5
326.313	98.5
326.542	96.5
326.77	88.5
326.999	97.5
327.228	91.5
327.457	90.5
327.686	101.5
327.914	97.5
328.143	78.5
328.372	82.5
328.6	102.5
328.829	82.5
329.058	91.5
329.287	93.5
329.515	93.5
329.744	105.5
329.972	91.5
330.201	81.5
330.43	92.5
330.658	100.5
330.887	82.5
331.115	91.5
331.344	86.5
331.572	89.5
331.801	93.5
332.03	95.5
332.258	95.5
332.486	90.5
332.715	101.5
332.943	102.5
333.172	93.5
333.4	94.5
333.629	91.5
333.857	96.5
334.085	98.5
334.314	114.5
334.542	102.5
334.771	101.5
334.999	88.5
335.227	95.5
335.455	83.5
335.684	103.5
335.912	110.5
336.14	98.5
336.369	95.5
336.597	110.5
336.825	82.5
337.053	84.5
337.281	101.5
337.51	91.5
337.738	94.5
337.966	92.5
338.194	101.5
338.422	93.5
338.65	98.5
338.878	99.5
339.106	99.5
339.334	102.5
339.562	85.5
339.79	84.5
340.018	91.5
340.246	85.5
340.474	97.5
340.702	84.5
340.93	91.5
341.158	103.5
341.386	92.5
341.614	97.5
341.842	89.5
342.07	97.5
342.298	92.5
342.526	80.5
342.754	86.5
342.981	90.5
343.209	100.5
343.437	90.5
343.665	80.5
343.893	103.5
344.12	104.5
344.348	90.5
344.576	89.5
344.804	95.5
345.031	108.5
345.259	95.5
345.487	89.5
345.714	91.5
345.942	107.5
346.17	100.5
346.397	88.5
346.625	100.5
346.853	95.5
347.08	85.5
347.308	94.5
347.535	89.5
347.763	87.5
347.99	87.5
348.218	91.5
348.445	94.5
348.673	91.5
348.9	97.5
349.128	95.5
349.355	99.5
349.583	96.5
349.81	97.5
350.037	89.5
350.265	82.5
350.492	77.5
350.72	96.5
350.947	98.5
351.174	90.5
351.402	98.5
351.629	93.5
351.856	97.5
352.083	93.5
352.311	91.5
352.538	81.5
352.765	102.5
352.992	97.5
353.22	75.5
353.447	98.5
353.674	89.5
353.901	83.5
354.128	94.5
354.355	105.5
354.583	94.5
354.81	86.5
355.037	87.5
355.264	95.5
355.491	102.5
355.718	86.5
355.945	91.5
356.172	85.5
356.399	83.5
356.626	103.5
356.853	102.5
357.08	94.5
357.307	75.5
357.534	95.5
357.761	88.5
357.988	96.5
358.215	86.5
358.441	99.5
358.668	96.5
358.895	101.5
359.122	85.5
359.349	91.5
359.576	89.5
359.802	96.5
360.029	99.5
360.256	102.5
360.483	83.5
360.709	81.5
360.936	99.5
361.163	80.5
361.39	101.5
361.616	90.5
361.843	91.5
362.07	86.5
362.296	86.5
362.523	90.5
362.749	104.5
362.976	85.5
363.203	90.5
363.429	85.5
363.656	96.5
363.882	91.5
364.109	92.5
364.335	81.5
364.562	96.5
364.788	91.5
365.015	99.5
365.241	103.5
365.468	98.5
365.694	86.5
365.92	85.5
366.147	89.5
366.373	100.5
366.599	94.5
366.826	86.5
367.052	102.5
367.278	98.5
367.505	90.5
367.731	98.5
367.957	96.5
368.184	81.5
368.41	76.5
368.636	100.5
368.862	86.5
369.089	100.5
369.315	90.5
369.541	95.5
369.767	91.5
369.993	100.5
370.219	98.5
370.445	110.5
370.672	94.5
370.898	83.5
371.124	104.5
371.35	82.5
371.576	96.5
371.802	95.5
372.028	76.5
372.254	96.5
372.48	87.5
372.706	79.5
372.932	103.5
373.158	91.5
373.384	91.5
373.61	92.5
373.835	89.5
374.061	89.5
374.287	108.5
374.513	92.5
374.739	88.5
374.965	93.5
375.191	91.5
375.416	102.5
375.642	93.5
375.868	104.5
376.094	96.5
376.319	86.5
376.545	89.5
376.771	84.5
376.997	103.5
377.222	96.5
377.448	92.5
377.674	79.5
377.899	66.5
378.125	97.5
378.35	86.5
378.576	89.5
378.802	87.5
379.027	100.5
379.253	95.5
379.478	84.5
379.704	85.5
379.929	96.5
380.155	89.5
380.38	98.5
380.606	90.5
380.831	98.5
381.057	92.5
381.282	91.5
381.507	93.5
381.733	96.5
381.958	87.5
382.184	86.5
382.409	86.5
382.634	95.5
382.86	79.5
383.085	88.5
383.31	80.5
383.535	110.5
383.761	97.5
383.986	100.5
384.211	112.5
384.436	84.5
384.662	102.5
384.887	104.5
385.112	89.5
385.337	104.5
385.562	94.5
385.787	86.5
386.013	110.5
386.238	90.5
386.463	102.5
386.688	99.5
386.913	86.5
387.138	89.5
387.363	87.5
387.588	112.5
387.813	111.5
388.038	94.5
388.263	83.5
388.488	89.5
388.713	91.5
388.938	90.5
389.163	87.5
389.387	82.5
389.612	87.5
389.837	86.5
390.062	91.5
390.287	96.5
390.512	83.5
390.736	95.5
390.961	79.5
391.186	90.5
391.411	90.5
391.636	88.5
391.86	95.5
392.085	85.5
392.31	98.5
392.534	94.5
392.759	91.5
392.984	104.5
393.208	90.5
393.433	83.5
393.658	95.5
393.882	89.5
394.107	103.5
394.331	99.5
394.556	103.5
394.78	85.5
395.005	86.5
395.229	97.5
395.454	98.5
395.678	107.5
395.903	88.5
396.127	98.5
396.352	83.5
396.576	96.5
396.801	108.5
397.025	106.5
397.249	88.5
397.474	103.5
397.698	102.5
397.922	91.5
398.147	104.5
398.371	101.5
398.595	98.5
398.82	92.5
399.044	92.5
399.268	90.5
399.492	120.5
399.717	111.5
399.941	100.5
400.165	97.5
400.389	99.5
400.613	86.5
400.837	99.5
401.062	98.5
401.286	94.5
401.51	96.5
401.734	94.5
401.958	104.5
402.182	71.5
402.406	104.5
402.63	87.5
402.854	105.5
403.078	114.5
403.302	98.5
403.526	94.5
403.75	99.5
403.974	110.5
404.198	104.5
404.422	95.5
404.645	107.5
404.869	94.5
405.093	104.5
405.317	119.5
405.541	99.5
405.765	102.5
405.988	97.5
406.212	110.5
406.436	88.5
406.66	99.5
406.883	107.5
407.107	102.5
407.331	108.5
407.555	104.5
407.778	108.5
408.002	110.5
408.226	103.5
408.449	104.5
408.673	89.5
408.896	110.5
409.12	107.5
409.344	100.5
409.567	105.5
409.791	84.5
410.014	99.5
410.238	111.5
410.461	104.5
410.685	87.5
410.908	115.5
411.132	99.5
411.355	99.5
411.578	84.5
411.802	108.5
412.025	87.5
412.249	97.5
412.472	93.5
412.695	91.5
412.919	97.5
413.142	89.5
413.365	95.5
413.589	94.5
413.812	94.5
414.035	94.5
414.258	111.5
414.482	94.5
414.705	105.5
414.928	97.5
415.151	90.5
415.374	82.5
415.597	111.5
415.821	88.5
416.044	87.5
416.267	96.5
416.49	105.5
416.713	86.5
416.936	94.5
417.159	100.5
417.382	98.5
417.605	106.5
417.828	92.5
418.051	89.5
418.274	92.5
418.497	98.5
418.72	90.5
418.943	90.5
419.166	110.5
419.389	94.5
419.611	93.5
419.834	96.5
420.057	107.5
420.28	112.5
420.503	92.5
420.726	101.5
420.948	109.5
421.171	112.5
421.394	98.5
421.617	90.5
421.839	105.5
422.062	111.5
422.285	104.5
422.507	103.5
422.73	107.5
422.953	86.5
423.175	87.5
423.398	106.5
423.621	97.5
423.843	99.5
424.066	92.5
424.288	96.5
424.511	95.5
424.733	117.5
424.956	88.5
425.178	112.5
425.401	100.5
425.623	87.5
425.846	101.5
426.068	90.5
426.291	96.5
426.513	85.5
426.735	84.5
426.958	102.5
427.18	88.5
427.402	85.5
427.625	104.5
427.847	94.5
428.069	100.5
428.292	104.5
428.514	78.5
428.736	94.5
428.958	93.5
429.181	103.5
429.403	102.5
429.625	84.5
429.847	96.5
430.069	90.5
430.292	100.5
430.514	102.5
430.736	85.5
430.958	113.5
431.18	93.5
431.402	93.5
431.624	97.5
431.846	95.5
432.068	97.5
432.29	93.5
432.512	94.5
432.734	93.5
432.956	95.5
433.178	101.5
433.4	100.5
433.622	105.5
433.844	100.5
434.066	101.5
434.287	77.5
434.509	86.5
434.731	95.5
434.953	96.5
435.175	96.5
435.397	91.5
435.618	96.5
435.84	89.5
436.062	100.5
436.284	96.5
436.505	102.5
436.727	94.5
436.949	102.5
437.17	91.5
437.392	98.5
437.614	101.5
437.835	76.5
438.057	107.5
438.278	98.5
438.5	78.5
438.721	93.5
438.943	104.5
439.165	87.5
439.386	106.5
439.608	92.5
439.829	101.5
440.05	90.5
440.272	88.5
440.493	97.5
440.715	95.5
440.936	94.5
441.158	92.5
441.379	94.5
441.6	90.5
441.822	98.5
442.043	98.5
442.264	94.5
442.486	104.5
442.707	106.5
442.928	105.5
443.149	99.5
443.371	98.5
443.592	89.5
443.813	101.5
444.034	89.5
444.255	106.5
444.476	98.5
444.698	106.5
444.919	99.5
445.14	225.5
445.361	136.5
445.582	118.5
445.803	91.5
446.024	99.5
446.245	106.5
446.466	99.5
446.687	104.5
446.908	100.5
447.129	99.5
447.35	99.5
447.571	91.5
447.792	91.5
448.013	101.5
448.234	86.5
448.455	82.5
448.675	90.5
448.896	96.5
449.117	93.5
449.338	94.5
449.559	92.5
449.779	91.5
450	107.5
450.221	99.5
450.442	93.5
450.662	96.5
450.883	98.5
451.104	91.5
451.324	100.5
451.545	98.5
451.766	93.5
451.986	89.5
452.207	103.5
452.428	109.5
452.648	88.5
452.869	97.5
453.089	100.5
453.31	89.5
453.53	99.5
453.751	81.5
453.971	85.5
454.192	83.5
454.412	90.5
454.633	88.5
454.853	86.5
455.073	99.5
455.294	86.5
455.514	102.5
455.734	81.5
455.955	104.5
456.175	87.5
456.395	82.5
456.616	98.5
456.836	99.5
457.056	88.5
457.276	79.5
457.497	77.5
457.717	104.5
457.937	102.5
458.157	86.5
458.377	91.5
458.598	89.5
458.818	95.5
459.038	97.5
459.258	86.5
459.478	85.5
459.698	95.5
459.918	88.5
460.138	100.5
460.358	107.5
460.578	94.5
460.798	87.5
461.018	101.5
461.238	96.5
461.458	90.5
461.678	97.5
461.898	102.5
462.118	89.5
462.338	86.5
462.558	81.5
462.777	92.5
462.997	108.5
463.217	99.5
463.437	108.5
463.657	98.5
463.876	100.5
464.096	108.5
464.316	96.5
464.536	106.5
464.755	96.5
464.975	88.5
465.195	107.5
465.414	112.5
465.634	90.5
465.854	86.5
466.073	106.5
466.293	102.5
466.512	81.5
466.732	96.5
466.951	102.5
467.171	106.5
467.391	98.5
467.61	87.5
467.829	96.5
468.049	99.5
468.268	99.5
468.488	107.5
468.707	102.5
468.927	99.5
469.146	81.5
469.365	85.5
469.585	102.5
469.804	92.5
470.023	97.5
470.243	95.5
470.462	106.5
470.681	106.5
470.901	90.5
471.12	106.5
471.339	89.5
471.558	114.5
471.777	97.5
471.997	101.5
472.216	120.5
472.435	92.5
472.654	86.5
472.873	98.5
473.092	103.5
473.311	90.5
473.53	92.5
473.749	99.5
473.968	105.5
474.187	96.5
474.406	108.5
474.625	97.5
474.844	112.5
475.063	94.5
475.282	106.5
475.501	87.5
475.72	103.5
475.939	101.5
476.158	102.5
476.377	87.5
476.596	103.5
476.814	90.5
477.033	93.5
477.252	88.5
477.471	95.5
477.69	95.5
477.908	109.5
478.127	112.5
478.346	110.5
478.564	91.5
478.783	93.5
479.002	102.5
479.22	87.5
479.439	102.5
479.658	89.5
479.876	90.5
480.095	102.5
480.313	109.5
480.532	116.5
480.751	107.5
480.969	103.5
481.188	119.5
481.406	102.5
481.624	102.5
481.843	110.5
482.061	94.5
482.28	98.5
482.498	83.5
482.717	90.5
482.935	100.5
483.153	98.5
483.372	107.5
483.59	91.5
483.808	108.5
484.027	95.5
484.245	106.5
484.463	104.5
484.681	125.5
484.9	110.5
485.118	102.5
485.336	95.5
485.554	96.5
485.772	102.5
485.99	113.5
486.209	110.5
486.427	95.5
486.645	107.5
486.863	115.5
487.081	103.5
487.299	103.5
487.517	102.5
487.735	101.5
487.953	105.5
488.171	113.5
488.389	104.5
488.607	120.5
488.825	99.5
489.043	103.5
489.261	99.5
489.479	101.5
489.696	111.5
489.914	108.5
490.132	113.5
490.35	111.5
490.568	115.5
490.786	110.5
491.003	102.5
491.221	110.5
491.439	110.5
491.657	111.5
491.874	113.5
492.092	119.5
492.31	122.5
492.527	128.5
492.745	117.5
492.963	107.5
493.18	101.5
493.398	122.5
493.615	97.5
493.833	100.5
494.05	115.5
494.268	106.5
494.485	118.5
494.703	112.5
494.92	112.5
495.138	105.5
495.355	129.5
495.573	111.5
495.79	110.5
496.008	107.5
496.225	110.5
496.442	121.5
496.66	120.5
496.877	122.5
497.094	125.5
497.312	116.5
497.529	110.5
497.746	113.5
497.963	126.5
498.181	111.5
498.398	100.5
498.615	108.5
498.832	130.5
499.049	118.5
499.267	134.5
499.484	122.5
499.701	140.5
499.918	142.5
500.135	155.5
500.352	172.5
500.569	168.5
500.786	175.5
501.003	154.5
501.22	150.5
501.437	148.5
501.654	136.5
501.871	130.5
502.088	145.5
502.305	131.5
502.522	122.5
502.739	117.5
502.956	126.5
503.172	115.5
503.389	132.5
503.606	129.5
503.823	97.5
504.04	95.5
504.256	124.5
504.473	122.5
504.69	119.5
504.907	117.5
505.123	123.5
505.34	114.5
505.557	104.5
505.773	103.5
505.99	93.5
506.207	106.5
506.423	106.5
506.64	106.5
506.856	102.5
507.073	106.5
507.289	112.5
507.506	97.5
507.722	102.5
507.939	107.5
508.155	93.5
508.372	93.5
508.588	103.5
508.805	95.5
509.021	115.5
509.238	98.5
509.454	105.5
509.67	96.5
509.887	89.5
510.103	101.5
510.319	103.5
510.536	99.5
510.752	105.5
510.968	106.5
511.184	103.5
511.401	97.5
511.617	104.5
511.833	86.5
512.049	100.5
512.265	105.5
512.481	100.5
512.698	96.5
512.914	107.5
513.13	114.5
513.346	103.5
513.562	100.5
513.778	103.5
513.994	95.5
514.21	115.5
514.426	120.5
514.642	107.5
514.858	104.5
515.074	107.5
515.29	102.5
515.506	94.5
515.721	87.5
515.937	107.5
516.153	100.5
516.369	94.5
516.585	102.5
516.801	113.5
517.016	116.5
517.232	122.5
517.448	102.5
517.664	102.5
517.879	112.5
518.095	118.5
518.311	116.5
518.527	108.5
518.742	113.5
518.958	124.5
519.173	109.5
519.389	110.5
519.605	114.5
519.82	107.5
520.036	102.5
520.251	93.5
520.467	95.5
520.682	104.5
520.898	100.5
521.113	98.5
521.329	105.5
521.544	114.5
521.76	97.5
521.975	114.5
522.19	108.5
522.406	94.5
522.621	101.5
522.836	85.5
523.052	97.5
523.267	101.5
523.482	119.5
523.698	90.5
523.913	98.5
524.128	94.5
524.343	92.5
524.559	102.5
524.774	105.5
524.989	115.5
525.204	105.5
525.419	114.5
525.634	110.5
525.849	105.5
526.064	112.5
526.28	98.5
526.495	107.5
526.71	102.5
526.925	113.5
527.14	106.5
527.355	100.5
527.57	111.5
527.785	102.5
527.999	108.5
528.214	104.5
528.429	102.5
528.644	113.5
528.859	114.5
529.074	98.5
529.289	107.5
529.503	113.5
529.718	114.5
529.933	98.5
530.148	101.5
530.363	94.5
530.577	112.5
530.792	113.5
531.007	96.5
531.221	88.5
531.436	99.5
531.651	97.5
531.865	101.5
532.08	108.5
532.295	100.5
532.509	105.5
532.724	97.5
532.938	95.5
533.153	103.5
