Data from Location5.07152019.Energy5.Lamp.07192019.3%Agarose_HRD10591_16-04-35-646.txt Node
Date: Fri Jul 19 16:04:35 EDT 2019
User: cochatt
Spectrometer: HR+D1059
Trigger mode: 1
Integration Time (sec): 1.000000E-1
Scans to average: 1
Electric dark correction enabled: true
Nonlinearity correction enabled: false
Boxcar width: 0
XAxis mode: Wavelengths
Number of Pixels in Spectrum: 2048
>>>>>Begin Spectral Data<<<<<
223.165	-14.69
223.4	-14.69
223.635	-14.69
223.869	-18.69
224.104	-8.69
224.338	-9.69
224.573	-23.69
224.808	-18.69
225.042	-0.69
225.277	-11.69
225.511	-5.69
225.746	-9.69
225.98	-1.69
226.215	21.31
226.449	25.31
226.683	21.31
226.918	23.31
227.152	32.31
227.387	32.31
227.621	41.31
227.856	33.31
228.09	37.31
228.324	48.31
228.559	50.31
228.793	65.31
229.027	63.31
229.262	81.31
229.496	72.31
229.73	88.31
229.964	81.31
230.199	67.31
230.433	87.31
230.667	91.31
230.901	88.31
231.136	73.31
231.37	61.31
231.604	85.31
231.838	74.31
232.072	83.31
232.306	93.31
232.541	62.31
232.775	92.31
233.009	85.31
233.243	76.31
233.477	87.31
233.711	82.31
233.945	83.31
234.179	77.31
234.413	79.31
234.647	89.31
234.881	90.31
235.115	96.31
235.349	84.31
235.583	79.31
235.817	93.31
236.051	62.31
236.285	73.31
236.519	72.31
236.753	69.31
236.987	65.31
237.221	69.31
237.455	83.31
237.689	84.31
237.922	72.31
238.156	74.31
238.39	73.31
238.624	73.31
238.858	84.31
239.091	94.31
239.325	65.31
239.559	67.31
239.793	92.31
240.027	84.31
240.26	86.31
240.494	76.31
240.728	94.31
240.961	88.31
241.195	87.31
241.429	83.31
241.662	80.31
241.896	69.31
242.13	67.31
242.363	81.31
242.597	84.31
242.83	69.31
243.064	79.31
243.298	80.31
243.531	83.31
243.765	88.31
243.998	78.31
244.232	76.31
244.465	79.31
244.699	86.31
244.932	75.31
245.166	68.31
245.399	82.31
245.633	95.31
245.866	85.31
246.099	80.31
246.333	78.31
246.566	74.31
246.8	82.31
247.033	67.31
247.266	95.31
247.5	81.31
247.733	74.31
247.966	90.31
248.2	74.31
248.433	90.31
248.666	81.31
248.899	84.31
249.133	88.31
249.366	74.31
249.599	81.31
249.832	84.31
250.066	78.31
250.299	76.31
250.532	87.31
250.765	72.31
250.998	80.31
251.231	83.31
251.465	82.31
251.698	88.31
251.931	86.31
252.164	84.31
252.397	81.31
252.63	89.31
252.863	80.31
253.096	79.31
253.329	66.31
253.562	77.31
253.795	88.31
254.028	84.31
254.261	72.31
254.494	89.31
254.727	89.31
254.96	87.31
255.193	85.31
255.426	66.31
255.659	71.31
255.892	77.31
256.124	76.31
256.357	82.31
256.59	96.31
256.823	70.31
257.056	83.31
257.289	88.31
257.521	99.31
257.754	81.31
257.987	92.31
258.22	82.31
258.452	71.31
258.685	79.31
258.918	77.31
259.151	83.31
259.383	77.31
259.616	74.31
259.849	91.31
260.081	78.31
260.314	107.31
260.547	76.31
260.779	82.31
261.012	89.31
261.244	82.31
261.477	100.31
261.71	101.31
261.942	93.31
262.175	83.31
262.407	71.31
262.64	92.31
262.872	82.31
263.105	68.31
263.337	77.31
263.57	82.31
263.802	82.31
264.035	90.31
264.267	85.31
264.499	90.31
264.732	76.31
264.964	81.31
265.197	88.31
265.429	79.31
265.661	85.31
265.894	87.31
266.126	91.31
266.358	84.31
266.591	74.31
266.823	60.31
267.055	77.31
267.287	86.31
267.52	73.31
267.752	104.31
267.984	96.31
268.216	66.31
268.448	88.31
268.681	78.31
268.913	89.31
269.145	91.31
269.377	100.31
269.609	99.31
269.841	87.31
270.073	92.31
270.306	93.31
270.538	81.31
270.77	97.31
271.002	106.31
271.234	99.31
271.466	87.31
271.698	90.31
271.93	83.31
272.162	93.31
272.394	101.31
272.626	92.31
272.858	98.31
273.09	84.31
273.322	96.31
273.553	75.31
273.785	97.31
274.017	82.31
274.249	75.31
274.481	76.31
274.713	93.31
274.945	80.31
275.176	88.31
275.408	77.31
275.64	100.31
275.872	98.31
276.104	88.31
276.335	88.31
276.567	87.31
276.799	81.31
277.031	113.31
277.262	94.31
277.494	82.31
277.726	76.31
277.957	87.31
278.189	88.31
278.421	69.31
278.652	93.31
278.884	90.31
279.115	87.31
279.347	84.31
279.579	75.31
279.81	95.31
280.042	98.31
280.273	102.31
280.505	92.31
280.736	81.31
280.968	99.31
281.199	77.31
281.431	91.31
281.662	75.31
281.894	84.31
282.125	97.31
282.356	76.31
282.588	92.31
282.819	85.31
283.051	89.31
283.282	94.31
283.513	103.31
283.745	94.31
283.976	91.31
284.207	101.31
284.439	100.31
284.67	87.31
284.901	88.31
285.132	97.31
285.364	90.31
285.595	93.31
285.826	87.31
286.057	103.31
286.288	98.31
286.52	106.31
286.751	105.31
286.982	85.31
287.213	107.31
287.444	82.31
287.675	92.31
287.906	100.31
288.138	89.31
288.369	102.31
288.6	96.31
288.831	96.31
289.062	92.31
289.293	93.31
289.524	98.31
289.755	86.31
289.986	84.31
290.217	90.31
290.448	92.31
290.679	94.31
290.91	75.31
291.141	92.31
291.371	95.31
291.602	92.31
291.833	92.31
292.064	93.31
292.295	116.31
292.526	87.31
292.757	78.31
292.987	83.31
293.218	88.31
293.449	82.31
293.68	100.31
293.91	74.31
294.141	92.31
294.372	96.31
294.603	94.31
294.833	89.31
295.064	92.31
295.295	97.31
295.525	87.31
295.756	94.31
295.987	85.31
296.217	102.31
296.448	96.31
296.679	98.31
296.909	80.31
297.14	104.31
297.37	91.31
297.601	88.31
297.831	88.31
298.062	104.31
298.292	86.31
298.523	92.31
298.753	90.31
298.984	96.31
299.214	79.31
299.445	113.31
299.675	96.31
299.905	103.31
300.136	83.31
300.366	87.31
300.597	95.31
300.827	95.31
301.057	94.31
301.288	97.31
301.518	77.31
301.748	81.31
301.979	99.31
302.209	88.31
302.439	98.31
302.669	110.31
302.9	104.31
303.13	97.31
303.36	97.31
303.59	82.31
303.82	89.31
304.051	108.31
304.281	104.31
304.511	93.31
304.741	98.31
304.971	86.31
305.201	91.31
305.431	91.31
305.661	98.31
305.891	97.31
306.121	88.31
306.352	99.31
306.582	98.31
306.812	97.31
307.042	87.31
307.272	83.31
307.502	88.31
307.731	92.31
307.961	87.31
308.191	93.31
308.421	97.31
308.651	100.31
308.881	108.31
309.111	92.31
309.341	90.31
309.571	104.31
309.8	91.31
310.03	100.31
310.26	88.31
310.49	83.31
310.72	89.31
310.949	101.31
311.179	101.31
311.409	96.31
311.639	97.31
311.868	78.31
312.098	86.31
312.328	96.31
312.557	89.31
312.787	88.31
313.017	100.31
313.246	107.31
313.476	91.31
313.706	83.31
313.935	101.31
314.165	99.31
314.394	86.31
314.624	102.31
314.853	91.31
315.083	85.31
315.312	101.31
315.542	104.31
315.771	91.31
316.001	96.31
316.23	107.31
316.46	92.31
316.689	103.31
316.919	86.31
317.148	102.31
317.377	98.31
317.607	93.31
317.836	85.31
318.065	97.31
318.295	83.31
318.524	102.31
318.753	104.31
318.983	94.31
319.212	80.31
319.441	77.31
319.67	107.31
319.9	91.31
320.129	93.31
320.358	86.31
320.587	114.31
320.816	92.31
321.046	114.31
321.275	96.31
321.504	99.31
321.733	85.31
321.962	90.31
322.191	83.31
322.42	96.31
322.649	105.31
322.878	84.31
323.108	90.31
323.337	105.31
323.566	99.31
323.795	104.31
324.024	114.31
324.253	82.31
324.482	93.31
324.71	83.31
324.939	83.31
325.168	101.31
325.397	90.31
325.626	82.31
325.855	91.31
326.084	100.31
326.313	81.31
326.542	96.31
326.77	91.31
326.999	97.31
327.228	85.31
327.457	100.31
327.686	104.31
327.914	104.31
328.143	98.31
328.372	101.31
328.6	82.31
328.829	96.31
329.058	101.31
329.287	90.31
329.515	82.31
329.744	87.31
329.972	100.31
330.201	96.31
330.43	98.31
330.658	95.31
330.887	88.31
331.115	93.31
331.344	103.31
331.572	101.31
331.801	99.31
332.03	96.31
332.258	92.31
332.486	101.31
332.715	97.31
332.943	95.31
333.172	90.31
333.4	88.31
333.629	91.31
333.857	94.31
334.085	90.31
334.314	98.31
334.542	93.31
334.771	93.31
334.999	99.31
335.227	90.31
335.455	101.31
335.684	101.31
335.912	98.31
336.14	92.31
336.369	89.31
336.597	87.31
336.825	91.31
337.053	84.31
337.281	85.31
337.51	95.31
337.738	99.31
337.966	95.31
338.194	77.31
338.422	88.31
338.65	91.31
338.878	92.31
339.106	98.31
339.334	96.31
339.562	98.31
339.79	102.31
340.018	90.31
340.246	87.31
340.474	94.31
340.702	93.31
340.93	85.31
341.158	101.31
341.386	95.31
341.614	99.31
341.842	103.31
342.07	107.31
342.298	96.31
342.526	82.31
342.754	93.31
342.981	104.31
343.209	99.31
343.437	91.31
343.665	85.31
343.893	86.31
344.12	95.31
344.348	87.31
344.576	80.31
344.804	97.31
345.031	93.31
345.259	100.31
345.487	75.31
345.714	99.31
345.942	94.31
346.17	94.31
346.397	103.31
346.625	81.31
346.853	104.31
347.08	94.31
347.308	84.31
347.535	96.31
347.763	103.31
347.99	104.31
348.218	97.31
348.445	102.31
348.673	89.31
348.9	91.31
349.128	81.31
349.355	83.31
349.583	106.31
349.81	97.31
350.037	100.31
350.265	101.31
350.492	88.31
350.72	91.31
350.947	106.31
351.174	93.31
351.402	96.31
351.629	102.31
351.856	103.31
352.083	94.31
352.311	87.31
352.538	82.31
352.765	87.31
352.992	90.31
353.22	93.31
353.447	96.31
353.674	91.31
353.901	90.31
354.128	94.31
354.355	97.31
354.583	92.31
354.81	89.31
355.037	108.31
355.264	91.31
355.491	99.31
355.718	93.31
355.945	98.31
356.172	101.31
356.399	88.31
356.626	94.31
356.853	94.31
357.08	94.31
357.307	91.31
357.534	94.31
357.761	93.31
357.988	119.31
358.215	90.31
358.441	92.31
358.668	104.31
358.895	89.31
359.122	90.31
359.349	97.31
359.576	89.31
359.802	87.31
360.029	92.31
360.256	92.31
360.483	95.31
360.709	99.31
360.936	102.31
361.163	99.31
361.39	108.31
361.616	95.31
361.843	82.31
362.07	86.31
362.296	81.31
362.523	97.31
362.749	104.31
362.976	92.31
363.203	90.31
363.429	87.31
363.656	103.31
363.882	97.31
364.109	99.31
364.335	93.31
364.562	87.31
364.788	92.31
365.015	81.31
365.241	102.31
365.468	84.31
365.694	105.31
365.92	91.31
366.147	92.31
366.373	94.31
366.599	83.31
366.826	90.31
367.052	93.31
367.278	92.31
367.505	96.31
367.731	83.31
367.957	85.31
368.184	81.31
368.41	98.31
368.636	85.31
368.862	77.31
369.089	85.31
369.315	105.31
369.541	105.31
369.767	94.31
369.993	104.31
370.219	102.31
370.445	97.31
370.672	90.31
370.898	90.31
371.124	104.31
371.35	94.31
371.576	97.31
371.802	92.31
372.028	97.31
372.254	93.31
372.48	90.31
372.706	101.31
372.932	98.31
373.158	87.31
373.384	90.31
373.61	98.31
373.835	93.31
374.061	85.31
374.287	105.31
374.513	104.31
374.739	92.31
374.965	85.31
375.191	80.31
375.416	93.31
375.642	93.31
375.868	90.31
376.094	91.31
376.319	103.31
376.545	108.31
376.771	83.31
376.997	94.31
377.222	106.31
377.448	100.31
377.674	106.31
377.899	87.31
378.125	95.31
378.35	81.31
378.576	84.31
378.802	96.31
379.027	101.31
379.253	99.31
379.478	85.31
379.704	91.31
379.929	87.31
380.155	99.31
380.38	100.31
380.606	87.31
380.831	99.31
381.057	114.31
381.282	78.31
381.507	93.31
381.733	81.31
381.958	94.31
382.184	96.31
382.409	90.31
382.634	103.31
382.86	104.31
383.085	95.31
383.31	90.31
383.535	96.31
383.761	88.31
383.986	91.31
384.211	88.31
384.436	89.31
384.662	100.31
384.887	87.31
385.112	83.31
385.337	104.31
385.562	100.31
385.787	105.31
386.013	95.31
386.238	100.31
386.463	92.31
386.688	88.31
386.913	84.31
387.138	98.31
387.363	89.31
387.588	110.31
387.813	101.31
388.038	74.31
388.263	93.31
388.488	97.31
388.713	89.31
388.938	86.31
389.163	104.31
389.387	90.31
389.612	97.31
389.837	94.31
390.062	96.31
390.287	87.31
390.512	97.31
390.736	90.31
390.961	89.31
391.186	90.31
391.411	99.31
391.636	93.31
391.86	105.31
392.085	106.31
392.31	84.31
392.534	101.31
392.759	105.31
392.984	99.31
393.208	97.31
393.433	82.31
393.658	92.31
393.882	96.31
394.107	105.31
394.331	96.31
394.556	102.31
394.78	90.31
395.005	88.31
395.229	84.31
395.454	96.31
395.678	86.31
395.903	87.31
396.127	101.31
396.352	107.31
396.576	91.31
396.801	90.31
397.025	95.31
397.249	93.31
397.474	102.31
397.698	99.31
397.922	92.31
398.147	98.31
398.371	100.31
398.595	93.31
398.82	98.31
399.044	102.31
399.268	104.31
399.492	91.31
399.717	116.31
399.941	121.31
400.165	107.31
400.389	92.31
400.613	113.31
400.837	97.31
401.062	92.31
401.286	97.31
401.51	98.31
401.734	96.31
401.958	95.31
402.182	102.31
402.406	103.31
402.63	101.31
402.854	98.31
403.078	108.31
403.302	101.31
403.526	108.31
403.75	86.31
403.974	99.31
404.198	91.31
404.422	113.31
404.645	94.31
404.869	90.31
405.093	83.31
405.317	106.31
405.541	98.31
405.765	98.31
405.988	109.31
406.212	104.31
406.436	96.31
406.66	101.31
406.883	100.31
407.107	98.31
407.331	105.31
407.555	105.31
407.778	103.31
408.002	113.31
408.226	102.31
408.449	107.31
408.673	103.31
408.896	88.31
409.12	89.31
409.344	91.31
409.567	107.31
409.791	90.31
410.014	105.31
410.238	92.31
410.461	100.31
410.685	90.31
410.908	83.31
411.132	96.31
411.355	94.31
411.578	95.31
411.802	92.31
412.025	89.31
412.249	112.31
412.472	94.31
412.695	100.31
412.919	79.31
413.142	104.31
413.365	96.31
413.589	98.31
413.812	100.31
414.035	91.31
414.258	104.31
414.482	97.31
414.705	107.31
414.928	94.31
415.151	108.31
415.374	102.31
415.597	101.31
415.821	100.31
416.044	84.31
416.267	100.31
416.49	103.31
416.713	108.31
416.936	79.31
417.159	101.31
417.382	100.31
417.605	105.31
417.828	79.31
418.051	100.31
418.274	113.31
418.497	93.31
418.72	102.31
418.943	104.31
419.166	100.31
419.389	104.31
419.611	86.31
419.834	91.31
420.057	102.31
420.28	101.31
420.503	95.31
420.726	101.31
420.948	90.31
421.171	98.31
421.394	109.31
421.617	100.31
421.839	115.31
422.062	105.31
422.285	104.31
422.507	98.31
422.73	111.31
422.953	84.31
423.175	108.31
423.398	84.31
423.621	106.31
423.843	101.31
424.066	105.31
424.288	96.31
424.511	103.31
424.733	107.31
424.956	90.31
425.178	93.31
425.401	106.31
425.623	97.31
425.846	98.31
426.068	103.31
426.291	91.31
426.513	88.31
426.735	78.31
426.958	107.31
427.18	88.31
427.402	101.31
427.625	94.31
427.847	85.31
428.069	93.31
428.292	92.31
428.514	92.31
428.736	82.31
428.958	98.31
429.181	103.31
429.403	92.31
429.625	100.31
429.847	88.31
430.069	86.31
430.292	100.31
430.514	91.31
430.736	108.31
430.958	93.31
431.18	89.31
431.402	97.31
431.624	94.31
431.846	96.31
432.068	85.31
432.29	97.31
432.512	85.31
432.734	96.31
432.956	92.31
433.178	97.31
433.4	78.31
433.622	89.31
433.844	99.31
434.066	94.31
434.287	85.31
434.509	102.31
434.731	81.31
434.953	100.31
435.175	96.31
435.397	90.31
435.618	81.31
435.84	78.31
436.062	95.31
436.284	99.31
436.505	106.31
436.727	98.31
436.949	91.31
437.17	98.31
437.392	108.31
437.614	83.31
437.835	105.31
438.057	104.31
438.278	88.31
438.5	99.31
438.721	85.31
438.943	97.31
439.165	97.31
439.386	99.31
439.608	85.31
439.829	81.31
440.05	95.31
440.272	94.31
440.493	93.31
440.715	85.31
440.936	88.31
441.158	103.31
441.379	92.31
441.6	92.31
441.822	101.31
442.043	82.31
442.264	91.31
442.486	88.31
442.707	109.31
442.928	97.31
443.149	99.31
443.371	97.31
443.592	97.31
443.813	100.31
444.034	95.31
444.255	100.31
444.476	101.31
444.698	101.31
444.919	92.31
445.14	231.31
445.361	168.31
445.582	112.31
445.803	109.31
446.024	84.31
446.245	105.31
446.466	86.31
446.687	83.31
446.908	101.31
447.129	91.31
447.35	88.31
447.571	97.31
447.792	91.31
448.013	96.31
448.234	91.31
448.455	96.31
448.675	77.31
448.896	95.31
449.117	92.31
449.338	97.31
449.559	86.31
449.779	115.31
450	100.31
450.221	86.31
450.442	102.31
450.662	96.31
450.883	90.31
451.104	87.31
451.324	96.31
451.545	99.31
451.766	105.31
451.986	91.31
452.207	86.31
452.428	92.31
452.648	96.31
452.869	101.31
453.089	104.31
453.31	106.31
453.53	96.31
453.751	94.31
453.971	115.31
454.192	93.31
454.412	88.31
454.633	88.31
454.853	91.31
455.073	88.31
455.294	92.31
455.514	90.31
455.734	91.31
455.955	91.31
456.175	82.31
456.395	85.31
456.616	96.31
456.836	83.31
457.056	94.31
457.276	87.31
457.497	90.31
457.717	93.31
457.937	90.31
458.157	104.31
458.377	90.31
458.598	86.31
458.818	99.31
459.038	86.31
459.258	94.31
459.478	97.31
459.698	80.31
459.918	104.31
460.138	86.31
460.358	106.31
460.578	92.31
460.798	102.31
461.018	103.31
461.238	100.31
461.458	102.31
461.678	84.31
461.898	103.31
462.118	94.31
462.338	99.31
462.558	104.31
462.777	104.31
462.997	116.31
463.217	111.31
463.437	109.31
463.657	86.31
463.876	97.31
464.096	96.31
464.316	102.31
464.536	103.31
464.755	102.31
464.975	105.31
465.195	105.31
465.414	109.31
465.634	94.31
465.854	106.31
466.073	96.31
466.293	93.31
466.512	93.31
466.732	106.31
466.951	110.31
467.171	100.31
467.391	100.31
467.61	105.31
467.829	89.31
468.049	98.31
468.268	115.31
468.488	92.31
468.707	97.31
468.927	91.31
469.146	97.31
469.365	101.31
469.585	90.31
469.804	101.31
470.023	100.31
470.243	108.31
470.462	90.31
470.681	92.31
470.901	110.31
471.12	83.31
471.339	106.31
471.558	99.31
471.777	88.31
471.997	111.31
472.216	99.31
472.435	92.31
472.654	103.31
472.873	94.31
473.092	90.31
473.311	96.31
473.53	94.31
473.749	110.31
473.968	104.31
474.187	112.31
474.406	97.31
474.625	120.31
474.844	104.31
475.063	97.31
475.282	87.31
475.501	96.31
475.72	91.31
475.939	89.31
476.158	89.31
476.377	97.31
476.596	100.31
476.814	98.31
477.033	101.31
477.252	87.31
477.471	93.31
477.69	108.31
477.908	98.31
478.127	100.31
478.346	103.31
478.564	90.31
478.783	96.31
479.002	95.31
479.22	91.31
479.439	99.31
479.658	106.31
479.876	84.31
480.095	92.31
480.313	98.31
480.532	101.31
480.751	108.31
480.969	102.31
481.188	93.31
481.406	94.31
481.624	99.31
481.843	84.31
482.061	100.31
482.28	108.31
482.498	95.31
482.717	119.31
482.935	98.31
483.153	99.31
483.372	102.31
483.59	100.31
483.808	113.31
484.027	104.31
484.245	97.31
484.463	116.31
484.681	102.31
484.9	103.31
485.118	95.31
485.336	104.31
485.554	109.31
485.772	86.31
485.99	101.31
486.209	104.31
486.427	89.31
486.645	111.31
486.863	102.31
487.081	121.31
487.299	104.31
487.517	107.31
487.735	99.31
487.953	123.31
488.171	103.31
488.389	92.31
488.607	94.31
488.825	97.31
489.043	100.31
489.261	103.31
489.479	89.31
489.696	107.31
489.914	112.31
490.132	117.31
490.35	116.31
490.568	102.31
490.786	104.31
491.003	113.31
491.221	99.31
491.439	117.31
491.657	112.31
491.874	119.31
492.092	102.31
492.31	100.31
492.527	101.31
492.745	106.31
492.963	118.31
493.18	122.31
493.398	115.31
493.615	102.31
493.833	126.31
494.05	92.31
494.268	115.31
494.485	103.31
494.703	104.31
494.92	109.31
495.138	115.31
495.355	121.31
495.573	113.31
495.79	103.31
496.008	89.31
496.225	105.31
496.442	99.31
496.66	116.31
496.877	106.31
497.094	121.31
497.312	94.31
497.529	97.31
497.746	113.31
497.963	107.31
498.181	107.31
498.398	106.31
498.615	108.31
498.832	97.31
499.049	123.31
499.267	106.31
499.484	132.31
499.701	130.31
499.918	134.31
500.135	138.31
500.352	150.31
500.569	154.31
500.786	151.31
501.003	145.31
501.22	148.31
501.437	125.31
501.654	126.31
501.871	120.31
502.088	128.31
502.305	121.31
502.522	109.31
502.739	113.31
502.956	105.31
503.172	100.31
503.389	99.31
503.606	110.31
503.823	98.31
504.04	101.31
504.256	110.31
504.473	108.31
504.69	98.31
504.907	101.31
505.123	96.31
505.34	97.31
505.557	99.31
505.773	100.31
505.99	96.31
506.207	106.31
506.423	97.31
506.64	84.31
506.856	100.31
507.073	106.31
507.289	101.31
507.506	103.31
507.722	105.31
507.939	91.31
508.155	107.31
508.372	97.31
508.588	115.31
508.805	108.31
509.021	101.31
509.238	101.31
509.454	90.31
509.67	98.31
509.887	102.31
510.103	87.31
510.319	90.31
510.536	108.31
510.752	107.31
510.968	114.31
511.184	100.31
511.401	90.31
511.617	92.31
511.833	98.31
512.049	101.31
512.265	107.31
512.481	103.31
512.698	108.31
512.914	98.31
513.13	106.31
513.346	91.31
513.562	91.31
513.778	95.31
513.994	96.31
