Data from Location5.07152019.Energy5.Lamp.07192019.3%Agarose_HRD10591_15-37-33-387.txt Node
Date: Fri Jul 19 15:37:33 EDT 2019
User: cochatt
Spectrometer: HR+D1059
Trigger mode: 1
Integration Time (sec): 1.000000E-1
Scans to average: 1
Electric dark correction enabled: true
Nonlinearity correction enabled: false
Boxcar width: 0
XAxis mode: Wavelengths
Number of Pixels in Spectrum: 2048
>>>>>Begin Spectral Data<<<<<
223.165	-9.69
223.4	-9.69
223.635	-9.69
223.869	-22.69
224.104	-23.69
224.338	-6.69
224.573	-7.69
224.808	-0.69
225.042	-14.69
225.277	-19.69
225.511	5.31
225.746	1.31
225.98	4.31
226.215	13.31
226.449	13.31
226.683	5.31
226.918	30.31
227.152	32.31
227.387	28.31
227.621	42.31
227.856	49.31
228.09	36.31
228.324	60.31
228.559	63.31
228.793	64.31
229.027	67.31
229.262	62.31
229.496	63.31
229.73	75.31
229.964	72.31
230.199	60.31
230.433	79.31
230.667	77.31
230.901	67.31
231.136	89.31
231.37	94.31
231.604	89.31
231.838	72.31
232.072	70.31
232.306	81.31
232.541	80.31
232.775	86.31
233.009	71.31
233.243	77.31
233.477	74.31
233.711	79.31
233.945	89.31
234.179	75.31
234.413	84.31
234.647	74.31
234.881	81.31
235.115	87.31
235.349	83.31
235.583	91.31
235.817	83.31
236.051	65.31
236.285	72.31
236.519	82.31
236.753	76.31
236.987	76.31
237.221	84.31
237.455	73.31
237.689	83.31
237.922	72.31
238.156	73.31
238.39	77.31
238.624	63.31
238.858	83.31
239.091	75.31
239.325	76.31
239.559	88.31
239.793	70.31
240.027	77.31
240.26	71.31
240.494	73.31
240.728	73.31
240.961	57.31
241.195	77.31
241.429	72.31
241.662	86.31
241.896	83.31
242.13	86.31
242.363	82.31
242.597	80.31
242.83	76.31
243.064	72.31
243.298	79.31
243.531	68.31
243.765	78.31
243.998	92.31
244.232	84.31
244.465	89.31
244.699	78.31
244.932	70.31
245.166	90.31
245.399	80.31
245.633	77.31
245.866	89.31
246.099	68.31
246.333	74.31
246.566	80.31
246.8	84.31
247.033	75.31
247.266	81.31
247.5	74.31
247.733	79.31
247.966	82.31
248.2	75.31
248.433	80.31
248.666	85.31
248.899	92.31
249.133	67.31
249.366	75.31
249.599	84.31
249.832	66.31
250.066	86.31
250.299	83.31
250.532	89.31
250.765	80.31
250.998	84.31
251.231	81.31
251.465	92.31
251.698	82.31
251.931	77.31
252.164	91.31
252.397	93.31
252.63	72.31
252.863	69.31
253.096	88.31
253.329	88.31
253.562	79.31
253.795	94.31
254.028	90.31
254.261	85.31
254.494	88.31
254.727	79.31
254.96	88.31
255.193	90.31
255.426	84.31
255.659	69.31
255.892	93.31
256.124	74.31
256.357	73.31
256.59	81.31
256.823	81.31
257.056	78.31
257.289	85.31
257.521	83.31
257.754	80.31
257.987	81.31
258.22	79.31
258.452	71.31
258.685	90.31
258.918	71.31
259.151	85.31
259.383	78.31
259.616	74.31
259.849	81.31
260.081	74.31
260.314	87.31
260.547	83.31
260.779	87.31
261.012	75.31
261.244	77.31
261.477	88.31
261.71	77.31
261.942	69.31
262.175	67.31
262.407	82.31
262.64	74.31
262.872	73.31
263.105	80.31
263.337	99.31
263.57	71.31
263.802	81.31
264.035	76.31
264.267	72.31
264.499	84.31
264.732	92.31
264.964	76.31
265.197	83.31
265.429	81.31
265.661	85.31
265.894	84.31
266.126	89.31
266.358	89.31
266.591	74.31
266.823	83.31
267.055	82.31
267.287	82.31
267.52	98.31
267.752	76.31
267.984	89.31
268.216	99.31
268.448	97.31
268.681	87.31
268.913	85.31
269.145	88.31
269.377	88.31
269.609	84.31
269.841	68.31
270.073	78.31
270.306	79.31
270.538	95.31
270.77	72.31
271.002	89.31
271.234	81.31
271.466	89.31
271.698	88.31
271.93	87.31
272.162	75.31
272.394	88.31
272.626	90.31
272.858	62.31
273.09	76.31
273.322	75.31
273.553	74.31
273.785	90.31
274.017	73.31
274.249	85.31
274.481	94.31
274.713	68.31
274.945	78.31
275.176	80.31
275.408	96.31
275.64	96.31
275.872	97.31
276.104	85.31
276.335	81.31
276.567	79.31
276.799	87.31
277.031	89.31
277.262	87.31
277.494	87.31
277.726	102.31
277.957	75.31
278.189	80.31
278.421	74.31
278.652	98.31
278.884	101.31
279.115	97.31
279.347	88.31
279.579	89.31
279.81	80.31
280.042	89.31
280.273	82.31
280.505	63.31
280.736	77.31
280.968	83.31
281.199	80.31
281.431	82.31
281.662	85.31
281.894	93.31
282.125	80.31
282.356	85.31
282.588	92.31
282.819	81.31
283.051	70.31
283.282	95.31
283.513	89.31
283.745	92.31
283.976	91.31
284.207	92.31
284.439	95.31
284.67	76.31
284.901	83.31
285.132	93.31
285.364	89.31
285.595	91.31
285.826	109.31
286.057	98.31
286.288	80.31
286.52	92.31
286.751	83.31
286.982	72.31
287.213	89.31
287.444	90.31
287.675	82.31
287.906	94.31
288.138	91.31
288.369	77.31
288.6	81.31
288.831	85.31
289.062	96.31
289.293	91.31
289.524	98.31
289.755	79.31
289.986	82.31
290.217	78.31
290.448	78.31
290.679	91.31
290.91	84.31
291.141	83.31
291.371	86.31
291.602	77.31
291.833	95.31
292.064	90.31
292.295	89.31
292.526	96.31
292.757	84.31
292.987	92.31
293.218	91.31
293.449	82.31
293.68	92.31
293.91	81.31
294.141	72.31
294.372	84.31
294.603	97.31
294.833	81.31
295.064	88.31
295.295	82.31
295.525	97.31
295.756	95.31
295.987	97.31
296.217	79.31
296.448	87.31
296.679	74.31
296.909	94.31
297.14	77.31
297.37	84.31
297.601	100.31
297.831	88.31
298.062	95.31
298.292	86.31
298.523	91.31
298.753	84.31
298.984	94.31
299.214	85.31
299.445	73.31
299.675	84.31
299.905	84.31
300.136	72.31
300.366	81.31
300.597	85.31
300.827	75.31
301.057	99.31
301.288	88.31
301.518	82.31
301.748	90.31
301.979	90.31
302.209	79.31
302.439	88.31
302.669	81.31
302.9	78.31
303.13	90.31
303.36	85.31
303.59	79.31
303.82	78.31
304.051	94.31
304.281	98.31
304.511	92.31
304.741	69.31
304.971	82.31
305.201	83.31
305.431	73.31
305.661	87.31
305.891	73.31
306.121	83.31
306.352	91.31
306.582	72.31
306.812	90.31
307.042	79.31
307.272	85.31
307.502	75.31
307.731	85.31
307.961	75.31
308.191	79.31
308.421	73.31
308.651	81.31
308.881	86.31
309.111	91.31
309.341	82.31
309.571	87.31
309.8	91.31
310.03	89.31
310.26	91.31
310.49	75.31
310.72	80.31
310.949	85.31
311.179	98.31
311.409	83.31
311.639	90.31
311.868	78.31
312.098	107.31
312.328	93.31
312.557	92.31
312.787	93.31
313.017	89.31
313.246	89.31
313.476	84.31
313.706	77.31
313.935	86.31
314.165	85.31
314.394	84.31
314.624	94.31
314.853	88.31
315.083	76.31
315.312	76.31
315.542	71.31
315.771	96.31
316.001	84.31
316.23	82.31
316.46	79.31
316.689	83.31
316.919	79.31
317.148	100.31
317.377	73.31
317.607	91.31
317.836	90.31
318.065	96.31
318.295	86.31
318.524	88.31
318.753	86.31
318.983	81.31
319.212	84.31
319.441	88.31
319.67	82.31
319.9	83.31
320.129	87.31
320.358	103.31
320.587	93.31
320.816	83.31
321.046	98.31
321.275	93.31
321.504	73.31
321.733	78.31
321.962	85.31
322.191	97.31
322.42	80.31
322.649	85.31
322.878	90.31
323.108	79.31
323.337	93.31
323.566	89.31
323.795	71.31
324.024	81.31
324.253	75.31
324.482	76.31
324.71	90.31
324.939	86.31
325.168	68.31
325.397	101.31
325.626	103.31
325.855	83.31
326.084	85.31
326.313	89.31
326.542	84.31
326.77	88.31
326.999	87.31
327.228	91.31
327.457	96.31
327.686	95.31
327.914	98.31
328.143	89.31
328.372	77.31
328.6	81.31
328.829	89.31
329.058	88.31
329.287	91.31
329.515	85.31
329.744	84.31
329.972	83.31
330.201	89.31
330.43	75.31
330.658	87.31
330.887	89.31
331.115	86.31
331.344	79.31
331.572	97.31
331.801	90.31
332.03	108.31
332.258	99.31
332.486	84.31
332.715	93.31
332.943	97.31
333.172	81.31
333.4	74.31
333.629	88.31
333.857	84.31
334.085	77.31
334.314	88.31
334.542	93.31
334.771	78.31
334.999	99.31
335.227	76.31
335.455	88.31
335.684	83.31
335.912	82.31
336.14	87.31
336.369	93.31
336.597	86.31
336.825	84.31
337.053	84.31
337.281	75.31
337.51	86.31
337.738	92.31
337.966	83.31
338.194	89.31
338.422	86.31
338.65	92.31
338.878	92.31
339.106	97.31
339.334	98.31
339.562	88.31
339.79	100.31
340.018	89.31
340.246	90.31
340.474	91.31
340.702	73.31
340.93	73.31
341.158	94.31
341.386	89.31
341.614	89.31
341.842	99.31
342.07	78.31
342.298	85.31
342.526	91.31
342.754	96.31
342.981	87.31
343.209	103.31
343.437	103.31
343.665	84.31
343.893	91.31
344.12	95.31
344.348	95.31
344.576	95.31
344.804	77.31
345.031	62.31
345.259	78.31
345.487	79.31
345.714	85.31
345.942	94.31
346.17	85.31
346.397	86.31
346.625	63.31
346.853	91.31
347.08	86.31
347.308	86.31
347.535	80.31
347.763	87.31
347.99	88.31
348.218	77.31
348.445	79.31
348.673	80.31
348.9	96.31
349.128	86.31
349.355	85.31
349.583	92.31
349.81	84.31
350.037	86.31
350.265	87.31
350.492	97.31
350.72	83.31
350.947	84.31
351.174	105.31
351.402	86.31
351.629	82.31
351.856	80.31
352.083	91.31
352.311	82.31
352.538	79.31
352.765	87.31
352.992	86.31
353.22	77.31
353.447	80.31
353.674	80.31
353.901	95.31
354.128	95.31
354.355	100.31
354.583	83.31
354.81	87.31
355.037	83.31
355.264	70.31
355.491	69.31
355.718	95.31
355.945	85.31
356.172	73.31
356.399	76.31
356.626	82.31
356.853	90.31
357.08	86.31
357.307	87.31
357.534	84.31
357.761	80.31
357.988	77.31
358.215	76.31
358.441	79.31
358.668	83.31
358.895	91.31
359.122	97.31
359.349	83.31
359.576	80.31
359.802	83.31
360.029	85.31
360.256	90.31
360.483	83.31
360.709	76.31
360.936	88.31
361.163	85.31
361.39	94.31
361.616	91.31
361.843	81.31
362.07	72.31
362.296	83.31
362.523	78.31
362.749	82.31
362.976	93.31
363.203	95.31
363.429	93.31
363.656	87.31
363.882	75.31
364.109	72.31
364.335	95.31
364.562	93.31
364.788	81.31
365.015	83.31
365.241	99.31
365.468	89.31
365.694	86.31
365.92	93.31
366.147	82.31
366.373	86.31
366.599	88.31
366.826	81.31
367.052	82.31
367.278	82.31
367.505	86.31
367.731	91.31
367.957	94.31
368.184	91.31
368.41	78.31
368.636	91.31
368.862	87.31
369.089	78.31
369.315	88.31
369.541	81.31
369.767	85.31
369.993	85.31
370.219	69.31
370.445	73.31
370.672	96.31
370.898	88.31
371.124	82.31
371.35	79.31
371.576	93.31
371.802	91.31
372.028	97.31
372.254	88.31
372.48	86.31
372.706	90.31
372.932	90.31
373.158	93.31
373.384	88.31
373.61	93.31
373.835	82.31
374.061	88.31
374.287	94.31
374.513	85.31
374.739	72.31
374.965	77.31
375.191	91.31
375.416	72.31
375.642	72.31
375.868	78.31
376.094	79.31
376.319	80.31
376.545	80.31
376.771	96.31
376.997	83.31
377.222	86.31
377.448	85.31
377.674	80.31
377.899	91.31
378.125	75.31
378.35	97.31
378.576	96.31
378.802	72.31
379.027	88.31
379.253	76.31
379.478	76.31
379.704	77.31
379.929	79.31
380.155	96.31
380.38	81.31
380.606	98.31
380.831	98.31
381.057	98.31
381.282	87.31
381.507	95.31
381.733	84.31
381.958	87.31
382.184	83.31
382.409	95.31
382.634	87.31
382.86	83.31
383.085	88.31
383.31	86.31
383.535	92.31
383.761	93.31
383.986	87.31
384.211	83.31
384.436	81.31
384.662	87.31
384.887	80.31
385.112	81.31
385.337	99.31
385.562	83.31
385.787	95.31
386.013	97.31
386.238	84.31
386.463	86.31
386.688	84.31
386.913	87.31
387.138	97.31
387.363	95.31
387.588	96.31
387.813	83.31
388.038	80.31
388.263	85.31
388.488	92.31
388.713	86.31
388.938	93.31
389.163	74.31
389.387	92.31
389.612	75.31
389.837	89.31
390.062	86.31
390.287	80.31
390.512	88.31
390.736	81.31
390.961	89.31
391.186	92.31
391.411	91.31
391.636	83.31
391.86	73.31
392.085	99.31
392.31	97.31
392.534	85.31
392.759	90.31
392.984	84.31
393.208	90.31
393.433	80.31
393.658	88.31
393.882	85.31
394.107	92.31
394.331	80.31
394.556	92.31
394.78	92.31
395.005	90.31
395.229	83.31
395.454	95.31
395.678	92.31
395.903	92.31
396.127	92.31
396.352	90.31
396.576	94.31
396.801	72.31
397.025	95.31
397.249	95.31
397.474	95.31
397.698	84.31
397.922	91.31
398.147	82.31
398.371	93.31
398.595	95.31
398.82	90.31
399.044	93.31
399.268	87.31
399.492	109.31
399.717	90.31
399.941	84.31
400.165	82.31
400.389	88.31
400.613	104.31
400.837	89.31
401.062	92.31
401.286	84.31
401.51	86.31
401.734	72.31
401.958	82.31
402.182	86.31
402.406	87.31
402.63	93.31
402.854	94.31
403.078	83.31
403.302	87.31
403.526	84.31
403.75	87.31
403.974	83.31
404.198	89.31
404.422	96.31
404.645	91.31
404.869	91.31
405.093	96.31
405.317	83.31
405.541	94.31
405.765	91.31
405.988	87.31
406.212	80.31
406.436	86.31
406.66	115.31
406.883	92.31
407.107	93.31
407.331	72.31
407.555	95.31
407.778	95.31
408.002	89.31
408.226	96.31
408.449	87.31
408.673	87.31
408.896	80.31
409.12	92.31
409.344	96.31
409.567	90.31
409.791	87.31
410.014	87.31
410.238	97.31
410.461	77.31
410.685	93.31
410.908	95.31
411.132	96.31
411.355	93.31
411.578	94.31
411.802	90.31
412.025	85.31
412.249	88.31
412.472	90.31
412.695	91.31
412.919	83.31
413.142	96.31
413.365	98.31
413.589	93.31
413.812	95.31
414.035	84.31
414.258	87.31
414.482	80.31
414.705	89.31
414.928	86.31
415.151	88.31
415.374	80.31
415.597	96.31
415.821	87.31
416.044	85.31
416.267	101.31
416.49	101.31
416.713	89.31
416.936	93.31
417.159	86.31
417.382	94.31
417.605	82.31
417.828	83.31
418.051	93.31
418.274	89.31
418.497	89.31
418.72	83.31
418.943	90.31
419.166	89.31
419.389	95.31
419.611	92.31
419.834	91.31
420.057	102.31
420.28	95.31
420.503	82.31
420.726	89.31
420.948	108.31
421.171	100.31
421.394	81.31
421.617	99.31
421.839	89.31
422.062	98.31
422.285	97.31
422.507	98.31
422.73	84.31
422.953	94.31
423.175	91.31
423.398	99.31
423.621	100.31
423.843	94.31
424.066	83.31
424.288	93.31
424.511	91.31
424.733	88.31
424.956	104.31
425.178	97.31
425.401	90.31
425.623	96.31
425.846	83.31
426.068	100.31
426.291	91.31
426.513	104.31
426.735	89.31
426.958	93.31
427.18	93.31
427.402	77.31
427.625	91.31
427.847	88.31
428.069	96.31
428.292	85.31
428.514	89.31
428.736	97.31
428.958	90.31
429.181	93.31
429.403	100.31
429.625	90.31
429.847	97.31
430.069	95.31
430.292	85.31
430.514	79.31
430.736	96.31
430.958	89.31
431.18	114.31
431.402	99.31
431.624	105.31
431.846	69.31
432.068	91.31
432.29	90.31
432.512	92.31
432.734	78.31
432.956	104.31
433.178	96.31
433.4	85.31
433.622	95.31
433.844	102.31
434.066	89.31
434.287	91.31
434.509	88.31
434.731	85.31
434.953	91.31
435.175	82.31
435.397	97.31
435.618	102.31
435.84	96.31
436.062	102.31
436.284	79.31
436.505	96.31
436.727	82.31
436.949	89.31
437.17	90.31
437.392	96.31
437.614	88.31
437.835	91.31
438.057	94.31
438.278	98.31
438.5	101.31
438.721	105.31
438.943	97.31
439.165	90.31
439.386	105.31
439.608	103.31
439.829	93.31
440.05	94.31
440.272	101.31
440.493	109.31
440.715	102.31
440.936	74.31
441.158	94.31
441.379	95.31
441.6	93.31
441.822	96.31
442.043	100.31
442.264	95.31
442.486	100.31
442.707	109.31
442.928	109.31
443.149	90.31
443.371	95.31
443.592	88.31
443.813	91.31
444.034	99.31
444.255	101.31
444.476	93.31
444.698	111.31
444.919	97.31
445.14	219.31
445.361	160.31
445.582	100.31
445.803	92.31
446.024	108.31
446.245	95.31
446.466	76.31
446.687	101.31
446.908	108.31
447.129	95.31
447.35	111.31
447.571	109.31
447.792	109.31
448.013	104.31
448.234	97.31
448.455	101.31
448.675	103.31
448.896	95.31
449.117	94.31
449.338	87.31
449.559	105.31
449.779	96.31
450	82.31
450.221	99.31
450.442	93.31
450.662	86.31
450.883	92.31
451.104	85.31
451.324	101.31
451.545	117.31
451.766	109.31
451.986	87.31
452.207	104.31
452.428	102.31
452.648	99.31
452.869	91.31
453.089	100.31
453.31	83.31
453.53	84.31
453.751	72.31
453.971	92.31
454.192	87.31
454.412	75.31
454.633	86.31
454.853	100.31
455.073	83.31
455.294	91.31
455.514	101.31
455.734	100.31
455.955	89.31
456.175	98.31
456.395	87.31
456.616	91.31
456.836	90.31
457.056	98.31
457.276	83.31
457.497	73.31
457.717	61.31
457.937	88.31
458.157	86.31
458.377	91.31
458.598	78.31
458.818	103.31
459.038	83.31
459.258	78.31
459.478	80.31
459.698	90.31
459.918	93.31
460.138	94.31
460.358	94.31
460.578	85.31
460.798	85.31
461.018	89.31
461.238	92.31
461.458	84.31
461.678	91.31
461.898	92.31
462.118	88.31
462.338	101.31
462.558	92.31
462.777	97.31
462.997	99.31
463.217	80.31
463.437	79.31
463.657	96.31
463.876	93.31
464.096	97.31
464.316	72.31
464.536	69.31
464.755	81.31
464.975	72.31
465.195	80.31
465.414	96.31
465.634	84.31
465.854	82.31
466.073	99.31
466.293	96.31
466.512	91.31
466.732	93.31
466.951	82.31
467.171	80.31
467.391	91.31
467.61	92.31
467.829	92.31
468.049	97.31
468.268	98.31
468.488	87.31
468.707	93.31
468.927	98.31
469.146	92.31
469.365	102.31
469.585	94.31
469.804	82.31
470.023	108.31
470.243	99.31
470.462	96.31
470.681	90.31
470.901	92.31
471.12	107.31
471.339	101.31
471.558	99.31
471.777	100.31
471.997	79.31
472.216	99.31
472.435	90.31
472.654	88.31
472.873	84.31
473.092	85.31
473.311	94.31
473.53	88.31
473.749	100.31
473.968	88.31
474.187	95.31
474.406	103.31
474.625	99.31
474.844	87.31
475.063	93.31
475.282	92.31
475.501	96.31
475.72	100.31
475.939	87.31
476.158	94.31
476.377	98.31
476.596	98.31
476.814	107.31
477.033	89.31
477.252	98.31
477.471	94.31
477.69	94.31
477.908	97.31
478.127	87.31
478.346	85.31
478.564	91.31
478.783	96.31
479.002	98.31
479.22	109.31
479.439	102.31
479.658	87.31
479.876	90.31
480.095	92.31
480.313	94.31
480.532	88.31
480.751	75.31
480.969	77.31
481.188	82.31
481.406	81.31
481.624	81.31
481.843	88.31
482.061	77.31
482.28	83.31
482.498	90.31
482.717	78.31
482.935	103.31
483.153	101.31
483.372	88.31
483.59	91.31
483.808	98.31
484.027	90.31
484.245	90.31
484.463	98.31
484.681	98.31
484.9	93.31
485.118	87.31
485.336	102.31
485.554	108.31
485.772	90.31
485.99	104.31
486.209	84.31
486.427	81.31
486.645	98.31
486.863	92.31
487.081	106.31
487.299	90.31
487.517	86.31
487.735	86.31
487.953	119.31
488.171	122.31
488.389	111.31
488.607	92.31
488.825	97.31
489.043	99.31
489.261	99.31
489.479	85.31
489.696	98.31
489.914	105.31
490.132	96.31
490.35	93.31
490.568	101.31
490.786	106.31
491.003	99.31
491.221	113.31
491.439	105.31
491.657	108.31
491.874	108.31
492.092	115.31
492.31	104.31
492.527	121.31
492.745	102.31
492.963	111.31
493.18	108.31
493.398	119.31
493.615	91.31
493.833	113.31
494.05	92.31
494.268	99.31
494.485	123.31
494.703	91.31
494.92	108.31
495.138	110.31
495.355	111.31
495.573	105.31
495.79	107.31
496.008	114.31
496.225	102.31
496.442	117.31
496.66	108.31
496.877	103.31
497.094	106.31
497.312	106.31
497.529	106.31
497.746	101.31
497.963	85.31
498.181	99.31
498.398	86.31
498.615	92.31
498.832	84.31
499.049	91.31
499.267	107.31
499.484	98.31
499.701	100.31
499.918	107.31
500.135	96.31
500.352	86.31
500.569	87.31
500.786	90.31
501.003	97.31
501.22	99.31
501.437	85.31
501.654	89.31
501.871	92.31
502.088	93.31
502.305	101.31
502.522	106.31
502.739	95.31
502.956	95.31
503.172	85.31
503.389	84.31
503.606	89.31
503.823	88.31
504.04	104.31
504.256	87.31
504.473	88.31
504.69	89.31
504.907	105.31
505.123	96.31
505.34	90.31
505.557	98.31
505.773	81.31
505.99	88.31
506.207	83.31
506.423	87.31
506.64	86.31
506.856	86.31
507.073	76.31
507.289	85.31
507.506	101.31
507.722	98.31
507.939	86.31
508.155	101.31
508.372	96.31
508.588	87.31
508.805	99.31
509.021	84.31
509.238	87.31
509.454	91.31
509.67	93.31
509.887	92.31
510.103	95.31
510.319	77.31
510.536	75.31
510.752	90.31
510.968	87.31
511.184	75.31
511.401	64.31
511.617	79.31
511.833	92.31
512.049	94.31
512.265	89.31
512.481	90.31
512.698	85.31
512.914	79.31
513.13	92.31
513.346	78.31
513.562	86.31
513.778	92.31
513.994	93.31
514.21	83.31
514.426	85.31
514.642	79.31
514.858	94.31
515.074	90.31
515.29	89.31
515.506	103.31
515.721	90.31
515.937	69.31
516.153	81.31
516.369	87.31
516.585	89.31
516.801	80.31
517.016	71.31
517.232	94.31
517.448	86.31
517.664	87.31
