Data from Location5.07152019.Energy5.Lamp.07192019.3%Agarose_HRD10591_15-38-15-388.txt Node
Date: Fri Jul 19 15:38:15 EDT 2019
User: cochatt
Spectrometer: HR+D1059
Trigger mode: 1
Integration Time (sec): 1.000000E-1
Scans to average: 1
Electric dark correction enabled: true
Nonlinearity correction enabled: false
Boxcar width: 0
XAxis mode: Wavelengths
Number of Pixels in Spectrum: 2048
>>>>>Begin Spectral Data<<<<<
223.165	-20.38
223.4	-20.38
223.635	-20.38
223.869	-13.38
224.104	-26.38
224.338	-15.38
224.573	-11.38
224.808	-16.38
225.042	-6.38
225.277	20.62
225.511	-6.38
225.746	-4.38
225.98	17.62
226.215	10.62
226.449	17.62
226.683	8.62
226.918	20.62
227.152	24.62
227.387	37.62
227.621	40.62
227.856	45.62
228.09	51.62
228.324	39.62
228.559	63.62
228.793	48.62
229.027	62.62
229.262	66.62
229.496	64.62
229.73	70.62
229.964	65.62
230.199	64.62
230.433	85.62
230.667	88.62
230.901	89.62
231.136	76.62
231.37	86.62
231.604	80.62
231.838	87.62
232.072	69.62
232.306	77.62
232.541	82.62
232.775	71.62
233.009	71.62
233.243	89.62
233.477	74.62
233.711	78.62
233.945	87.62
234.179	95.62
234.413	77.62
234.647	90.62
234.881	91.62
235.115	91.62
235.349	88.62
235.583	72.62
235.817	95.62
236.051	74.62
236.285	83.62
236.519	84.62
236.753	102.62
236.987	90.62
237.221	83.62
237.455	80.62
237.689	77.62
237.922	88.62
238.156	81.62
238.39	84.62
238.624	80.62
238.858	77.62
239.091	80.62
239.325	76.62
239.559	96.62
239.793	85.62
240.027	76.62
240.26	66.62
240.494	77.62
240.728	82.62
240.961	72.62
241.195	57.62
241.429	59.62
241.662	73.62
241.896	80.62
242.13	68.62
242.363	62.62
242.597	70.62
242.83	94.62
243.064	63.62
243.298	76.62
243.531	83.62
243.765	87.62
243.998	72.62
244.232	70.62
244.465	78.62
244.699	80.62
244.932	73.62
245.166	73.62
245.399	79.62
245.633	75.62
245.866	84.62
246.099	61.62
246.333	80.62
246.566	97.62
246.8	83.62
247.033	74.62
247.266	66.62
247.5	72.62
247.733	77.62
247.966	85.62
248.2	75.62
248.433	85.62
248.666	84.62
248.899	67.62
249.133	78.62
249.366	83.62
249.599	80.62
249.832	81.62
250.066	82.62
250.299	68.62
250.532	77.62
250.765	77.62
250.998	83.62
251.231	78.62
251.465	70.62
251.698	82.62
251.931	88.62
252.164	88.62
252.397	72.62
252.63	99.62
252.863	82.62
253.096	90.62
253.329	84.62
253.562	71.62
253.795	75.62
254.028	72.62
254.261	79.62
254.494	69.62
254.727	89.62
254.96	81.62
255.193	81.62
255.426	85.62
255.659	64.62
255.892	89.62
256.124	71.62
256.357	83.62
256.59	85.62
256.823	70.62
257.056	78.62
257.289	84.62
257.521	78.62
257.754	81.62
257.987	77.62
258.22	89.62
258.452	77.62
258.685	89.62
258.918	83.62
259.151	74.62
259.383	71.62
259.616	74.62
259.849	74.62
260.081	81.62
260.314	87.62
260.547	85.62
260.779	88.62
261.012	92.62
261.244	88.62
261.477	79.62
261.71	75.62
261.942	74.62
262.175	92.62
262.407	82.62
262.64	83.62
262.872	77.62
263.105	83.62
263.337	91.62
263.57	95.62
263.802	89.62
264.035	85.62
264.267	79.62
264.499	77.62
264.732	72.62
264.964	88.62
265.197	85.62
265.429	77.62
265.661	93.62
265.894	83.62
266.126	83.62
266.358	92.62
266.591	80.62
266.823	84.62
267.055	82.62
267.287	80.62
267.52	80.62
267.752	78.62
267.984	100.62
268.216	76.62
268.448	86.62
268.681	95.62
268.913	81.62
269.145	101.62
269.377	92.62
269.609	84.62
269.841	84.62
270.073	88.62
270.306	83.62
270.538	73.62
270.77	82.62
271.002	81.62
271.234	96.62
271.466	85.62
271.698	82.62
271.93	74.62
272.162	71.62
272.394	76.62
272.626	89.62
272.858	71.62
273.09	90.62
273.322	81.62
273.553	93.62
273.785	85.62
274.017	88.62
274.249	92.62
274.481	77.62
274.713	68.62
274.945	80.62
275.176	80.62
275.408	92.62
275.64	81.62
275.872	90.62
276.104	90.62
276.335	82.62
276.567	85.62
276.799	76.62
277.031	89.62
277.262	83.62
277.494	87.62
277.726	81.62
277.957	86.62
278.189	92.62
278.421	68.62
278.652	79.62
278.884	57.62
279.115	81.62
279.347	74.62
279.579	72.62
279.81	71.62
280.042	84.62
280.273	88.62
280.505	88.62
280.736	85.62
280.968	69.62
281.199	67.62
281.431	74.62
281.662	85.62
281.894	82.62
282.125	88.62
282.356	87.62
282.588	76.62
282.819	95.62
283.051	81.62
283.282	83.62
283.513	90.62
283.745	71.62
283.976	86.62
284.207	84.62
284.439	90.62
284.67	76.62
284.901	75.62
285.132	87.62
285.364	88.62
285.595	89.62
285.826	76.62
286.057	77.62
286.288	77.62
286.52	87.62
286.751	88.62
286.982	82.62
287.213	88.62
287.444	96.62
287.675	64.62
287.906	79.62
288.138	95.62
288.369	80.62
288.6	83.62
288.831	85.62
289.062	92.62
289.293	83.62
289.524	77.62
289.755	86.62
289.986	86.62
290.217	89.62
290.448	73.62
290.679	75.62
290.91	87.62
291.141	81.62
291.371	72.62
291.602	89.62
291.833	77.62
292.064	87.62
292.295	89.62
292.526	86.62
292.757	82.62
292.987	84.62
293.218	78.62
293.449	89.62
293.68	90.62
293.91	72.62
294.141	85.62
294.372	79.62
294.603	86.62
294.833	87.62
295.064	86.62
295.295	85.62
295.525	77.62
295.756	103.62
295.987	95.62
296.217	72.62
296.448	88.62
296.679	76.62
296.909	89.62
297.14	84.62
297.37	77.62
297.601	98.62
297.831	88.62
298.062	78.62
298.292	83.62
298.523	87.62
298.753	87.62
298.984	77.62
299.214	79.62
299.445	87.62
299.675	75.62
299.905	77.62
300.136	80.62
300.366	83.62
300.597	92.62
300.827	97.62
301.057	87.62
301.288	92.62
301.518	88.62
301.748	82.62
301.979	89.62
302.209	92.62
302.439	75.62
302.669	95.62
302.9	82.62
303.13	94.62
303.36	90.62
303.59	88.62
303.82	85.62
304.051	87.62
304.281	88.62
304.511	96.62
304.741	92.62
304.971	91.62
305.201	92.62
305.431	102.62
305.661	91.62
305.891	84.62
306.121	77.62
306.352	87.62
306.582	78.62
306.812	84.62
307.042	90.62
307.272	80.62
307.502	91.62
307.731	82.62
307.961	85.62
308.191	101.62
308.421	84.62
308.651	94.62
308.881	78.62
309.111	77.62
309.341	76.62
309.571	84.62
309.8	83.62
310.03	80.62
310.26	80.62
310.49	81.62
310.72	96.62
310.949	92.62
311.179	79.62
311.409	82.62
311.639	90.62
311.868	93.62
312.098	77.62
312.328	90.62
312.557	103.62
312.787	73.62
313.017	87.62
313.246	81.62
313.476	86.62
313.706	96.62
313.935	89.62
314.165	86.62
314.394	80.62
314.624	86.62
314.853	69.62
315.083	79.62
315.312	91.62
315.542	75.62
315.771	70.62
316.001	92.62
316.23	92.62
316.46	77.62
316.689	87.62
316.919	78.62
317.148	86.62
317.377	93.62
317.607	91.62
317.836	83.62
318.065	92.62
318.295	92.62
318.524	104.62
318.753	89.62
318.983	95.62
319.212	91.62
319.441	78.62
319.67	89.62
319.9	77.62
320.129	91.62
320.358	88.62
320.587	83.62
320.816	81.62
321.046	73.62
321.275	107.62
321.504	88.62
321.733	89.62
321.962	96.62
322.191	88.62
322.42	88.62
322.649	86.62
322.878	79.62
323.108	94.62
323.337	82.62
323.566	82.62
323.795	73.62
324.024	91.62
324.253	88.62
324.482	89.62
324.71	84.62
324.939	88.62
325.168	85.62
325.397	84.62
325.626	91.62
325.855	90.62
326.084	76.62
326.313	88.62
326.542	91.62
326.77	86.62
326.999	89.62
327.228	76.62
327.457	88.62
327.686	92.62
327.914	90.62
328.143	87.62
328.372	92.62
328.6	89.62
328.829	95.62
329.058	102.62
329.287	85.62
329.515	113.62
329.744	89.62
329.972	90.62
330.201	83.62
330.43	81.62
330.658	81.62
330.887	69.62
331.115	82.62
331.344	83.62
331.572	85.62
331.801	94.62
332.03	97.62
332.258	84.62
332.486	84.62
332.715	78.62
332.943	75.62
333.172	74.62
333.4	87.62
333.629	83.62
333.857	98.62
334.085	86.62
334.314	79.62
334.542	89.62
334.771	85.62
334.999	88.62
335.227	90.62
335.455	79.62
335.684	91.62
335.912	85.62
336.14	86.62
336.369	83.62
336.597	95.62
336.825	79.62
337.053	77.62
337.281	87.62
337.51	79.62
337.738	79.62
337.966	81.62
338.194	85.62
338.422	85.62
338.65	92.62
338.878	91.62
339.106	98.62
339.334	107.62
339.562	90.62
339.79	82.62
340.018	86.62
340.246	81.62
340.474	70.62
340.702	83.62
340.93	83.62
341.158	84.62
341.386	73.62
341.614	88.62
341.842	74.62
342.07	78.62
342.298	96.62
342.526	89.62
342.754	92.62
342.981	96.62
343.209	85.62
343.437	86.62
343.665	87.62
343.893	82.62
344.12	89.62
344.348	75.62
344.576	73.62
344.804	95.62
345.031	83.62
345.259	83.62
345.487	95.62
345.714	75.62
345.942	89.62
346.17	87.62
346.397	91.62
346.625	93.62
346.853	83.62
347.08	72.62
347.308	79.62
347.535	79.62
347.763	85.62
347.99	96.62
348.218	77.62
348.445	87.62
348.673	82.62
348.9	86.62
349.128	84.62
349.355	87.62
349.583	84.62
349.81	92.62
350.037	87.62
350.265	92.62
350.492	97.62
350.72	97.62
350.947	82.62
351.174	83.62
351.402	76.62
351.629	97.62
351.856	87.62
352.083	90.62
352.311	77.62
352.538	84.62
352.765	100.62
352.992	99.62
353.22	90.62
353.447	88.62
353.674	87.62
353.901	99.62
354.128	76.62
354.355	83.62
354.583	82.62
354.81	83.62
355.037	76.62
355.264	82.62
355.491	80.62
355.718	83.62
355.945	87.62
356.172	96.62
356.399	81.62
356.626	84.62
356.853	85.62
357.08	81.62
357.307	75.62
357.534	89.62
357.761	88.62
357.988	79.62
358.215	94.62
358.441	79.62
358.668	78.62
358.895	85.62
359.122	95.62
359.349	84.62
359.576	89.62
359.802	81.62
360.029	77.62
360.256	70.62
360.483	89.62
360.709	89.62
360.936	76.62
361.163	85.62
361.39	98.62
361.616	95.62
361.843	89.62
362.07	104.62
362.296	88.62
362.523	70.62
362.749	81.62
362.976	65.62
363.203	78.62
363.429	89.62
363.656	91.62
363.882	76.62
364.109	96.62
364.335	90.62
364.562	96.62
364.788	81.62
365.015	86.62
365.241	82.62
365.468	88.62
365.694	80.62
365.92	87.62
366.147	80.62
366.373	102.62
366.599	81.62
366.826	103.62
367.052	93.62
367.278	85.62
367.505	99.62
367.731	84.62
367.957	95.62
368.184	90.62
368.41	95.62
368.636	91.62
368.862	90.62
369.089	76.62
369.315	73.62
369.541	91.62
369.767	88.62
369.993	90.62
370.219	93.62
370.445	82.62
370.672	99.62
370.898	97.62
371.124	88.62
371.35	79.62
371.576	78.62
371.802	83.62
372.028	90.62
372.254	80.62
372.48	86.62
372.706	97.62
372.932	93.62
373.158	83.62
373.384	80.62
373.61	101.62
373.835	85.62
374.061	86.62
374.287	86.62
374.513	80.62
374.739	92.62
374.965	84.62
375.191	99.62
375.416	74.62
375.642	93.62
375.868	89.62
376.094	101.62
376.319	81.62
376.545	73.62
376.771	100.62
376.997	92.62
377.222	72.62
377.448	91.62
377.674	85.62
377.899	83.62
378.125	76.62
378.35	83.62
378.576	92.62
378.802	81.62
379.027	95.62
379.253	85.62
379.478	96.62
379.704	92.62
379.929	94.62
380.155	93.62
380.38	82.62
380.606	77.62
380.831	89.62
381.057	92.62
381.282	95.62
381.507	98.62
381.733	97.62
381.958	80.62
382.184	93.62
382.409	97.62
382.634	86.62
382.86	82.62
383.085	104.62
383.31	75.62
383.535	81.62
383.761	91.62
383.986	92.62
384.211	66.62
384.436	83.62
384.662	80.62
384.887	84.62
385.112	87.62
385.337	84.62
385.562	89.62
385.787	95.62
386.013	101.62
386.238	84.62
386.463	90.62
386.688	84.62
386.913	95.62
387.138	81.62
387.363	78.62
387.588	96.62
387.813	72.62
388.038	90.62
388.263	85.62
388.488	83.62
388.713	78.62
388.938	97.62
389.163	89.62
389.387	87.62
389.612	83.62
389.837	87.62
390.062	85.62
390.287	79.62
390.512	89.62
390.736	80.62
390.961	85.62
391.186	80.62
391.411	93.62
391.636	82.62
391.86	98.62
392.085	77.62
392.31	82.62
392.534	91.62
392.759	92.62
392.984	106.62
393.208	77.62
393.433	86.62
393.658	95.62
393.882	79.62
394.107	76.62
394.331	83.62
394.556	100.62
394.78	75.62
395.005	83.62
395.229	81.62
395.454	82.62
395.678	84.62
395.903	85.62
396.127	85.62
396.352	82.62
396.576	102.62
396.801	100.62
397.025	96.62
397.249	89.62
397.474	86.62
397.698	82.62
397.922	85.62
398.147	91.62
398.371	93.62
398.595	102.62
398.82	96.62
399.044	90.62
399.268	80.62
399.492	93.62
399.717	99.62
399.941	92.62
400.165	91.62
400.389	85.62
400.613	85.62
400.837	96.62
401.062	99.62
401.286	88.62
401.51	103.62
401.734	105.62
401.958	91.62
402.182	89.62
402.406	87.62
402.63	79.62
402.854	86.62
403.078	104.62
403.302	88.62
403.526	86.62
403.75	105.62
403.974	80.62
404.198	75.62
404.422	80.62
404.645	79.62
404.869	93.62
405.093	88.62
405.317	90.62
405.541	87.62
405.765	93.62
405.988	103.62
406.212	95.62
406.436	96.62
406.66	111.62
406.883	81.62
407.107	75.62
407.331	85.62
407.555	97.62
407.778	90.62
408.002	90.62
408.226	98.62
408.449	93.62
408.673	105.62
408.896	93.62
409.12	112.62
409.344	89.62
409.567	88.62
409.791	88.62
410.014	89.62
410.238	81.62
410.461	93.62
410.685	90.62
410.908	81.62
411.132	88.62
411.355	94.62
411.578	86.62
411.802	76.62
412.025	88.62
412.249	72.62
412.472	92.62
412.695	90.62
412.919	88.62
413.142	95.62
413.365	96.62
413.589	94.62
413.812	88.62
414.035	88.62
414.258	97.62
414.482	86.62
414.705	83.62
414.928	81.62
415.151	95.62
415.374	89.62
415.597	100.62
415.821	81.62
416.044	84.62
416.267	91.62
416.49	99.62
416.713	83.62
416.936	92.62
417.159	90.62
417.382	76.62
417.605	86.62
417.828	97.62
418.051	107.62
418.274	93.62
418.497	90.62
418.72	88.62
418.943	89.62
419.166	92.62
419.389	85.62
419.611	102.62
419.834	103.62
420.057	105.62
420.28	86.62
420.503	98.62
420.726	93.62
420.948	103.62
421.171	97.62
421.394	90.62
421.617	85.62
421.839	90.62
422.062	91.62
422.285	104.62
422.507	99.62
422.73	93.62
422.953	85.62
423.175	98.62
423.398	107.62
423.621	88.62
423.843	82.62
424.066	92.62
424.288	96.62
424.511	106.62
424.733	79.62
424.956	104.62
425.178	87.62
425.401	87.62
425.623	86.62
425.846	109.62
426.068	77.62
426.291	92.62
426.513	98.62
426.735	104.62
426.958	95.62
427.18	104.62
427.402	94.62
427.625	75.62
427.847	84.62
428.069	95.62
428.292	95.62
428.514	99.62
428.736	83.62
428.958	106.62
429.181	93.62
429.403	79.62
429.625	105.62
429.847	94.62
430.069	98.62
430.292	96.62
430.514	93.62
430.736	88.62
430.958	90.62
431.18	92.62
431.402	93.62
431.624	84.62
431.846	81.62
432.068	97.62
432.29	86.62
432.512	100.62
432.734	95.62
432.956	97.62
433.178	105.62
433.4	94.62
433.622	84.62
433.844	93.62
434.066	100.62
434.287	93.62
434.509	89.62
434.731	88.62
434.953	67.62
435.175	94.62
435.397	85.62
435.618	96.62
435.84	95.62
436.062	96.62
436.284	97.62
436.505	105.62
436.727	101.62
436.949	91.62
437.17	101.62
437.392	90.62
437.614	88.62
437.835	95.62
438.057	93.62
438.278	88.62
438.5	102.62
438.721	114.62
438.943	101.62
439.165	95.62
439.386	83.62
439.608	109.62
439.829	99.62
440.05	99.62
440.272	100.62
440.493	73.62
440.715	105.62
440.936	91.62
441.158	102.62
441.379	93.62
441.6	86.62
441.822	112.62
442.043	98.62
442.264	106.62
442.486	99.62
442.707	77.62
442.928	101.62
443.149	88.62
443.371	104.62
443.592	103.62
443.813	98.62
444.034	96.62
444.255	97.62
444.476	92.62
444.698	109.62
444.919	95.62
445.14	227.62
445.361	147.62
445.582	106.62
445.803	91.62
446.024	105.62
446.245	97.62
446.466	113.62
446.687	115.62
446.908	99.62
447.129	103.62
447.35	98.62
447.571	100.62
447.792	92.62
448.013	84.62
448.234	82.62
448.455	98.62
448.675	95.62
448.896	93.62
449.117	93.62
449.338	98.62
449.559	99.62
449.779	102.62
450	96.62
450.221	101.62
450.442	106.62
450.662	105.62
450.883	95.62
451.104	97.62
451.324	88.62
451.545	92.62
451.766	93.62
451.986	99.62
452.207	91.62
452.428	96.62
452.648	87.62
452.869	102.62
453.089	90.62
453.31	72.62
453.53	91.62
453.751	93.62
453.971	91.62
454.192	81.62
454.412	98.62
454.633	95.62
454.853	86.62
455.073	91.62
455.294	90.62
455.514	93.62
455.734	83.62
455.955	91.62
456.175	84.62
456.395	83.62
456.616	76.62
456.836	96.62
457.056	92.62
457.276	85.62
457.497	93.62
457.717	74.62
457.937	89.62
458.157	83.62
458.377	86.62
458.598	91.62
458.818	90.62
459.038	92.62
459.258	93.62
459.478	77.62
459.698	66.62
459.918	99.62
460.138	91.62
460.358	89.62
460.578	98.62
460.798	104.62
461.018	100.62
461.238	102.62
461.458	76.62
461.678	104.62
461.898	87.62
462.118	95.62
462.338	82.62
462.558	98.62
462.777	77.62
462.997	85.62
463.217	95.62
463.437	90.62
463.657	88.62
463.876	100.62
464.096	66.62
464.316	89.62
464.536	105.62
464.755	83.62
464.975	92.62
465.195	82.62
465.414	99.62
465.634	101.62
465.854	91.62
466.073	96.62
466.293	90.62
466.512	84.62
466.732	92.62
466.951	98.62
467.171	106.62
467.391	100.62
467.61	103.62
467.829	89.62
468.049	87.62
468.268	97.62
468.488	98.62
468.707	101.62
468.927	94.62
469.146	90.62
469.365	105.62
469.585	97.62
469.804	103.62
470.023	102.62
470.243	108.62
470.462	100.62
470.681	117.62
470.901	95.62
471.12	96.62
471.339	102.62
471.558	104.62
471.777	96.62
471.997	99.62
472.216	111.62
472.435	102.62
472.654	81.62
472.873	87.62
473.092	79.62
473.311	104.62
473.53	94.62
473.749	97.62
473.968	95.62
474.187	92.62
474.406	91.62
474.625	95.62
474.844	99.62
475.063	85.62
475.282	85.62
475.501	97.62
475.72	116.62
475.939	86.62
476.158	90.62
476.377	100.62
476.596	81.62
476.814	93.62
477.033	109.62
477.252	87.62
477.471	92.62
477.69	91.62
477.908	108.62
478.127	90.62
478.346	104.62
478.564	111.62
478.783	102.62
479.002	92.62
479.22	96.62
479.439	101.62
479.658	98.62
479.876	81.62
480.095	90.62
480.313	97.62
480.532	104.62
480.751	101.62
480.969	90.62
481.188	95.62
481.406	91.62
481.624	88.62
481.843	92.62
482.061	82.62
482.28	103.62
482.498	80.62
482.717	91.62
482.935	90.62
483.153	104.62
483.372	104.62
483.59	102.62
483.808	108.62
484.027	100.62
484.245	98.62
484.463	109.62
484.681	108.62
484.9	99.62
485.118	104.62
485.336	108.62
485.554	90.62
485.772	95.62
485.99	92.62
486.209	84.62
486.427	106.62
486.645	96.62
486.863	95.62
487.081	108.62
487.299	85.62
487.517	91.62
487.735	106.62
487.953	105.62
488.171	102.62
488.389	99.62
488.607	86.62
488.825	94.62
489.043	111.62
489.261	84.62
489.479	100.62
489.696	88.62
489.914	108.62
490.132	97.62
490.35	106.62
490.568	99.62
490.786	113.62
491.003	105.62
491.221	104.62
491.439	100.62
491.657	109.62
491.874	114.62
492.092	114.62
492.31	114.62
492.527	109.62
492.745	114.62
492.963	109.62
493.18	121.62
493.398	120.62
493.615	108.62
493.833	94.62
494.05	109.62
494.268	97.62
494.485	114.62
494.703	104.62
494.92	108.62
495.138	119.62
495.355	100.62
495.573	114.62
495.79	94.62
496.008	110.62
496.225	98.62
496.442	97.62
496.66	107.62
496.877	92.62
497.094	98.62
497.312	112.62
497.529	110.62
497.746	109.62
497.963	98.62
498.181	94.62
498.398	94.62
498.615	88.62
498.832	93.62
499.049	99.62
499.267	96.62
499.484	96.62
499.701	96.62
499.918	97.62
500.135	104.62
500.352	106.62
500.569	114.62
500.786	104.62
501.003	100.62
501.22	100.62
501.437	77.62
501.654	102.62
501.871	91.62
502.088	99.62
502.305	106.62
502.522	91.62
502.739	106.62
502.956	95.62
503.172	100.62
503.389	111.62
503.606	83.62
503.823	100.62
504.04	100.62
504.256	88.62
504.473	101.62
504.69	91.62
504.907	99.62
505.123	103.62
505.34	79.62
505.557	82.62
505.773	103.62
505.99	88.62
506.207	86.62
506.423	88.62
506.64	87.62
506.856	95.62
507.073	95.62
507.289	87.62
507.506	95.62
507.722	98.62
507.939	98.62
508.155	95.62
508.372	87.62
508.588	94.62
508.805	97.62
509.021	86.62
509.238	72.62
509.454	101.62
509.67	86.62
509.887	96.62
510.103	83.62
510.319	92.62
510.536	84.62
510.752	88.62
510.968	89.62
511.184	91.62
511.401	89.62
511.617	78.62
511.833	90.62
512.049	88.62
512.265	84.62
512.481	95.62
512.698	78.62
512.914	89.62
513.13	88.62
513.346	77.62
513.562	80.62
513.778	95.62
513.994	87.62
514.21	85.62
514.426	71.62
514.642	88.62
514.858	105.62
515.074	91.62
515.29	98.62
515.506	81.62
515.721	91.62
515.937	84.62
516.153	100.62
516.369	92.62
516.585	94.62
516.801	90.62
517.016	92.62
