Data from Location5.07152019.Energy5.Lamp.07192019.3%Agarose_HRD10591_16-04-29-629.txt Node
Date: Fri Jul 19 16:04:29 EDT 2019
User: cochatt
Spectrometer: HR+D1059
Trigger mode: 1
Integration Time (sec): 1.000000E-1
Scans to average: 1
Electric dark correction enabled: true
Nonlinearity correction enabled: false
Boxcar width: 0
XAxis mode: Wavelengths
Number of Pixels in Spectrum: 2048
>>>>>Begin Spectral Data<<<<<
223.165	-12.12
223.4	-12.12
223.635	-12.12
223.869	-4.12
224.104	-38.12
224.338	-16.12
224.573	-0.12
224.808	-9.12
225.042	-21.12
225.277	-23.12
225.511	-0.12
225.746	-0.12
225.98	14.88
226.215	11.88
226.449	10.88
226.683	20.88
226.918	33.88
227.152	31.88
227.387	32.88
227.621	46.88
227.856	35.88
228.09	56.88
228.324	53.88
228.559	63.88
228.793	69.88
229.027	47.88
229.262	59.88
229.496	75.88
229.73	77.88
229.964	80.88
230.199	68.88
230.433	66.88
230.667	86.88
230.901	80.88
231.136	85.88
231.37	87.88
231.604	87.88
231.838	77.88
232.072	75.88
232.306	73.88
232.541	83.88
232.775	84.88
233.009	89.88
233.243	94.88
233.477	82.88
233.711	78.88
233.945	79.88
234.179	85.88
234.413	73.88
234.647	82.88
234.881	84.88
235.115	78.88
235.349	71.88
235.583	80.88
235.817	84.88
236.051	78.88
236.285	81.88
236.519	79.88
236.753	71.88
236.987	93.88
237.221	66.88
237.455	72.88
237.689	70.88
237.922	75.88
238.156	85.88
238.39	82.88
238.624	75.88
238.858	84.88
239.091	85.88
239.325	76.88
239.559	83.88
239.793	77.88
240.027	68.88
240.26	66.88
240.494	76.88
240.728	74.88
240.961	90.88
241.195	80.88
241.429	89.88
241.662	74.88
241.896	75.88
242.13	79.88
242.363	73.88
242.597	81.88
242.83	67.88
243.064	81.88
243.298	71.88
243.531	79.88
243.765	63.88
243.998	81.88
244.232	87.88
244.465	75.88
244.699	72.88
244.932	73.88
245.166	78.88
245.399	76.88
245.633	85.88
245.866	71.88
246.099	80.88
246.333	75.88
246.566	81.88
246.8	68.88
247.033	80.88
247.266	73.88
247.5	95.88
247.733	79.88
247.966	79.88
248.2	73.88
248.433	66.88
248.666	82.88
248.899	90.88
249.133	61.88
249.366	77.88
249.599	72.88
249.832	80.88
250.066	76.88
250.299	74.88
250.532	95.88
250.765	84.88
250.998	78.88
251.231	69.88
251.465	69.88
251.698	77.88
251.931	76.88
252.164	75.88
252.397	73.88
252.63	84.88
252.863	71.88
253.096	83.88
253.329	75.88
253.562	72.88
253.795	79.88
254.028	73.88
254.261	83.88
254.494	93.88
254.727	83.88
254.96	74.88
255.193	77.88
255.426	80.88
255.659	82.88
255.892	81.88
256.124	80.88
256.357	73.88
256.59	93.88
256.823	87.88
257.056	89.88
257.289	90.88
257.521	75.88
257.754	95.88
257.987	80.88
258.22	86.88
258.452	81.88
258.685	74.88
258.918	82.88
259.151	78.88
259.383	91.88
259.616	87.88
259.849	81.88
260.081	65.88
260.314	73.88
260.547	76.88
260.779	79.88
261.012	86.88
261.244	74.88
261.477	81.88
261.71	72.88
261.942	99.88
262.175	75.88
262.407	77.88
262.64	71.88
262.872	81.88
263.105	85.88
263.337	84.88
263.57	85.88
263.802	71.88
264.035	84.88
264.267	65.88
264.499	79.88
264.732	89.88
264.964	86.88
265.197	94.88
265.429	81.88
265.661	74.88
265.894	89.88
266.126	98.88
266.358	87.88
266.591	90.88
266.823	104.88
267.055	94.88
267.287	83.88
267.52	81.88
267.752	83.88
267.984	85.88
268.216	84.88
268.448	80.88
268.681	83.88
268.913	78.88
269.145	77.88
269.377	82.88
269.609	82.88
269.841	76.88
270.073	85.88
270.306	88.88
270.538	92.88
270.77	85.88
271.002	88.88
271.234	65.88
271.466	72.88
271.698	76.88
271.93	91.88
272.162	69.88
272.394	92.88
272.626	87.88
272.858	81.88
273.09	89.88
273.322	89.88
273.553	66.88
273.785	90.88
274.017	67.88
274.249	93.88
274.481	90.88
274.713	73.88
274.945	76.88
275.176	91.88
275.408	81.88
275.64	101.88
275.872	75.88
276.104	79.88
276.335	81.88
276.567	89.88
276.799	86.88
277.031	72.88
277.262	93.88
277.494	84.88
277.726	85.88
277.957	70.88
278.189	88.88
278.421	93.88
278.652	89.88
278.884	80.88
279.115	91.88
279.347	81.88
279.579	87.88
279.81	93.88
280.042	82.88
280.273	82.88
280.505	85.88
280.736	92.88
280.968	82.88
281.199	91.88
281.431	89.88
281.662	78.88
281.894	96.88
282.125	98.88
282.356	84.88
282.588	82.88
282.819	86.88
283.051	83.88
283.282	84.88
283.513	90.88
283.745	85.88
283.976	97.88
284.207	91.88
284.439	91.88
284.67	75.88
284.901	81.88
285.132	97.88
285.364	88.88
285.595	90.88
285.826	89.88
286.057	82.88
286.288	88.88
286.52	82.88
286.751	87.88
286.982	86.88
287.213	102.88
287.444	86.88
287.675	85.88
287.906	88.88
288.138	81.88
288.369	85.88
288.6	92.88
288.831	87.88
289.062	94.88
289.293	85.88
289.524	99.88
289.755	102.88
289.986	80.88
290.217	106.88
290.448	83.88
290.679	90.88
290.91	78.88
291.141	90.88
291.371	99.88
291.602	90.88
291.833	87.88
292.064	72.88
292.295	98.88
292.526	85.88
292.757	99.88
292.987	97.88
293.218	103.88
293.449	89.88
293.68	94.88
293.91	80.88
294.141	82.88
294.372	89.88
294.603	72.88
294.833	94.88
295.064	93.88
295.295	91.88
295.525	105.88
295.756	99.88
295.987	91.88
296.217	82.88
296.448	88.88
296.679	86.88
296.909	88.88
297.14	91.88
297.37	87.88
297.601	99.88
297.831	94.88
298.062	93.88
298.292	91.88
298.523	102.88
298.753	93.88
298.984	86.88
299.214	105.88
299.445	88.88
299.675	98.88
299.905	94.88
300.136	85.88
300.366	96.88
300.597	93.88
300.827	99.88
301.057	100.88
301.288	90.88
301.518	89.88
301.748	97.88
301.979	80.88
302.209	91.88
302.439	81.88
302.669	92.88
302.9	90.88
303.13	83.88
303.36	85.88
303.59	102.88
303.82	97.88
304.051	101.88
304.281	88.88
304.511	96.88
304.741	95.88
304.971	93.88
305.201	82.88
305.431	80.88
305.661	88.88
305.891	97.88
306.121	90.88
306.352	73.88
306.582	81.88
306.812	97.88
307.042	87.88
307.272	99.88
307.502	72.88
307.731	106.88
307.961	89.88
308.191	104.88
308.421	88.88
308.651	81.88
308.881	101.88
309.111	86.88
309.341	79.88
309.571	89.88
309.8	83.88
310.03	100.88
310.26	97.88
310.49	77.88
310.72	93.88
310.949	88.88
311.179	97.88
311.409	103.88
311.639	76.88
311.868	84.88
312.098	97.88
312.328	97.88
312.557	91.88
312.787	93.88
313.017	99.88
313.246	88.88
313.476	95.88
313.706	89.88
313.935	89.88
314.165	94.88
314.394	75.88
314.624	91.88
314.853	81.88
315.083	85.88
315.312	80.88
315.542	68.88
315.771	86.88
316.001	74.88
316.23	97.88
316.46	87.88
316.689	78.88
316.919	101.88
317.148	84.88
317.377	93.88
317.607	98.88
317.836	97.88
318.065	96.88
318.295	97.88
318.524	80.88
318.753	101.88
318.983	93.88
319.212	88.88
319.441	92.88
319.67	101.88
319.9	83.88
320.129	89.88
320.358	88.88
320.587	72.88
320.816	81.88
321.046	96.88
321.275	102.88
321.504	94.88
321.733	91.88
321.962	85.88
322.191	95.88
322.42	81.88
322.649	97.88
322.878	90.88
323.108	88.88
323.337	86.88
323.566	91.88
323.795	92.88
324.024	87.88
324.253	77.88
324.482	91.88
324.71	79.88
324.939	97.88
325.168	88.88
325.397	93.88
325.626	100.88
325.855	91.88
326.084	97.88
326.313	81.88
326.542	76.88
326.77	94.88
326.999	98.88
327.228	104.88
327.457	97.88
327.686	80.88
327.914	91.88
328.143	81.88
328.372	74.88
328.6	77.88
328.829	93.88
329.058	91.88
329.287	100.88
329.515	96.88
329.744	88.88
329.972	77.88
330.201	90.88
330.43	93.88
330.658	84.88
330.887	97.88
331.115	104.88
331.344	99.88
331.572	94.88
331.801	89.88
332.03	98.88
332.258	88.88
332.486	84.88
332.715	89.88
332.943	75.88
333.172	92.88
333.4	98.88
333.629	94.88
333.857	99.88
334.085	101.88
334.314	97.88
334.542	104.88
334.771	93.88
334.999	101.88
335.227	104.88
335.455	87.88
335.684	92.88
335.912	85.88
336.14	90.88
336.369	92.88
336.597	75.88
336.825	81.88
337.053	78.88
337.281	84.88
337.51	77.88
337.738	96.88
337.966	88.88
338.194	99.88
338.422	90.88
338.65	102.88
338.878	113.88
339.106	77.88
339.334	100.88
339.562	74.88
339.79	100.88
340.018	86.88
340.246	82.88
340.474	73.88
340.702	86.88
340.93	88.88
341.158	96.88
341.386	86.88
341.614	87.88
341.842	85.88
342.07	70.88
342.298	87.88
342.526	88.88
342.754	103.88
342.981	98.88
343.209	94.88
343.437	99.88
343.665	91.88
343.893	90.88
344.12	95.88
344.348	90.88
344.576	99.88
344.804	95.88
345.031	89.88
345.259	93.88
345.487	110.88
345.714	99.88
345.942	93.88
346.17	83.88
346.397	84.88
346.625	82.88
346.853	94.88
347.08	86.88
347.308	80.88
347.535	93.88
347.763	89.88
347.99	95.88
348.218	101.88
348.445	89.88
348.673	78.88
348.9	81.88
349.128	75.88
349.355	84.88
349.583	88.88
349.81	84.88
350.037	85.88
350.265	92.88
350.492	75.88
350.72	101.88
350.947	84.88
351.174	81.88
351.402	94.88
351.629	83.88
351.856	87.88
352.083	80.88
352.311	94.88
352.538	88.88
352.765	86.88
352.992	78.88
353.22	89.88
353.447	96.88
353.674	101.88
353.901	95.88
354.128	73.88
354.355	81.88
354.583	73.88
354.81	90.88
355.037	96.88
355.264	94.88
355.491	95.88
355.718	89.88
355.945	87.88
356.172	96.88
356.399	100.88
356.626	96.88
356.853	83.88
357.08	92.88
357.307	99.88
357.534	74.88
357.761	81.88
357.988	83.88
358.215	82.88
358.441	92.88
358.668	89.88
358.895	83.88
359.122	93.88
359.349	81.88
359.576	86.88
359.802	84.88
360.029	89.88
360.256	82.88
360.483	91.88
360.709	99.88
360.936	85.88
361.163	104.88
361.39	69.88
361.616	75.88
361.843	95.88
362.07	83.88
362.296	95.88
362.523	85.88
362.749	90.88
362.976	105.88
363.203	89.88
363.429	101.88
363.656	104.88
363.882	87.88
364.109	85.88
364.335	96.88
364.562	80.88
364.788	95.88
365.015	88.88
365.241	91.88
365.468	102.88
365.694	80.88
365.92	89.88
366.147	83.88
366.373	66.88
366.599	96.88
366.826	83.88
367.052	75.88
367.278	82.88
367.505	92.88
367.731	109.88
367.957	106.88
368.184	87.88
368.41	94.88
368.636	95.88
368.862	81.88
369.089	88.88
369.315	86.88
369.541	95.88
369.767	89.88
369.993	87.88
370.219	74.88
370.445	86.88
370.672	82.88
370.898	91.88
371.124	84.88
371.35	83.88
371.576	90.88
371.802	95.88
372.028	83.88
372.254	92.88
372.48	83.88
372.706	93.88
372.932	91.88
373.158	86.88
373.384	70.88
373.61	83.88
373.835	77.88
374.061	75.88
374.287	91.88
374.513	86.88
374.739	88.88
374.965	97.88
375.191	89.88
375.416	95.88
375.642	96.88
375.868	98.88
376.094	97.88
376.319	85.88
376.545	78.88
376.771	83.88
376.997	102.88
377.222	83.88
377.448	94.88
377.674	84.88
377.899	69.88
378.125	94.88
378.35	99.88
378.576	81.88
378.802	85.88
379.027	85.88
379.253	99.88
379.478	90.88
379.704	95.88
379.929	82.88
380.155	70.88
380.38	77.88
380.606	84.88
380.831	94.88
381.057	93.88
381.282	97.88
381.507	97.88
381.733	88.88
381.958	90.88
382.184	97.88
382.409	87.88
382.634	88.88
382.86	93.88
383.085	82.88
383.31	93.88
383.535	85.88
383.761	82.88
383.986	82.88
384.211	94.88
384.436	94.88
384.662	101.88
384.887	79.88
385.112	84.88
385.337	88.88
385.562	97.88
385.787	94.88
386.013	95.88
386.238	94.88
386.463	97.88
386.688	97.88
386.913	86.88
387.138	85.88
387.363	85.88
387.588	86.88
387.813	93.88
388.038	96.88
388.263	89.88
388.488	93.88
388.713	96.88
388.938	80.88
389.163	87.88
389.387	97.88
389.612	77.88
389.837	88.88
390.062	94.88
390.287	83.88
390.512	94.88
390.736	90.88
390.961	84.88
391.186	90.88
391.411	92.88
391.636	99.88
391.86	89.88
392.085	99.88
392.31	102.88
392.534	93.88
392.759	78.88
392.984	89.88
393.208	74.88
393.433	88.88
393.658	92.88
393.882	95.88
394.107	80.88
394.331	90.88
394.556	104.88
394.78	85.88
395.005	89.88
395.229	79.88
395.454	93.88
395.678	87.88
395.903	82.88
396.127	90.88
396.352	95.88
396.576	102.88
396.801	85.88
397.025	110.88
397.249	96.88
397.474	97.88
397.698	90.88
397.922	85.88
398.147	88.88
398.371	110.88
398.595	91.88
398.82	99.88
399.044	76.88
399.268	87.88
399.492	87.88
399.717	93.88
399.941	98.88
400.165	96.88
400.389	85.88
400.613	85.88
400.837	94.88
401.062	88.88
401.286	96.88
401.51	98.88
401.734	94.88
401.958	94.88
402.182	101.88
402.406	84.88
402.63	89.88
402.854	90.88
403.078	86.88
403.302	104.88
403.526	93.88
403.75	85.88
403.974	103.88
404.198	95.88
404.422	91.88
404.645	88.88
404.869	85.88
405.093	91.88
405.317	104.88
405.541	83.88
405.765	90.88
405.988	97.88
406.212	84.88
406.436	94.88
406.66	115.88
406.883	96.88
407.107	88.88
407.331	115.88
407.555	103.88
407.778	112.88
408.002	102.88
408.226	103.88
408.449	91.88
408.673	95.88
408.896	94.88
409.12	102.88
409.344	101.88
409.567	93.88
409.791	81.88
410.014	92.88
410.238	94.88
410.461	95.88
410.685	85.88
410.908	84.88
411.132	93.88
411.355	82.88
411.578	105.88
411.802	90.88
412.025	86.88
412.249	91.88
412.472	88.88
412.695	95.88
412.919	105.88
413.142	100.88
413.365	89.88
413.589	87.88
413.812	99.88
414.035	103.88
414.258	94.88
414.482	86.88
414.705	105.88
414.928	93.88
415.151	103.88
415.374	88.88
415.597	93.88
415.821	102.88
416.044	96.88
416.267	94.88
416.49	93.88
416.713	94.88
416.936	85.88
417.159	89.88
417.382	91.88
417.605	92.88
417.828	83.88
418.051	80.88
418.274	96.88
418.497	101.88
418.72	97.88
418.943	101.88
419.166	84.88
419.389	93.88
419.611	89.88
419.834	79.88
420.057	96.88
420.28	88.88
420.503	91.88
420.726	86.88
420.948	82.88
421.171	95.88
421.394	89.88
421.617	85.88
421.839	89.88
422.062	76.88
422.285	86.88
422.507	95.88
422.73	100.88
422.953	90.88
423.175	99.88
423.398	101.88
423.621	89.88
423.843	79.88
424.066	87.88
424.288	96.88
424.511	97.88
424.733	89.88
424.956	94.88
425.178	86.88
425.401	93.88
425.623	96.88
425.846	91.88
426.068	97.88
426.291	88.88
426.513	101.88
426.735	87.88
426.958	85.88
427.18	99.88
427.402	100.88
427.625	104.88
427.847	110.88
428.069	92.88
428.292	91.88
428.514	88.88
428.736	94.88
428.958	85.88
429.181	95.88
429.403	98.88
429.625	99.88
429.847	94.88
430.069	86.88
430.292	84.88
430.514	78.88
430.736	99.88
430.958	94.88
431.18	96.88
431.402	95.88
431.624	71.88
431.846	89.88
432.068	90.88
432.29	74.88
432.512	97.88
432.734	93.88
432.956	90.88
433.178	100.88
433.4	82.88
433.622	95.88
433.844	95.88
434.066	86.88
434.287	99.88
434.509	105.88
434.731	95.88
434.953	95.88
435.175	74.88
435.397	90.88
435.618	104.88
435.84	96.88
436.062	103.88
436.284	81.88
436.505	84.88
436.727	88.88
436.949	90.88
437.17	93.88
437.392	97.88
437.614	82.88
437.835	89.88
438.057	86.88
438.278	82.88
438.5	92.88
438.721	99.88
438.943	77.88
439.165	84.88
439.386	86.88
439.608	99.88
439.829	92.88
440.05	91.88
440.272	98.88
440.493	93.88
440.715	94.88
440.936	94.88
441.158	88.88
441.379	88.88
441.6	91.88
441.822	95.88
442.043	98.88
442.264	83.88
442.486	86.88
442.707	95.88
442.928	91.88
443.149	81.88
443.371	103.88
443.592	92.88
443.813	91.88
444.034	98.88
444.255	91.88
444.476	93.88
444.698	112.88
444.919	93.88
445.14	217.88
445.361	162.88
445.582	98.88
445.803	96.88
446.024	98.88
446.245	94.88
446.466	78.88
446.687	91.88
446.908	91.88
447.129	91.88
447.35	102.88
447.571	86.88
447.792	94.88
448.013	98.88
448.234	94.88
448.455	94.88
448.675	87.88
448.896	96.88
449.117	90.88
449.338	93.88
449.559	102.88
449.779	90.88
450	77.88
450.221	85.88
450.442	77.88
450.662	97.88
450.883	85.88
451.104	95.88
451.324	86.88
451.545	77.88
451.766	83.88
451.986	92.88
452.207	92.88
452.428	92.88
452.648	94.88
452.869	94.88
453.089	90.88
453.31	82.88
453.53	86.88
453.751	100.88
453.971	84.88
454.192	86.88
454.412	85.88
454.633	100.88
454.853	85.88
455.073	76.88
455.294	79.88
455.514	104.88
455.734	86.88
455.955	87.88
456.175	82.88
456.395	97.88
456.616	91.88
456.836	94.88
457.056	91.88
457.276	84.88
457.497	91.88
457.717	100.88
457.937	84.88
458.157	92.88
458.377	82.88
458.598	86.88
458.818	98.88
459.038	86.88
459.258	85.88
459.478	78.88
459.698	97.88
459.918	90.88
460.138	100.88
460.358	82.88
460.578	81.88
460.798	101.88
461.018	105.88
461.238	76.88
461.458	102.88
461.678	96.88
461.898	93.88
462.118	102.88
462.338	95.88
462.558	95.88
462.777	89.88
462.997	86.88
463.217	97.88
463.437	114.88
463.657	98.88
463.876	99.88
464.096	92.88
464.316	87.88
464.536	109.88
464.755	93.88
464.975	95.88
465.195	96.88
465.414	104.88
465.634	101.88
465.854	98.88
466.073	94.88
466.293	96.88
466.512	97.88
466.732	100.88
466.951	109.88
467.171	87.88
467.391	92.88
467.61	87.88
467.829	84.88
468.049	93.88
468.268	98.88
468.488	80.88
468.707	101.88
468.927	88.88
469.146	99.88
469.365	91.88
469.585	93.88
469.804	88.88
470.023	76.88
470.243	95.88
470.462	81.88
470.681	91.88
470.901	79.88
471.12	78.88
471.339	96.88
471.558	104.88
471.777	90.88
471.997	98.88
472.216	96.88
472.435	92.88
472.654	90.88
472.873	84.88
473.092	109.88
473.311	93.88
473.53	101.88
473.749	97.88
473.968	98.88
474.187	89.88
474.406	97.88
474.625	101.88
474.844	86.88
475.063	104.88
475.282	83.88
475.501	86.88
475.72	88.88
475.939	90.88
476.158	97.88
476.377	86.88
476.596	84.88
476.814	82.88
477.033	101.88
477.252	103.88
477.471	86.88
477.69	85.88
477.908	106.88
478.127	119.88
478.346	93.88
478.564	95.88
478.783	94.88
479.002	102.88
479.22	91.88
479.439	111.88
479.658	109.88
479.876	104.88
480.095	101.88
480.313	98.88
480.532	92.88
480.751	102.88
480.969	84.88
481.188	92.88
481.406	97.88
481.624	94.88
481.843	82.88
482.061	98.88
482.28	105.88
482.498	90.88
482.717	93.88
482.935	102.88
483.153	91.88
483.372	105.88
483.59	83.88
483.808	90.88
484.027	101.88
484.245	100.88
484.463	100.88
484.681	103.88
484.9	113.88
485.118	107.88
485.336	92.88
485.554	104.88
485.772	81.88
485.99	103.88
486.209	102.88
486.427	106.88
486.645	99.88
486.863	94.88
487.081	97.88
487.299	108.88
487.517	99.88
487.735	104.88
487.953	109.88
488.171	118.88
488.389	106.88
488.607	109.88
488.825	101.88
489.043	103.88
489.261	106.88
489.479	89.88
489.696	112.88
489.914	106.88
490.132	100.88
490.35	105.88
490.568	105.88
490.786	97.88
491.003	122.88
491.221	104.88
491.439	99.88
491.657	110.88
491.874	108.88
492.092	125.88
492.31	115.88
492.527	101.88
492.745	111.88
492.963	105.88
493.18	102.88
493.398	104.88
493.615	103.88
493.833	106.88
494.05	109.88
494.268	105.88
494.485	105.88
494.703	114.88
494.92	101.88
495.138	122.88
495.355	116.88
495.573	102.88
495.79	89.88
496.008	102.88
496.225	96.88
496.442	113.88
496.66	109.88
496.877	99.88
497.094	115.88
497.312	105.88
497.529	102.88
497.746	110.88
497.963	101.88
498.181	99.88
498.398	92.88
498.615	103.88
498.832	107.88
499.049	114.88
499.267	114.88
499.484	106.88
499.701	122.88
499.918	127.88
500.135	143.88
500.352	144.88
500.569	136.88
500.786	150.88
501.003	153.88
501.22	142.88
501.437	120.88
501.654	122.88
501.871	124.88
502.088	123.88
502.305	115.88
502.522	119.88
502.739	114.88
502.956	109.88
503.172	111.88
503.389	109.88
503.606	110.88
503.823	106.88
504.04	111.88
504.256	101.88
504.473	114.88
504.69	105.88
504.907	121.88
505.123	109.88
505.34	100.88
505.557	108.88
505.773	104.88
505.99	101.88
506.207	105.88
506.423	120.88
506.64	89.88
506.856	91.88
507.073	102.88
507.289	95.88
507.506	100.88
507.722	106.88
507.939	94.88
508.155	102.88
508.372	99.88
508.588	99.88
508.805	76.88
509.021	91.88
509.238	89.88
509.454	96.88
509.67	87.88
509.887	104.88
510.103	101.88
510.319	97.88
510.536	104.88
510.752	100.88
510.968	93.88
511.184	95.88
511.401	100.88
511.617	105.88
511.833	96.88
512.049	101.88
512.265	97.88
512.481	98.88
512.698	100.88
512.914	88.88
513.13	89.88
513.346	104.88
513.562	85.88
513.778	94.88
513.994	103.88
514.21	97.88
514.426	103.88
514.642	97.88
514.858	101.88
515.074	99.88
515.29	91.88
515.506	91.88
515.721	114.88
515.937	94.88
516.153	93.88
