Data from Location5.07152019.Energy5.Lamp.07192019.3%Agarose_HRD10591_15-39-30-389.txt Node
Date: Fri Jul 19 15:39:30 EDT 2019
User: cochatt
Spectrometer: HR+D1059
Trigger mode: 1
Integration Time (sec): 1.000000E-1
Scans to average: 1
Electric dark correction enabled: true
Nonlinearity correction enabled: false
Boxcar width: 0
XAxis mode: Wavelengths
Number of Pixels in Spectrum: 2048
>>>>>Begin Spectral Data<<<<<
223.165	-18.69
223.4	-18.69
223.635	-18.69
223.869	-13.69
224.104	-23.69
224.338	-16.69
224.573	-21.69
224.808	-20.69
225.042	-9.69
225.277	-0.69
225.511	9.31
225.746	13.31
225.98	-1.69
226.215	11.31
226.449	29.31
226.683	23.31
226.918	29.31
227.152	11.31
227.387	37.31
227.621	46.31
227.856	36.31
228.09	46.31
228.324	42.31
228.559	49.31
228.793	53.31
229.027	56.31
229.262	59.31
229.496	61.31
229.73	54.31
229.964	63.31
230.199	78.31
230.433	78.31
230.667	74.31
230.901	75.31
231.136	72.31
231.37	95.31
231.604	78.31
231.838	92.31
232.072	81.31
232.306	82.31
232.541	90.31
232.775	77.31
233.009	79.31
233.243	81.31
233.477	83.31
233.711	89.31
233.945	89.31
234.179	79.31
234.413	83.31
234.647	83.31
234.881	75.31
235.115	85.31
235.349	76.31
235.583	75.31
235.817	76.31
236.051	73.31
236.285	76.31
236.519	80.31
236.753	76.31
236.987	85.31
237.221	74.31
237.455	85.31
237.689	69.31
237.922	66.31
238.156	79.31
238.39	68.31
238.624	72.31
238.858	81.31
239.091	69.31
239.325	74.31
239.559	74.31
239.793	74.31
240.027	74.31
240.26	78.31
240.494	79.31
240.728	75.31
240.961	87.31
241.195	67.31
241.429	75.31
241.662	71.31
241.896	84.31
242.13	72.31
242.363	74.31
242.597	70.31
242.83	91.31
243.064	77.31
243.298	65.31
243.531	61.31
243.765	57.31
243.998	80.31
244.232	75.31
244.465	81.31
244.699	84.31
244.932	67.31
245.166	77.31
245.399	78.31
245.633	79.31
245.866	94.31
246.099	85.31
246.333	70.31
246.566	66.31
246.8	79.31
247.033	68.31
247.266	66.31
247.5	78.31
247.733	69.31
247.966	79.31
248.2	77.31
248.433	72.31
248.666	79.31
248.899	72.31
249.133	73.31
249.366	91.31
249.599	67.31
249.832	74.31
250.066	63.31
250.299	70.31
250.532	77.31
250.765	78.31
250.998	83.31
251.231	70.31
251.465	82.31
251.698	69.31
251.931	75.31
252.164	83.31
252.397	87.31
252.63	79.31
252.863	78.31
253.096	77.31
253.329	79.31
253.562	85.31
253.795	88.31
254.028	71.31
254.261	85.31
254.494	86.31
254.727	70.31
254.96	69.31
255.193	87.31
255.426	82.31
255.659	79.31
255.892	92.31
256.124	67.31
256.357	84.31
256.59	70.31
256.823	75.31
257.056	75.31
257.289	73.31
257.521	80.31
257.754	68.31
257.987	85.31
258.22	86.31
258.452	72.31
258.685	78.31
258.918	72.31
259.151	82.31
259.383	72.31
259.616	66.31
259.849	71.31
260.081	74.31
260.314	72.31
260.547	70.31
260.779	73.31
261.012	79.31
261.244	65.31
261.477	63.31
261.71	75.31
261.942	87.31
262.175	75.31
262.407	86.31
262.64	87.31
262.872	86.31
263.105	82.31
263.337	80.31
263.57	86.31
263.802	82.31
264.035	88.31
264.267	86.31
264.499	72.31
264.732	88.31
264.964	70.31
265.197	75.31
265.429	78.31
265.661	79.31
265.894	81.31
266.126	73.31
266.358	67.31
266.591	80.31
266.823	63.31
267.055	82.31
267.287	90.31
267.52	80.31
267.752	72.31
267.984	91.31
268.216	81.31
268.448	89.31
268.681	102.31
268.913	94.31
269.145	66.31
269.377	91.31
269.609	70.31
269.841	79.31
270.073	75.31
270.306	87.31
270.538	98.31
270.77	73.31
271.002	79.31
271.234	75.31
271.466	86.31
271.698	83.31
271.93	91.31
272.162	84.31
272.394	78.31
272.626	72.31
272.858	78.31
273.09	89.31
273.322	67.31
273.553	86.31
273.785	91.31
274.017	84.31
274.249	77.31
274.481	90.31
274.713	82.31
274.945	69.31
275.176	87.31
275.408	86.31
275.64	85.31
275.872	85.31
276.104	86.31
276.335	73.31
276.567	78.31
276.799	83.31
277.031	85.31
277.262	86.31
277.494	74.31
277.726	86.31
277.957	77.31
278.189	85.31
278.421	76.31
278.652	95.31
278.884	81.31
279.115	74.31
279.347	72.31
279.579	86.31
279.81	77.31
280.042	95.31
280.273	85.31
280.505	74.31
280.736	82.31
280.968	81.31
281.199	91.31
281.431	93.31
281.662	87.31
281.894	69.31
282.125	75.31
282.356	87.31
282.588	84.31
282.819	82.31
283.051	91.31
283.282	85.31
283.513	74.31
283.745	74.31
283.976	81.31
284.207	65.31
284.439	81.31
284.67	79.31
284.901	104.31
285.132	87.31
285.364	82.31
285.595	78.31
285.826	89.31
286.057	80.31
286.288	88.31
286.52	78.31
286.751	89.31
286.982	78.31
287.213	91.31
287.444	89.31
287.675	96.31
287.906	83.31
288.138	83.31
288.369	101.31
288.6	83.31
288.831	84.31
289.062	80.31
289.293	67.31
289.524	90.31
289.755	90.31
289.986	97.31
290.217	75.31
290.448	80.31
290.679	88.31
290.91	71.31
291.141	88.31
291.371	83.31
291.602	99.31
291.833	82.31
292.064	79.31
292.295	82.31
292.526	85.31
292.757	90.31
292.987	85.31
293.218	90.31
293.449	94.31
293.68	87.31
293.91	82.31
294.141	79.31
294.372	72.31
294.603	87.31
294.833	94.31
295.064	91.31
295.295	83.31
295.525	83.31
295.756	73.31
295.987	87.31
296.217	85.31
296.448	82.31
296.679	88.31
296.909	78.31
297.14	87.31
297.37	88.31
297.601	73.31
297.831	83.31
298.062	83.31
298.292	81.31
298.523	71.31
298.753	94.31
298.984	92.31
299.214	83.31
299.445	87.31
299.675	95.31
299.905	88.31
300.136	79.31
300.366	77.31
300.597	78.31
300.827	75.31
301.057	74.31
301.288	95.31
301.518	75.31
301.748	83.31
301.979	85.31
302.209	83.31
302.439	87.31
302.669	90.31
302.9	85.31
303.13	74.31
303.36	78.31
303.59	85.31
303.82	75.31
304.051	83.31
304.281	80.31
304.511	82.31
304.741	73.31
304.971	87.31
305.201	87.31
305.431	79.31
305.661	92.31
305.891	80.31
306.121	78.31
306.352	84.31
306.582	90.31
306.812	81.31
307.042	81.31
307.272	86.31
307.502	73.31
307.731	76.31
307.961	82.31
308.191	84.31
308.421	88.31
308.651	87.31
308.881	85.31
309.111	94.31
309.341	80.31
309.571	66.31
309.8	85.31
310.03	84.31
310.26	83.31
310.49	100.31
310.72	76.31
310.949	83.31
311.179	99.31
311.409	88.31
311.639	89.31
311.868	88.31
312.098	80.31
312.328	86.31
312.557	91.31
312.787	72.31
313.017	81.31
313.246	88.31
313.476	90.31
313.706	80.31
313.935	74.31
314.165	81.31
314.394	83.31
314.624	93.31
314.853	73.31
315.083	87.31
315.312	103.31
315.542	80.31
315.771	91.31
316.001	81.31
316.23	80.31
316.46	82.31
316.689	76.31
316.919	88.31
317.148	81.31
317.377	81.31
317.607	92.31
317.836	69.31
318.065	77.31
318.295	93.31
318.524	83.31
318.753	83.31
318.983	92.31
319.212	87.31
319.441	80.31
319.67	91.31
319.9	77.31
320.129	91.31
320.358	84.31
320.587	89.31
320.816	75.31
321.046	78.31
321.275	99.31
321.504	84.31
321.733	73.31
321.962	72.31
322.191	102.31
322.42	69.31
322.649	87.31
322.878	92.31
323.108	75.31
323.337	80.31
323.566	93.31
323.795	80.31
324.024	75.31
324.253	88.31
324.482	97.31
324.71	78.31
324.939	94.31
325.168	80.31
325.397	67.31
325.626	91.31
325.855	97.31
326.084	86.31
326.313	99.31
326.542	92.31
326.77	82.31
326.999	94.31
327.228	72.31
327.457	83.31
327.686	96.31
327.914	88.31
328.143	90.31
328.372	84.31
328.6	96.31
328.829	76.31
329.058	78.31
329.287	74.31
329.515	80.31
329.744	85.31
329.972	91.31
330.201	86.31
330.43	88.31
330.658	94.31
330.887	81.31
331.115	91.31
331.344	82.31
331.572	89.31
331.801	79.31
332.03	87.31
332.258	79.31
332.486	62.31
332.715	78.31
332.943	84.31
333.172	83.31
333.4	99.31
333.629	80.31
333.857	88.31
334.085	80.31
334.314	82.31
334.542	94.31
334.771	75.31
334.999	94.31
335.227	85.31
335.455	89.31
335.684	78.31
335.912	81.31
336.14	75.31
336.369	78.31
336.597	89.31
336.825	79.31
337.053	77.31
337.281	81.31
337.51	80.31
337.738	76.31
337.966	75.31
338.194	81.31
338.422	74.31
338.65	96.31
338.878	84.31
339.106	86.31
339.334	80.31
339.562	76.31
339.79	85.31
340.018	82.31
340.246	83.31
340.474	86.31
340.702	74.31
340.93	86.31
341.158	87.31
341.386	79.31
341.614	76.31
341.842	79.31
342.07	81.31
342.298	75.31
342.526	88.31
342.754	83.31
342.981	76.31
343.209	83.31
343.437	92.31
343.665	68.31
343.893	96.31
344.12	83.31
344.348	89.31
344.576	98.31
344.804	70.31
345.031	82.31
345.259	78.31
345.487	83.31
345.714	94.31
345.942	93.31
346.17	83.31
346.397	86.31
346.625	82.31
346.853	69.31
347.08	86.31
347.308	89.31
347.535	65.31
347.763	81.31
347.99	88.31
348.218	98.31
348.445	83.31
348.673	74.31
348.9	73.31
349.128	94.31
349.355	94.31
349.583	90.31
349.81	82.31
350.037	76.31
350.265	71.31
350.492	81.31
350.72	90.31
350.947	78.31
351.174	86.31
351.402	85.31
351.629	82.31
351.856	85.31
352.083	87.31
352.311	100.31
352.538	95.31
352.765	76.31
352.992	99.31
353.22	101.31
353.447	95.31
353.674	84.31
353.901	83.31
354.128	74.31
354.355	85.31
354.583	90.31
354.81	89.31
355.037	93.31
355.264	88.31
355.491	86.31
355.718	85.31
355.945	90.31
356.172	79.31
356.399	88.31
356.626	68.31
356.853	78.31
357.08	73.31
357.307	81.31
357.534	80.31
357.761	89.31
357.988	83.31
358.215	101.31
358.441	84.31
358.668	96.31
358.895	84.31
359.122	86.31
359.349	81.31
359.576	83.31
359.802	84.31
360.029	95.31
360.256	92.31
360.483	99.31
360.709	85.31
360.936	89.31
361.163	72.31
361.39	80.31
361.616	82.31
361.843	82.31
362.07	77.31
362.296	83.31
362.523	93.31
362.749	78.31
362.976	92.31
363.203	77.31
363.429	79.31
363.656	73.31
363.882	84.31
364.109	85.31
364.335	85.31
364.562	91.31
364.788	80.31
365.015	101.31
365.241	102.31
365.468	88.31
365.694	71.31
365.92	100.31
366.147	84.31
366.373	88.31
366.599	89.31
366.826	89.31
367.052	84.31
367.278	86.31
367.505	80.31
367.731	88.31
367.957	96.31
368.184	86.31
368.41	74.31
368.636	86.31
368.862	88.31
369.089	84.31
369.315	80.31
369.541	89.31
369.767	78.31
369.993	82.31
370.219	82.31
370.445	74.31
370.672	95.31
370.898	89.31
371.124	78.31
371.35	82.31
371.576	98.31
371.802	88.31
372.028	86.31
372.254	75.31
372.48	86.31
372.706	80.31
372.932	80.31
373.158	99.31
373.384	81.31
373.61	91.31
373.835	83.31
374.061	91.31
374.287	78.31
374.513	89.31
374.739	81.31
374.965	82.31
375.191	104.31
375.416	86.31
375.642	92.31
375.868	100.31
376.094	82.31
376.319	86.31
376.545	85.31
376.771	63.31
376.997	75.31
377.222	75.31
377.448	90.31
377.674	76.31
377.899	80.31
378.125	81.31
378.35	82.31
378.576	83.31
378.802	78.31
379.027	76.31
379.253	98.31
379.478	89.31
379.704	83.31
379.929	93.31
380.155	84.31
380.38	93.31
380.606	85.31
380.831	73.31
381.057	82.31
381.282	65.31
381.507	94.31
381.733	86.31
381.958	81.31
382.184	88.31
382.409	81.31
382.634	78.31
382.86	72.31
383.085	85.31
383.31	92.31
383.535	86.31
383.761	91.31
383.986	95.31
384.211	89.31
384.436	88.31
384.662	76.31
384.887	88.31
385.112	93.31
385.337	94.31
385.562	70.31
385.787	85.31
386.013	81.31
386.238	83.31
386.463	92.31
386.688	69.31
386.913	92.31
387.138	87.31
387.363	84.31
387.588	92.31
387.813	79.31
388.038	83.31
388.263	83.31
388.488	95.31
388.713	82.31
388.938	80.31
389.163	80.31
389.387	86.31
389.612	83.31
389.837	81.31
390.062	82.31
390.287	86.31
390.512	90.31
390.736	74.31
390.961	84.31
391.186	84.31
391.411	84.31
391.636	98.31
391.86	88.31
392.085	72.31
392.31	90.31
392.534	90.31
392.759	81.31
392.984	80.31
393.208	98.31
393.433	92.31
393.658	90.31
393.882	84.31
394.107	95.31
394.331	82.31
394.556	93.31
394.78	74.31
395.005	84.31
395.229	83.31
395.454	84.31
395.678	87.31
395.903	94.31
396.127	96.31
396.352	95.31
396.576	84.31
396.801	82.31
397.025	88.31
397.249	85.31
397.474	99.31
397.698	94.31
397.922	86.31
398.147	81.31
398.371	95.31
398.595	89.31
398.82	86.31
399.044	70.31
399.268	86.31
399.492	83.31
399.717	90.31
399.941	99.31
400.165	97.31
400.389	97.31
400.613	92.31
400.837	72.31
401.062	89.31
401.286	95.31
401.51	85.31
401.734	80.31
401.958	68.31
402.182	77.31
402.406	75.31
402.63	101.31
402.854	78.31
403.078	89.31
403.302	96.31
403.526	83.31
403.75	86.31
403.974	93.31
404.198	95.31
404.422	98.31
404.645	80.31
404.869	88.31
405.093	79.31
405.317	79.31
405.541	91.31
405.765	93.31
405.988	98.31
406.212	89.31
406.436	86.31
406.66	72.31
406.883	86.31
407.107	89.31
407.331	86.31
407.555	76.31
407.778	89.31
408.002	88.31
408.226	74.31
408.449	92.31
408.673	92.31
408.896	104.31
409.12	85.31
409.344	78.31
409.567	80.31
409.791	93.31
410.014	90.31
410.238	100.31
410.461	85.31
410.685	90.31
410.908	91.31
411.132	81.31
411.355	95.31
411.578	88.31
411.802	97.31
412.025	90.31
412.249	91.31
412.472	87.31
412.695	88.31
412.919	97.31
413.142	90.31
413.365	75.31
413.589	88.31
413.812	95.31
414.035	107.31
414.258	80.31
414.482	71.31
414.705	95.31
414.928	94.31
415.151	104.31
415.374	89.31
415.597	92.31
415.821	95.31
416.044	90.31
416.267	96.31
416.49	83.31
416.713	74.31
416.936	83.31
417.159	88.31
417.382	91.31
417.605	91.31
417.828	95.31
418.051	101.31
418.274	92.31
418.497	85.31
418.72	91.31
418.943	100.31
419.166	78.31
419.389	87.31
419.611	93.31
419.834	93.31
420.057	93.31
420.28	93.31
420.503	96.31
420.726	81.31
420.948	93.31
421.171	89.31
421.394	96.31
421.617	90.31
421.839	100.31
422.062	105.31
422.285	88.31
422.507	95.31
422.73	88.31
422.953	82.31
423.175	84.31
423.398	95.31
423.621	99.31
423.843	100.31
424.066	98.31
424.288	90.31
424.511	76.31
424.733	99.31
424.956	95.31
425.178	84.31
425.401	93.31
425.623	94.31
425.846	89.31
426.068	95.31
426.291	93.31
426.513	99.31
426.735	109.31
426.958	101.31
427.18	89.31
427.402	104.31
427.625	91.31
427.847	93.31
428.069	70.31
428.292	71.31
428.514	90.31
428.736	97.31
428.958	91.31
429.181	93.31
429.403	90.31
429.625	90.31
429.847	79.31
430.069	85.31
430.292	87.31
430.514	102.31
430.736	96.31
430.958	91.31
431.18	95.31
431.402	102.31
431.624	95.31
431.846	85.31
432.068	81.31
432.29	91.31
432.512	90.31
432.734	86.31
432.956	87.31
433.178	90.31
433.4	100.31
433.622	112.31
433.844	89.31
434.066	79.31
434.287	93.31
434.509	80.31
434.731	82.31
434.953	89.31
435.175	89.31
435.397	85.31
435.618	90.31
435.84	97.31
436.062	96.31
436.284	95.31
436.505	91.31
436.727	99.31
436.949	88.31
437.17	83.31
437.392	85.31
437.614	96.31
437.835	92.31
438.057	81.31
438.278	77.31
438.5	82.31
438.721	78.31
438.943	79.31
439.165	93.31
439.386	95.31
439.608	115.31
439.829	108.31
440.05	100.31
440.272	90.31
440.493	92.31
440.715	81.31
440.936	96.31
441.158	108.31
441.379	96.31
441.6	98.31
441.822	99.31
442.043	105.31
442.264	94.31
442.486	88.31
442.707	92.31
442.928	96.31
443.149	84.31
443.371	90.31
443.592	81.31
443.813	85.31
444.034	80.31
444.255	99.31
444.476	99.31
444.698	83.31
444.919	93.31
445.14	218.31
445.361	153.31
445.582	87.31
445.803	88.31
446.024	92.31
446.245	90.31
446.466	111.31
446.687	110.31
446.908	92.31
447.129	107.31
447.35	88.31
447.571	97.31
447.792	115.31
448.013	83.31
448.234	97.31
448.455	104.31
448.675	99.31
448.896	92.31
449.117	83.31
449.338	100.31
449.559	90.31
449.779	85.31
450	83.31
450.221	88.31
450.442	87.31
450.662	97.31
450.883	88.31
451.104	89.31
451.324	75.31
451.545	80.31
451.766	73.31
451.986	99.31
452.207	86.31
452.428	86.31
452.648	91.31
452.869	82.31
453.089	79.31
453.31	79.31
453.53	82.31
453.751	90.31
453.971	92.31
454.192	88.31
454.412	84.31
454.633	93.31
454.853	85.31
455.073	78.31
455.294	74.31
455.514	85.31
455.734	88.31
455.955	91.31
456.175	81.31
456.395	85.31
456.616	87.31
456.836	101.31
457.056	77.31
457.276	75.31
457.497	87.31
457.717	85.31
457.937	71.31
458.157	93.31
458.377	88.31
458.598	81.31
458.818	82.31
459.038	72.31
459.258	84.31
459.478	90.31
459.698	82.31
459.918	80.31
460.138	75.31
460.358	81.31
460.578	83.31
460.798	86.31
461.018	102.31
461.238	96.31
461.458	80.31
461.678	93.31
461.898	83.31
462.118	85.31
462.338	83.31
462.558	95.31
462.777	74.31
462.997	89.31
463.217	79.31
463.437	95.31
463.657	77.31
463.876	83.31
464.096	81.31
464.316	88.31
464.536	90.31
464.755	83.31
464.975	85.31
465.195	86.31
465.414	82.31
465.634	86.31
465.854	83.31
466.073	85.31
466.293	65.31
466.512	90.31
466.732	87.31
466.951	97.31
467.171	93.31
467.391	104.31
467.61	93.31
467.829	93.31
468.049	93.31
468.268	95.31
468.488	82.31
468.707	94.31
468.927	85.31
469.146	87.31
469.365	111.31
469.585	88.31
469.804	101.31
470.023	98.31
470.243	92.31
470.462	98.31
470.681	93.31
470.901	90.31
471.12	85.31
471.339	88.31
471.558	99.31
471.777	95.31
471.997	99.31
472.216	100.31
472.435	97.31
472.654	101.31
472.873	82.31
473.092	101.31
473.311	93.31
473.53	95.31
473.749	88.31
473.968	84.31
474.187	92.31
474.406	82.31
474.625	85.31
474.844	103.31
475.063	94.31
475.282	90.31
475.501	94.31
475.72	82.31
475.939	89.31
476.158	89.31
476.377	95.31
476.596	101.31
476.814	104.31
477.033	87.31
477.252	84.31
477.471	94.31
477.69	80.31
477.908	97.31
478.127	89.31
478.346	106.31
478.564	94.31
478.783	99.31
479.002	99.31
479.22	92.31
479.439	96.31
479.658	98.31
479.876	97.31
480.095	89.31
480.313	85.31
480.532	99.31
480.751	91.31
480.969	91.31
481.188	87.31
481.406	89.31
481.624	90.31
481.843	81.31
482.061	82.31
482.28	87.31
482.498	87.31
482.717	79.31
482.935	81.31
483.153	101.31
483.372	95.31
483.59	89.31
483.808	80.31
484.027	94.31
484.245	86.31
484.463	88.31
484.681	103.31
484.9	87.31
485.118	88.31
485.336	85.31
485.554	92.31
485.772	81.31
485.99	81.31
486.209	81.31
486.427	88.31
486.645	94.31
486.863	85.31
487.081	98.31
487.299	101.31
487.517	89.31
487.735	99.31
487.953	109.31
488.171	99.31
488.389	114.31
488.607	108.31
488.825	102.31
489.043	85.31
489.261	87.31
489.479	96.31
489.696	93.31
489.914	105.31
490.132	106.31
490.35	104.31
490.568	96.31
490.786	104.31
491.003	111.31
491.221	109.31
491.439	118.31
491.657	110.31
491.874	120.31
492.092	99.31
492.31	114.31
492.527	129.31
492.745	125.31
492.963	116.31
493.18	111.31
493.398	102.31
493.615	102.31
493.833	104.31
494.05	95.31
494.268	106.31
494.485	101.31
494.703	98.31
494.92	116.31
495.138	105.31
495.355	103.31
495.573	102.31
495.79	90.31
496.008	98.31
496.225	100.31
496.442	111.31
496.66	99.31
496.877	103.31
497.094	99.31
497.312	100.31
497.529	96.31
497.746	103.31
497.963	98.31
498.181	86.31
498.398	81.31
498.615	101.31
498.832	87.31
499.049	84.31
499.267	87.31
499.484	68.31
499.701	102.31
499.918	108.31
500.135	97.31
500.352	96.31
500.569	110.31
500.786	93.31
501.003	104.31
501.22	95.31
501.437	94.31
501.654	90.31
501.871	90.31
502.088	88.31
502.305	96.31
502.522	91.31
502.739	104.31
502.956	95.31
503.172	77.31
503.389	93.31
503.606	102.31
503.823	89.31
504.04	80.31
504.256	95.31
504.473	83.31
504.69	81.31
504.907	90.31
505.123	105.31
505.34	88.31
505.557	86.31
505.773	83.31
505.99	95.31
506.207	93.31
506.423	81.31
506.64	82.31
506.856	101.31
507.073	92.31
507.289	98.31
507.506	94.31
507.722	91.31
507.939	88.31
508.155	86.31
508.372	90.31
508.588	99.31
508.805	93.31
509.021	90.31
509.238	86.31
509.454	80.31
509.67	101.31
509.887	93.31
510.103	84.31
510.319	93.31
510.536	89.31
510.752	88.31
510.968	83.31
511.184	74.31
511.401	87.31
511.617	87.31
511.833	80.31
512.049	86.31
512.265	74.31
512.481	92.31
512.698	104.31
512.914	79.31
513.13	92.31
513.346	80.31
513.562	80.31
513.778	80.31
513.994	83.31
514.21	83.31
514.426	67.31
514.642	95.31
514.858	89.31
515.074	86.31
515.29	89.31
515.506	88.31
515.721	85.31
515.937	74.31
516.153	81.31
516.369	76.31
516.585	79.31
516.801	83.31
517.016	80.31
517.232	85.31
517.448	97.31
517.664	102.31
517.879	76.31
518.095	69.31
