Data from Location5.07152019.Energy5.Lamp.07192019.3%Agarose_HRD10591_15-39-16-395.txt Node
Date: Fri Jul 19 15:39:16 EDT 2019
User: cochatt
Spectrometer: HR+D1059
Trigger mode: 1
Integration Time (sec): 1.000000E-1
Scans to average: 1
Electric dark correction enabled: true
Nonlinearity correction enabled: false
Boxcar width: 0
XAxis mode: Wavelengths
Number of Pixels in Spectrum: 2048
>>>>>Begin Spectral Data<<<<<
223.165	-10.12
223.4	-10.12
223.635	-10.12
223.869	-23.12
224.104	-22.12
224.338	-13.12
224.573	-24.12
224.808	-22.12
225.042	-1.12
225.277	-9.12
225.511	-14.12
225.746	1.88
225.98	26.88
226.215	24.88
226.449	16.88
226.683	14.88
226.918	12.88
227.152	40.88
227.387	38.88
227.621	48.88
227.856	40.88
228.09	42.88
228.324	55.88
228.559	58.88
228.793	48.88
229.027	50.88
229.262	61.88
229.496	72.88
229.73	67.88
229.964	63.88
230.199	65.88
230.433	70.88
230.667	59.88
230.901	69.88
231.136	70.88
231.37	77.88
231.604	83.88
231.838	78.88
232.072	79.88
232.306	76.88
232.541	70.88
232.775	69.88
233.009	73.88
233.243	86.88
233.477	91.88
233.711	84.88
233.945	71.88
234.179	77.88
234.413	78.88
234.647	97.88
234.881	82.88
235.115	80.88
235.349	80.88
235.583	86.88
235.817	74.88
236.051	94.88
236.285	69.88
236.519	79.88
236.753	83.88
236.987	83.88
237.221	90.88
237.455	79.88
237.689	72.88
237.922	84.88
238.156	75.88
238.39	86.88
238.624	74.88
238.858	70.88
239.091	81.88
239.325	71.88
239.559	74.88
239.793	62.88
240.027	93.88
240.26	83.88
240.494	73.88
240.728	73.88
240.961	74.88
241.195	93.88
241.429	79.88
241.662	69.88
241.896	79.88
242.13	72.88
242.363	68.88
242.597	76.88
242.83	70.88
243.064	58.88
243.298	76.88
243.531	69.88
243.765	77.88
243.998	76.88
244.232	68.88
244.465	79.88
244.699	80.88
244.932	91.88
245.166	71.88
245.399	84.88
245.633	69.88
245.866	79.88
246.099	75.88
246.333	84.88
246.566	81.88
246.8	75.88
247.033	75.88
247.266	60.88
247.5	69.88
247.733	85.88
247.966	85.88
248.2	77.88
248.433	72.88
248.666	77.88
248.899	78.88
249.133	76.88
249.366	77.88
249.599	72.88
249.832	92.88
250.066	79.88
250.299	76.88
250.532	82.88
250.765	89.88
250.998	91.88
251.231	85.88
251.465	64.88
251.698	73.88
251.931	75.88
252.164	80.88
252.397	88.88
252.63	86.88
252.863	64.88
253.096	68.88
253.329	84.88
253.562	77.88
253.795	87.88
254.028	81.88
254.261	68.88
254.494	81.88
254.727	91.88
254.96	79.88
255.193	83.88
255.426	89.88
255.659	71.88
255.892	97.88
256.124	77.88
256.357	80.88
256.59	73.88
256.823	70.88
257.056	79.88
257.289	80.88
257.521	83.88
257.754	77.88
257.987	79.88
258.22	63.88
258.452	77.88
258.685	80.88
258.918	91.88
259.151	85.88
259.383	79.88
259.616	68.88
259.849	85.88
260.081	82.88
260.314	79.88
260.547	91.88
260.779	79.88
261.012	87.88
261.244	83.88
261.477	75.88
261.71	74.88
261.942	65.88
262.175	83.88
262.407	79.88
262.64	94.88
262.872	86.88
263.105	78.88
263.337	74.88
263.57	76.88
263.802	77.88
264.035	87.88
264.267	70.88
264.499	70.88
264.732	79.88
264.964	79.88
265.197	92.88
265.429	84.88
265.661	85.88
265.894	74.88
266.126	97.88
266.358	82.88
266.591	87.88
266.823	71.88
267.055	69.88
267.287	64.88
267.52	82.88
267.752	68.88
267.984	87.88
268.216	74.88
268.448	87.88
268.681	92.88
268.913	84.88
269.145	68.88
269.377	66.88
269.609	61.88
269.841	67.88
270.073	90.88
270.306	88.88
270.538	90.88
270.77	79.88
271.002	87.88
271.234	99.88
271.466	88.88
271.698	80.88
271.93	72.88
272.162	72.88
272.394	90.88
272.626	80.88
272.858	85.88
273.09	84.88
273.322	93.88
273.553	74.88
273.785	93.88
274.017	82.88
274.249	73.88
274.481	86.88
274.713	71.88
274.945	80.88
275.176	87.88
275.408	90.88
275.64	81.88
275.872	77.88
276.104	67.88
276.335	94.88
276.567	83.88
276.799	83.88
277.031	69.88
277.262	85.88
277.494	93.88
277.726	81.88
277.957	94.88
278.189	89.88
278.421	95.88
278.652	79.88
278.884	72.88
279.115	84.88
279.347	93.88
279.579	82.88
279.81	89.88
280.042	84.88
280.273	79.88
280.505	80.88
280.736	84.88
280.968	93.88
281.199	79.88
281.431	82.88
281.662	73.88
281.894	85.88
282.125	89.88
282.356	72.88
282.588	91.88
282.819	81.88
283.051	71.88
283.282	69.88
283.513	92.88
283.745	84.88
283.976	65.88
284.207	68.88
284.439	88.88
284.67	90.88
284.901	72.88
285.132	79.88
285.364	86.88
285.595	74.88
285.826	88.88
286.057	90.88
286.288	74.88
286.52	90.88
286.751	82.88
286.982	78.88
287.213	82.88
287.444	76.88
287.675	98.88
287.906	91.88
288.138	88.88
288.369	87.88
288.6	97.88
288.831	79.88
289.062	85.88
289.293	90.88
289.524	79.88
289.755	71.88
289.986	89.88
290.217	81.88
290.448	80.88
290.679	86.88
290.91	89.88
291.141	85.88
291.371	93.88
291.602	86.88
291.833	98.88
292.064	84.88
292.295	62.88
292.526	78.88
292.757	80.88
292.987	93.88
293.218	94.88
293.449	76.88
293.68	87.88
293.91	85.88
294.141	101.88
294.372	77.88
294.603	87.88
294.833	57.88
295.064	87.88
295.295	70.88
295.525	102.88
295.756	81.88
295.987	83.88
296.217	74.88
296.448	77.88
296.679	87.88
296.909	81.88
297.14	97.88
297.37	85.88
297.601	83.88
297.831	93.88
298.062	80.88
298.292	80.88
298.523	95.88
298.753	86.88
298.984	80.88
299.214	90.88
299.445	85.88
299.675	79.88
299.905	81.88
300.136	71.88
300.366	86.88
300.597	79.88
300.827	84.88
301.057	84.88
301.288	82.88
301.518	82.88
301.748	89.88
301.979	74.88
302.209	81.88
302.439	74.88
302.669	72.88
302.9	86.88
303.13	65.88
303.36	94.88
303.59	82.88
303.82	92.88
304.051	91.88
304.281	82.88
304.511	94.88
304.741	81.88
304.971	74.88
305.201	85.88
305.431	87.88
305.661	82.88
305.891	85.88
306.121	78.88
306.352	102.88
306.582	73.88
306.812	70.88
307.042	85.88
307.272	80.88
307.502	94.88
307.731	101.88
307.961	81.88
308.191	71.88
308.421	79.88
308.651	78.88
308.881	82.88
309.111	74.88
309.341	74.88
309.571	78.88
309.8	85.88
310.03	81.88
310.26	75.88
310.49	91.88
310.72	65.88
310.949	71.88
311.179	93.88
311.409	88.88
311.639	89.88
311.868	82.88
312.098	75.88
312.328	83.88
312.557	79.88
312.787	76.88
313.017	78.88
313.246	82.88
313.476	74.88
313.706	85.88
313.935	68.88
314.165	90.88
314.394	79.88
314.624	78.88
314.853	70.88
315.083	87.88
315.312	69.88
315.542	81.88
315.771	93.88
316.001	87.88
316.23	72.88
316.46	75.88
316.689	103.88
316.919	81.88
317.148	85.88
317.377	103.88
317.607	85.88
317.836	69.88
318.065	61.88
318.295	69.88
318.524	85.88
318.753	85.88
318.983	70.88
319.212	89.88
319.441	74.88
319.67	76.88
319.9	81.88
320.129	84.88
320.358	89.88
320.587	87.88
320.816	64.88
321.046	77.88
321.275	74.88
321.504	91.88
321.733	88.88
321.962	67.88
322.191	85.88
322.42	76.88
322.649	83.88
322.878	101.88
323.108	86.88
323.337	95.88
323.566	79.88
323.795	86.88
324.024	101.88
324.253	85.88
324.482	74.88
324.71	86.88
324.939	92.88
325.168	80.88
325.397	85.88
325.626	82.88
325.855	73.88
326.084	73.88
326.313	78.88
326.542	67.88
326.77	75.88
326.999	81.88
327.228	74.88
327.457	87.88
327.686	92.88
327.914	74.88
328.143	80.88
328.372	75.88
328.6	84.88
328.829	81.88
329.058	78.88
329.287	83.88
329.515	80.88
329.744	82.88
329.972	93.88
330.201	85.88
330.43	83.88
330.658	81.88
330.887	94.88
331.115	76.88
331.344	88.88
331.572	87.88
331.801	89.88
332.03	92.88
332.258	86.88
332.486	70.88
332.715	74.88
332.943	88.88
333.172	77.88
333.4	95.88
333.629	80.88
333.857	74.88
334.085	74.88
334.314	76.88
334.542	72.88
334.771	85.88
334.999	81.88
335.227	84.88
335.455	79.88
335.684	81.88
335.912	74.88
336.14	81.88
336.369	79.88
336.597	81.88
336.825	73.88
337.053	74.88
337.281	82.88
337.51	88.88
337.738	74.88
337.966	80.88
338.194	93.88
338.422	69.88
338.65	94.88
338.878	85.88
339.106	69.88
339.334	95.88
339.562	81.88
339.79	75.88
340.018	97.88
340.246	72.88
340.474	83.88
340.702	90.88
340.93	75.88
341.158	86.88
341.386	91.88
341.614	72.88
341.842	66.88
342.07	75.88
342.298	70.88
342.526	93.88
342.754	86.88
342.981	86.88
343.209	82.88
343.437	87.88
343.665	82.88
343.893	88.88
344.12	88.88
344.348	100.88
344.576	72.88
344.804	91.88
345.031	89.88
345.259	89.88
345.487	72.88
345.714	79.88
345.942	83.88
346.17	90.88
346.397	98.88
346.625	66.88
346.853	74.88
347.08	87.88
347.308	96.88
347.535	95.88
347.763	88.88
347.99	92.88
348.218	82.88
348.445	90.88
348.673	89.88
348.9	89.88
349.128	69.88
349.355	85.88
349.583	86.88
349.81	68.88
350.037	75.88
350.265	70.88
350.492	88.88
350.72	96.88
350.947	89.88
351.174	82.88
351.402	74.88
351.629	81.88
351.856	79.88
352.083	84.88
352.311	83.88
352.538	81.88
352.765	74.88
352.992	90.88
353.22	79.88
353.447	89.88
353.674	78.88
353.901	87.88
354.128	75.88
354.355	90.88
354.583	81.88
354.81	81.88
355.037	88.88
355.264	84.88
355.491	77.88
355.718	84.88
355.945	84.88
356.172	71.88
356.399	63.88
356.626	95.88
356.853	85.88
357.08	71.88
357.307	86.88
357.534	93.88
357.761	89.88
357.988	74.88
358.215	94.88
358.441	81.88
358.668	79.88
358.895	94.88
359.122	77.88
359.349	77.88
359.576	79.88
359.802	93.88
360.029	82.88
360.256	81.88
360.483	72.88
360.709	83.88
360.936	78.88
361.163	92.88
361.39	96.88
361.616	87.88
361.843	80.88
362.07	69.88
362.296	78.88
362.523	71.88
362.749	87.88
362.976	84.88
363.203	90.88
363.429	80.88
363.656	94.88
363.882	91.88
364.109	86.88
364.335	82.88
364.562	68.88
364.788	77.88
365.015	83.88
365.241	78.88
365.468	83.88
365.694	93.88
365.92	69.88
366.147	81.88
366.373	82.88
366.599	81.88
366.826	85.88
367.052	73.88
367.278	92.88
367.505	91.88
367.731	84.88
367.957	86.88
368.184	81.88
368.41	83.88
368.636	92.88
368.862	92.88
369.089	74.88
369.315	79.88
369.541	89.88
369.767	97.88
369.993	93.88
370.219	75.88
370.445	70.88
370.672	92.88
370.898	86.88
371.124	79.88
371.35	81.88
371.576	67.88
371.802	86.88
372.028	77.88
372.254	72.88
372.48	82.88
372.706	85.88
372.932	75.88
373.158	90.88
373.384	89.88
373.61	71.88
373.835	81.88
374.061	84.88
374.287	77.88
374.513	86.88
374.739	83.88
374.965	83.88
375.191	90.88
375.416	80.88
375.642	86.88
375.868	91.88
376.094	90.88
376.319	78.88
376.545	76.88
376.771	85.88
376.997	91.88
377.222	85.88
377.448	83.88
377.674	84.88
377.899	88.88
378.125	84.88
378.35	88.88
378.576	79.88
378.802	79.88
379.027	93.88
379.253	80.88
379.478	89.88
379.704	80.88
379.929	65.88
380.155	93.88
380.38	83.88
380.606	89.88
380.831	69.88
381.057	94.88
381.282	85.88
381.507	92.88
381.733	88.88
381.958	79.88
382.184	90.88
382.409	81.88
382.634	73.88
382.86	81.88
383.085	87.88
383.31	80.88
383.535	86.88
383.761	75.88
383.986	83.88
384.211	95.88
384.436	95.88
384.662	87.88
384.887	75.88
385.112	71.88
385.337	76.88
385.562	93.88
385.787	76.88
386.013	88.88
386.238	88.88
386.463	99.88
386.688	90.88
386.913	93.88
387.138	82.88
387.363	88.88
387.588	86.88
387.813	85.88
388.038	93.88
388.263	82.88
388.488	85.88
388.713	94.88
388.938	79.88
389.163	82.88
389.387	78.88
389.612	76.88
389.837	78.88
390.062	79.88
390.287	70.88
390.512	71.88
390.736	96.88
390.961	79.88
391.186	76.88
391.411	89.88
391.636	74.88
391.86	86.88
392.085	93.88
392.31	84.88
392.534	88.88
392.759	97.88
392.984	80.88
393.208	93.88
393.433	83.88
393.658	104.88
393.882	76.88
394.107	79.88
394.331	88.88
394.556	96.88
394.78	97.88
395.005	94.88
395.229	97.88
395.454	97.88
395.678	83.88
395.903	85.88
396.127	81.88
396.352	88.88
396.576	101.88
396.801	87.88
397.025	83.88
397.249	85.88
397.474	84.88
397.698	72.88
397.922	72.88
398.147	69.88
398.371	88.88
398.595	77.88
398.82	88.88
399.044	87.88
399.268	86.88
399.492	74.88
399.717	87.88
399.941	98.88
400.165	90.88
400.389	102.88
400.613	86.88
400.837	87.88
401.062	89.88
401.286	86.88
401.51	86.88
401.734	90.88
401.958	78.88
402.182	76.88
402.406	90.88
402.63	75.88
402.854	90.88
403.078	74.88
403.302	77.88
403.526	94.88
403.75	90.88
403.974	101.88
404.198	88.88
404.422	86.88
404.645	87.88
404.869	97.88
405.093	81.88
405.317	86.88
405.541	87.88
405.765	89.88
405.988	80.88
406.212	84.88
406.436	95.88
406.66	90.88
406.883	95.88
407.107	72.88
407.331	82.88
407.555	97.88
407.778	104.88
408.002	85.88
408.226	76.88
408.449	95.88
408.673	110.88
408.896	95.88
409.12	106.88
409.344	88.88
409.567	79.88
409.791	96.88
410.014	95.88
410.238	94.88
410.461	93.88
410.685	82.88
410.908	86.88
411.132	87.88
411.355	78.88
411.578	88.88
411.802	92.88
412.025	80.88
412.249	98.88
412.472	89.88
412.695	82.88
412.919	90.88
413.142	88.88
413.365	88.88
413.589	85.88
413.812	89.88
414.035	97.88
414.258	85.88
414.482	92.88
414.705	77.88
414.928	83.88
415.151	101.88
415.374	93.88
415.597	88.88
415.821	83.88
416.044	84.88
416.267	93.88
416.49	112.88
416.713	87.88
416.936	99.88
417.159	85.88
417.382	75.88
417.605	93.88
417.828	84.88
418.051	84.88
418.274	80.88
418.497	92.88
418.72	103.88
418.943	99.88
419.166	80.88
419.389	74.88
419.611	89.88
419.834	86.88
420.057	92.88
420.28	91.88
420.503	85.88
420.726	96.88
420.948	104.88
421.171	104.88
421.394	91.88
421.617	88.88
421.839	92.88
422.062	106.88
422.285	98.88
422.507	85.88
422.73	83.88
422.953	99.88
423.175	93.88
423.398	89.88
423.621	89.88
423.843	101.88
424.066	83.88
424.288	81.88
424.511	85.88
424.733	97.88
424.956	88.88
425.178	99.88
425.401	87.88
425.623	91.88
425.846	100.88
426.068	83.88
426.291	80.88
426.513	91.88
426.735	94.88
426.958	94.88
427.18	80.88
427.402	87.88
427.625	85.88
427.847	90.88
428.069	93.88
428.292	76.88
428.514	85.88
428.736	100.88
428.958	84.88
429.181	86.88
429.403	89.88
429.625	96.88
429.847	99.88
430.069	86.88
430.292	91.88
430.514	94.88
430.736	81.88
430.958	100.88
431.18	105.88
431.402	89.88
431.624	105.88
431.846	95.88
432.068	86.88
432.29	78.88
432.512	99.88
432.734	88.88
432.956	108.88
433.178	95.88
433.4	89.88
433.622	100.88
433.844	87.88
434.066	93.88
434.287	72.88
434.509	85.88
434.731	76.88
434.953	86.88
435.175	78.88
435.397	89.88
435.618	88.88
435.84	80.88
436.062	89.88
436.284	92.88
436.505	102.88
436.727	95.88
436.949	98.88
437.17	97.88
437.392	87.88
437.614	88.88
437.835	79.88
438.057	88.88
438.278	96.88
438.5	85.88
438.721	85.88
438.943	91.88
439.165	96.88
439.386	82.88
439.608	85.88
439.829	101.88
440.05	97.88
440.272	88.88
440.493	109.88
440.715	115.88
440.936	98.88
441.158	83.88
441.379	100.88
441.6	85.88
441.822	88.88
442.043	86.88
442.264	89.88
442.486	93.88
442.707	101.88
442.928	87.88
443.149	98.88
443.371	93.88
443.592	102.88
443.813	107.88
444.034	92.88
444.255	88.88
444.476	95.88
444.698	94.88
444.919	91.88
445.14	210.88
445.361	138.88
445.582	102.88
445.803	103.88
446.024	101.88
446.245	121.88
446.466	99.88
446.687	87.88
446.908	106.88
447.129	101.88
447.35	95.88
447.571	100.88
447.792	89.88
448.013	98.88
448.234	95.88
448.455	92.88
448.675	92.88
448.896	92.88
449.117	96.88
449.338	86.88
449.559	90.88
449.779	101.88
450	90.88
450.221	83.88
450.442	102.88
450.662	98.88
450.883	89.88
451.104	84.88
451.324	98.88
451.545	85.88
451.766	85.88
451.986	91.88
452.207	93.88
452.428	75.88
452.648	90.88
452.869	99.88
453.089	103.88
453.31	85.88
453.53	82.88
453.751	80.88
453.971	96.88
454.192	85.88
454.412	77.88
454.633	92.88
454.853	107.88
455.073	76.88
455.294	90.88
455.514	92.88
455.734	98.88
455.955	87.88
456.175	76.88
456.395	81.88
456.616	78.88
456.836	95.88
457.056	88.88
457.276	91.88
457.497	90.88
457.717	85.88
457.937	93.88
458.157	76.88
458.377	91.88
458.598	92.88
458.818	92.88
459.038	79.88
459.258	87.88
459.478	74.88
459.698	87.88
459.918	83.88
460.138	89.88
460.358	75.88
460.578	82.88
460.798	86.88
461.018	84.88
461.238	88.88
461.458	84.88
461.678	80.88
461.898	74.88
462.118	89.88
462.338	88.88
462.558	78.88
462.777	82.88
462.997	75.88
463.217	94.88
463.437	75.88
463.657	85.88
463.876	83.88
464.096	84.88
464.316	74.88
464.536	70.88
464.755	87.88
464.975	94.88
465.195	93.88
465.414	81.88
465.634	86.88
465.854	97.88
466.073	84.88
466.293	93.88
466.512	90.88
466.732	87.88
466.951	90.88
467.171	98.88
467.391	108.88
467.61	98.88
467.829	94.88
468.049	93.88
468.268	93.88
468.488	98.88
468.707	93.88
468.927	84.88
469.146	96.88
469.365	94.88
469.585	98.88
469.804	99.88
470.023	94.88
470.243	102.88
470.462	102.88
470.681	104.88
470.901	101.88
471.12	76.88
471.339	94.88
471.558	105.88
471.777	96.88
471.997	100.88
472.216	90.88
472.435	78.88
472.654	83.88
472.873	84.88
473.092	95.88
473.311	94.88
473.53	99.88
473.749	89.88
473.968	93.88
474.187	91.88
474.406	81.88
474.625	85.88
474.844	83.88
475.063	89.88
475.282	97.88
475.501	94.88
475.72	86.88
475.939	98.88
476.158	112.88
476.377	83.88
476.596	87.88
476.814	89.88
477.033	85.88
477.252	100.88
477.471	91.88
477.69	79.88
477.908	102.88
478.127	95.88
478.346	90.88
478.564	96.88
478.783	97.88
479.002	88.88
479.22	97.88
479.439	88.88
479.658	98.88
479.876	95.88
480.095	87.88
480.313	90.88
480.532	85.88
480.751	87.88
480.969	88.88
481.188	85.88
481.406	94.88
481.624	78.88
481.843	83.88
482.061	81.88
482.28	72.88
482.498	98.88
482.717	96.88
482.935	93.88
483.153	93.88
483.372	106.88
483.59	101.88
483.808	83.88
484.027	92.88
484.245	117.88
484.463	96.88
484.681	109.88
484.9	95.88
485.118	107.88
485.336	95.88
485.554	91.88
485.772	88.88
485.99	82.88
486.209	87.88
486.427	87.88
486.645	91.88
486.863	101.88
487.081	94.88
487.299	87.88
487.517	97.88
487.735	93.88
487.953	99.88
488.171	103.88
488.389	118.88
488.607	107.88
488.825	106.88
489.043	93.88
489.261	88.88
489.479	97.88
489.696	89.88
489.914	105.88
490.132	87.88
490.35	115.88
490.568	113.88
490.786	106.88
491.003	100.88
491.221	103.88
491.439	102.88
491.657	97.88
491.874	117.88
492.092	117.88
492.31	122.88
492.527	129.88
492.745	117.88
492.963	115.88
493.18	103.88
493.398	110.88
493.615	103.88
493.833	105.88
494.05	99.88
494.268	106.88
494.485	117.88
494.703	114.88
494.92	106.88
495.138	105.88
495.355	111.88
495.573	106.88
495.79	109.88
496.008	99.88
496.225	113.88
496.442	119.88
496.66	111.88
496.877	102.88
497.094	104.88
497.312	107.88
497.529	111.88
497.746	106.88
497.963	90.88
498.181	101.88
498.398	98.88
498.615	93.88
498.832	77.88
499.049	99.88
499.267	85.88
499.484	101.88
499.701	87.88
499.918	89.88
500.135	80.88
500.352	97.88
500.569	96.88
500.786	97.88
501.003	96.88
501.22	101.88
501.437	101.88
501.654	115.88
501.871	93.88
502.088	97.88
502.305	90.88
502.522	100.88
502.739	95.88
502.956	97.88
503.172	102.88
503.389	79.88
503.606	89.88
503.823	87.88
504.04	84.88
504.256	80.88
504.473	91.88
504.69	105.88
504.907	95.88
505.123	104.88
505.34	101.88
505.557	94.88
505.773	94.88
505.99	113.88
506.207	79.88
506.423	90.88
506.64	91.88
506.856	82.88
507.073	66.88
507.289	96.88
507.506	93.88
507.722	88.88
507.939	97.88
508.155	76.88
508.372	93.88
508.588	96.88
508.805	84.88
509.021	94.88
509.238	81.88
509.454	94.88
509.67	87.88
509.887	83.88
510.103	99.88
510.319	84.88
510.536	88.88
510.752	84.88
510.968	88.88
511.184	76.88
511.401	79.88
511.617	86.88
511.833	90.88
512.049	100.88
512.265	93.88
512.481	92.88
512.698	76.88
512.914	89.88
513.13	88.88
513.346	77.88
513.562	90.88
513.778	84.88
513.994	94.88
514.21	94.88
514.426	79.88
514.642	81.88
514.858	83.88
515.074	73.88
515.29	100.88
515.506	90.88
515.721	75.88
515.937	81.88
516.153	81.88
516.369	79.88
516.585	80.88
516.801	81.88
517.016	77.88
517.232	89.88
517.448	73.88
517.664	82.88
517.879	83.88
