Data from Location5.07152019.Energy5.Lamp.07192019.3%Agarose_HRD10591_15-36-35-386.txt Node
Date: Fri Jul 19 15:36:35 EDT 2019
User: cochatt
Spectrometer: HR+D1059
Trigger mode: 1
Integration Time (sec): 1.000000E-1
Scans to average: 1
Electric dark correction enabled: true
Nonlinearity correction enabled: false
Boxcar width: 0
XAxis mode: Wavelengths
Number of Pixels in Spectrum: 2048
>>>>>Begin Spectral Data<<<<<
223.165	-2.81
223.4	-2.81
223.635	-2.81
223.869	-17.81
224.104	-8.81
224.338	-22.81
224.573	-11.81
224.808	-13.81
225.042	-15.81
225.277	3.19
225.511	-8.81
225.746	-12.81
225.98	8.19
226.215	9.19
226.449	17.19
226.683	27.19
226.918	16.19
227.152	34.19
227.387	28.19
227.621	30.19
227.856	45.19
228.09	39.19
228.324	43.19
228.559	61.19
228.793	51.19
229.027	52.19
229.262	68.19
229.496	57.19
229.73	72.19
229.964	85.19
230.199	65.19
230.433	64.19
230.667	83.19
230.901	68.19
231.136	82.19
231.37	78.19
231.604	72.19
231.838	80.19
232.072	73.19
232.306	78.19
232.541	80.19
232.775	94.19
233.009	74.19
233.243	83.19
233.477	76.19
233.711	82.19
233.945	80.19
234.179	70.19
234.413	77.19
234.647	87.19
234.881	60.19
235.115	72.19
235.349	81.19
235.583	81.19
235.817	83.19
236.051	78.19
236.285	68.19
236.519	80.19
236.753	80.19
236.987	90.19
237.221	72.19
237.455	68.19
237.689	85.19
237.922	86.19
238.156	79.19
238.39	65.19
238.624	75.19
238.858	66.19
239.091	74.19
239.325	71.19
239.559	67.19
239.793	93.19
240.027	77.19
240.26	92.19
240.494	82.19
240.728	80.19
240.961	77.19
241.195	79.19
241.429	77.19
241.662	81.19
241.896	83.19
242.13	89.19
242.363	75.19
242.597	85.19
242.83	72.19
243.064	69.19
243.298	83.19
243.531	84.19
243.765	72.19
243.998	82.19
244.232	88.19
244.465	72.19
244.699	79.19
244.932	74.19
245.166	79.19
245.399	80.19
245.633	67.19
245.866	80.19
246.099	88.19
246.333	71.19
246.566	74.19
246.8	71.19
247.033	86.19
247.266	88.19
247.5	69.19
247.733	76.19
247.966	67.19
248.2	77.19
248.433	71.19
248.666	71.19
248.899	85.19
249.133	76.19
249.366	88.19
249.599	90.19
249.832	77.19
250.066	66.19
250.299	69.19
250.532	81.19
250.765	64.19
250.998	82.19
251.231	75.19
251.465	72.19
251.698	72.19
251.931	60.19
252.164	81.19
252.397	82.19
252.63	82.19
252.863	84.19
253.096	71.19
253.329	89.19
253.562	83.19
253.795	68.19
254.028	87.19
254.261	85.19
254.494	69.19
254.727	83.19
254.96	69.19
255.193	78.19
255.426	66.19
255.659	83.19
255.892	77.19
256.124	68.19
256.357	67.19
256.59	92.19
256.823	72.19
257.056	69.19
257.289	79.19
257.521	89.19
257.754	63.19
257.987	62.19
258.22	84.19
258.452	83.19
258.685	93.19
258.918	82.19
259.151	97.19
259.383	82.19
259.616	78.19
259.849	80.19
260.081	65.19
260.314	73.19
260.547	73.19
260.779	89.19
261.012	72.19
261.244	70.19
261.477	77.19
261.71	89.19
261.942	70.19
262.175	93.19
262.407	82.19
262.64	70.19
262.872	86.19
263.105	65.19
263.337	85.19
263.57	94.19
263.802	77.19
264.035	74.19
264.267	66.19
264.499	80.19
264.732	89.19
264.964	78.19
265.197	81.19
265.429	91.19
265.661	90.19
265.894	68.19
266.126	81.19
266.358	79.19
266.591	82.19
266.823	78.19
267.055	84.19
267.287	95.19
267.52	83.19
267.752	75.19
267.984	74.19
268.216	85.19
268.448	80.19
268.681	74.19
268.913	71.19
269.145	62.19
269.377	80.19
269.609	79.19
269.841	84.19
270.073	88.19
270.306	90.19
270.538	82.19
270.77	92.19
271.002	78.19
271.234	95.19
271.466	88.19
271.698	77.19
271.93	85.19
272.162	77.19
272.394	96.19
272.626	82.19
272.858	97.19
273.09	77.19
273.322	82.19
273.553	85.19
273.785	82.19
274.017	88.19
274.249	76.19
274.481	79.19
274.713	75.19
274.945	95.19
275.176	78.19
275.408	84.19
275.64	90.19
275.872	78.19
276.104	84.19
276.335	73.19
276.567	87.19
276.799	81.19
277.031	81.19
277.262	72.19
277.494	72.19
277.726	72.19
277.957	74.19
278.189	73.19
278.421	64.19
278.652	80.19
278.884	86.19
279.115	71.19
279.347	82.19
279.579	80.19
279.81	78.19
280.042	77.19
280.273	74.19
280.505	73.19
280.736	75.19
280.968	67.19
281.199	73.19
281.431	63.19
281.662	84.19
281.894	81.19
282.125	86.19
282.356	83.19
282.588	77.19
282.819	86.19
283.051	70.19
283.282	88.19
283.513	95.19
283.745	79.19
283.976	75.19
284.207	80.19
284.439	79.19
284.67	93.19
284.901	79.19
285.132	76.19
285.364	77.19
285.595	73.19
285.826	94.19
286.057	85.19
286.288	85.19
286.52	86.19
286.751	80.19
286.982	74.19
287.213	92.19
287.444	90.19
287.675	80.19
287.906	94.19
288.138	87.19
288.369	70.19
288.6	85.19
288.831	83.19
289.062	86.19
289.293	89.19
289.524	80.19
289.755	82.19
289.986	86.19
290.217	85.19
290.448	73.19
290.679	95.19
290.91	73.19
291.141	89.19
291.371	80.19
291.602	86.19
291.833	89.19
292.064	71.19
292.295	67.19
292.526	78.19
292.757	69.19
292.987	102.19
293.218	79.19
293.449	59.19
293.68	74.19
293.91	91.19
294.141	88.19
294.372	84.19
294.603	79.19
294.833	83.19
295.064	82.19
295.295	94.19
295.525	72.19
295.756	86.19
295.987	82.19
296.217	85.19
296.448	90.19
296.679	95.19
296.909	78.19
297.14	74.19
297.37	93.19
297.601	79.19
297.831	84.19
298.062	86.19
298.292	70.19
298.523	79.19
298.753	81.19
298.984	80.19
299.214	87.19
299.445	79.19
299.675	65.19
299.905	66.19
300.136	83.19
300.366	84.19
300.597	78.19
300.827	76.19
301.057	72.19
301.288	78.19
301.518	75.19
301.748	83.19
301.979	88.19
302.209	82.19
302.439	88.19
302.669	81.19
302.9	85.19
303.13	84.19
303.36	80.19
303.59	79.19
303.82	68.19
304.051	66.19
304.281	89.19
304.511	91.19
304.741	80.19
304.971	83.19
305.201	78.19
305.431	73.19
305.661	82.19
305.891	96.19
306.121	88.19
306.352	86.19
306.582	83.19
306.812	92.19
307.042	90.19
307.272	86.19
307.502	91.19
307.731	95.19
307.961	83.19
308.191	92.19
308.421	72.19
308.651	85.19
308.881	83.19
309.111	64.19
309.341	99.19
309.571	84.19
309.8	87.19
310.03	87.19
310.26	71.19
310.49	66.19
310.72	82.19
310.949	85.19
311.179	86.19
311.409	69.19
311.639	84.19
311.868	91.19
312.098	78.19
312.328	78.19
312.557	76.19
312.787	79.19
313.017	100.19
313.246	75.19
313.476	78.19
313.706	92.19
313.935	96.19
314.165	82.19
314.394	71.19
314.624	86.19
314.853	84.19
315.083	80.19
315.312	76.19
315.542	77.19
315.771	84.19
316.001	81.19
316.23	92.19
316.46	74.19
316.689	88.19
316.919	75.19
317.148	86.19
317.377	85.19
317.607	95.19
317.836	86.19
318.065	79.19
318.295	79.19
318.524	73.19
318.753	88.19
318.983	64.19
319.212	95.19
319.441	63.19
319.67	88.19
319.9	80.19
320.129	77.19
320.358	73.19
320.587	76.19
320.816	73.19
321.046	86.19
321.275	86.19
321.504	77.19
321.733	87.19
321.962	82.19
322.191	78.19
322.42	88.19
322.649	88.19
322.878	86.19
323.108	84.19
323.337	87.19
323.566	85.19
323.795	75.19
324.024	84.19
324.253	75.19
324.482	82.19
324.71	78.19
324.939	87.19
325.168	81.19
325.397	79.19
325.626	92.19
325.855	85.19
326.084	77.19
326.313	84.19
326.542	104.19
326.77	89.19
326.999	72.19
327.228	90.19
327.457	73.19
327.686	78.19
327.914	86.19
328.143	88.19
328.372	92.19
328.6	88.19
328.829	70.19
329.058	74.19
329.287	84.19
329.515	69.19
329.744	92.19
329.972	82.19
330.201	89.19
330.43	82.19
330.658	90.19
330.887	89.19
331.115	81.19
331.344	83.19
331.572	81.19
331.801	103.19
332.03	96.19
332.258	72.19
332.486	82.19
332.715	78.19
332.943	82.19
333.172	81.19
333.4	73.19
333.629	89.19
333.857	80.19
334.085	80.19
334.314	93.19
334.542	73.19
334.771	88.19
334.999	81.19
335.227	76.19
335.455	84.19
335.684	82.19
335.912	90.19
336.14	79.19
336.369	66.19
336.597	81.19
336.825	83.19
337.053	73.19
337.281	73.19
337.51	73.19
337.738	82.19
337.966	80.19
338.194	74.19
338.422	80.19
338.65	76.19
338.878	74.19
339.106	93.19
339.334	85.19
339.562	74.19
339.79	83.19
340.018	84.19
340.246	101.19
340.474	75.19
340.702	84.19
340.93	88.19
341.158	83.19
341.386	74.19
341.614	92.19
341.842	79.19
342.07	86.19
342.298	73.19
342.526	86.19
342.754	90.19
342.981	91.19
343.209	86.19
343.437	86.19
343.665	73.19
343.893	81.19
344.12	82.19
344.348	71.19
344.576	72.19
344.804	70.19
345.031	79.19
345.259	84.19
345.487	85.19
345.714	74.19
345.942	76.19
346.17	88.19
346.397	72.19
346.625	75.19
346.853	93.19
347.08	81.19
347.308	87.19
347.535	89.19
347.763	85.19
347.99	89.19
348.218	74.19
348.445	68.19
348.673	75.19
348.9	82.19
349.128	84.19
349.355	90.19
349.583	75.19
349.81	78.19
350.037	92.19
350.265	85.19
350.492	92.19
350.72	86.19
350.947	67.19
351.174	92.19
351.402	84.19
351.629	75.19
351.856	90.19
352.083	71.19
352.311	68.19
352.538	82.19
352.765	89.19
352.992	81.19
353.22	77.19
353.447	74.19
353.674	74.19
353.901	94.19
354.128	92.19
354.355	74.19
354.583	84.19
354.81	80.19
355.037	83.19
355.264	73.19
355.491	78.19
355.718	78.19
355.945	80.19
356.172	71.19
356.399	72.19
356.626	78.19
356.853	100.19
357.08	79.19
357.307	79.19
357.534	85.19
357.761	82.19
357.988	104.19
358.215	73.19
358.441	86.19
358.668	72.19
358.895	88.19
359.122	76.19
359.349	98.19
359.576	75.19
359.802	84.19
360.029	82.19
360.256	81.19
360.483	84.19
360.709	91.19
360.936	111.19
361.163	85.19
361.39	77.19
361.616	83.19
361.843	82.19
362.07	82.19
362.296	78.19
362.523	76.19
362.749	76.19
362.976	74.19
363.203	82.19
363.429	86.19
363.656	83.19
363.882	89.19
364.109	71.19
364.335	78.19
364.562	77.19
364.788	82.19
365.015	91.19
365.241	89.19
365.468	69.19
365.694	84.19
365.92	84.19
366.147	82.19
366.373	88.19
366.599	85.19
366.826	74.19
367.052	91.19
367.278	93.19
367.505	87.19
367.731	89.19
367.957	81.19
368.184	81.19
368.41	77.19
368.636	87.19
368.862	99.19
369.089	83.19
369.315	76.19
369.541	79.19
369.767	82.19
369.993	76.19
370.219	88.19
370.445	70.19
370.672	103.19
370.898	84.19
371.124	74.19
371.35	93.19
371.576	80.19
371.802	78.19
372.028	93.19
372.254	85.19
372.48	82.19
372.706	93.19
372.932	81.19
373.158	85.19
373.384	94.19
373.61	80.19
373.835	72.19
374.061	85.19
374.287	81.19
374.513	76.19
374.739	71.19
374.965	93.19
375.191	85.19
375.416	92.19
375.642	74.19
375.868	79.19
376.094	76.19
376.319	73.19
376.545	80.19
376.771	80.19
376.997	74.19
377.222	93.19
377.448	78.19
377.674	73.19
377.899	87.19
378.125	84.19
378.35	89.19
378.576	78.19
378.802	81.19
379.027	83.19
379.253	95.19
379.478	81.19
379.704	98.19
379.929	88.19
380.155	93.19
380.38	84.19
380.606	92.19
380.831	76.19
381.057	82.19
381.282	88.19
381.507	85.19
381.733	92.19
381.958	69.19
382.184	64.19
382.409	71.19
382.634	83.19
382.86	91.19
383.085	92.19
383.31	98.19
383.535	68.19
383.761	70.19
383.986	89.19
384.211	86.19
384.436	80.19
384.662	76.19
384.887	73.19
385.112	86.19
385.337	88.19
385.562	86.19
385.787	77.19
386.013	78.19
386.238	92.19
386.463	85.19
386.688	78.19
386.913	81.19
387.138	87.19
387.363	75.19
387.588	84.19
387.813	77.19
388.038	66.19
388.263	92.19
388.488	83.19
388.713	90.19
388.938	78.19
389.163	82.19
389.387	73.19
389.612	90.19
389.837	93.19
390.062	78.19
390.287	88.19
390.512	89.19
390.736	93.19
390.961	71.19
391.186	63.19
391.411	69.19
391.636	81.19
391.86	78.19
392.085	97.19
392.31	84.19
392.534	89.19
392.759	98.19
392.984	86.19
393.208	83.19
393.433	87.19
393.658	76.19
393.882	75.19
394.107	86.19
394.331	90.19
394.556	76.19
394.78	88.19
395.005	90.19
395.229	85.19
395.454	70.19
395.678	89.19
395.903	88.19
396.127	75.19
396.352	81.19
396.576	72.19
396.801	81.19
397.025	76.19
397.249	89.19
397.474	80.19
397.698	71.19
397.922	81.19
398.147	78.19
398.371	76.19
398.595	74.19
398.82	94.19
399.044	90.19
399.268	87.19
399.492	87.19
399.717	86.19
399.941	87.19
400.165	82.19
400.389	75.19
400.613	74.19
400.837	104.19
401.062	103.19
401.286	86.19
401.51	96.19
401.734	83.19
401.958	79.19
402.182	81.19
402.406	83.19
402.63	85.19
402.854	74.19
403.078	84.19
403.302	97.19
403.526	89.19
403.75	89.19
403.974	95.19
404.198	69.19
404.422	77.19
404.645	89.19
404.869	83.19
405.093	80.19
405.317	71.19
405.541	84.19
405.765	88.19
405.988	89.19
406.212	87.19
406.436	94.19
406.66	75.19
406.883	93.19
407.107	95.19
407.331	84.19
407.555	89.19
407.778	83.19
408.002	77.19
408.226	70.19
408.449	82.19
408.673	93.19
408.896	78.19
409.12	87.19
409.344	92.19
409.567	77.19
409.791	101.19
410.014	72.19
410.238	86.19
410.461	95.19
410.685	94.19
410.908	97.19
411.132	80.19
411.355	90.19
411.578	99.19
411.802	78.19
412.025	88.19
412.249	96.19
412.472	85.19
412.695	93.19
412.919	65.19
413.142	88.19
413.365	88.19
413.589	88.19
413.812	91.19
414.035	96.19
414.258	79.19
414.482	79.19
414.705	93.19
414.928	88.19
415.151	75.19
415.374	89.19
415.597	96.19
415.821	94.19
416.044	96.19
416.267	94.19
416.49	96.19
416.713	98.19
416.936	86.19
417.159	91.19
417.382	92.19
417.605	105.19
417.828	102.19
418.051	98.19
418.274	92.19
418.497	86.19
418.72	92.19
418.943	88.19
419.166	96.19
419.389	108.19
419.611	91.19
419.834	92.19
420.057	98.19
420.28	95.19
420.503	87.19
420.726	97.19
420.948	95.19
421.171	104.19
421.394	85.19
421.617	110.19
421.839	66.19
422.062	108.19
422.285	80.19
422.507	99.19
422.73	87.19
422.953	82.19
423.175	80.19
423.398	96.19
423.621	104.19
423.843	85.19
424.066	93.19
424.288	100.19
424.511	86.19
424.733	80.19
424.956	97.19
425.178	83.19
425.401	99.19
425.623	101.19
425.846	81.19
426.068	84.19
426.291	97.19
426.513	100.19
426.735	105.19
426.958	100.19
427.18	98.19
427.402	97.19
427.625	72.19
427.847	84.19
428.069	80.19
428.292	81.19
428.514	80.19
428.736	100.19
428.958	79.19
429.181	88.19
429.403	86.19
429.625	94.19
429.847	89.19
430.069	99.19
430.292	90.19
430.514	90.19
430.736	71.19
430.958	79.19
431.18	91.19
431.402	84.19
431.624	92.19
431.846	96.19
432.068	84.19
432.29	73.19
432.512	91.19
432.734	100.19
432.956	98.19
433.178	102.19
433.4	88.19
433.622	99.19
433.844	85.19
434.066	98.19
434.287	83.19
434.509	74.19
434.731	68.19
434.953	92.19
435.175	108.19
435.397	92.19
435.618	90.19
435.84	87.19
436.062	72.19
436.284	82.19
436.505	101.19
436.727	82.19
436.949	94.19
437.17	99.19
437.392	68.19
437.614	80.19
437.835	77.19
438.057	80.19
438.278	84.19
438.5	78.19
438.721	95.19
438.943	85.19
439.165	81.19
439.386	99.19
439.608	96.19
439.829	87.19
440.05	92.19
440.272	96.19
440.493	93.19
440.715	96.19
440.936	84.19
441.158	88.19
441.379	107.19
441.6	94.19
441.822	88.19
442.043	85.19
442.264	92.19
442.486	89.19
442.707	93.19
442.928	91.19
443.149	93.19
443.371	95.19
443.592	83.19
443.813	96.19
444.034	79.19
444.255	92.19
444.476	68.19
444.698	97.19
444.919	98.19
445.14	228.19
445.361	144.19
445.582	95.19
445.803	88.19
446.024	88.19
446.245	88.19
446.466	100.19
446.687	114.19
446.908	109.19
447.129	98.19
447.35	100.19
447.571	102.19
447.792	102.19
448.013	88.19
448.234	105.19
448.455	92.19
448.675	87.19
448.896	82.19
449.117	82.19
449.338	95.19
449.559	93.19
449.779	102.19
450	92.19
450.221	95.19
450.442	104.19
450.662	100.19
450.883	106.19
451.104	102.19
451.324	93.19
451.545	105.19
451.766	86.19
451.986	83.19
452.207	94.19
452.428	97.19
452.648	91.19
452.869	85.19
453.089	63.19
453.31	85.19
453.53	90.19
453.751	82.19
453.971	86.19
454.192	84.19
454.412	96.19
454.633	74.19
454.853	93.19
455.073	93.19
455.294	82.19
455.514	95.19
455.734	92.19
455.955	85.19
456.175	94.19
456.395	94.19
456.616	86.19
456.836	84.19
457.056	88.19
457.276	97.19
457.497	72.19
457.717	90.19
457.937	84.19
458.157	87.19
458.377	89.19
458.598	87.19
458.818	84.19
459.038	95.19
459.258	70.19
459.478	78.19
459.698	83.19
459.918	82.19
460.138	98.19
460.358	80.19
460.578	85.19
460.798	79.19
461.018	93.19
461.238	89.19
461.458	81.19
461.678	93.19
461.898	88.19
462.118	82.19
462.338	91.19
462.558	92.19
462.777	65.19
462.997	83.19
463.217	77.19
463.437	85.19
463.657	94.19
463.876	103.19
464.096	88.19
464.316	74.19
464.536	87.19
464.755	96.19
464.975	91.19
465.195	87.19
465.414	92.19
465.634	82.19
465.854	84.19
466.073	83.19
466.293	68.19
466.512	81.19
466.732	86.19
466.951	90.19
467.171	107.19
467.391	94.19
467.61	112.19
467.829	89.19
468.049	88.19
468.268	94.19
468.488	98.19
468.707	91.19
468.927	85.19
469.146	103.19
469.365	98.19
469.585	89.19
469.804	87.19
470.023	99.19
470.243	84.19
470.462	93.19
470.681	102.19
470.901	81.19
471.12	96.19
471.339	105.19
471.558	101.19
471.777	75.19
471.997	88.19
472.216	80.19
472.435	81.19
472.654	86.19
472.873	77.19
473.092	92.19
473.311	90.19
473.53	97.19
473.749	95.19
473.968	94.19
474.187	86.19
474.406	81.19
474.625	77.19
474.844	80.19
475.063	92.19
475.282	92.19
475.501	77.19
475.72	90.19
475.939	90.19
476.158	91.19
476.377	92.19
476.596	89.19
476.814	94.19
477.033	76.19
477.252	92.19
477.471	106.19
477.69	93.19
477.908	92.19
478.127	88.19
478.346	102.19
478.564	90.19
478.783	98.19
479.002	82.19
479.22	86.19
479.439	94.19
479.658	86.19
479.876	85.19
480.095	82.19
480.313	86.19
480.532	82.19
480.751	92.19
480.969	75.19
481.188	85.19
481.406	84.19
481.624	68.19
481.843	93.19
482.061	86.19
482.28	91.19
482.498	87.19
482.717	69.19
482.935	72.19
483.153	88.19
483.372	82.19
483.59	108.19
483.808	94.19
484.027	88.19
484.245	85.19
484.463	95.19
484.681	93.19
484.9	95.19
485.118	105.19
485.336	67.19
485.554	82.19
485.772	82.19
485.99	89.19
486.209	83.19
486.427	80.19
486.645	83.19
486.863	100.19
487.081	95.19
487.299	89.19
487.517	90.19
487.735	101.19
487.953	102.19
488.171	107.19
488.389	102.19
488.607	106.19
488.825	102.19
489.043	90.19
489.261	82.19
489.479	93.19
489.696	100.19
489.914	95.19
490.132	86.19
490.35	80.19
490.568	87.19
490.786	107.19
491.003	117.19
491.221	114.19
491.439	109.19
491.657	114.19
491.874	116.19
492.092	106.19
492.31	121.19
492.527	122.19
492.745	108.19
492.963	108.19
493.18	102.19
493.398	104.19
493.615	102.19
493.833	101.19
494.05	99.19
494.268	85.19
494.485	95.19
494.703	118.19
494.92	101.19
495.138	101.19
495.355	98.19
495.573	100.19
495.79	96.19
496.008	98.19
496.225	103.19
496.442	109.19
496.66	104.19
496.877	95.19
497.094	100.19
497.312	114.19
497.529	99.19
497.746	91.19
497.963	86.19
498.181	86.19
498.398	88.19
498.615	95.19
498.832	96.19
499.049	88.19
499.267	75.19
499.484	100.19
499.701	99.19
499.918	93.19
500.135	93.19
500.352	86.19
500.569	92.19
500.786	97.19
501.003	103.19
501.22	108.19
501.437	102.19
501.654	85.19
501.871	84.19
502.088	91.19
502.305	85.19
502.522	92.19
502.739	89.19
502.956	88.19
503.172	90.19
503.389	91.19
503.606	103.19
503.823	100.19
504.04	86.19
504.256	100.19
504.473	101.19
504.69	82.19
504.907	81.19
505.123	79.19
505.34	76.19
505.557	93.19
505.773	79.19
505.99	99.19
506.207	91.19
506.423	94.19
506.64	96.19
506.856	101.19
507.073	90.19
507.289	110.19
507.506	87.19
507.722	92.19
507.939	98.19
508.155	93.19
508.372	84.19
508.588	93.19
508.805	89.19
509.021	90.19
509.238	90.19
509.454	85.19
509.67	92.19
509.887	82.19
510.103	90.19
510.319	90.19
510.536	86.19
510.752	80.19
510.968	86.19
511.184	81.19
511.401	76.19
511.617	89.19
511.833	79.19
512.049	83.19
512.265	90.19
512.481	108.19
512.698	92.19
512.914	73.19
513.13	99.19
513.346	88.19
513.562	81.19
513.778	70.19
513.994	84.19
514.21	101.19
514.426	97.19
514.642	94.19
514.858	79.19
515.074	84.19
515.29	89.19
515.506	77.19
515.721	93.19
515.937	89.19
516.153	97.19
516.369	79.19
516.585	79.19
516.801	90.19
517.016	81.19
517.232	87.19
517.448	87.19
517.664	74.19
517.879	84.19
518.095	81.19
