Data from Location5.07152019.Energy5.Lamp.07192019.3%Agarose_HRD10591_15-37-36-387.txt Node
Date: Fri Jul 19 15:37:36 EDT 2019
User: cochatt
Spectrometer: HR+D1059
Trigger mode: 1
Integration Time (sec): 1.000000E-1
Scans to average: 1
Electric dark correction enabled: true
Nonlinearity correction enabled: false
Boxcar width: 0
XAxis mode: Wavelengths
Number of Pixels in Spectrum: 2048
>>>>>Begin Spectral Data<<<<<
223.165	-10.56
223.4	-10.56
223.635	-10.56
223.869	-23.56
224.104	-18.56
224.338	-14.56
224.573	-13.56
224.808	-21.56
225.042	4.44
225.277	-14.56
225.511	-1.56
225.746	3.44
225.98	8.44
226.215	8.44
226.449	16.44
226.683	26.44
226.918	21.44
227.152	29.44
227.387	29.44
227.621	27.44
227.856	41.44
228.09	32.44
228.324	58.44
228.559	50.44
228.793	69.44
229.027	56.44
229.262	71.44
229.496	57.44
229.73	79.44
229.964	77.44
230.199	74.44
230.433	77.44
230.667	66.44
230.901	64.44
231.136	80.44
231.37	72.44
231.604	77.44
231.838	82.44
232.072	86.44
232.306	72.44
232.541	102.44
232.775	84.44
233.009	78.44
233.243	86.44
233.477	88.44
233.711	80.44
233.945	81.44
234.179	80.44
234.413	83.44
234.647	88.44
234.881	85.44
235.115	79.44
235.349	75.44
235.583	80.44
235.817	81.44
236.051	66.44
236.285	79.44
236.519	79.44
236.753	83.44
236.987	79.44
237.221	74.44
237.455	75.44
237.689	73.44
237.922	82.44
238.156	69.44
238.39	73.44
238.624	72.44
238.858	87.44
239.091	64.44
239.325	71.44
239.559	80.44
239.793	68.44
240.027	72.44
240.26	71.44
240.494	79.44
240.728	77.44
240.961	72.44
241.195	88.44
241.429	68.44
241.662	79.44
241.896	85.44
242.13	75.44
242.363	75.44
242.597	72.44
242.83	77.44
243.064	85.44
243.298	79.44
243.531	83.44
243.765	76.44
243.998	76.44
244.232	76.44
244.465	80.44
244.699	79.44
244.932	73.44
245.166	75.44
245.399	79.44
245.633	74.44
245.866	78.44
246.099	81.44
246.333	75.44
246.566	77.44
246.8	61.44
247.033	76.44
247.266	86.44
247.5	83.44
247.733	84.44
247.966	74.44
248.2	60.44
248.433	82.44
248.666	76.44
248.899	74.44
249.133	76.44
249.366	86.44
249.599	81.44
249.832	68.44
250.066	83.44
250.299	69.44
250.532	78.44
250.765	74.44
250.998	65.44
251.231	91.44
251.465	77.44
251.698	77.44
251.931	83.44
252.164	70.44
252.397	83.44
252.63	81.44
252.863	73.44
253.096	89.44
253.329	93.44
253.562	81.44
253.795	83.44
254.028	83.44
254.261	80.44
254.494	72.44
254.727	85.44
254.96	82.44
255.193	84.44
255.426	73.44
255.659	72.44
255.892	72.44
256.124	69.44
256.357	79.44
256.59	76.44
256.823	89.44
257.056	90.44
257.289	76.44
257.521	69.44
257.754	76.44
257.987	75.44
258.22	81.44
258.452	88.44
258.685	80.44
258.918	81.44
259.151	84.44
259.383	87.44
259.616	77.44
259.849	87.44
260.081	80.44
260.314	68.44
260.547	84.44
260.779	103.44
261.012	85.44
261.244	70.44
261.477	90.44
261.71	98.44
261.942	74.44
262.175	77.44
262.407	77.44
262.64	81.44
262.872	57.44
263.105	82.44
263.337	72.44
263.57	88.44
263.802	78.44
264.035	81.44
264.267	87.44
264.499	73.44
264.732	89.44
264.964	88.44
265.197	82.44
265.429	74.44
265.661	71.44
265.894	88.44
266.126	85.44
266.358	89.44
266.591	76.44
266.823	73.44
267.055	85.44
267.287	74.44
267.52	76.44
267.752	81.44
267.984	83.44
268.216	88.44
268.448	82.44
268.681	82.44
268.913	79.44
269.145	82.44
269.377	84.44
269.609	69.44
269.841	80.44
270.073	77.44
270.306	85.44
270.538	81.44
270.77	85.44
271.002	81.44
271.234	82.44
271.466	78.44
271.698	78.44
271.93	75.44
272.162	77.44
272.394	98.44
272.626	81.44
272.858	87.44
273.09	83.44
273.322	76.44
273.553	84.44
273.785	89.44
274.017	89.44
274.249	86.44
274.481	72.44
274.713	73.44
274.945	90.44
275.176	86.44
275.408	87.44
275.64	75.44
275.872	76.44
276.104	74.44
276.335	77.44
276.567	84.44
276.799	69.44
277.031	69.44
277.262	94.44
277.494	70.44
277.726	68.44
277.957	74.44
278.189	86.44
278.421	75.44
278.652	80.44
278.884	86.44
279.115	70.44
279.347	70.44
279.579	82.44
279.81	98.44
280.042	82.44
280.273	72.44
280.505	93.44
280.736	80.44
280.968	75.44
281.199	85.44
281.431	85.44
281.662	77.44
281.894	88.44
282.125	75.44
282.356	84.44
282.588	84.44
282.819	81.44
283.051	68.44
283.282	85.44
283.513	87.44
283.745	98.44
283.976	82.44
284.207	74.44
284.439	86.44
284.67	78.44
284.901	85.44
285.132	87.44
285.364	86.44
285.595	78.44
285.826	88.44
286.057	91.44
286.288	77.44
286.52	93.44
286.751	82.44
286.982	79.44
287.213	82.44
287.444	76.44
287.675	58.44
287.906	93.44
288.138	81.44
288.369	81.44
288.6	79.44
288.831	93.44
289.062	81.44
289.293	76.44
289.524	93.44
289.755	73.44
289.986	106.44
290.217	81.44
290.448	89.44
290.679	78.44
290.91	79.44
291.141	97.44
291.371	97.44
291.602	84.44
291.833	66.44
292.064	81.44
292.295	85.44
292.526	80.44
292.757	85.44
292.987	79.44
293.218	84.44
293.449	95.44
293.68	84.44
293.91	85.44
294.141	89.44
294.372	85.44
294.603	80.44
294.833	86.44
295.064	80.44
295.295	90.44
295.525	80.44
295.756	86.44
295.987	69.44
296.217	80.44
296.448	89.44
296.679	86.44
296.909	84.44
297.14	73.44
297.37	74.44
297.601	93.44
297.831	84.44
298.062	91.44
298.292	82.44
298.523	99.44
298.753	67.44
298.984	88.44
299.214	94.44
299.445	92.44
299.675	78.44
299.905	85.44
300.136	81.44
300.366	80.44
300.597	76.44
300.827	75.44
301.057	84.44
301.288	73.44
301.518	95.44
301.748	91.44
301.979	82.44
302.209	75.44
302.439	83.44
302.669	89.44
302.9	71.44
303.13	82.44
303.36	87.44
303.59	72.44
303.82	89.44
304.051	82.44
304.281	86.44
304.511	84.44
304.741	83.44
304.971	93.44
305.201	82.44
305.431	70.44
305.661	81.44
305.891	93.44
306.121	72.44
306.352	88.44
306.582	75.44
306.812	80.44
307.042	99.44
307.272	96.44
307.502	85.44
307.731	94.44
307.961	79.44
308.191	80.44
308.421	62.44
308.651	73.44
308.881	81.44
309.111	86.44
309.341	75.44
309.571	80.44
309.8	81.44
310.03	80.44
310.26	79.44
310.49	98.44
310.72	90.44
310.949	81.44
311.179	84.44
311.409	77.44
311.639	81.44
311.868	79.44
312.098	67.44
312.328	68.44
312.557	90.44
312.787	89.44
313.017	76.44
313.246	81.44
313.476	61.44
313.706	76.44
313.935	86.44
314.165	86.44
314.394	83.44
314.624	68.44
314.853	82.44
315.083	79.44
315.312	81.44
315.542	83.44
315.771	81.44
316.001	83.44
316.23	93.44
316.46	83.44
316.689	89.44
316.919	76.44
317.148	94.44
317.377	84.44
317.607	80.44
317.836	80.44
318.065	96.44
318.295	78.44
318.524	72.44
318.753	79.44
318.983	82.44
319.212	85.44
319.441	74.44
319.67	84.44
319.9	73.44
320.129	80.44
320.358	82.44
320.587	80.44
320.816	78.44
321.046	85.44
321.275	90.44
321.504	78.44
321.733	78.44
321.962	82.44
322.191	96.44
322.42	79.44
322.649	77.44
322.878	78.44
323.108	102.44
323.337	91.44
323.566	95.44
323.795	96.44
324.024	81.44
324.253	90.44
324.482	80.44
324.71	91.44
324.939	91.44
325.168	82.44
325.397	71.44
325.626	103.44
325.855	83.44
326.084	90.44
326.313	83.44
326.542	69.44
326.77	81.44
326.999	71.44
327.228	103.44
327.457	74.44
327.686	93.44
327.914	76.44
328.143	82.44
328.372	88.44
328.6	94.44
328.829	79.44
329.058	85.44
329.287	76.44
329.515	73.44
329.744	73.44
329.972	86.44
330.201	81.44
330.43	81.44
330.658	91.44
330.887	82.44
331.115	90.44
331.344	94.44
331.572	99.44
331.801	86.44
332.03	98.44
332.258	96.44
332.486	83.44
332.715	95.44
332.943	78.44
333.172	69.44
333.4	87.44
333.629	86.44
333.857	86.44
334.085	95.44
334.314	85.44
334.542	74.44
334.771	89.44
334.999	99.44
335.227	84.44
335.455	82.44
335.684	81.44
335.912	104.44
336.14	80.44
336.369	89.44
336.597	80.44
336.825	80.44
337.053	86.44
337.281	94.44
337.51	82.44
337.738	91.44
337.966	90.44
338.194	81.44
338.422	93.44
338.65	86.44
338.878	85.44
339.106	81.44
339.334	97.44
339.562	79.44
339.79	104.44
340.018	81.44
340.246	88.44
340.474	85.44
340.702	80.44
340.93	93.44
341.158	75.44
341.386	77.44
341.614	75.44
341.842	80.44
342.07	82.44
342.298	90.44
342.526	73.44
342.754	78.44
342.981	91.44
343.209	91.44
343.437	92.44
343.665	91.44
343.893	81.44
344.12	96.44
344.348	92.44
344.576	76.44
344.804	85.44
345.031	91.44
345.259	75.44
345.487	95.44
345.714	91.44
345.942	81.44
346.17	88.44
346.397	79.44
346.625	89.44
346.853	94.44
347.08	87.44
347.308	89.44
347.535	72.44
347.763	88.44
347.99	79.44
348.218	75.44
348.445	88.44
348.673	75.44
348.9	81.44
349.128	81.44
349.355	85.44
349.583	99.44
349.81	87.44
350.037	85.44
350.265	76.44
350.492	91.44
350.72	69.44
350.947	96.44
351.174	89.44
351.402	80.44
351.629	62.44
351.856	92.44
352.083	81.44
352.311	87.44
352.538	81.44
352.765	91.44
352.992	79.44
353.22	91.44
353.447	88.44
353.674	83.44
353.901	74.44
354.128	93.44
354.355	85.44
354.583	81.44
354.81	86.44
355.037	89.44
355.264	78.44
355.491	89.44
355.718	83.44
355.945	93.44
356.172	84.44
356.399	81.44
356.626	70.44
356.853	81.44
357.08	88.44
357.307	87.44
357.534	82.44
357.761	94.44
357.988	83.44
358.215	77.44
358.441	74.44
358.668	85.44
358.895	73.44
359.122	80.44
359.349	79.44
359.576	70.44
359.802	76.44
360.029	69.44
360.256	86.44
360.483	67.44
360.709	76.44
360.936	78.44
361.163	81.44
361.39	80.44
361.616	71.44
361.843	88.44
362.07	87.44
362.296	80.44
362.523	65.44
362.749	80.44
362.976	81.44
363.203	84.44
363.429	79.44
363.656	89.44
363.882	96.44
364.109	86.44
364.335	95.44
364.562	83.44
364.788	96.44
365.015	90.44
365.241	84.44
365.468	93.44
365.694	91.44
365.92	100.44
366.147	87.44
366.373	85.44
366.599	68.44
366.826	87.44
367.052	56.44
367.278	79.44
367.505	84.44
367.731	97.44
367.957	78.44
368.184	75.44
368.41	95.44
368.636	81.44
368.862	86.44
369.089	76.44
369.315	76.44
369.541	103.44
369.767	79.44
369.993	90.44
370.219	69.44
370.445	85.44
370.672	90.44
370.898	82.44
371.124	79.44
371.35	94.44
371.576	97.44
371.802	98.44
372.028	89.44
372.254	77.44
372.48	97.44
372.706	78.44
372.932	95.44
373.158	80.44
373.384	94.44
373.61	88.44
373.835	86.44
374.061	79.44
374.287	75.44
374.513	84.44
374.739	67.44
374.965	79.44
375.191	79.44
375.416	91.44
375.642	99.44
375.868	77.44
376.094	78.44
376.319	85.44
376.545	86.44
376.771	87.44
376.997	93.44
377.222	90.44
377.448	91.44
377.674	72.44
377.899	80.44
378.125	91.44
378.35	79.44
378.576	89.44
378.802	93.44
379.027	93.44
379.253	91.44
379.478	89.44
379.704	73.44
379.929	87.44
380.155	66.44
380.38	89.44
380.606	77.44
380.831	82.44
381.057	87.44
381.282	89.44
381.507	85.44
381.733	92.44
381.958	74.44
382.184	95.44
382.409	93.44
382.634	89.44
382.86	86.44
383.085	71.44
383.31	98.44
383.535	90.44
383.761	84.44
383.986	75.44
384.211	71.44
384.436	70.44
384.662	82.44
384.887	78.44
385.112	79.44
385.337	80.44
385.562	79.44
385.787	91.44
386.013	96.44
386.238	94.44
386.463	85.44
386.688	93.44
386.913	97.44
387.138	78.44
387.363	85.44
387.588	82.44
387.813	81.44
388.038	86.44
388.263	95.44
388.488	98.44
388.713	89.44
388.938	84.44
389.163	84.44
389.387	71.44
389.612	82.44
389.837	88.44
390.062	85.44
390.287	83.44
390.512	80.44
390.736	76.44
390.961	72.44
391.186	93.44
391.411	95.44
391.636	84.44
391.86	83.44
392.085	88.44
392.31	90.44
392.534	93.44
392.759	89.44
392.984	86.44
393.208	85.44
393.433	97.44
393.658	72.44
393.882	79.44
394.107	83.44
394.331	90.44
394.556	91.44
394.78	87.44
395.005	87.44
395.229	83.44
395.454	80.44
395.678	74.44
395.903	81.44
396.127	90.44
396.352	90.44
396.576	87.44
396.801	97.44
397.025	80.44
397.249	74.44
397.474	89.44
397.698	74.44
397.922	85.44
398.147	85.44
398.371	94.44
398.595	91.44
398.82	96.44
399.044	90.44
399.268	85.44
399.492	79.44
399.717	87.44
399.941	80.44
400.165	93.44
400.389	84.44
400.613	86.44
400.837	94.44
401.062	90.44
401.286	83.44
401.51	85.44
401.734	85.44
401.958	94.44
402.182	86.44
402.406	93.44
402.63	74.44
402.854	95.44
403.078	88.44
403.302	88.44
403.526	105.44
403.75	102.44
403.974	95.44
404.198	77.44
404.422	89.44
404.645	84.44
404.869	82.44
405.093	75.44
405.317	90.44
405.541	86.44
405.765	95.44
405.988	95.44
406.212	101.44
406.436	89.44
406.66	76.44
406.883	84.44
407.107	75.44
407.331	83.44
407.555	96.44
407.778	86.44
408.002	97.44
408.226	96.44
408.449	90.44
408.673	85.44
408.896	90.44
409.12	73.44
409.344	101.44
409.567	98.44
409.791	97.44
410.014	96.44
410.238	96.44
410.461	71.44
410.685	94.44
410.908	72.44
411.132	96.44
411.355	94.44
411.578	83.44
411.802	102.44
412.025	88.44
412.249	79.44
412.472	92.44
412.695	94.44
412.919	89.44
413.142	92.44
413.365	106.44
413.589	75.44
413.812	101.44
414.035	91.44
414.258	94.44
414.482	83.44
414.705	86.44
414.928	95.44
415.151	98.44
415.374	91.44
415.597	87.44
415.821	94.44
416.044	81.44
416.267	109.44
416.49	93.44
416.713	108.44
416.936	91.44
417.159	93.44
417.382	90.44
417.605	93.44
417.828	85.44
418.051	90.44
418.274	80.44
418.497	87.44
418.72	86.44
418.943	97.44
419.166	93.44
419.389	91.44
419.611	97.44
419.834	85.44
420.057	98.44
420.28	79.44
420.503	101.44
420.726	98.44
420.948	85.44
421.171	93.44
421.394	93.44
421.617	80.44
421.839	100.44
422.062	91.44
422.285	95.44
422.507	76.44
422.73	92.44
422.953	88.44
423.175	84.44
423.398	102.44
423.621	96.44
423.843	103.44
424.066	95.44
424.288	97.44
424.511	105.44
424.733	95.44
424.956	104.44
425.178	86.44
425.401	97.44
425.623	94.44
425.846	93.44
426.068	110.44
426.291	84.44
426.513	87.44
426.735	97.44
426.958	102.44
427.18	83.44
427.402	75.44
427.625	99.44
427.847	75.44
428.069	91.44
428.292	110.44
428.514	93.44
428.736	94.44
428.958	82.44
429.181	100.44
429.403	106.44
429.625	74.44
429.847	82.44
430.069	101.44
430.292	71.44
430.514	88.44
430.736	102.44
430.958	98.44
431.18	95.44
431.402	79.44
431.624	78.44
431.846	98.44
432.068	95.44
432.29	89.44
432.512	101.44
432.734	84.44
432.956	100.44
433.178	98.44
433.4	94.44
433.622	93.44
433.844	87.44
434.066	100.44
434.287	86.44
434.509	89.44
434.731	78.44
434.953	84.44
435.175	89.44
435.397	92.44
435.618	93.44
435.84	103.44
436.062	79.44
436.284	93.44
436.505	95.44
436.727	106.44
436.949	90.44
437.17	96.44
437.392	101.44
437.614	99.44
437.835	82.44
438.057	90.44
438.278	96.44
438.5	100.44
438.721	86.44
438.943	91.44
439.165	83.44
439.386	90.44
439.608	81.44
439.829	92.44
440.05	119.44
440.272	91.44
440.493	98.44
440.715	90.44
440.936	106.44
441.158	100.44
441.379	96.44
441.6	75.44
441.822	98.44
442.043	92.44
442.264	110.44
442.486	117.44
442.707	81.44
442.928	86.44
443.149	84.44
443.371	102.44
443.592	93.44
443.813	86.44
444.034	79.44
444.255	89.44
444.476	90.44
444.698	74.44
444.919	97.44
445.14	218.44
445.361	155.44
445.582	89.44
445.803	97.44
446.024	97.44
446.245	109.44
446.466	104.44
446.687	99.44
446.908	93.44
447.129	96.44
447.35	89.44
447.571	113.44
447.792	94.44
448.013	106.44
448.234	88.44
448.455	86.44
448.675	82.44
448.896	101.44
449.117	100.44
449.338	90.44
449.559	82.44
449.779	91.44
450	94.44
450.221	98.44
450.442	88.44
450.662	82.44
450.883	95.44
451.104	99.44
451.324	109.44
451.545	96.44
451.766	103.44
451.986	93.44
452.207	93.44
452.428	82.44
452.648	97.44
452.869	89.44
453.089	100.44
453.31	110.44
453.53	83.44
453.751	87.44
453.971	71.44
454.192	82.44
454.412	97.44
454.633	91.44
454.853	102.44
455.073	84.44
455.294	92.44
455.514	96.44
455.734	81.44
455.955	77.44
456.175	86.44
456.395	90.44
456.616	94.44
456.836	88.44
457.056	96.44
457.276	84.44
457.497	90.44
457.717	88.44
457.937	91.44
458.157	79.44
458.377	82.44
458.598	84.44
458.818	87.44
459.038	79.44
459.258	71.44
459.478	69.44
459.698	83.44
459.918	90.44
460.138	85.44
460.358	85.44
460.578	80.44
460.798	90.44
461.018	94.44
461.238	87.44
461.458	88.44
461.678	84.44
461.898	88.44
462.118	80.44
462.338	83.44
462.558	94.44
462.777	78.44
462.997	91.44
463.217	89.44
463.437	95.44
463.657	87.44
463.876	90.44
464.096	80.44
464.316	75.44
464.536	76.44
464.755	97.44
464.975	99.44
465.195	78.44
465.414	95.44
465.634	96.44
465.854	79.44
466.073	87.44
466.293	106.44
466.512	93.44
466.732	105.44
466.951	89.44
467.171	95.44
467.391	97.44
467.61	104.44
467.829	98.44
468.049	89.44
468.268	82.44
468.488	93.44
468.707	99.44
468.927	82.44
469.146	101.44
469.365	101.44
469.585	88.44
469.804	94.44
470.023	115.44
470.243	96.44
470.462	80.44
470.681	74.44
470.901	112.44
471.12	120.44
471.339	105.44
471.558	93.44
471.777	91.44
471.997	87.44
472.216	96.44
472.435	89.44
472.654	85.44
472.873	95.44
473.092	85.44
473.311	86.44
473.53	89.44
473.749	95.44
473.968	103.44
474.187	91.44
474.406	94.44
474.625	87.44
474.844	100.44
475.063	97.44
475.282	85.44
475.501	96.44
475.72	98.44
475.939	96.44
476.158	89.44
476.377	94.44
476.596	91.44
476.814	85.44
477.033	96.44
477.252	86.44
477.471	84.44
477.69	87.44
477.908	106.44
478.127	96.44
478.346	93.44
478.564	94.44
478.783	99.44
479.002	103.44
479.22	97.44
479.439	90.44
479.658	93.44
479.876	87.44
480.095	84.44
480.313	105.44
480.532	106.44
480.751	90.44
480.969	96.44
481.188	86.44
481.406	82.44
481.624	73.44
481.843	93.44
482.061	78.44
482.28	96.44
482.498	85.44
482.717	93.44
482.935	86.44
483.153	95.44
483.372	90.44
483.59	101.44
483.808	95.44
484.027	90.44
484.245	100.44
484.463	85.44
484.681	112.44
484.9	101.44
485.118	102.44
485.336	85.44
485.554	93.44
485.772	83.44
485.99	85.44
486.209	94.44
486.427	69.44
486.645	92.44
486.863	93.44
487.081	93.44
487.299	92.44
487.517	100.44
487.735	101.44
487.953	108.44
488.171	117.44
488.389	110.44
488.607	88.44
488.825	101.44
489.043	89.44
489.261	114.44
489.479	89.44
489.696	94.44
489.914	90.44
490.132	90.44
490.35	100.44
490.568	99.44
490.786	103.44
491.003	122.44
491.221	104.44
491.439	111.44
491.657	117.44
491.874	122.44
492.092	114.44
492.31	120.44
492.527	104.44
492.745	126.44
492.963	103.44
493.18	114.44
493.398	116.44
493.615	113.44
493.833	99.44
494.05	100.44
494.268	111.44
494.485	109.44
494.703	107.44
494.92	100.44
495.138	109.44
495.355	99.44
495.573	101.44
495.79	89.44
496.008	98.44
496.225	101.44
496.442	118.44
496.66	114.44
496.877	119.44
497.094	99.44
497.312	104.44
497.529	110.44
497.746	98.44
497.963	109.44
498.181	84.44
498.398	86.44
498.615	93.44
498.832	97.44
499.049	100.44
499.267	92.44
499.484	88.44
499.701	103.44
499.918	99.44
500.135	95.44
500.352	98.44
500.569	91.44
500.786	103.44
501.003	98.44
501.22	98.44
501.437	89.44
501.654	93.44
501.871	96.44
502.088	93.44
502.305	94.44
502.522	95.44
502.739	86.44
502.956	91.44
503.172	88.44
503.389	97.44
503.606	93.44
503.823	94.44
504.04	95.44
504.256	93.44
504.473	66.44
504.69	85.44
504.907	88.44
505.123	82.44
505.34	94.44
505.557	102.44
505.773	88.44
505.99	88.44
506.207	94.44
506.423	87.44
506.64	88.44
506.856	97.44
507.073	80.44
507.289	104.44
507.506	100.44
507.722	85.44
507.939	93.44
508.155	73.44
508.372	103.44
508.588	96.44
508.805	89.44
509.021	92.44
509.238	91.44
509.454	97.44
509.67	82.44
509.887	84.44
510.103	95.44
510.319	90.44
510.536	85.44
510.752	86.44
510.968	83.44
511.184	80.44
511.401	81.44
511.617	97.44
511.833	86.44
512.049	78.44
512.265	83.44
512.481	90.44
512.698	75.44
512.914	70.44
513.13	87.44
513.346	80.44
513.562	89.44
513.778	98.44
513.994	90.44
514.21	95.44
514.426	79.44
514.642	84.44
514.858	88.44
515.074	79.44
515.29	95.44
515.506	82.44
515.721	90.44
515.937	86.44
516.153	95.44
516.369	90.44
516.585	78.44
516.801	75.44
517.016	76.44
517.232	85.44
517.448	88.44
517.664	100.44
517.879	78.44
