Data from Location5.07152019.Energy5.Lamp.07192019.3%Agarose_HRD10591_15-38-57-389.txt Node
Date: Fri Jul 19 15:38:57 EDT 2019
User: cochatt
Spectrometer: HR+D1059
Trigger mode: 1
Integration Time (sec): 1.000000E-1
Scans to average: 1
Electric dark correction enabled: true
Nonlinearity correction enabled: false
Boxcar width: 0
XAxis mode: Wavelengths
Number of Pixels in Spectrum: 2048
>>>>>Begin Spectral Data<<<<<
223.165	-22.12
223.4	-22.12
223.635	-22.12
223.869	-32.12
224.104	-11.12
224.338	-16.12
224.573	-9.12
224.808	-6.12
225.042	-2.12
225.277	-3.12
225.511	5.88
225.746	0.88
225.98	-2.12
226.215	21.88
226.449	10.88
226.683	25.88
226.918	16.88
227.152	21.88
227.387	40.88
227.621	33.88
227.856	50.88
228.09	48.88
228.324	53.88
228.559	50.88
228.793	47.88
229.027	57.88
229.262	57.88
229.496	59.88
229.73	78.88
229.964	65.88
230.199	65.88
230.433	68.88
230.667	75.88
230.901	79.88
231.136	78.88
231.37	83.88
231.604	84.88
231.838	76.88
232.072	76.88
232.306	85.88
232.541	82.88
232.775	85.88
233.009	72.88
233.243	81.88
233.477	88.88
233.711	86.88
233.945	78.88
234.179	71.88
234.413	68.88
234.647	92.88
234.881	87.88
235.115	89.88
235.349	89.88
235.583	59.88
235.817	58.88
236.051	79.88
236.285	79.88
236.519	72.88
236.753	76.88
236.987	71.88
237.221	72.88
237.455	74.88
237.689	70.88
237.922	70.88
238.156	72.88
238.39	69.88
238.624	79.88
238.858	71.88
239.091	86.88
239.325	77.88
239.559	63.88
239.793	66.88
240.027	73.88
240.26	70.88
240.494	76.88
240.728	61.88
240.961	60.88
241.195	70.88
241.429	72.88
241.662	83.88
241.896	90.88
242.13	72.88
242.363	75.88
242.597	73.88
242.83	72.88
243.064	67.88
243.298	79.88
243.531	58.88
243.765	72.88
243.998	79.88
244.232	72.88
244.465	71.88
244.699	79.88
244.932	81.88
245.166	73.88
245.399	85.88
245.633	76.88
245.866	88.88
246.099	73.88
246.333	72.88
246.566	92.88
246.8	73.88
247.033	72.88
247.266	66.88
247.5	73.88
247.733	64.88
247.966	83.88
248.2	76.88
248.433	74.88
248.666	81.88
248.899	77.88
249.133	71.88
249.366	70.88
249.599	71.88
249.832	84.88
250.066	90.88
250.299	77.88
250.532	65.88
250.765	75.88
250.998	76.88
251.231	90.88
251.465	80.88
251.698	79.88
251.931	90.88
252.164	68.88
252.397	71.88
252.63	95.88
252.863	76.88
253.096	65.88
253.329	75.88
253.562	75.88
253.795	72.88
254.028	71.88
254.261	73.88
254.494	65.88
254.727	83.88
254.96	76.88
255.193	84.88
255.426	68.88
255.659	73.88
255.892	73.88
256.124	78.88
256.357	78.88
256.59	74.88
256.823	69.88
257.056	78.88
257.289	77.88
257.521	71.88
257.754	80.88
257.987	70.88
258.22	75.88
258.452	93.88
258.685	73.88
258.918	85.88
259.151	78.88
259.383	81.88
259.616	77.88
259.849	79.88
260.081	85.88
260.314	72.88
260.547	74.88
260.779	86.88
261.012	78.88
261.244	73.88
261.477	77.88
261.71	77.88
261.942	86.88
262.175	67.88
262.407	80.88
262.64	88.88
262.872	81.88
263.105	85.88
263.337	85.88
263.57	84.88
263.802	79.88
264.035	82.88
264.267	79.88
264.499	89.88
264.732	80.88
264.964	75.88
265.197	74.88
265.429	85.88
265.661	83.88
265.894	87.88
266.126	85.88
266.358	73.88
266.591	67.88
266.823	75.88
267.055	86.88
267.287	81.88
267.52	73.88
267.752	87.88
267.984	91.88
268.216	76.88
268.448	88.88
268.681	86.88
268.913	90.88
269.145	61.88
269.377	85.88
269.609	78.88
269.841	78.88
270.073	89.88
270.306	81.88
270.538	69.88
270.77	79.88
271.002	83.88
271.234	83.88
271.466	82.88
271.698	70.88
271.93	89.88
272.162	87.88
272.394	67.88
272.626	85.88
272.858	91.88
273.09	61.88
273.322	81.88
273.553	77.88
273.785	89.88
274.017	87.88
274.249	76.88
274.481	79.88
274.713	87.88
274.945	86.88
275.176	90.88
275.408	89.88
275.64	73.88
275.872	79.88
276.104	92.88
276.335	75.88
276.567	79.88
276.799	78.88
277.031	95.88
277.262	84.88
277.494	81.88
277.726	83.88
277.957	77.88
278.189	85.88
278.421	81.88
278.652	79.88
278.884	80.88
279.115	76.88
279.347	85.88
279.579	69.88
279.81	73.88
280.042	80.88
280.273	83.88
280.505	75.88
280.736	78.88
280.968	81.88
281.199	85.88
281.431	80.88
281.662	85.88
281.894	73.88
282.125	69.88
282.356	99.88
282.588	86.88
282.819	79.88
283.051	79.88
283.282	92.88
283.513	80.88
283.745	87.88
283.976	84.88
284.207	73.88
284.439	87.88
284.67	73.88
284.901	79.88
285.132	80.88
285.364	74.88
285.595	82.88
285.826	94.88
286.057	89.88
286.288	81.88
286.52	81.88
286.751	79.88
286.982	81.88
287.213	68.88
287.444	73.88
287.675	77.88
287.906	83.88
288.138	86.88
288.369	86.88
288.6	87.88
288.831	87.88
289.062	81.88
289.293	78.88
289.524	82.88
289.755	94.88
289.986	81.88
290.217	76.88
290.448	80.88
290.679	89.88
290.91	96.88
291.141	77.88
291.371	83.88
291.602	64.88
291.833	70.88
292.064	77.88
292.295	74.88
292.526	69.88
292.757	82.88
292.987	76.88
293.218	87.88
293.449	89.88
293.68	97.88
293.91	94.88
294.141	77.88
294.372	71.88
294.603	81.88
294.833	79.88
295.064	88.88
295.295	86.88
295.525	84.88
295.756	81.88
295.987	81.88
296.217	76.88
296.448	85.88
296.679	78.88
296.909	84.88
297.14	71.88
297.37	81.88
297.601	77.88
297.831	82.88
298.062	86.88
298.292	73.88
298.523	95.88
298.753	78.88
298.984	86.88
299.214	82.88
299.445	80.88
299.675	94.88
299.905	81.88
300.136	78.88
300.366	85.88
300.597	82.88
300.827	81.88
301.057	67.88
301.288	75.88
301.518	83.88
301.748	64.88
301.979	85.88
302.209	79.88
302.439	66.88
302.669	88.88
302.9	79.88
303.13	86.88
303.36	82.88
303.59	77.88
303.82	92.88
304.051	81.88
304.281	91.88
304.511	96.88
304.741	85.88
304.971	71.88
305.201	90.88
305.431	90.88
305.661	66.88
305.891	95.88
306.121	98.88
306.352	94.88
306.582	72.88
306.812	71.88
307.042	91.88
307.272	79.88
307.502	82.88
307.731	77.88
307.961	85.88
308.191	82.88
308.421	75.88
308.651	87.88
308.881	88.88
309.111	81.88
309.341	83.88
309.571	82.88
309.8	83.88
310.03	74.88
310.26	81.88
310.49	73.88
310.72	86.88
310.949	99.88
311.179	81.88
311.409	72.88
311.639	81.88
311.868	72.88
312.098	88.88
312.328	79.88
312.557	96.88
312.787	78.88
313.017	94.88
313.246	90.88
313.476	96.88
313.706	88.88
313.935	95.88
314.165	68.88
314.394	75.88
314.624	73.88
314.853	80.88
315.083	86.88
315.312	87.88
315.542	75.88
315.771	79.88
316.001	83.88
316.23	93.88
316.46	85.88
316.689	87.88
316.919	83.88
317.148	93.88
317.377	78.88
317.607	90.88
317.836	82.88
318.065	86.88
318.295	96.88
318.524	83.88
318.753	96.88
318.983	83.88
319.212	85.88
319.441	70.88
319.67	74.88
319.9	92.88
320.129	83.88
320.358	87.88
320.587	78.88
320.816	93.88
321.046	86.88
321.275	89.88
321.504	72.88
321.733	75.88
321.962	75.88
322.191	78.88
322.42	85.88
322.649	91.88
322.878	91.88
323.108	90.88
323.337	82.88
323.566	82.88
323.795	85.88
324.024	72.88
324.253	80.88
324.482	95.88
324.71	89.88
324.939	87.88
325.168	93.88
325.397	87.88
325.626	90.88
325.855	74.88
326.084	76.88
326.313	76.88
326.542	77.88
326.77	71.88
326.999	72.88
327.228	78.88
327.457	72.88
327.686	79.88
327.914	89.88
328.143	94.88
328.372	71.88
328.6	69.88
328.829	94.88
329.058	75.88
329.287	79.88
329.515	73.88
329.744	88.88
329.972	83.88
330.201	97.88
330.43	73.88
330.658	82.88
330.887	78.88
331.115	90.88
331.344	84.88
331.572	88.88
331.801	73.88
332.03	99.88
332.258	91.88
332.486	79.88
332.715	88.88
332.943	91.88
333.172	72.88
333.4	81.88
333.629	87.88
333.857	86.88
334.085	94.88
334.314	80.88
334.542	89.88
334.771	85.88
334.999	83.88
335.227	83.88
335.455	86.88
335.684	83.88
335.912	82.88
336.14	76.88
336.369	81.88
336.597	81.88
336.825	93.88
337.053	89.88
337.281	73.88
337.51	90.88
337.738	77.88
337.966	94.88
338.194	74.88
338.422	90.88
338.65	84.88
338.878	75.88
339.106	79.88
339.334	71.88
339.562	80.88
339.79	83.88
340.018	87.88
340.246	68.88
340.474	77.88
340.702	87.88
340.93	53.88
341.158	75.88
341.386	91.88
341.614	82.88
341.842	69.88
342.07	81.88
342.298	74.88
342.526	86.88
342.754	86.88
342.981	105.88
343.209	99.88
343.437	95.88
343.665	81.88
343.893	79.88
344.12	75.88
344.348	75.88
344.576	81.88
344.804	77.88
345.031	82.88
345.259	76.88
345.487	86.88
345.714	82.88
345.942	70.88
346.17	89.88
346.397	109.88
346.625	80.88
346.853	85.88
347.08	76.88
347.308	83.88
347.535	79.88
347.763	92.88
347.99	84.88
348.218	85.88
348.445	93.88
348.673	82.88
348.9	89.88
349.128	79.88
349.355	69.88
349.583	79.88
349.81	91.88
350.037	85.88
350.265	79.88
350.492	83.88
350.72	103.88
350.947	74.88
351.174	83.88
351.402	87.88
351.629	84.88
351.856	92.88
352.083	89.88
352.311	79.88
352.538	75.88
352.765	72.88
352.992	83.88
353.22	76.88
353.447	75.88
353.674	77.88
353.901	78.88
354.128	79.88
354.355	77.88
354.583	79.88
354.81	82.88
355.037	90.88
355.264	88.88
355.491	73.88
355.718	75.88
355.945	74.88
356.172	90.88
356.399	77.88
356.626	78.88
356.853	79.88
357.08	88.88
357.307	75.88
357.534	72.88
357.761	87.88
357.988	91.88
358.215	87.88
358.441	68.88
358.668	79.88
358.895	85.88
359.122	80.88
359.349	79.88
359.576	66.88
359.802	85.88
360.029	82.88
360.256	91.88
360.483	98.88
360.709	101.88
360.936	81.88
361.163	79.88
361.39	64.88
361.616	66.88
361.843	78.88
362.07	71.88
362.296	86.88
362.523	82.88
362.749	83.88
362.976	87.88
363.203	88.88
363.429	87.88
363.656	93.88
363.882	80.88
364.109	88.88
364.335	74.88
364.562	80.88
364.788	82.88
365.015	76.88
365.241	84.88
365.468	94.88
365.694	86.88
365.92	70.88
366.147	88.88
366.373	81.88
366.599	67.88
366.826	87.88
367.052	84.88
367.278	94.88
367.505	85.88
367.731	93.88
367.957	77.88
368.184	93.88
368.41	78.88
368.636	78.88
368.862	84.88
369.089	89.88
369.315	76.88
369.541	81.88
369.767	90.88
369.993	67.88
370.219	77.88
370.445	78.88
370.672	81.88
370.898	74.88
371.124	72.88
371.35	81.88
371.576	91.88
371.802	79.88
372.028	85.88
372.254	95.88
372.48	75.88
372.706	89.88
372.932	85.88
373.158	69.88
373.384	80.88
373.61	73.88
373.835	82.88
374.061	87.88
374.287	75.88
374.513	85.88
374.739	81.88
374.965	90.88
375.191	84.88
375.416	88.88
375.642	95.88
375.868	74.88
376.094	75.88
376.319	86.88
376.545	87.88
376.771	101.88
376.997	83.88
377.222	97.88
377.448	74.88
377.674	87.88
377.899	89.88
378.125	87.88
378.35	84.88
378.576	80.88
378.802	86.88
379.027	90.88
379.253	93.88
379.478	75.88
379.704	81.88
379.929	74.88
380.155	83.88
380.38	96.88
380.606	77.88
380.831	85.88
381.057	87.88
381.282	75.88
381.507	74.88
381.733	88.88
381.958	96.88
382.184	87.88
382.409	89.88
382.634	82.88
382.86	98.88
383.085	75.88
383.31	93.88
383.535	90.88
383.761	84.88
383.986	80.88
384.211	81.88
384.436	98.88
384.662	77.88
384.887	76.88
385.112	101.88
385.337	86.88
385.562	81.88
385.787	90.88
386.013	78.88
386.238	95.88
386.463	72.88
386.688	82.88
386.913	82.88
387.138	84.88
387.363	79.88
387.588	84.88
387.813	90.88
388.038	98.88
388.263	78.88
388.488	75.88
388.713	94.88
388.938	93.88
389.163	84.88
389.387	82.88
389.612	82.88
389.837	86.88
390.062	82.88
390.287	95.88
390.512	74.88
390.736	79.88
390.961	80.88
391.186	80.88
391.411	86.88
391.636	79.88
391.86	85.88
392.085	72.88
392.31	101.88
392.534	65.88
392.759	80.88
392.984	90.88
393.208	84.88
393.433	86.88
393.658	88.88
393.882	86.88
394.107	84.88
394.331	84.88
394.556	93.88
394.78	83.88
395.005	90.88
395.229	83.88
395.454	79.88
395.678	86.88
395.903	90.88
396.127	87.88
396.352	91.88
396.576	91.88
396.801	97.88
397.025	85.88
397.249	99.88
397.474	69.88
397.698	93.88
397.922	99.88
398.147	96.88
398.371	79.88
398.595	95.88
398.82	81.88
399.044	88.88
399.268	82.88
399.492	79.88
399.717	77.88
399.941	93.88
400.165	82.88
400.389	86.88
400.613	78.88
400.837	83.88
401.062	81.88
401.286	86.88
401.51	77.88
401.734	92.88
401.958	94.88
402.182	91.88
402.406	89.88
402.63	76.88
402.854	79.88
403.078	91.88
403.302	86.88
403.526	93.88
403.75	94.88
403.974	93.88
404.198	94.88
404.422	95.88
404.645	84.88
404.869	109.88
405.093	94.88
405.317	85.88
405.541	90.88
405.765	102.88
405.988	85.88
406.212	86.88
406.436	83.88
406.66	80.88
406.883	74.88
407.107	81.88
407.331	108.88
407.555	82.88
407.778	78.88
408.002	92.88
408.226	83.88
408.449	97.88
408.673	91.88
408.896	95.88
409.12	99.88
409.344	102.88
409.567	76.88
409.791	85.88
410.014	89.88
410.238	99.88
410.461	94.88
410.685	97.88
410.908	90.88
411.132	82.88
411.355	89.88
411.578	83.88
411.802	91.88
412.025	94.88
412.249	80.88
412.472	85.88
412.695	90.88
412.919	91.88
413.142	71.88
413.365	99.88
413.589	97.88
413.812	85.88
414.035	90.88
414.258	88.88
414.482	89.88
414.705	90.88
414.928	88.88
415.151	92.88
415.374	98.88
415.597	84.88
415.821	83.88
416.044	84.88
416.267	87.88
416.49	102.88
416.713	102.88
416.936	83.88
417.159	78.88
417.382	86.88
417.605	90.88
417.828	95.88
418.051	78.88
418.274	86.88
418.497	92.88
418.72	79.88
418.943	88.88
419.166	95.88
419.389	97.88
419.611	86.88
419.834	105.88
420.057	89.88
420.28	93.88
420.503	82.88
420.726	86.88
420.948	90.88
421.171	98.88
421.394	94.88
421.617	104.88
421.839	103.88
422.062	94.88
422.285	86.88
422.507	90.88
422.73	93.88
422.953	83.88
423.175	79.88
423.398	98.88
423.621	93.88
423.843	101.88
424.066	78.88
424.288	91.88
424.511	96.88
424.733	94.88
424.956	96.88
425.178	99.88
425.401	91.88
425.623	87.88
425.846	81.88
426.068	99.88
426.291	102.88
426.513	84.88
426.735	81.88
426.958	97.88
427.18	111.88
427.402	109.88
427.625	93.88
427.847	101.88
428.069	102.88
428.292	94.88
428.514	96.88
428.736	101.88
428.958	97.88
429.181	99.88
429.403	82.88
429.625	96.88
429.847	84.88
430.069	84.88
430.292	99.88
430.514	99.88
430.736	97.88
430.958	78.88
431.18	82.88
431.402	98.88
431.624	87.88
431.846	83.88
432.068	89.88
432.29	81.88
432.512	94.88
432.734	94.88
432.956	85.88
433.178	88.88
433.4	102.88
433.622	67.88
433.844	93.88
434.066	99.88
434.287	81.88
434.509	85.88
434.731	87.88
434.953	75.88
435.175	94.88
435.397	98.88
435.618	88.88
435.84	80.88
436.062	88.88
436.284	68.88
436.505	87.88
436.727	95.88
436.949	93.88
437.17	100.88
437.392	109.88
437.614	93.88
437.835	85.88
438.057	80.88
438.278	78.88
438.5	90.88
438.721	97.88
438.943	97.88
439.165	84.88
439.386	92.88
439.608	94.88
439.829	91.88
440.05	86.88
440.272	81.88
440.493	85.88
440.715	94.88
440.936	97.88
441.158	102.88
441.379	103.88
441.6	87.88
441.822	93.88
442.043	94.88
442.264	90.88
442.486	84.88
442.707	84.88
442.928	104.88
443.149	99.88
443.371	97.88
443.592	98.88
443.813	93.88
444.034	102.88
444.255	77.88
444.476	90.88
444.698	82.88
444.919	90.88
445.14	226.88
445.361	147.88
445.582	100.88
445.803	92.88
446.024	95.88
446.245	86.88
446.466	97.88
446.687	98.88
446.908	111.88
447.129	107.88
447.35	113.88
447.571	105.88
447.792	91.88
448.013	105.88
448.234	97.88
448.455	89.88
448.675	87.88
448.896	97.88
449.117	102.88
449.338	90.88
449.559	106.88
449.779	99.88
450	105.88
450.221	82.88
450.442	90.88
450.662	83.88
450.883	82.88
451.104	106.88
451.324	81.88
451.545	93.88
451.766	91.88
451.986	84.88
452.207	72.88
452.428	82.88
452.648	78.88
452.869	87.88
453.089	76.88
453.31	96.88
453.53	81.88
453.751	87.88
453.971	89.88
454.192	83.88
454.412	93.88
454.633	103.88
454.853	75.88
455.073	72.88
455.294	91.88
455.514	85.88
455.734	79.88
455.955	79.88
456.175	98.88
456.395	87.88
456.616	86.88
456.836	81.88
457.056	88.88
457.276	74.88
457.497	86.88
457.717	93.88
457.937	88.88
458.157	86.88
458.377	82.88
458.598	84.88
458.818	73.88
459.038	91.88
459.258	93.88
459.478	82.88
459.698	80.88
459.918	86.88
460.138	73.88
460.358	87.88
460.578	90.88
460.798	91.88
461.018	79.88
461.238	77.88
461.458	75.88
461.678	78.88
461.898	84.88
462.118	97.88
462.338	83.88
462.558	84.88
462.777	80.88
462.997	100.88
463.217	87.88
463.437	90.88
463.657	71.88
463.876	75.88
464.096	87.88
464.316	84.88
464.536	89.88
464.755	97.88
464.975	97.88
465.195	96.88
465.414	98.88
465.634	99.88
465.854	91.88
466.073	75.88
466.293	81.88
466.512	91.88
466.732	94.88
466.951	100.88
467.171	97.88
467.391	103.88
467.61	79.88
467.829	96.88
468.049	97.88
468.268	84.88
468.488	90.88
468.707	94.88
468.927	96.88
469.146	81.88
469.365	97.88
469.585	97.88
469.804	87.88
470.023	86.88
470.243	95.88
470.462	81.88
470.681	98.88
470.901	106.88
471.12	107.88
471.339	95.88
471.558	91.88
471.777	91.88
471.997	100.88
472.216	90.88
472.435	79.88
472.654	96.88
472.873	81.88
473.092	78.88
473.311	98.88
473.53	94.88
473.749	98.88
473.968	83.88
474.187	78.88
474.406	90.88
474.625	102.88
474.844	89.88
475.063	91.88
475.282	87.88
475.501	98.88
475.72	87.88
475.939	93.88
476.158	96.88
476.377	78.88
476.596	82.88
476.814	91.88
477.033	99.88
477.252	88.88
477.471	93.88
477.69	99.88
477.908	109.88
478.127	95.88
478.346	78.88
478.564	92.88
478.783	110.88
479.002	90.88
479.22	97.88
479.439	85.88
479.658	88.88
479.876	98.88
480.095	88.88
480.313	78.88
480.532	90.88
480.751	88.88
480.969	78.88
481.188	67.88
481.406	78.88
481.624	82.88
481.843	86.88
482.061	98.88
482.28	94.88
482.498	83.88
482.717	89.88
482.935	96.88
483.153	87.88
483.372	92.88
483.59	102.88
483.808	89.88
484.027	97.88
484.245	91.88
484.463	91.88
484.681	82.88
484.9	85.88
485.118	101.88
485.336	88.88
485.554	98.88
485.772	88.88
485.99	89.88
486.209	94.88
486.427	90.88
486.645	94.88
486.863	94.88
487.081	98.88
487.299	81.88
487.517	103.88
487.735	100.88
487.953	101.88
488.171	114.88
488.389	97.88
488.607	101.88
488.825	98.88
489.043	93.88
489.261	97.88
489.479	89.88
489.696	97.88
489.914	106.88
490.132	106.88
490.35	99.88
490.568	107.88
490.786	95.88
491.003	98.88
491.221	101.88
491.439	101.88
491.657	111.88
491.874	114.88
492.092	100.88
492.31	117.88
492.527	102.88
492.745	121.88
492.963	90.88
493.18	106.88
493.398	104.88
493.615	101.88
493.833	109.88
494.05	98.88
494.268	102.88
494.485	114.88
494.703	96.88
494.92	98.88
495.138	106.88
495.355	100.88
495.573	99.88
495.79	109.88
496.008	95.88
496.225	93.88
496.442	99.88
496.66	105.88
496.877	110.88
497.094	109.88
497.312	97.88
497.529	118.88
497.746	104.88
497.963	85.88
498.181	89.88
498.398	91.88
498.615	90.88
498.832	86.88
499.049	83.88
499.267	96.88
499.484	77.88
499.701	86.88
499.918	82.88
500.135	98.88
500.352	82.88
500.569	86.88
500.786	117.88
501.003	93.88
501.22	95.88
501.437	87.88
501.654	80.88
501.871	77.88
502.088	97.88
502.305	89.88
502.522	104.88
502.739	91.88
502.956	106.88
503.172	93.88
503.389	94.88
503.606	98.88
503.823	80.88
504.04	95.88
504.256	95.88
504.473	100.88
504.69	83.88
504.907	83.88
505.123	89.88
505.34	100.88
505.557	84.88
505.773	99.88
505.99	94.88
506.207	83.88
506.423	88.88
506.64	102.88
506.856	99.88
507.073	94.88
507.289	79.88
507.506	86.88
507.722	97.88
507.939	97.88
508.155	95.88
508.372	71.88
508.588	92.88
508.805	77.88
509.021	83.88
509.238	94.88
509.454	103.88
509.67	91.88
509.887	72.88
510.103	81.88
510.319	77.88
510.536	82.88
510.752	81.88
510.968	74.88
511.184	81.88
511.401	83.88
511.617	78.88
511.833	90.88
512.049	85.88
512.265	86.88
512.481	92.88
512.698	75.88
512.914	95.88
513.13	79.88
513.346	78.88
513.562	80.88
513.778	94.88
513.994	91.88
514.21	79.88
514.426	81.88
514.642	80.88
514.858	82.88
515.074	82.88
515.29	77.88
515.506	75.88
515.721	70.88
515.937	83.88
516.153	88.88
516.369	92.88
516.585	93.88
516.801	69.88
517.016	83.88
517.232	77.88
517.448	81.88
517.664	78.88
517.879	94.88
518.095	82.88
518.311	85.88
