Data from Location5.07152019.Energy5.Lamp.07192019.3%Agarose_HRD10591_16-05-22-629.txt Node
Date: Fri Jul 19 16:05:22 EDT 2019
User: cochatt
Spectrometer: HR+D1059
Trigger mode: 1
Integration Time (sec): 1.000000E-1
Scans to average: 1
Electric dark correction enabled: true
Nonlinearity correction enabled: false
Boxcar width: 0
XAxis mode: Wavelengths
Number of Pixels in Spectrum: 2048
>>>>>Begin Spectral Data<<<<<
223.165	-18.56
223.4	-18.56
223.635	-18.56
223.869	-9.56
224.104	-21.56
224.338	-10.56
224.573	-4.56
224.808	-19.56
225.042	-17.56
225.277	8.44
225.511	4.44
225.746	5.44
225.98	4.44
226.215	10.44
226.449	14.44
226.683	10.44
226.918	23.44
227.152	20.44
227.387	33.44
227.621	43.44
227.856	44.44
228.09	55.44
228.324	44.44
228.559	58.44
228.793	68.44
229.027	60.44
229.262	64.44
229.496	57.44
229.73	60.44
229.964	69.44
230.199	67.44
230.433	71.44
230.667	79.44
230.901	78.44
231.136	78.44
231.37	81.44
231.604	97.44
231.838	76.44
232.072	72.44
232.306	78.44
232.541	85.44
232.775	80.44
233.009	88.44
233.243	96.44
233.477	84.44
233.711	86.44
233.945	77.44
234.179	76.44
234.413	81.44
234.647	78.44
234.881	83.44
235.115	95.44
235.349	79.44
235.583	67.44
235.817	83.44
236.051	91.44
236.285	82.44
236.519	83.44
236.753	69.44
236.987	85.44
237.221	88.44
237.455	80.44
237.689	71.44
237.922	74.44
238.156	88.44
238.39	73.44
238.624	84.44
238.858	83.44
239.091	68.44
239.325	79.44
239.559	88.44
239.793	82.44
240.027	91.44
240.26	65.44
240.494	71.44
240.728	66.44
240.961	89.44
241.195	88.44
241.429	82.44
241.662	81.44
241.896	78.44
242.13	80.44
242.363	86.44
242.597	69.44
242.83	73.44
243.064	77.44
243.298	79.44
243.531	70.44
243.765	90.44
243.998	87.44
244.232	87.44
244.465	79.44
244.699	81.44
244.932	74.44
245.166	71.44
245.399	81.44
245.633	80.44
245.866	78.44
246.099	87.44
246.333	76.44
246.566	75.44
246.8	92.44
247.033	84.44
247.266	83.44
247.5	72.44
247.733	92.44
247.966	90.44
248.2	89.44
248.433	78.44
248.666	97.44
248.899	74.44
249.133	72.44
249.366	86.44
249.599	89.44
249.832	78.44
250.066	70.44
250.299	84.44
250.532	84.44
250.765	72.44
250.998	83.44
251.231	79.44
251.465	72.44
251.698	75.44
251.931	77.44
252.164	77.44
252.397	81.44
252.63	86.44
252.863	81.44
253.096	81.44
253.329	82.44
253.562	90.44
253.795	74.44
254.028	95.44
254.261	92.44
254.494	86.44
254.727	84.44
254.96	85.44
255.193	77.44
255.426	97.44
255.659	81.44
255.892	90.44
256.124	94.44
256.357	87.44
256.59	92.44
256.823	87.44
257.056	85.44
257.289	87.44
257.521	80.44
257.754	87.44
257.987	70.44
258.22	86.44
258.452	90.44
258.685	90.44
258.918	76.44
259.151	77.44
259.383	83.44
259.616	77.44
259.849	91.44
260.081	89.44
260.314	73.44
260.547	74.44
260.779	79.44
261.012	83.44
261.244	90.44
261.477	112.44
261.71	79.44
261.942	81.44
262.175	88.44
262.407	75.44
262.64	93.44
262.872	74.44
263.105	72.44
263.337	90.44
263.57	78.44
263.802	83.44
264.035	98.44
264.267	92.44
264.499	97.44
264.732	84.44
264.964	96.44
265.197	85.44
265.429	81.44
265.661	78.44
265.894	78.44
266.126	101.44
266.358	60.44
266.591	97.44
266.823	81.44
267.055	81.44
267.287	88.44
267.52	94.44
267.752	93.44
267.984	92.44
268.216	83.44
268.448	69.44
268.681	86.44
268.913	89.44
269.145	93.44
269.377	85.44
269.609	76.44
269.841	81.44
270.073	80.44
270.306	98.44
270.538	82.44
270.77	86.44
271.002	86.44
271.234	89.44
271.466	91.44
271.698	98.44
271.93	89.44
272.162	90.44
272.394	88.44
272.626	74.44
272.858	92.44
273.09	81.44
273.322	87.44
273.553	78.44
273.785	80.44
274.017	75.44
274.249	90.44
274.481	94.44
274.713	106.44
274.945	86.44
275.176	79.44
275.408	93.44
275.64	98.44
275.872	84.44
276.104	89.44
276.335	81.44
276.567	79.44
276.799	82.44
277.031	82.44
277.262	76.44
277.494	82.44
277.726	88.44
277.957	96.44
278.189	101.44
278.421	77.44
278.652	89.44
278.884	87.44
279.115	80.44
279.347	86.44
279.579	84.44
279.81	97.44
280.042	91.44
280.273	92.44
280.505	92.44
280.736	84.44
280.968	104.44
281.199	83.44
281.431	92.44
281.662	89.44
281.894	96.44
282.125	81.44
282.356	84.44
282.588	68.44
282.819	90.44
283.051	93.44
283.282	84.44
283.513	83.44
283.745	93.44
283.976	90.44
284.207	81.44
284.439	81.44
284.67	85.44
284.901	81.44
285.132	76.44
285.364	82.44
285.595	96.44
285.826	74.44
286.057	87.44
286.288	87.44
286.52	82.44
286.751	86.44
286.982	91.44
287.213	72.44
287.444	75.44
287.675	87.44
287.906	88.44
288.138	100.44
288.369	86.44
288.6	98.44
288.831	84.44
289.062	72.44
289.293	77.44
289.524	94.44
289.755	97.44
289.986	79.44
290.217	76.44
290.448	76.44
290.679	94.44
290.91	95.44
291.141	86.44
291.371	89.44
291.602	87.44
291.833	91.44
292.064	91.44
292.295	83.44
292.526	84.44
292.757	86.44
292.987	77.44
293.218	81.44
293.449	94.44
293.68	76.44
293.91	83.44
294.141	91.44
294.372	79.44
294.603	85.44
294.833	77.44
295.064	82.44
295.295	88.44
295.525	91.44
295.756	96.44
295.987	111.44
296.217	92.44
296.448	74.44
296.679	76.44
296.909	102.44
297.14	96.44
297.37	95.44
297.601	101.44
297.831	81.44
298.062	84.44
298.292	82.44
298.523	85.44
298.753	91.44
298.984	102.44
299.214	97.44
299.445	105.44
299.675	84.44
299.905	92.44
300.136	90.44
300.366	81.44
300.597	83.44
300.827	76.44
301.057	86.44
301.288	84.44
301.518	80.44
301.748	102.44
301.979	94.44
302.209	105.44
302.439	85.44
302.669	88.44
302.9	88.44
303.13	105.44
303.36	91.44
303.59	84.44
303.82	94.44
304.051	88.44
304.281	66.44
304.511	87.44
304.741	77.44
304.971	97.44
305.201	100.44
305.431	91.44
305.661	86.44
305.891	99.44
306.121	86.44
306.352	95.44
306.582	79.44
306.812	90.44
307.042	89.44
307.272	98.44
307.502	76.44
307.731	94.44
307.961	93.44
308.191	96.44
308.421	98.44
308.651	92.44
308.881	99.44
309.111	97.44
309.341	86.44
309.571	76.44
309.8	87.44
310.03	89.44
310.26	77.44
310.49	93.44
310.72	87.44
310.949	89.44
311.179	86.44
311.409	90.44
311.639	90.44
311.868	94.44
312.098	90.44
312.328	90.44
312.557	92.44
312.787	84.44
313.017	87.44
313.246	96.44
313.476	100.44
313.706	85.44
313.935	87.44
314.165	82.44
314.394	100.44
314.624	89.44
314.853	98.44
315.083	92.44
315.312	87.44
315.542	94.44
315.771	93.44
316.001	89.44
316.23	96.44
316.46	94.44
316.689	78.44
316.919	89.44
317.148	90.44
317.377	88.44
317.607	94.44
317.836	88.44
318.065	91.44
318.295	99.44
318.524	88.44
318.753	81.44
318.983	75.44
319.212	84.44
319.441	90.44
319.67	91.44
319.9	87.44
320.129	83.44
320.358	86.44
320.587	97.44
320.816	94.44
321.046	78.44
321.275	102.44
321.504	78.44
321.733	97.44
321.962	92.44
322.191	103.44
322.42	103.44
322.649	73.44
322.878	87.44
323.108	86.44
323.337	84.44
323.566	87.44
323.795	89.44
324.024	94.44
324.253	83.44
324.482	85.44
324.71	100.44
324.939	99.44
325.168	101.44
325.397	93.44
325.626	91.44
325.855	99.44
326.084	92.44
326.313	95.44
326.542	86.44
326.77	88.44
326.999	92.44
327.228	83.44
327.457	80.44
327.686	80.44
327.914	86.44
328.143	89.44
328.372	85.44
328.6	94.44
328.829	95.44
329.058	91.44
329.287	88.44
329.515	67.44
329.744	97.44
329.972	88.44
330.201	94.44
330.43	88.44
330.658	73.44
330.887	101.44
331.115	95.44
331.344	104.44
331.572	90.44
331.801	95.44
332.03	86.44
332.258	89.44
332.486	90.44
332.715	89.44
332.943	95.44
333.172	99.44
333.4	100.44
333.629	89.44
333.857	80.44
334.085	98.44
334.314	107.44
334.542	86.44
334.771	102.44
334.999	92.44
335.227	99.44
335.455	100.44
335.684	99.44
335.912	93.44
336.14	89.44
336.369	87.44
336.597	86.44
336.825	87.44
337.053	88.44
337.281	85.44
337.51	77.44
337.738	88.44
337.966	102.44
338.194	90.44
338.422	83.44
338.65	101.44
338.878	89.44
339.106	84.44
339.334	82.44
339.562	89.44
339.79	99.44
340.018	88.44
340.246	87.44
340.474	91.44
340.702	97.44
340.93	94.44
341.158	78.44
341.386	87.44
341.614	90.44
341.842	93.44
342.07	82.44
342.298	86.44
342.526	79.44
342.754	93.44
342.981	82.44
343.209	97.44
343.437	90.44
343.665	86.44
343.893	105.44
344.12	93.44
344.348	82.44
344.576	87.44
344.804	94.44
345.031	91.44
345.259	89.44
345.487	101.44
345.714	85.44
345.942	87.44
346.17	98.44
346.397	89.44
346.625	77.44
346.853	92.44
347.08	89.44
347.308	96.44
347.535	97.44
347.763	80.44
347.99	90.44
348.218	93.44
348.445	89.44
348.673	93.44
348.9	89.44
349.128	83.44
349.355	83.44
349.583	87.44
349.81	90.44
350.037	88.44
350.265	89.44
350.492	99.44
350.72	74.44
350.947	93.44
351.174	95.44
351.402	90.44
351.629	84.44
351.856	96.44
352.083	90.44
352.311	82.44
352.538	84.44
352.765	86.44
352.992	90.44
353.22	90.44
353.447	95.44
353.674	108.44
353.901	86.44
354.128	81.44
354.355	81.44
354.583	80.44
354.81	92.44
355.037	89.44
355.264	104.44
355.491	83.44
355.718	87.44
355.945	89.44
356.172	94.44
356.399	86.44
356.626	80.44
356.853	79.44
357.08	104.44
357.307	87.44
357.534	91.44
357.761	89.44
357.988	83.44
358.215	88.44
358.441	92.44
358.668	89.44
358.895	97.44
359.122	95.44
359.349	88.44
359.576	78.44
359.802	72.44
360.029	100.44
360.256	90.44
360.483	92.44
360.709	79.44
360.936	86.44
361.163	96.44
361.39	88.44
361.616	99.44
361.843	85.44
362.07	97.44
362.296	91.44
362.523	86.44
362.749	93.44
362.976	85.44
363.203	94.44
363.429	91.44
363.656	87.44
363.882	80.44
364.109	94.44
364.335	101.44
364.562	91.44
364.788	79.44
365.015	104.44
365.241	91.44
365.468	95.44
365.694	95.44
365.92	86.44
366.147	91.44
366.373	74.44
366.599	91.44
366.826	88.44
367.052	92.44
367.278	78.44
367.505	86.44
367.731	83.44
367.957	80.44
368.184	89.44
368.41	94.44
368.636	91.44
368.862	96.44
369.089	101.44
369.315	83.44
369.541	100.44
369.767	89.44
369.993	99.44
370.219	84.44
370.445	90.44
370.672	92.44
370.898	102.44
371.124	82.44
371.35	91.44
371.576	100.44
371.802	85.44
372.028	96.44
372.254	97.44
372.48	85.44
372.706	84.44
372.932	87.44
373.158	78.44
373.384	89.44
373.61	90.44
373.835	81.44
374.061	86.44
374.287	79.44
374.513	103.44
374.739	90.44
374.965	95.44
375.191	88.44
375.416	98.44
375.642	99.44
375.868	101.44
376.094	90.44
376.319	88.44
376.545	86.44
376.771	103.44
376.997	82.44
377.222	79.44
377.448	80.44
377.674	85.44
377.899	88.44
378.125	96.44
378.35	88.44
378.576	85.44
378.802	88.44
379.027	92.44
379.253	105.44
379.478	81.44
379.704	96.44
379.929	82.44
380.155	96.44
380.38	98.44
380.606	89.44
380.831	97.44
381.057	100.44
381.282	90.44
381.507	85.44
381.733	80.44
381.958	88.44
382.184	88.44
382.409	91.44
382.634	98.44
382.86	85.44
383.085	107.44
383.31	93.44
383.535	89.44
383.761	93.44
383.986	85.44
384.211	87.44
384.436	100.44
384.662	100.44
384.887	100.44
385.112	84.44
385.337	92.44
385.562	91.44
385.787	81.44
386.013	94.44
386.238	106.44
386.463	91.44
386.688	103.44
386.913	97.44
387.138	97.44
387.363	92.44
387.588	96.44
387.813	77.44
388.038	97.44
388.263	99.44
388.488	82.44
388.713	97.44
388.938	83.44
389.163	90.44
389.387	88.44
389.612	81.44
389.837	103.44
390.062	101.44
390.287	91.44
390.512	91.44
390.736	87.44
390.961	94.44
391.186	106.44
391.411	93.44
391.636	91.44
391.86	97.44
392.085	87.44
392.31	91.44
392.534	82.44
392.759	83.44
392.984	91.44
393.208	79.44
393.433	94.44
393.658	84.44
393.882	90.44
394.107	95.44
394.331	95.44
394.556	89.44
394.78	83.44
395.005	99.44
395.229	99.44
395.454	86.44
395.678	91.44
395.903	82.44
396.127	91.44
396.352	95.44
396.576	70.44
396.801	84.44
397.025	97.44
397.249	85.44
397.474	99.44
397.698	95.44
397.922	94.44
398.147	96.44
398.371	92.44
398.595	102.44
398.82	96.44
399.044	96.44
399.268	101.44
399.492	97.44
399.717	101.44
399.941	99.44
400.165	102.44
400.389	92.44
400.613	97.44
400.837	100.44
401.062	89.44
401.286	87.44
401.51	87.44
401.734	86.44
401.958	91.44
402.182	87.44
402.406	104.44
402.63	100.44
402.854	86.44
403.078	92.44
403.302	91.44
403.526	93.44
403.75	96.44
403.974	89.44
404.198	99.44
404.422	94.44
404.645	98.44
404.869	90.44
405.093	85.44
405.317	96.44
405.541	104.44
405.765	85.44
405.988	100.44
406.212	102.44
406.436	93.44
406.66	83.44
406.883	78.44
407.107	99.44
407.331	83.44
407.555	97.44
407.778	93.44
408.002	89.44
408.226	103.44
408.449	100.44
408.673	84.44
408.896	95.44
409.12	84.44
409.344	98.44
409.567	84.44
409.791	99.44
410.014	100.44
410.238	92.44
410.461	92.44
410.685	88.44
410.908	84.44
411.132	100.44
411.355	101.44
411.578	90.44
411.802	89.44
412.025	100.44
412.249	96.44
412.472	82.44
412.695	92.44
412.919	94.44
413.142	95.44
413.365	112.44
413.589	82.44
413.812	99.44
414.035	95.44
414.258	94.44
414.482	87.44
414.705	95.44
414.928	107.44
415.151	89.44
415.374	107.44
415.597	94.44
415.821	98.44
416.044	97.44
416.267	93.44
416.49	96.44
416.713	96.44
416.936	97.44
417.159	100.44
417.382	94.44
417.605	103.44
417.828	92.44
418.051	104.44
418.274	90.44
418.497	96.44
418.72	77.44
418.943	86.44
419.166	93.44
419.389	93.44
419.611	83.44
419.834	81.44
420.057	94.44
420.28	89.44
420.503	94.44
420.726	106.44
420.948	103.44
421.171	106.44
421.394	78.44
421.617	99.44
421.839	101.44
422.062	107.44
422.285	117.44
422.507	108.44
422.73	88.44
422.953	97.44
423.175	99.44
423.398	99.44
423.621	93.44
423.843	80.44
424.066	87.44
424.288	89.44
424.511	91.44
424.733	98.44
424.956	89.44
425.178	86.44
425.401	99.44
425.623	102.44
425.846	94.44
426.068	89.44
426.291	93.44
426.513	92.44
426.735	85.44
426.958	97.44
427.18	85.44
427.402	99.44
427.625	91.44
427.847	84.44
428.069	78.44
428.292	89.44
428.514	95.44
428.736	87.44
428.958	88.44
429.181	88.44
429.403	99.44
429.625	97.44
429.847	94.44
430.069	96.44
430.292	98.44
430.514	86.44
430.736	90.44
430.958	97.44
431.18	94.44
431.402	97.44
431.624	88.44
431.846	103.44
432.068	96.44
432.29	100.44
432.512	102.44
432.734	93.44
432.956	76.44
433.178	88.44
433.4	98.44
433.622	97.44
433.844	87.44
434.066	78.44
434.287	97.44
434.509	90.44
434.731	89.44
434.953	104.44
435.175	92.44
435.397	103.44
435.618	80.44
435.84	83.44
436.062	97.44
436.284	82.44
436.505	83.44
436.727	82.44
436.949	103.44
437.17	108.44
437.392	97.44
437.614	98.44
437.835	78.44
438.057	87.44
438.278	90.44
438.5	103.44
438.721	78.44
438.943	111.44
439.165	85.44
439.386	89.44
439.608	102.44
439.829	94.44
440.05	86.44
440.272	102.44
440.493	82.44
440.715	102.44
440.936	110.44
441.158	86.44
441.379	84.44
441.6	116.44
441.822	87.44
442.043	82.44
442.264	94.44
442.486	79.44
442.707	83.44
442.928	102.44
443.149	89.44
443.371	105.44
443.592	90.44
443.813	93.44
444.034	95.44
444.255	91.44
444.476	95.44
444.698	88.44
444.919	102.44
445.14	220.44
445.361	148.44
445.582	87.44
445.803	98.44
446.024	89.44
446.245	100.44
446.466	104.44
446.687	90.44
446.908	90.44
447.129	92.44
447.35	93.44
447.571	100.44
447.792	101.44
448.013	82.44
448.234	84.44
448.455	94.44
448.675	80.44
448.896	85.44
449.117	85.44
449.338	99.44
449.559	102.44
449.779	104.44
450	95.44
450.221	95.44
450.442	95.44
450.662	96.44
450.883	108.44
451.104	113.44
451.324	88.44
451.545	99.44
451.766	93.44
451.986	89.44
452.207	84.44
452.428	98.44
452.648	93.44
452.869	85.44
453.089	86.44
453.31	90.44
453.53	85.44
453.751	93.44
453.971	76.44
454.192	96.44
454.412	85.44
454.633	90.44
454.853	104.44
455.073	94.44
455.294	80.44
455.514	86.44
455.734	97.44
455.955	83.44
456.175	96.44
456.395	89.44
456.616	94.44
456.836	86.44
457.056	108.44
457.276	87.44
457.497	88.44
457.717	90.44
457.937	84.44
458.157	87.44
458.377	84.44
458.598	79.44
458.818	78.44
459.038	91.44
459.258	88.44
459.478	89.44
459.698	80.44
459.918	84.44
460.138	82.44
460.358	92.44
460.578	90.44
460.798	87.44
461.018	104.44
461.238	113.44
461.458	79.44
461.678	99.44
461.898	119.44
462.118	83.44
462.338	102.44
462.558	109.44
462.777	103.44
462.997	87.44
463.217	107.44
463.437	100.44
463.657	101.44
463.876	94.44
464.096	100.44
464.316	92.44
464.536	90.44
464.755	100.44
464.975	101.44
465.195	100.44
465.414	98.44
465.634	98.44
465.854	93.44
466.073	102.44
466.293	99.44
466.512	99.44
466.732	101.44
466.951	99.44
467.171	83.44
467.391	98.44
467.61	85.44
467.829	91.44
468.049	89.44
468.268	87.44
468.488	86.44
468.707	95.44
468.927	100.44
469.146	88.44
469.365	97.44
469.585	95.44
469.804	90.44
470.023	100.44
470.243	105.44
470.462	91.44
470.681	101.44
470.901	100.44
471.12	86.44
471.339	105.44
471.558	92.44
471.777	105.44
471.997	107.44
472.216	90.44
472.435	89.44
472.654	93.44
472.873	78.44
473.092	98.44
473.311	96.44
473.53	81.44
473.749	100.44
473.968	94.44
474.187	65.44
474.406	92.44
474.625	112.44
474.844	86.44
475.063	91.44
475.282	94.44
475.501	85.44
475.72	92.44
475.939	104.44
476.158	89.44
476.377	109.44
476.596	84.44
476.814	97.44
477.033	92.44
477.252	92.44
477.471	99.44
477.69	106.44
477.908	102.44
478.127	105.44
478.346	93.44
478.564	98.44
478.783	113.44
479.002	94.44
479.22	113.44
479.439	105.44
479.658	99.44
479.876	103.44
480.095	97.44
480.313	100.44
480.532	116.44
480.751	96.44
480.969	90.44
481.188	82.44
481.406	96.44
481.624	94.44
481.843	96.44
482.061	97.44
482.28	85.44
482.498	96.44
482.717	94.44
482.935	115.44
483.153	106.44
483.372	108.44
483.59	104.44
483.808	94.44
484.027	104.44
484.245	94.44
484.463	94.44
484.681	102.44
484.9	102.44
485.118	108.44
485.336	88.44
485.554	108.44
485.772	90.44
485.99	103.44
486.209	92.44
486.427	84.44
486.645	91.44
486.863	99.44
487.081	98.44
487.299	90.44
487.517	94.44
487.735	111.44
487.953	95.44
488.171	104.44
488.389	101.44
488.607	88.44
488.825	85.44
489.043	99.44
489.261	89.44
489.479	106.44
489.696	95.44
489.914	90.44
490.132	106.44
490.35	104.44
490.568	112.44
490.786	103.44
491.003	104.44
491.221	116.44
491.439	112.44
491.657	106.44
491.874	97.44
492.092	105.44
492.31	106.44
492.527	114.44
492.745	104.44
492.963	116.44
493.18	105.44
493.398	116.44
493.615	102.44
493.833	93.44
494.05	104.44
494.268	110.44
494.485	120.44
494.703	114.44
494.92	119.44
495.138	125.44
495.355	94.44
495.573	95.44
495.79	98.44
496.008	99.44
496.225	108.44
496.442	107.44
496.66	111.44
496.877	115.44
497.094	100.44
497.312	111.44
497.529	122.44
497.746	100.44
497.963	103.44
498.181	106.44
498.398	115.44
498.615	118.44
498.832	108.44
499.049	121.44
499.267	115.44
499.484	122.44
499.701	118.44
499.918	137.44
500.135	136.44
500.352	135.44
500.569	148.44
500.786	149.44
501.003	132.44
501.22	124.44
501.437	125.44
501.654	116.44
501.871	118.44
502.088	115.44
502.305	114.44
502.522	110.44
502.739	107.44
502.956	120.44
503.172	104.44
503.389	109.44
503.606	89.44
503.823	95.44
504.04	105.44
504.256	116.44
504.473	114.44
504.69	122.44
504.907	111.44
505.123	107.44
505.34	105.44
505.557	101.44
505.773	87.44
505.99	95.44
506.207	97.44
506.423	101.44
506.64	113.44
506.856	98.44
507.073	116.44
507.289	106.44
507.506	99.44
507.722	92.44
507.939	107.44
508.155	105.44
508.372	107.44
508.588	92.44
508.805	110.44
509.021	88.44
509.238	101.44
509.454	95.44
509.67	89.44
509.887	105.44
510.103	90.44
510.319	87.44
510.536	89.44
510.752	96.44
510.968	86.44
511.184	91.44
511.401	102.44
511.617	96.44
511.833	89.44
512.049	108.44
512.265	92.44
512.481	97.44
512.698	87.44
512.914	112.44
513.13	102.44
513.346	90.44
513.562	101.44
513.778	91.44
513.994	99.44
514.21	96.44
514.426	92.44
514.642	102.44
514.858	101.44
515.074	98.44
515.29	102.44
515.506	104.44
515.721	94.44
515.937	88.44
