Data from Location5.07152019.Energy5.Lamp.07192019.3%Agarose_HRD10591_16-05-03-629.txt Node
Date: Fri Jul 19 16:05:03 EDT 2019
User: cochatt
Spectrometer: HR+D1059
Trigger mode: 1
Integration Time (sec): 1.000000E-1
Scans to average: 1
Electric dark correction enabled: true
Nonlinearity correction enabled: false
Boxcar width: 0
XAxis mode: Wavelengths
Number of Pixels in Spectrum: 2048
>>>>>Begin Spectral Data<<<<<
223.165	-15.81
223.4	-15.81
223.635	-15.81
223.869	-17.81
224.104	-29.81
224.338	-15.81
224.573	-21.81
224.808	-8.81
225.042	-10.81
225.277	-11.81
225.511	-1.81
225.746	-7.81
225.98	14.19
226.215	24.19
226.449	23.19
226.683	30.19
226.918	21.19
227.152	29.19
227.387	39.19
227.621	43.19
227.856	34.19
228.09	39.19
228.324	59.19
228.559	51.19
228.793	55.19
229.027	58.19
229.262	63.19
229.496	65.19
229.73	74.19
229.964	77.19
230.199	70.19
230.433	78.19
230.667	81.19
230.901	88.19
231.136	76.19
231.37	81.19
231.604	78.19
231.838	78.19
232.072	81.19
232.306	87.19
232.541	71.19
232.775	80.19
233.009	84.19
233.243	83.19
233.477	86.19
233.711	89.19
233.945	89.19
234.179	80.19
234.413	67.19
234.647	83.19
234.881	81.19
235.115	73.19
235.349	99.19
235.583	77.19
235.817	72.19
236.051	75.19
236.285	69.19
236.519	90.19
236.753	81.19
236.987	82.19
237.221	87.19
237.455	82.19
237.689	90.19
237.922	92.19
238.156	77.19
238.39	89.19
238.624	80.19
238.858	97.19
239.091	80.19
239.325	78.19
239.559	74.19
239.793	82.19
240.027	90.19
240.26	81.19
240.494	92.19
240.728	90.19
240.961	89.19
241.195	89.19
241.429	76.19
241.662	74.19
241.896	74.19
242.13	92.19
242.363	68.19
242.597	64.19
242.83	85.19
243.064	68.19
243.298	68.19
243.531	81.19
243.765	85.19
243.998	66.19
244.232	85.19
244.465	84.19
244.699	74.19
244.932	80.19
245.166	89.19
245.399	82.19
245.633	86.19
245.866	78.19
246.099	97.19
246.333	78.19
246.566	95.19
246.8	84.19
247.033	73.19
247.266	59.19
247.5	68.19
247.733	65.19
247.966	75.19
248.2	95.19
248.433	81.19
248.666	80.19
248.899	75.19
249.133	76.19
249.366	83.19
249.599	68.19
249.832	89.19
250.066	97.19
250.299	87.19
250.532	93.19
250.765	74.19
250.998	74.19
251.231	78.19
251.465	80.19
251.698	76.19
251.931	87.19
252.164	70.19
252.397	72.19
252.63	92.19
252.863	88.19
253.096	85.19
253.329	90.19
253.562	80.19
253.795	88.19
254.028	88.19
254.261	89.19
254.494	92.19
254.727	90.19
254.96	92.19
255.193	84.19
255.426	86.19
255.659	82.19
255.892	80.19
256.124	97.19
256.357	91.19
256.59	84.19
256.823	93.19
257.056	85.19
257.289	84.19
257.521	87.19
257.754	85.19
257.987	87.19
258.22	82.19
258.452	89.19
258.685	73.19
258.918	83.19
259.151	73.19
259.383	89.19
259.616	86.19
259.849	76.19
260.081	78.19
260.314	86.19
260.547	88.19
260.779	84.19
261.012	89.19
261.244	73.19
261.477	87.19
261.71	76.19
261.942	93.19
262.175	75.19
262.407	81.19
262.64	89.19
262.872	86.19
263.105	91.19
263.337	87.19
263.57	92.19
263.802	96.19
264.035	77.19
264.267	70.19
264.499	81.19
264.732	103.19
264.964	72.19
265.197	84.19
265.429	89.19
265.661	84.19
265.894	90.19
266.126	89.19
266.358	76.19
266.591	72.19
266.823	77.19
267.055	73.19
267.287	85.19
267.52	92.19
267.752	86.19
267.984	92.19
268.216	87.19
268.448	94.19
268.681	88.19
268.913	90.19
269.145	88.19
269.377	88.19
269.609	92.19
269.841	89.19
270.073	85.19
270.306	85.19
270.538	80.19
270.77	97.19
271.002	98.19
271.234	84.19
271.466	76.19
271.698	85.19
271.93	89.19
272.162	80.19
272.394	87.19
272.626	93.19
272.858	79.19
273.09	92.19
273.322	94.19
273.553	95.19
273.785	91.19
274.017	81.19
274.249	83.19
274.481	93.19
274.713	92.19
274.945	81.19
275.176	94.19
275.408	80.19
275.64	95.19
275.872	96.19
276.104	93.19
276.335	92.19
276.567	70.19
276.799	68.19
277.031	89.19
277.262	89.19
277.494	93.19
277.726	88.19
277.957	80.19
278.189	84.19
278.421	94.19
278.652	76.19
278.884	68.19
279.115	75.19
279.347	83.19
279.579	90.19
279.81	96.19
280.042	89.19
280.273	84.19
280.505	92.19
280.736	96.19
280.968	82.19
281.199	92.19
281.431	77.19
281.662	101.19
281.894	87.19
282.125	92.19
282.356	92.19
282.588	72.19
282.819	84.19
283.051	86.19
283.282	85.19
283.513	93.19
283.745	90.19
283.976	82.19
284.207	80.19
284.439	85.19
284.67	107.19
284.901	74.19
285.132	86.19
285.364	96.19
285.595	81.19
285.826	97.19
286.057	81.19
286.288	82.19
286.52	84.19
286.751	84.19
286.982	77.19
287.213	91.19
287.444	91.19
287.675	96.19
287.906	93.19
288.138	101.19
288.369	84.19
288.6	88.19
288.831	92.19
289.062	88.19
289.293	83.19
289.524	84.19
289.755	82.19
289.986	78.19
290.217	96.19
290.448	86.19
290.679	89.19
290.91	96.19
291.141	73.19
291.371	91.19
291.602	99.19
291.833	91.19
292.064	76.19
292.295	73.19
292.526	80.19
292.757	79.19
292.987	95.19
293.218	91.19
293.449	94.19
293.68	84.19
293.91	104.19
294.141	97.19
294.372	98.19
294.603	86.19
294.833	74.19
295.064	74.19
295.295	102.19
295.525	85.19
295.756	103.19
295.987	102.19
296.217	88.19
296.448	100.19
296.679	79.19
296.909	81.19
297.14	97.19
297.37	98.19
297.601	89.19
297.831	90.19
298.062	87.19
298.292	86.19
298.523	82.19
298.753	83.19
298.984	100.19
299.214	90.19
299.445	94.19
299.675	94.19
299.905	98.19
300.136	88.19
300.366	89.19
300.597	90.19
300.827	111.19
301.057	97.19
301.288	91.19
301.518	78.19
301.748	97.19
301.979	79.19
302.209	81.19
302.439	75.19
302.669	99.19
302.9	89.19
303.13	83.19
303.36	95.19
303.59	85.19
303.82	90.19
304.051	111.19
304.281	101.19
304.511	92.19
304.741	94.19
304.971	91.19
305.201	91.19
305.431	86.19
305.661	84.19
305.891	86.19
306.121	90.19
306.352	101.19
306.582	77.19
306.812	77.19
307.042	88.19
307.272	92.19
307.502	86.19
307.731	92.19
307.961	97.19
308.191	74.19
308.421	98.19
308.651	84.19
308.881	79.19
309.111	75.19
309.341	92.19
309.571	103.19
309.8	98.19
310.03	85.19
310.26	83.19
310.49	78.19
310.72	93.19
310.949	102.19
311.179	85.19
311.409	104.19
311.639	91.19
311.868	100.19
312.098	94.19
312.328	101.19
312.557	95.19
312.787	96.19
313.017	93.19
313.246	108.19
313.476	93.19
313.706	87.19
313.935	96.19
314.165	101.19
314.394	89.19
314.624	82.19
314.853	90.19
315.083	91.19
315.312	93.19
315.542	81.19
315.771	85.19
316.001	96.19
316.23	84.19
316.46	96.19
316.689	75.19
316.919	94.19
317.148	86.19
317.377	84.19
317.607	81.19
317.836	85.19
318.065	88.19
318.295	99.19
318.524	84.19
318.753	93.19
318.983	90.19
319.212	87.19
319.441	83.19
319.67	78.19
319.9	93.19
320.129	82.19
320.358	78.19
320.587	73.19
320.816	85.19
321.046	92.19
321.275	100.19
321.504	92.19
321.733	93.19
321.962	92.19
322.191	87.19
322.42	105.19
322.649	86.19
322.878	86.19
323.108	102.19
323.337	97.19
323.566	81.19
323.795	91.19
324.024	85.19
324.253	90.19
324.482	93.19
324.71	90.19
324.939	85.19
325.168	86.19
325.397	84.19
325.626	99.19
325.855	94.19
326.084	83.19
326.313	95.19
326.542	85.19
326.77	97.19
326.999	85.19
327.228	92.19
327.457	89.19
327.686	94.19
327.914	99.19
328.143	91.19
328.372	103.19
328.6	87.19
328.829	99.19
329.058	78.19
329.287	85.19
329.515	85.19
329.744	95.19
329.972	110.19
330.201	97.19
330.43	92.19
330.658	89.19
330.887	99.19
331.115	96.19
331.344	91.19
331.572	90.19
331.801	85.19
332.03	89.19
332.258	100.19
332.486	88.19
332.715	94.19
332.943	96.19
333.172	90.19
333.4	95.19
333.629	102.19
333.857	93.19
334.085	92.19
334.314	84.19
334.542	93.19
334.771	94.19
334.999	103.19
335.227	116.19
335.455	93.19
335.684	99.19
335.912	84.19
336.14	100.19
336.369	96.19
336.597	96.19
336.825	85.19
337.053	81.19
337.281	101.19
337.51	85.19
337.738	91.19
337.966	93.19
338.194	94.19
338.422	94.19
338.65	102.19
338.878	96.19
339.106	101.19
339.334	100.19
339.562	97.19
339.79	79.19
340.018	91.19
340.246	92.19
340.474	97.19
340.702	89.19
340.93	103.19
341.158	105.19
341.386	104.19
341.614	96.19
341.842	94.19
342.07	81.19
342.298	84.19
342.526	86.19
342.754	89.19
342.981	86.19
343.209	93.19
343.437	85.19
343.665	109.19
343.893	92.19
344.12	101.19
344.348	87.19
344.576	106.19
344.804	101.19
345.031	91.19
345.259	92.19
345.487	93.19
345.714	90.19
345.942	85.19
346.17	95.19
346.397	92.19
346.625	99.19
346.853	102.19
347.08	96.19
347.308	103.19
347.535	96.19
347.763	97.19
347.99	77.19
348.218	95.19
348.445	93.19
348.673	92.19
348.9	85.19
349.128	86.19
349.355	97.19
349.583	102.19
349.81	91.19
350.037	98.19
350.265	87.19
350.492	93.19
350.72	89.19
350.947	94.19
351.174	87.19
351.402	84.19
351.629	82.19
351.856	90.19
352.083	78.19
352.311	90.19
352.538	85.19
352.765	92.19
352.992	87.19
353.22	92.19
353.447	84.19
353.674	89.19
353.901	86.19
354.128	101.19
354.355	100.19
354.583	104.19
354.81	97.19
355.037	94.19
355.264	106.19
355.491	92.19
355.718	90.19
355.945	97.19
356.172	103.19
356.399	90.19
356.626	88.19
356.853	79.19
357.08	92.19
357.307	83.19
357.534	95.19
357.761	76.19
357.988	86.19
358.215	102.19
358.441	89.19
358.668	85.19
358.895	96.19
359.122	86.19
359.349	92.19
359.576	96.19
359.802	79.19
360.029	87.19
360.256	99.19
360.483	81.19
360.709	75.19
360.936	88.19
361.163	97.19
361.39	93.19
361.616	81.19
361.843	88.19
362.07	91.19
362.296	81.19
362.523	87.19
362.749	85.19
362.976	83.19
363.203	97.19
363.429	75.19
363.656	84.19
363.882	79.19
364.109	95.19
364.335	92.19
364.562	101.19
364.788	94.19
365.015	109.19
365.241	87.19
365.468	102.19
365.694	71.19
365.92	99.19
366.147	87.19
366.373	86.19
366.599	87.19
366.826	82.19
367.052	81.19
367.278	102.19
367.505	106.19
367.731	94.19
367.957	81.19
368.184	93.19
368.41	84.19
368.636	103.19
368.862	101.19
369.089	88.19
369.315	88.19
369.541	89.19
369.767	68.19
369.993	82.19
370.219	97.19
370.445	93.19
370.672	88.19
370.898	77.19
371.124	88.19
371.35	79.19
371.576	82.19
371.802	101.19
372.028	85.19
372.254	73.19
372.48	90.19
372.706	84.19
372.932	94.19
373.158	93.19
373.384	90.19
373.61	70.19
373.835	94.19
374.061	88.19
374.287	97.19
374.513	90.19
374.739	91.19
374.965	84.19
375.191	98.19
375.416	91.19
375.642	88.19
375.868	86.19
376.094	91.19
376.319	95.19
376.545	97.19
376.771	83.19
376.997	93.19
377.222	92.19
377.448	97.19
377.674	82.19
377.899	109.19
378.125	83.19
378.35	103.19
378.576	82.19
378.802	84.19
379.027	84.19
379.253	94.19
379.478	96.19
379.704	104.19
379.929	93.19
380.155	95.19
380.38	88.19
380.606	78.19
380.831	100.19
381.057	84.19
381.282	95.19
381.507	73.19
381.733	78.19
381.958	80.19
382.184	92.19
382.409	88.19
382.634	88.19
382.86	94.19
383.085	98.19
383.31	90.19
383.535	89.19
383.761	93.19
383.986	95.19
384.211	85.19
384.436	94.19
384.662	84.19
384.887	96.19
385.112	81.19
385.337	97.19
385.562	96.19
385.787	85.19
386.013	92.19
386.238	80.19
386.463	88.19
386.688	96.19
386.913	97.19
387.138	96.19
387.363	94.19
387.588	110.19
387.813	80.19
388.038	95.19
388.263	95.19
388.488	104.19
388.713	104.19
388.938	88.19
389.163	78.19
389.387	104.19
389.612	97.19
389.837	98.19
390.062	108.19
390.287	92.19
390.512	90.19
390.736	102.19
390.961	91.19
391.186	91.19
391.411	92.19
391.636	100.19
391.86	92.19
392.085	91.19
392.31	92.19
392.534	93.19
392.759	103.19
392.984	97.19
393.208	95.19
393.433	98.19
393.658	106.19
393.882	111.19
394.107	88.19
394.331	105.19
394.556	116.19
394.78	100.19
395.005	92.19
395.229	89.19
395.454	87.19
395.678	103.19
395.903	97.19
396.127	98.19
396.352	95.19
396.576	95.19
396.801	102.19
397.025	94.19
397.249	85.19
397.474	97.19
397.698	91.19
397.922	75.19
398.147	79.19
398.371	80.19
398.595	87.19
398.82	98.19
399.044	96.19
399.268	93.19
399.492	93.19
399.717	97.19
399.941	106.19
400.165	96.19
400.389	97.19
400.613	101.19
400.837	95.19
401.062	95.19
401.286	101.19
401.51	93.19
401.734	95.19
401.958	106.19
402.182	83.19
402.406	103.19
402.63	95.19
402.854	95.19
403.078	91.19
403.302	96.19
403.526	107.19
403.75	109.19
403.974	98.19
404.198	105.19
404.422	89.19
404.645	104.19
404.869	86.19
405.093	98.19
405.317	108.19
405.541	85.19
405.765	103.19
405.988	104.19
406.212	105.19
406.436	99.19
406.66	103.19
406.883	94.19
407.107	97.19
407.331	105.19
407.555	109.19
407.778	97.19
408.002	92.19
408.226	110.19
408.449	99.19
408.673	115.19
408.896	101.19
409.12	104.19
409.344	88.19
409.567	113.19
409.791	89.19
410.014	92.19
410.238	85.19
410.461	92.19
410.685	86.19
410.908	74.19
411.132	94.19
411.355	94.19
411.578	94.19
411.802	97.19
412.025	101.19
412.249	97.19
412.472	106.19
412.695	97.19
412.919	88.19
413.142	89.19
413.365	95.19
413.589	82.19
413.812	96.19
414.035	90.19
414.258	96.19
414.482	89.19
414.705	96.19
414.928	88.19
415.151	109.19
415.374	94.19
415.597	88.19
415.821	82.19
416.044	96.19
416.267	94.19
416.49	96.19
416.713	80.19
416.936	90.19
417.159	101.19
417.382	100.19
417.605	86.19
417.828	99.19
418.051	90.19
418.274	89.19
418.497	107.19
418.72	100.19
418.943	98.19
419.166	108.19
419.389	99.19
419.611	105.19
419.834	102.19
420.057	92.19
420.28	91.19
420.503	91.19
420.726	83.19
420.948	88.19
421.171	96.19
421.394	92.19
421.617	106.19
421.839	97.19
422.062	93.19
422.285	83.19
422.507	91.19
422.73	89.19
422.953	96.19
423.175	97.19
423.398	89.19
423.621	92.19
423.843	86.19
424.066	87.19
424.288	96.19
424.511	99.19
424.733	98.19
424.956	98.19
425.178	87.19
425.401	79.19
425.623	89.19
425.846	104.19
426.068	103.19
426.291	97.19
426.513	90.19
426.735	97.19
426.958	74.19
427.18	78.19
427.402	98.19
427.625	93.19
427.847	90.19
428.069	104.19
428.292	93.19
428.514	89.19
428.736	98.19
428.958	100.19
429.181	93.19
429.403	93.19
429.625	104.19
429.847	92.19
430.069	83.19
430.292	87.19
430.514	101.19
430.736	82.19
430.958	89.19
431.18	92.19
431.402	102.19
431.624	83.19
431.846	84.19
432.068	96.19
432.29	94.19
432.512	82.19
432.734	83.19
432.956	99.19
433.178	102.19
433.4	101.19
433.622	85.19
433.844	86.19
434.066	110.19
434.287	91.19
434.509	89.19
434.731	85.19
434.953	87.19
435.175	83.19
435.397	92.19
435.618	92.19
435.84	81.19
436.062	84.19
436.284	93.19
436.505	92.19
436.727	93.19
436.949	89.19
437.17	91.19
437.392	73.19
437.614	88.19
437.835	76.19
438.057	92.19
438.278	88.19
438.5	94.19
438.721	88.19
438.943	107.19
439.165	89.19
439.386	98.19
439.608	93.19
439.829	100.19
440.05	90.19
440.272	82.19
440.493	99.19
440.715	90.19
440.936	95.19
441.158	95.19
441.379	93.19
441.6	86.19
441.822	98.19
442.043	117.19
442.264	92.19
442.486	86.19
442.707	94.19
442.928	91.19
443.149	99.19
443.371	90.19
443.592	90.19
443.813	95.19
444.034	83.19
444.255	84.19
444.476	94.19
444.698	92.19
444.919	101.19
445.14	234.19
445.361	148.19
445.582	100.19
445.803	101.19
446.024	90.19
446.245	96.19
446.466	99.19
446.687	97.19
446.908	97.19
447.129	91.19
447.35	96.19
447.571	105.19
447.792	93.19
448.013	93.19
448.234	89.19
448.455	93.19
448.675	102.19
448.896	97.19
449.117	94.19
449.338	88.19
449.559	105.19
449.779	105.19
450	96.19
450.221	76.19
450.442	88.19
450.662	98.19
450.883	93.19
451.104	101.19
451.324	95.19
451.545	93.19
451.766	85.19
451.986	85.19
452.207	98.19
452.428	88.19
452.648	87.19
452.869	98.19
453.089	94.19
453.31	85.19
453.53	92.19
453.751	88.19
453.971	82.19
454.192	114.19
454.412	106.19
454.633	90.19
454.853	77.19
455.073	79.19
455.294	88.19
455.514	85.19
455.734	81.19
455.955	73.19
456.175	89.19
456.395	93.19
456.616	84.19
456.836	89.19
457.056	87.19
457.276	95.19
457.497	99.19
457.717	92.19
457.937	87.19
458.157	82.19
458.377	86.19
458.598	88.19
458.818	95.19
459.038	70.19
459.258	98.19
459.478	91.19
459.698	96.19
459.918	93.19
460.138	85.19
460.358	91.19
460.578	108.19
460.798	98.19
461.018	100.19
461.238	103.19
461.458	104.19
461.678	99.19
461.898	93.19
462.118	106.19
462.338	105.19
462.558	101.19
462.777	92.19
462.997	107.19
463.217	108.19
463.437	115.19
463.657	96.19
463.876	86.19
464.096	109.19
464.316	108.19
464.536	90.19
464.755	113.19
464.975	103.19
465.195	84.19
465.414	105.19
465.634	90.19
465.854	100.19
466.073	100.19
466.293	84.19
466.512	88.19
466.732	89.19
466.951	83.19
467.171	82.19
467.391	97.19
467.61	112.19
467.829	104.19
468.049	90.19
468.268	75.19
468.488	100.19
468.707	93.19
468.927	86.19
469.146	105.19
469.365	98.19
469.585	97.19
469.804	98.19
470.023	105.19
470.243	82.19
470.462	89.19
470.681	104.19
470.901	99.19
471.12	104.19
471.339	105.19
471.558	97.19
471.777	106.19
471.997	110.19
472.216	101.19
472.435	100.19
472.654	103.19
472.873	101.19
473.092	88.19
473.311	91.19
473.53	90.19
473.749	94.19
473.968	113.19
474.187	90.19
474.406	80.19
474.625	88.19
474.844	76.19
475.063	93.19
475.282	103.19
475.501	109.19
475.72	102.19
475.939	100.19
476.158	100.19
476.377	97.19
476.596	95.19
476.814	89.19
477.033	72.19
477.252	102.19
477.471	91.19
477.69	94.19
477.908	101.19
478.127	93.19
478.346	85.19
478.564	115.19
478.783	104.19
479.002	108.19
479.22	117.19
479.439	97.19
479.658	98.19
479.876	95.19
480.095	103.19
480.313	96.19
480.532	100.19
480.751	114.19
480.969	102.19
481.188	109.19
481.406	96.19
481.624	98.19
481.843	94.19
482.061	77.19
482.28	97.19
482.498	92.19
482.717	103.19
482.935	97.19
483.153	102.19
483.372	105.19
483.59	104.19
483.808	101.19
484.027	103.19
484.245	100.19
484.463	107.19
484.681	92.19
484.9	112.19
485.118	113.19
485.336	91.19
485.554	98.19
485.772	94.19
485.99	96.19
486.209	103.19
486.427	90.19
486.645	101.19
486.863	123.19
487.081	102.19
487.299	108.19
487.517	115.19
487.735	92.19
487.953	111.19
488.171	112.19
488.389	109.19
488.607	104.19
488.825	84.19
489.043	102.19
489.261	117.19
489.479	92.19
489.696	99.19
489.914	107.19
490.132	86.19
490.35	104.19
490.568	110.19
490.786	116.19
491.003	119.19
491.221	121.19
491.439	117.19
491.657	98.19
491.874	105.19
492.092	101.19
492.31	109.19
492.527	103.19
492.745	96.19
492.963	117.19
493.18	116.19
493.398	119.19
493.615	109.19
493.833	113.19
494.05	100.19
494.268	112.19
494.485	99.19
494.703	111.19
494.92	112.19
495.138	124.19
495.355	123.19
495.573	120.19
495.79	99.19
496.008	102.19
496.225	109.19
496.442	105.19
496.66	117.19
496.877	105.19
497.094	103.19
497.312	121.19
497.529	110.19
497.746	101.19
497.963	90.19
498.181	108.19
498.398	109.19
498.615	108.19
498.832	116.19
499.049	107.19
499.267	117.19
499.484	132.19
499.701	123.19
499.918	123.19
500.135	136.19
500.352	143.19
500.569	148.19
500.786	149.19
501.003	143.19
501.22	133.19
501.437	120.19
501.654	132.19
501.871	138.19
502.088	98.19
502.305	115.19
502.522	120.19
502.739	109.19
502.956	122.19
503.172	109.19
503.389	99.19
503.606	115.19
503.823	120.19
504.04	124.19
504.256	114.19
504.473	98.19
504.69	107.19
504.907	112.19
505.123	110.19
505.34	104.19
505.557	110.19
505.773	99.19
505.99	96.19
506.207	107.19
506.423	91.19
506.64	99.19
506.856	114.19
507.073	99.19
507.289	103.19
507.506	104.19
507.722	96.19
507.939	101.19
508.155	97.19
508.372	101.19
508.588	102.19
508.805	98.19
509.021	94.19
509.238	105.19
509.454	100.19
509.67	100.19
509.887	112.19
510.103	100.19
510.319	96.19
510.536	99.19
510.752	89.19
510.968	92.19
511.184	100.19
511.401	100.19
511.617	101.19
511.833	84.19
512.049	86.19
512.265	113.19
512.481	100.19
512.698	105.19
512.914	100.19
513.13	106.19
513.346	107.19
513.562	97.19
513.778	107.19
513.994	96.19
514.21	102.19
514.426	96.19
514.642	108.19
514.858	108.19
515.074	95.19
515.29	97.19
