Data from Location5.07152019.Energy5.Lamp.07192019.3%Agarose_HRD10591_15-38-40-389.txt Node
Date: Fri Jul 19 15:38:40 EDT 2019
User: cochatt
Spectrometer: HR+D1059
Trigger mode: 1
Integration Time (sec): 1.000000E-1
Scans to average: 1
Electric dark correction enabled: true
Nonlinearity correction enabled: false
Boxcar width: 0
XAxis mode: Wavelengths
Number of Pixels in Spectrum: 2048
>>>>>Begin Spectral Data<<<<<
223.165	-16.81
223.4	-16.81
223.635	-16.81
223.869	-13.81
224.104	-18.81
224.338	-10.81
224.573	-21.81
224.808	-9.81
225.042	-3.81
225.277	-0.81
225.511	-9.81
225.746	-0.81
225.98	-1.81
226.215	7.19
226.449	25.19
226.683	15.19
226.918	23.19
227.152	38.19
227.387	38.19
227.621	48.19
227.856	31.19
228.09	53.19
228.324	49.19
228.559	61.19
228.793	53.19
229.027	48.19
229.262	61.19
229.496	55.19
229.73	67.19
229.964	70.19
230.199	49.19
230.433	64.19
230.667	87.19
230.901	79.19
231.136	66.19
231.37	75.19
231.604	85.19
231.838	84.19
232.072	87.19
232.306	81.19
232.541	72.19
232.775	82.19
233.009	81.19
233.243	81.19
233.477	83.19
233.711	88.19
233.945	98.19
234.179	82.19
234.413	78.19
234.647	88.19
234.881	73.19
235.115	83.19
235.349	88.19
235.583	86.19
235.817	77.19
236.051	88.19
236.285	79.19
236.519	79.19
236.753	78.19
236.987	86.19
237.221	75.19
237.455	79.19
237.689	87.19
237.922	65.19
238.156	86.19
238.39	73.19
238.624	82.19
238.858	90.19
239.091	77.19
239.325	84.19
239.559	77.19
239.793	65.19
240.027	65.19
240.26	66.19
240.494	75.19
240.728	73.19
240.961	73.19
241.195	75.19
241.429	66.19
241.662	71.19
241.896	75.19
242.13	82.19
242.363	57.19
242.597	74.19
242.83	66.19
243.064	65.19
243.298	69.19
243.531	61.19
243.765	73.19
243.998	73.19
244.232	67.19
244.465	78.19
244.699	73.19
244.932	83.19
245.166	77.19
245.399	89.19
245.633	78.19
245.866	80.19
246.099	74.19
246.333	68.19
246.566	71.19
246.8	79.19
247.033	82.19
247.266	77.19
247.5	74.19
247.733	81.19
247.966	79.19
248.2	77.19
248.433	75.19
248.666	79.19
248.899	85.19
249.133	76.19
249.366	68.19
249.599	71.19
249.832	74.19
250.066	69.19
250.299	78.19
250.532	71.19
250.765	83.19
250.998	87.19
251.231	83.19
251.465	95.19
251.698	84.19
251.931	73.19
252.164	74.19
252.397	91.19
252.63	74.19
252.863	86.19
253.096	72.19
253.329	79.19
253.562	83.19
253.795	81.19
254.028	78.19
254.261	70.19
254.494	81.19
254.727	82.19
254.96	71.19
255.193	95.19
255.426	74.19
255.659	86.19
255.892	80.19
256.124	74.19
256.357	76.19
256.59	87.19
256.823	66.19
257.056	65.19
257.289	80.19
257.521	80.19
257.754	87.19
257.987	69.19
258.22	79.19
258.452	82.19
258.685	80.19
258.918	90.19
259.151	89.19
259.383	78.19
259.616	76.19
259.849	85.19
260.081	90.19
260.314	62.19
260.547	76.19
260.779	88.19
261.012	86.19
261.244	81.19
261.477	90.19
261.71	86.19
261.942	74.19
262.175	83.19
262.407	76.19
262.64	87.19
262.872	73.19
263.105	70.19
263.337	92.19
263.57	80.19
263.802	78.19
264.035	81.19
264.267	85.19
264.499	80.19
264.732	84.19
264.964	82.19
265.197	86.19
265.429	85.19
265.661	88.19
265.894	75.19
266.126	72.19
266.358	75.19
266.591	84.19
266.823	85.19
267.055	75.19
267.287	75.19
267.52	70.19
267.752	73.19
267.984	77.19
268.216	78.19
268.448	88.19
268.681	73.19
268.913	73.19
269.145	74.19
269.377	79.19
269.609	76.19
269.841	86.19
270.073	78.19
270.306	74.19
270.538	94.19
270.77	76.19
271.002	77.19
271.234	90.19
271.466	82.19
271.698	90.19
271.93	71.19
272.162	94.19
272.394	81.19
272.626	73.19
272.858	91.19
273.09	80.19
273.322	88.19
273.553	80.19
273.785	91.19
274.017	104.19
274.249	95.19
274.481	77.19
274.713	74.19
274.945	89.19
275.176	78.19
275.408	78.19
275.64	84.19
275.872	89.19
276.104	73.19
276.335	89.19
276.567	82.19
276.799	88.19
277.031	86.19
277.262	79.19
277.494	85.19
277.726	87.19
277.957	80.19
278.189	76.19
278.421	86.19
278.652	83.19
278.884	82.19
279.115	79.19
279.347	88.19
279.579	87.19
279.81	81.19
280.042	83.19
280.273	93.19
280.505	78.19
280.736	81.19
280.968	74.19
281.199	79.19
281.431	91.19
281.662	77.19
281.894	81.19
282.125	88.19
282.356	70.19
282.588	79.19
282.819	72.19
283.051	84.19
283.282	82.19
283.513	84.19
283.745	87.19
283.976	78.19
284.207	78.19
284.439	88.19
284.67	89.19
284.901	78.19
285.132	85.19
285.364	89.19
285.595	78.19
285.826	81.19
286.057	84.19
286.288	86.19
286.52	93.19
286.751	70.19
286.982	92.19
287.213	73.19
287.444	70.19
287.675	69.19
287.906	92.19
288.138	80.19
288.369	93.19
288.6	88.19
288.831	79.19
289.062	82.19
289.293	95.19
289.524	85.19
289.755	81.19
289.986	78.19
290.217	78.19
290.448	83.19
290.679	70.19
290.91	75.19
291.141	68.19
291.371	81.19
291.602	89.19
291.833	88.19
292.064	77.19
292.295	73.19
292.526	87.19
292.757	69.19
292.987	94.19
293.218	76.19
293.449	90.19
293.68	81.19
293.91	76.19
294.141	76.19
294.372	81.19
294.603	69.19
294.833	86.19
295.064	82.19
295.295	77.19
295.525	89.19
295.756	91.19
295.987	93.19
296.217	82.19
296.448	80.19
296.679	89.19
296.909	78.19
297.14	81.19
297.37	80.19
297.601	82.19
297.831	82.19
298.062	81.19
298.292	92.19
298.523	86.19
298.753	86.19
298.984	69.19
299.214	93.19
299.445	79.19
299.675	74.19
299.905	85.19
300.136	74.19
300.366	90.19
300.597	86.19
300.827	84.19
301.057	90.19
301.288	90.19
301.518	85.19
301.748	88.19
301.979	89.19
302.209	91.19
302.439	100.19
302.669	90.19
302.9	85.19
303.13	83.19
303.36	73.19
303.59	75.19
303.82	80.19
304.051	83.19
304.281	74.19
304.511	83.19
304.741	94.19
304.971	81.19
305.201	90.19
305.431	86.19
305.661	93.19
305.891	71.19
306.121	74.19
306.352	79.19
306.582	80.19
306.812	72.19
307.042	82.19
307.272	87.19
307.502	78.19
307.731	88.19
307.961	81.19
308.191	80.19
308.421	78.19
308.651	96.19
308.881	82.19
309.111	93.19
309.341	86.19
309.571	77.19
309.8	80.19
310.03	85.19
310.26	74.19
310.49	86.19
310.72	81.19
310.949	70.19
311.179	75.19
311.409	81.19
311.639	94.19
311.868	89.19
312.098	75.19
312.328	86.19
312.557	84.19
312.787	78.19
313.017	89.19
313.246	93.19
313.476	78.19
313.706	79.19
313.935	96.19
314.165	73.19
314.394	81.19
314.624	72.19
314.853	84.19
315.083	82.19
315.312	81.19
315.542	84.19
315.771	97.19
316.001	95.19
316.23	77.19
316.46	91.19
316.689	76.19
316.919	86.19
317.148	88.19
317.377	81.19
317.607	101.19
317.836	85.19
318.065	93.19
318.295	67.19
318.524	75.19
318.753	73.19
318.983	79.19
319.212	81.19
319.441	82.19
319.67	94.19
319.9	85.19
320.129	89.19
320.358	89.19
320.587	81.19
320.816	78.19
321.046	103.19
321.275	87.19
321.504	68.19
321.733	73.19
321.962	80.19
322.191	90.19
322.42	82.19
322.649	93.19
322.878	78.19
323.108	88.19
323.337	71.19
323.566	83.19
323.795	84.19
324.024	74.19
324.253	83.19
324.482	66.19
324.71	81.19
324.939	92.19
325.168	93.19
325.397	81.19
325.626	90.19
325.855	78.19
326.084	74.19
326.313	95.19
326.542	81.19
326.77	87.19
326.999	95.19
327.228	93.19
327.457	69.19
327.686	82.19
327.914	76.19
328.143	79.19
328.372	92.19
328.6	87.19
328.829	77.19
329.058	82.19
329.287	79.19
329.515	85.19
329.744	98.19
329.972	69.19
330.201	85.19
330.43	75.19
330.658	77.19
330.887	87.19
331.115	79.19
331.344	81.19
331.572	79.19
331.801	83.19
332.03	83.19
332.258	86.19
332.486	92.19
332.715	72.19
332.943	90.19
333.172	81.19
333.4	75.19
333.629	81.19
333.857	84.19
334.085	93.19
334.314	75.19
334.542	81.19
334.771	94.19
334.999	89.19
335.227	81.19
335.455	85.19
335.684	87.19
335.912	93.19
336.14	74.19
336.369	75.19
336.597	78.19
336.825	90.19
337.053	71.19
337.281	81.19
337.51	80.19
337.738	77.19
337.966	81.19
338.194	83.19
338.422	88.19
338.65	95.19
338.878	99.19
339.106	83.19
339.334	84.19
339.562	67.19
339.79	91.19
340.018	77.19
340.246	84.19
340.474	78.19
340.702	70.19
340.93	89.19
341.158	85.19
341.386	90.19
341.614	82.19
341.842	79.19
342.07	83.19
342.298	86.19
342.526	89.19
342.754	91.19
342.981	88.19
343.209	73.19
343.437	79.19
343.665	87.19
343.893	89.19
344.12	69.19
344.348	79.19
344.576	73.19
344.804	85.19
345.031	98.19
345.259	67.19
345.487	95.19
345.714	81.19
345.942	85.19
346.17	85.19
346.397	87.19
346.625	82.19
346.853	79.19
347.08	86.19
347.308	87.19
347.535	94.19
347.763	98.19
347.99	90.19
348.218	81.19
348.445	88.19
348.673	75.19
348.9	79.19
349.128	83.19
349.355	81.19
349.583	69.19
349.81	72.19
350.037	86.19
350.265	82.19
350.492	80.19
350.72	85.19
350.947	68.19
351.174	67.19
351.402	76.19
351.629	64.19
351.856	70.19
352.083	74.19
352.311	94.19
352.538	72.19
352.765	85.19
352.992	88.19
353.22	84.19
353.447	79.19
353.674	84.19
353.901	78.19
354.128	94.19
354.355	87.19
354.583	91.19
354.81	89.19
355.037	86.19
355.264	79.19
355.491	83.19
355.718	74.19
355.945	90.19
356.172	89.19
356.399	89.19
356.626	78.19
356.853	73.19
357.08	67.19
357.307	79.19
357.534	79.19
357.761	79.19
357.988	79.19
358.215	91.19
358.441	72.19
358.668	85.19
358.895	86.19
359.122	74.19
359.349	81.19
359.576	84.19
359.802	82.19
360.029	70.19
360.256	77.19
360.483	79.19
360.709	94.19
360.936	80.19
361.163	71.19
361.39	74.19
361.616	69.19
361.843	85.19
362.07	73.19
362.296	81.19
362.523	90.19
362.749	86.19
362.976	76.19
363.203	88.19
363.429	83.19
363.656	89.19
363.882	79.19
364.109	99.19
364.335	95.19
364.562	78.19
364.788	74.19
365.015	70.19
365.241	88.19
365.468	75.19
365.694	81.19
365.92	89.19
366.147	76.19
366.373	82.19
366.599	85.19
366.826	80.19
367.052	71.19
367.278	95.19
367.505	91.19
367.731	89.19
367.957	78.19
368.184	84.19
368.41	90.19
368.636	93.19
368.862	80.19
369.089	74.19
369.315	81.19
369.541	89.19
369.767	100.19
369.993	97.19
370.219	76.19
370.445	76.19
370.672	85.19
370.898	86.19
371.124	91.19
371.35	84.19
371.576	90.19
371.802	79.19
372.028	91.19
372.254	88.19
372.48	73.19
372.706	81.19
372.932	79.19
373.158	67.19
373.384	86.19
373.61	92.19
373.835	85.19
374.061	72.19
374.287	82.19
374.513	80.19
374.739	74.19
374.965	75.19
375.191	87.19
375.416	82.19
375.642	82.19
375.868	73.19
376.094	83.19
376.319	84.19
376.545	80.19
376.771	96.19
376.997	77.19
377.222	87.19
377.448	97.19
377.674	81.19
377.899	85.19
378.125	71.19
378.35	80.19
378.576	64.19
378.802	98.19
379.027	77.19
379.253	85.19
379.478	91.19
379.704	72.19
379.929	79.19
380.155	75.19
380.38	91.19
380.606	94.19
380.831	76.19
381.057	83.19
381.282	82.19
381.507	73.19
381.733	88.19
381.958	83.19
382.184	75.19
382.409	86.19
382.634	86.19
382.86	75.19
383.085	80.19
383.31	99.19
383.535	85.19
383.761	79.19
383.986	85.19
384.211	74.19
384.436	83.19
384.662	75.19
384.887	81.19
385.112	74.19
385.337	74.19
385.562	85.19
385.787	85.19
386.013	82.19
386.238	86.19
386.463	83.19
386.688	78.19
386.913	74.19
387.138	88.19
387.363	79.19
387.588	85.19
387.813	78.19
388.038	87.19
388.263	91.19
388.488	78.19
388.713	82.19
388.938	77.19
389.163	90.19
389.387	81.19
389.612	69.19
389.837	83.19
390.062	88.19
390.287	94.19
390.512	79.19
390.736	89.19
390.961	79.19
391.186	90.19
391.411	81.19
391.636	75.19
391.86	77.19
392.085	87.19
392.31	83.19
392.534	102.19
392.759	81.19
392.984	92.19
393.208	75.19
393.433	89.19
393.658	93.19
393.882	70.19
394.107	89.19
394.331	95.19
394.556	80.19
394.78	94.19
395.005	77.19
395.229	82.19
395.454	85.19
395.678	88.19
395.903	94.19
396.127	97.19
396.352	81.19
396.576	94.19
396.801	85.19
397.025	92.19
397.249	86.19
397.474	90.19
397.698	82.19
397.922	82.19
398.147	97.19
398.371	92.19
398.595	73.19
398.82	85.19
399.044	84.19
399.268	91.19
399.492	76.19
399.717	91.19
399.941	85.19
400.165	74.19
400.389	87.19
400.613	80.19
400.837	86.19
401.062	83.19
401.286	87.19
401.51	88.19
401.734	99.19
401.958	93.19
402.182	81.19
402.406	88.19
402.63	90.19
402.854	88.19
403.078	95.19
403.302	89.19
403.526	87.19
403.75	86.19
403.974	64.19
404.198	81.19
404.422	80.19
404.645	88.19
404.869	80.19
405.093	81.19
405.317	90.19
405.541	89.19
405.765	93.19
405.988	84.19
406.212	91.19
406.436	86.19
406.66	77.19
406.883	70.19
407.107	75.19
407.331	85.19
407.555	79.19
407.778	100.19
408.002	81.19
408.226	84.19
408.449	88.19
408.673	84.19
408.896	84.19
409.12	82.19
409.344	83.19
409.567	84.19
409.791	99.19
410.014	81.19
410.238	91.19
410.461	77.19
410.685	90.19
410.908	86.19
411.132	96.19
411.355	84.19
411.578	83.19
411.802	92.19
412.025	91.19
412.249	82.19
412.472	84.19
412.695	87.19
412.919	93.19
413.142	90.19
413.365	85.19
413.589	84.19
413.812	79.19
414.035	88.19
414.258	76.19
414.482	94.19
414.705	88.19
414.928	99.19
415.151	95.19
415.374	89.19
415.597	89.19
415.821	104.19
416.044	96.19
416.267	90.19
416.49	93.19
416.713	86.19
416.936	93.19
417.159	102.19
417.382	82.19
417.605	85.19
417.828	97.19
418.051	91.19
418.274	93.19
418.497	90.19
418.72	85.19
418.943	94.19
419.166	96.19
419.389	77.19
419.611	91.19
419.834	90.19
420.057	79.19
420.28	93.19
420.503	102.19
420.726	83.19
420.948	95.19
421.171	100.19
421.394	97.19
421.617	90.19
421.839	84.19
422.062	82.19
422.285	100.19
422.507	98.19
422.73	90.19
422.953	93.19
423.175	93.19
423.398	90.19
423.621	91.19
423.843	78.19
424.066	78.19
424.288	96.19
424.511	87.19
424.733	90.19
424.956	101.19
425.178	99.19
425.401	94.19
425.623	101.19
425.846	92.19
426.068	95.19
426.291	103.19
426.513	78.19
426.735	106.19
426.958	86.19
427.18	93.19
427.402	88.19
427.625	78.19
427.847	80.19
428.069	94.19
428.292	90.19
428.514	95.19
428.736	87.19
428.958	90.19
429.181	80.19
429.403	100.19
429.625	89.19
429.847	90.19
430.069	89.19
430.292	94.19
430.514	79.19
430.736	87.19
430.958	91.19
431.18	97.19
431.402	88.19
431.624	93.19
431.846	84.19
432.068	82.19
432.29	80.19
432.512	97.19
432.734	97.19
432.956	98.19
433.178	88.19
433.4	86.19
433.622	98.19
433.844	102.19
434.066	95.19
434.287	97.19
434.509	75.19
434.731	80.19
434.953	79.19
435.175	90.19
435.397	89.19
435.618	74.19
435.84	96.19
436.062	66.19
436.284	95.19
436.505	100.19
436.727	90.19
436.949	97.19
437.17	80.19
437.392	78.19
437.614	95.19
437.835	66.19
438.057	99.19
438.278	83.19
438.5	97.19
438.721	82.19
438.943	93.19
439.165	73.19
439.386	90.19
439.608	82.19
439.829	85.19
440.05	100.19
440.272	103.19
440.493	86.19
440.715	84.19
440.936	98.19
441.158	99.19
441.379	85.19
441.6	89.19
441.822	90.19
442.043	101.19
442.264	98.19
442.486	85.19
442.707	79.19
442.928	101.19
443.149	97.19
443.371	103.19
443.592	101.19
443.813	73.19
444.034	103.19
444.255	99.19
444.476	98.19
444.698	92.19
444.919	91.19
445.14	204.19
445.361	149.19
445.582	111.19
445.803	89.19
446.024	83.19
446.245	75.19
446.466	88.19
446.687	100.19
446.908	88.19
447.129	104.19
447.35	118.19
447.571	88.19
447.792	95.19
448.013	82.19
448.234	96.19
448.455	100.19
448.675	96.19
448.896	83.19
449.117	87.19
449.338	98.19
449.559	99.19
449.779	94.19
450	87.19
450.221	87.19
450.442	87.19
450.662	92.19
450.883	96.19
451.104	91.19
451.324	109.19
451.545	96.19
451.766	95.19
451.986	97.19
452.207	94.19
452.428	90.19
452.648	83.19
452.869	87.19
453.089	86.19
453.31	74.19
453.53	93.19
453.751	83.19
453.971	95.19
454.192	91.19
454.412	75.19
454.633	81.19
454.853	90.19
455.073	94.19
455.294	76.19
455.514	74.19
455.734	87.19
455.955	89.19
456.175	93.19
456.395	83.19
456.616	91.19
456.836	89.19
457.056	99.19
457.276	90.19
457.497	94.19
457.717	96.19
457.937	104.19
458.157	88.19
458.377	88.19
458.598	94.19
458.818	77.19
459.038	93.19
459.258	92.19
459.478	77.19
459.698	78.19
459.918	98.19
460.138	86.19
460.358	81.19
460.578	89.19
460.798	98.19
461.018	74.19
461.238	86.19
461.458	72.19
461.678	75.19
461.898	79.19
462.118	85.19
462.338	94.19
462.558	98.19
462.777	89.19
462.997	81.19
463.217	85.19
463.437	75.19
463.657	95.19
463.876	83.19
464.096	88.19
464.316	90.19
464.536	85.19
464.755	93.19
464.975	95.19
465.195	91.19
465.414	97.19
465.634	74.19
465.854	91.19
466.073	67.19
466.293	89.19
466.512	99.19
466.732	100.19
466.951	76.19
467.171	102.19
467.391	106.19
467.61	92.19
467.829	92.19
468.049	103.19
468.268	93.19
468.488	102.19
468.707	91.19
468.927	98.19
469.146	83.19
469.365	108.19
469.585	106.19
469.804	90.19
470.023	87.19
470.243	87.19
470.462	94.19
470.681	98.19
470.901	96.19
471.12	98.19
471.339	97.19
471.558	91.19
471.777	101.19
471.997	92.19
472.216	94.19
472.435	83.19
472.654	86.19
472.873	84.19
473.092	93.19
473.311	89.19
473.53	91.19
473.749	104.19
473.968	84.19
474.187	79.19
474.406	79.19
474.625	88.19
474.844	98.19
475.063	88.19
475.282	79.19
475.501	97.19
475.72	95.19
475.939	86.19
476.158	102.19
476.377	101.19
476.596	97.19
476.814	82.19
477.033	98.19
477.252	88.19
477.471	87.19
477.69	104.19
477.908	101.19
478.127	106.19
478.346	96.19
478.564	91.19
478.783	88.19
479.002	85.19
479.22	98.19
479.439	96.19
479.658	96.19
479.876	87.19
480.095	77.19
480.313	83.19
480.532	94.19
480.751	90.19
480.969	87.19
481.188	81.19
481.406	85.19
481.624	72.19
481.843	84.19
482.061	79.19
482.28	106.19
482.498	104.19
482.717	99.19
482.935	86.19
483.153	92.19
483.372	86.19
483.59	92.19
483.808	98.19
484.027	93.19
484.245	98.19
484.463	82.19
484.681	100.19
484.9	91.19
485.118	101.19
485.336	85.19
485.554	79.19
485.772	86.19
485.99	79.19
486.209	99.19
486.427	91.19
486.645	98.19
486.863	90.19
487.081	109.19
487.299	95.19
487.517	106.19
487.735	114.19
487.953	119.19
488.171	101.19
488.389	105.19
488.607	98.19
488.825	94.19
489.043	103.19
489.261	102.19
489.479	97.19
489.696	93.19
489.914	75.19
490.132	97.19
490.35	94.19
490.568	106.19
490.786	100.19
491.003	116.19
491.221	109.19
491.439	108.19
491.657	100.19
491.874	120.19
492.092	114.19
492.31	102.19
492.527	114.19
492.745	108.19
492.963	111.19
493.18	101.19
493.398	113.19
493.615	101.19
493.833	107.19
494.05	99.19
494.268	95.19
494.485	96.19
494.703	117.19
494.92	98.19
495.138	97.19
495.355	102.19
495.573	102.19
495.79	94.19
496.008	92.19
496.225	118.19
496.442	103.19
496.66	95.19
496.877	112.19
497.094	105.19
497.312	106.19
497.529	107.19
497.746	98.19
497.963	96.19
498.181	97.19
498.398	84.19
498.615	94.19
498.832	96.19
499.049	86.19
499.267	82.19
499.484	93.19
499.701	97.19
499.918	105.19
500.135	103.19
500.352	86.19
500.569	83.19
500.786	101.19
501.003	100.19
501.22	97.19
501.437	111.19
501.654	101.19
501.871	97.19
502.088	97.19
502.305	100.19
502.522	105.19
502.739	102.19
502.956	96.19
503.172	85.19
503.389	89.19
503.606	99.19
503.823	92.19
504.04	75.19
504.256	78.19
504.473	109.19
504.69	80.19
504.907	86.19
505.123	86.19
505.34	70.19
505.557	99.19
505.773	101.19
505.99	96.19
506.207	104.19
506.423	85.19
506.64	96.19
506.856	90.19
507.073	90.19
507.289	82.19
507.506	96.19
507.722	95.19
507.939	101.19
508.155	89.19
508.372	88.19
508.588	81.19
508.805	95.19
509.021	85.19
509.238	85.19
509.454	97.19
509.67	90.19
509.887	88.19
510.103	92.19
510.319	84.19
510.536	89.19
510.752	79.19
510.968	89.19
511.184	69.19
511.401	93.19
511.617	97.19
511.833	89.19
512.049	85.19
512.265	99.19
512.481	91.19
512.698	89.19
512.914	87.19
513.13	98.19
513.346	94.19
513.562	89.19
513.778	79.19
513.994	89.19
514.21	74.19
514.426	93.19
514.642	95.19
514.858	88.19
515.074	93.19
515.29	81.19
515.506	81.19
515.721	94.19
515.937	74.19
516.153	66.19
516.369	82.19
516.585	90.19
516.801	75.19
517.016	75.19
517.232	70.19
517.448	79.19
517.664	93.19
517.879	83.19
518.095	98.19
