Data from Location5.07152019.Energy5.Lamp.07192019.3%Agarose_HRD10591_16-05-23-630.txt Node
Date: Fri Jul 19 16:05:23 EDT 2019
User: cochatt
Spectrometer: HR+D1059
Trigger mode: 1
Integration Time (sec): 1.000000E-1
Scans to average: 1
Electric dark correction enabled: true
Nonlinearity correction enabled: false
Boxcar width: 0
XAxis mode: Wavelengths
Number of Pixels in Spectrum: 2048
>>>>>Begin Spectral Data<<<<<
223.165	-6.75
223.4	-6.75
223.635	-6.75
223.869	-9.75
224.104	-12.75
224.338	-10.75
224.573	-17.75
224.808	-3.75
225.042	-18.75
225.277	-2.75
225.511	-7.75
225.746	3.25
225.98	0.25
226.215	3.25
226.449	18.25
226.683	22.25
226.918	26.25
227.152	17.25
227.387	48.25
227.621	40.25
227.856	27.25
228.09	44.25
228.324	34.25
228.559	54.25
228.793	48.25
229.027	61.25
229.262	64.25
229.496	65.25
229.73	62.25
229.964	69.25
230.199	73.25
230.433	73.25
230.667	68.25
230.901	81.25
231.136	74.25
231.37	77.25
231.604	81.25
231.838	86.25
232.072	78.25
232.306	75.25
232.541	77.25
232.775	82.25
233.009	75.25
233.243	98.25
233.477	83.25
233.711	74.25
233.945	88.25
234.179	79.25
234.413	76.25
234.647	76.25
234.881	92.25
235.115	68.25
235.349	65.25
235.583	77.25
235.817	83.25
236.051	75.25
236.285	80.25
236.519	71.25
236.753	66.25
236.987	74.25
237.221	80.25
237.455	95.25
237.689	77.25
237.922	67.25
238.156	59.25
238.39	85.25
238.624	81.25
238.858	78.25
239.091	77.25
239.325	78.25
239.559	83.25
239.793	82.25
240.027	73.25
240.26	73.25
240.494	82.25
240.728	82.25
240.961	62.25
241.195	73.25
241.429	70.25
241.662	74.25
241.896	95.25
242.13	82.25
242.363	75.25
242.597	73.25
242.83	70.25
243.064	70.25
243.298	69.25
243.531	71.25
243.765	85.25
243.998	75.25
244.232	70.25
244.465	79.25
244.699	77.25
244.932	75.25
245.166	83.25
245.399	94.25
245.633	79.25
245.866	82.25
246.099	80.25
246.333	68.25
246.566	74.25
246.8	81.25
247.033	67.25
247.266	75.25
247.5	86.25
247.733	78.25
247.966	81.25
248.2	86.25
248.433	82.25
248.666	64.25
248.899	80.25
249.133	88.25
249.366	84.25
249.599	80.25
249.832	69.25
250.066	91.25
250.299	72.25
250.532	83.25
250.765	81.25
250.998	80.25
251.231	73.25
251.465	85.25
251.698	87.25
251.931	68.25
252.164	83.25
252.397	85.25
252.63	80.25
252.863	86.25
253.096	78.25
253.329	81.25
253.562	78.25
253.795	79.25
254.028	65.25
254.261	76.25
254.494	103.25
254.727	86.25
254.96	74.25
255.193	87.25
255.426	60.25
255.659	78.25
255.892	80.25
256.124	86.25
256.357	84.25
256.59	80.25
256.823	83.25
257.056	83.25
257.289	82.25
257.521	89.25
257.754	60.25
257.987	60.25
258.22	79.25
258.452	71.25
258.685	110.25
258.918	72.25
259.151	63.25
259.383	85.25
259.616	99.25
259.849	87.25
260.081	81.25
260.314	87.25
260.547	80.25
260.779	82.25
261.012	71.25
261.244	80.25
261.477	98.25
261.71	71.25
261.942	85.25
262.175	80.25
262.407	86.25
262.64	77.25
262.872	80.25
263.105	92.25
263.337	80.25
263.57	82.25
263.802	95.25
264.035	81.25
264.267	94.25
264.499	78.25
264.732	78.25
264.964	93.25
265.197	97.25
265.429	89.25
265.661	73.25
265.894	86.25
266.126	82.25
266.358	89.25
266.591	82.25
266.823	95.25
267.055	82.25
267.287	78.25
267.52	81.25
267.752	82.25
267.984	89.25
268.216	86.25
268.448	76.25
268.681	87.25
268.913	82.25
269.145	80.25
269.377	76.25
269.609	79.25
269.841	86.25
270.073	96.25
270.306	74.25
270.538	72.25
270.77	83.25
271.002	96.25
271.234	86.25
271.466	90.25
271.698	84.25
271.93	74.25
272.162	67.25
272.394	94.25
272.626	89.25
272.858	82.25
273.09	81.25
273.322	81.25
273.553	88.25
273.785	84.25
274.017	84.25
274.249	83.25
274.481	69.25
274.713	84.25
274.945	85.25
275.176	89.25
275.408	97.25
275.64	86.25
275.872	75.25
276.104	89.25
276.335	96.25
276.567	83.25
276.799	80.25
277.031	76.25
277.262	76.25
277.494	68.25
277.726	71.25
277.957	87.25
278.189	82.25
278.421	77.25
278.652	73.25
278.884	77.25
279.115	78.25
279.347	86.25
279.579	93.25
279.81	77.25
280.042	97.25
280.273	88.25
280.505	85.25
280.736	92.25
280.968	84.25
281.199	84.25
281.431	95.25
281.662	83.25
281.894	83.25
282.125	95.25
282.356	87.25
282.588	91.25
282.819	93.25
283.051	87.25
283.282	92.25
283.513	95.25
283.745	89.25
283.976	80.25
284.207	78.25
284.439	88.25
284.67	86.25
284.901	81.25
285.132	82.25
285.364	74.25
285.595	91.25
285.826	82.25
286.057	87.25
286.288	90.25
286.52	103.25
286.751	88.25
286.982	97.25
287.213	85.25
287.444	89.25
287.675	90.25
287.906	79.25
288.138	92.25
288.369	89.25
288.6	89.25
288.831	85.25
289.062	89.25
289.293	94.25
289.524	83.25
289.755	89.25
289.986	97.25
290.217	91.25
290.448	81.25
290.679	88.25
290.91	94.25
291.141	86.25
291.371	90.25
291.602	78.25
291.833	84.25
292.064	95.25
292.295	94.25
292.526	90.25
292.757	87.25
292.987	89.25
293.218	89.25
293.449	94.25
293.68	92.25
293.91	84.25
294.141	100.25
294.372	86.25
294.603	78.25
294.833	102.25
295.064	88.25
295.295	96.25
295.525	83.25
295.756	82.25
295.987	85.25
296.217	76.25
296.448	70.25
296.679	87.25
296.909	78.25
297.14	79.25
297.37	81.25
297.601	82.25
297.831	80.25
298.062	78.25
298.292	87.25
298.523	82.25
298.753	93.25
298.984	85.25
299.214	101.25
299.445	85.25
299.675	85.25
299.905	86.25
300.136	97.25
300.366	89.25
300.597	89.25
300.827	90.25
301.057	93.25
301.288	93.25
301.518	80.25
301.748	82.25
301.979	94.25
302.209	88.25
302.439	97.25
302.669	88.25
302.9	98.25
303.13	96.25
303.36	93.25
303.59	87.25
303.82	81.25
304.051	81.25
304.281	85.25
304.511	83.25
304.741	100.25
304.971	102.25
305.201	88.25
305.431	81.25
305.661	72.25
305.891	78.25
306.121	79.25
306.352	80.25
306.582	82.25
306.812	81.25
307.042	89.25
307.272	85.25
307.502	89.25
307.731	87.25
307.961	97.25
308.191	92.25
308.421	80.25
308.651	84.25
308.881	87.25
309.111	93.25
309.341	88.25
309.571	97.25
309.8	103.25
310.03	90.25
310.26	87.25
310.49	94.25
310.72	96.25
310.949	90.25
311.179	81.25
311.409	94.25
311.639	80.25
311.868	92.25
312.098	88.25
312.328	93.25
312.557	85.25
312.787	87.25
313.017	97.25
313.246	106.25
313.476	101.25
313.706	95.25
313.935	93.25
314.165	79.25
314.394	91.25
314.624	99.25
314.853	96.25
315.083	86.25
315.312	88.25
315.542	83.25
315.771	77.25
316.001	91.25
316.23	91.25
316.46	93.25
316.689	85.25
316.919	94.25
317.148	85.25
317.377	96.25
317.607	71.25
317.836	89.25
318.065	84.25
318.295	67.25
318.524	89.25
318.753	86.25
318.983	86.25
319.212	85.25
319.441	93.25
319.67	101.25
319.9	88.25
320.129	93.25
320.358	88.25
320.587	96.25
320.816	105.25
321.046	80.25
321.275	95.25
321.504	84.25
321.733	87.25
321.962	95.25
322.191	88.25
322.42	90.25
322.649	88.25
322.878	93.25
323.108	77.25
323.337	72.25
323.566	79.25
323.795	86.25
324.024	85.25
324.253	81.25
324.482	97.25
324.71	99.25
324.939	93.25
325.168	101.25
325.397	79.25
325.626	92.25
325.855	92.25
326.084	80.25
326.313	86.25
326.542	105.25
326.77	88.25
326.999	89.25
327.228	89.25
327.457	86.25
327.686	90.25
327.914	101.25
328.143	83.25
328.372	84.25
328.6	99.25
328.829	90.25
329.058	98.25
329.287	82.25
329.515	90.25
329.744	95.25
329.972	97.25
330.201	83.25
330.43	92.25
330.658	99.25
330.887	82.25
331.115	81.25
331.344	89.25
331.572	90.25
331.801	81.25
332.03	100.25
332.258	86.25
332.486	80.25
332.715	89.25
332.943	97.25
333.172	75.25
333.4	81.25
333.629	85.25
333.857	78.25
334.085	100.25
334.314	99.25
334.542	94.25
334.771	74.25
334.999	91.25
335.227	91.25
335.455	90.25
335.684	89.25
335.912	100.25
336.14	86.25
336.369	94.25
336.597	86.25
336.825	97.25
337.053	107.25
337.281	85.25
337.51	96.25
337.738	80.25
337.966	95.25
338.194	94.25
338.422	97.25
338.65	82.25
338.878	82.25
339.106	77.25
339.334	96.25
339.562	104.25
339.79	86.25
340.018	79.25
340.246	90.25
340.474	90.25
340.702	90.25
340.93	89.25
341.158	87.25
341.386	92.25
341.614	88.25
341.842	81.25
342.07	87.25
342.298	94.25
342.526	79.25
342.754	90.25
342.981	87.25
343.209	98.25
343.437	97.25
343.665	107.25
343.893	94.25
344.12	96.25
344.348	84.25
344.576	82.25
344.804	88.25
345.031	95.25
345.259	83.25
345.487	104.25
345.714	87.25
345.942	83.25
346.17	96.25
346.397	84.25
346.625	76.25
346.853	84.25
347.08	78.25
347.308	85.25
347.535	95.25
347.763	76.25
347.99	87.25
348.218	89.25
348.445	86.25
348.673	87.25
348.9	81.25
349.128	88.25
349.355	89.25
349.583	105.25
349.81	85.25
350.037	85.25
350.265	84.25
350.492	77.25
350.72	71.25
350.947	88.25
351.174	113.25
351.402	82.25
351.629	96.25
351.856	81.25
352.083	74.25
352.311	96.25
352.538	94.25
352.765	90.25
352.992	100.25
353.22	89.25
353.447	86.25
353.674	82.25
353.901	96.25
354.128	102.25
354.355	91.25
354.583	83.25
354.81	91.25
355.037	91.25
355.264	85.25
355.491	89.25
355.718	85.25
355.945	82.25
356.172	87.25
356.399	84.25
356.626	82.25
356.853	94.25
357.08	80.25
357.307	90.25
357.534	102.25
357.761	93.25
357.988	99.25
358.215	73.25
358.441	80.25
358.668	87.25
358.895	77.25
359.122	105.25
359.349	98.25
359.576	90.25
359.802	92.25
360.029	87.25
360.256	82.25
360.483	90.25
360.709	88.25
360.936	77.25
361.163	94.25
361.39	90.25
361.616	90.25
361.843	95.25
362.07	89.25
362.296	80.25
362.523	97.25
362.749	94.25
362.976	84.25
363.203	82.25
363.429	81.25
363.656	90.25
363.882	100.25
364.109	92.25
364.335	88.25
364.562	85.25
364.788	80.25
365.015	89.25
365.241	89.25
365.468	79.25
365.694	88.25
365.92	97.25
366.147	88.25
366.373	85.25
366.599	96.25
366.826	82.25
367.052	88.25
367.278	89.25
367.505	97.25
367.731	81.25
367.957	95.25
368.184	100.25
368.41	90.25
368.636	81.25
368.862	89.25
369.089	83.25
369.315	87.25
369.541	95.25
369.767	86.25
369.993	95.25
370.219	88.25
370.445	97.25
370.672	87.25
370.898	96.25
371.124	88.25
371.35	80.25
371.576	84.25
371.802	77.25
372.028	95.25
372.254	83.25
372.48	77.25
372.706	79.25
372.932	71.25
373.158	85.25
373.384	81.25
373.61	102.25
373.835	77.25
374.061	88.25
374.287	94.25
374.513	84.25
374.739	98.25
374.965	94.25
375.191	92.25
375.416	86.25
375.642	97.25
375.868	100.25
376.094	92.25
376.319	95.25
376.545	85.25
376.771	83.25
376.997	86.25
377.222	90.25
377.448	78.25
377.674	92.25
377.899	89.25
378.125	86.25
378.35	87.25
378.576	85.25
378.802	87.25
379.027	81.25
379.253	92.25
379.478	103.25
379.704	98.25
379.929	98.25
380.155	105.25
380.38	102.25
380.606	103.25
380.831	83.25
381.057	96.25
381.282	90.25
381.507	94.25
381.733	78.25
381.958	84.25
382.184	91.25
382.409	86.25
382.634	98.25
382.86	71.25
383.085	77.25
383.31	78.25
383.535	84.25
383.761	97.25
383.986	84.25
384.211	92.25
384.436	98.25
384.662	100.25
384.887	89.25
385.112	90.25
385.337	77.25
385.562	101.25
385.787	79.25
386.013	105.25
386.238	94.25
386.463	86.25
386.688	99.25
386.913	90.25
387.138	96.25
387.363	88.25
387.588	110.25
387.813	88.25
388.038	92.25
388.263	103.25
388.488	92.25
388.713	91.25
388.938	89.25
389.163	90.25
389.387	83.25
389.612	89.25
389.837	90.25
390.062	100.25
390.287	95.25
390.512	91.25
390.736	87.25
390.961	87.25
391.186	88.25
391.411	93.25
391.636	88.25
391.86	100.25
392.085	91.25
392.31	88.25
392.534	85.25
392.759	92.25
392.984	100.25
393.208	97.25
393.433	97.25
393.658	96.25
393.882	94.25
394.107	87.25
394.331	88.25
394.556	86.25
394.78	86.25
395.005	92.25
395.229	88.25
395.454	87.25
395.678	99.25
395.903	97.25
396.127	94.25
396.352	89.25
396.576	81.25
396.801	89.25
397.025	104.25
397.249	90.25
397.474	106.25
397.698	121.25
397.922	116.25
398.147	93.25
398.371	66.25
398.595	93.25
398.82	82.25
399.044	104.25
399.268	93.25
399.492	99.25
399.717	117.25
399.941	93.25
400.165	96.25
400.389	93.25
400.613	87.25
400.837	93.25
401.062	94.25
401.286	104.25
401.51	87.25
401.734	102.25
401.958	108.25
402.182	103.25
402.406	93.25
402.63	78.25
402.854	97.25
403.078	101.25
403.302	102.25
403.526	97.25
403.75	108.25
403.974	92.25
404.198	106.25
404.422	97.25
404.645	111.25
404.869	89.25
405.093	85.25
405.317	100.25
405.541	86.25
405.765	84.25
405.988	108.25
406.212	110.25
406.436	99.25
406.66	97.25
406.883	115.25
407.107	104.25
407.331	94.25
407.555	94.25
407.778	108.25
408.002	113.25
408.226	97.25
408.449	98.25
408.673	104.25
408.896	97.25
409.12	94.25
409.344	99.25
409.567	88.25
409.791	101.25
410.014	91.25
410.238	108.25
410.461	96.25
410.685	102.25
410.908	97.25
411.132	108.25
411.355	100.25
411.578	98.25
411.802	83.25
412.025	102.25
412.249	101.25
412.472	97.25
412.695	91.25
412.919	91.25
413.142	102.25
413.365	101.25
413.589	93.25
413.812	95.25
414.035	82.25
414.258	93.25
414.482	80.25
414.705	95.25
414.928	81.25
415.151	90.25
415.374	101.25
415.597	105.25
415.821	100.25
416.044	88.25
416.267	81.25
416.49	99.25
416.713	84.25
416.936	100.25
417.159	105.25
417.382	105.25
417.605	96.25
417.828	86.25
418.051	93.25
418.274	94.25
418.497	116.25
418.72	101.25
418.943	86.25
419.166	93.25
419.389	96.25
419.611	103.25
419.834	91.25
420.057	101.25
420.28	97.25
420.503	106.25
420.726	98.25
420.948	93.25
421.171	99.25
421.394	88.25
421.617	92.25
421.839	91.25
422.062	93.25
422.285	106.25
422.507	100.25
422.73	82.25
422.953	97.25
423.175	97.25
423.398	98.25
423.621	101.25
423.843	96.25
424.066	93.25
424.288	101.25
424.511	96.25
424.733	83.25
424.956	82.25
425.178	91.25
425.401	99.25
425.623	108.25
425.846	85.25
426.068	103.25
426.291	85.25
426.513	84.25
426.735	87.25
426.958	93.25
427.18	87.25
427.402	105.25
427.625	82.25
427.847	96.25
428.069	75.25
428.292	96.25
428.514	112.25
428.736	83.25
428.958	76.25
429.181	82.25
429.403	85.25
429.625	85.25
429.847	91.25
430.069	91.25
430.292	103.25
430.514	112.25
430.736	86.25
430.958	80.25
431.18	94.25
431.402	97.25
431.624	84.25
431.846	93.25
432.068	92.25
432.29	78.25
432.512	103.25
432.734	90.25
432.956	87.25
433.178	88.25
433.4	87.25
433.622	86.25
433.844	96.25
434.066	98.25
434.287	96.25
434.509	92.25
434.731	99.25
434.953	105.25
435.175	92.25
435.397	90.25
435.618	96.25
435.84	100.25
436.062	87.25
436.284	103.25
436.505	100.25
436.727	97.25
436.949	97.25
437.17	93.25
437.392	97.25
437.614	77.25
437.835	89.25
438.057	79.25
438.278	94.25
438.5	93.25
438.721	94.25
438.943	109.25
439.165	87.25
439.386	99.25
439.608	92.25
439.829	105.25
440.05	90.25
440.272	105.25
440.493	89.25
440.715	114.25
440.936	93.25
441.158	108.25
441.379	97.25
441.6	106.25
441.822	107.25
442.043	102.25
442.264	94.25
442.486	79.25
442.707	102.25
442.928	99.25
443.149	86.25
443.371	86.25
443.592	105.25
443.813	83.25
444.034	105.25
444.255	97.25
444.476	82.25
444.698	94.25
444.919	97.25
445.14	206.25
445.361	162.25
445.582	112.25
445.803	95.25
446.024	92.25
446.245	93.25
446.466	111.25
446.687	102.25
446.908	86.25
447.129	100.25
447.35	90.25
447.571	92.25
447.792	90.25
448.013	90.25
448.234	90.25
448.455	87.25
448.675	92.25
448.896	91.25
449.117	94.25
449.338	84.25
449.559	100.25
449.779	103.25
450	82.25
450.221	86.25
450.442	89.25
450.662	94.25
450.883	82.25
451.104	91.25
451.324	89.25
451.545	102.25
451.766	88.25
451.986	82.25
452.207	101.25
452.428	84.25
452.648	96.25
452.869	89.25
453.089	100.25
453.31	88.25
453.53	80.25
453.751	92.25
453.971	97.25
454.192	97.25
454.412	97.25
454.633	89.25
454.853	83.25
455.073	76.25
455.294	85.25
455.514	100.25
455.734	94.25
455.955	89.25
456.175	100.25
456.395	79.25
456.616	96.25
456.836	96.25
457.056	96.25
457.276	93.25
457.497	96.25
457.717	90.25
457.937	79.25
458.157	90.25
458.377	92.25
458.598	85.25
458.818	96.25
459.038	98.25
459.258	85.25
459.478	99.25
459.698	96.25
459.918	104.25
460.138	94.25
460.358	94.25
460.578	89.25
460.798	102.25
461.018	95.25
461.238	97.25
461.458	91.25
461.678	98.25
461.898	109.25
462.118	91.25
462.338	89.25
462.558	99.25
462.777	100.25
462.997	101.25
463.217	91.25
463.437	102.25
463.657	91.25
463.876	88.25
464.096	96.25
464.316	113.25
464.536	105.25
464.755	94.25
464.975	103.25
465.195	93.25
465.414	94.25
465.634	97.25
465.854	83.25
466.073	81.25
466.293	83.25
466.512	95.25
466.732	75.25
466.951	100.25
467.171	103.25
467.391	98.25
467.61	100.25
467.829	94.25
468.049	85.25
468.268	87.25
468.488	87.25
468.707	95.25
468.927	93.25
469.146	105.25
469.365	86.25
469.585	101.25
469.804	94.25
470.023	100.25
470.243	100.25
470.462	95.25
470.681	102.25
470.901	87.25
471.12	94.25
471.339	89.25
471.558	94.25
471.777	78.25
471.997	91.25
472.216	110.25
472.435	89.25
472.654	85.25
472.873	102.25
473.092	96.25
473.311	97.25
473.53	112.25
473.749	106.25
473.968	91.25
474.187	96.25
474.406	81.25
474.625	90.25
474.844	94.25
475.063	87.25
475.282	111.25
475.501	98.25
475.72	97.25
475.939	115.25
476.158	103.25
476.377	103.25
476.596	96.25
476.814	76.25
477.033	98.25
477.252	106.25
477.471	89.25
477.69	84.25
477.908	108.25
478.127	116.25
478.346	103.25
478.564	108.25
478.783	94.25
479.002	89.25
479.22	114.25
479.439	100.25
479.658	97.25
479.876	84.25
480.095	82.25
480.313	113.25
480.532	99.25
480.751	120.25
480.969	104.25
481.188	102.25
481.406	112.25
481.624	87.25
481.843	102.25
482.061	93.25
482.28	105.25
482.498	97.25
482.717	80.25
482.935	90.25
483.153	98.25
483.372	94.25
483.59	111.25
483.808	102.25
484.027	94.25
484.245	94.25
484.463	98.25
484.681	120.25
484.9	96.25
485.118	103.25
485.336	103.25
485.554	96.25
485.772	101.25
485.99	92.25
486.209	105.25
486.427	95.25
486.645	97.25
486.863	105.25
487.081	102.25
487.299	100.25
487.517	92.25
487.735	98.25
487.953	114.25
488.171	119.25
488.389	110.25
488.607	101.25
488.825	108.25
489.043	99.25
489.261	103.25
489.479	117.25
489.696	104.25
489.914	96.25
490.132	110.25
490.35	102.25
490.568	101.25
490.786	96.25
491.003	109.25
491.221	119.25
491.439	107.25
491.657	101.25
491.874	108.25
492.092	112.25
492.31	97.25
492.527	104.25
492.745	115.25
492.963	112.25
493.18	87.25
493.398	114.25
493.615	104.25
493.833	106.25
494.05	111.25
494.268	108.25
494.485	117.25
494.703	119.25
494.92	120.25
495.138	99.25
495.355	110.25
495.573	116.25
495.79	114.25
496.008	98.25
496.225	111.25
496.442	118.25
496.66	103.25
496.877	116.25
497.094	105.25
497.312	113.25
497.529	106.25
497.746	112.25
497.963	113.25
498.181	108.25
498.398	113.25
498.615	88.25
498.832	110.25
499.049	112.25
499.267	119.25
499.484	129.25
499.701	138.25
499.918	133.25
500.135	158.25
500.352	163.25
500.569	160.25
500.786	163.25
501.003	153.25
501.22	132.25
501.437	139.25
501.654	125.25
501.871	127.25
502.088	117.25
502.305	108.25
502.522	113.25
502.739	122.25
502.956	120.25
503.172	113.25
503.389	99.25
503.606	124.25
503.823	113.25
504.04	106.25
504.256	111.25
504.473	101.25
504.69	108.25
504.907	103.25
505.123	98.25
505.34	102.25
505.557	89.25
505.773	104.25
505.99	101.25
506.207	93.25
506.423	105.25
506.64	103.25
506.856	100.25
507.073	103.25
507.289	86.25
507.506	110.25
507.722	101.25
507.939	103.25
508.155	113.25
508.372	105.25
508.588	114.25
508.805	99.25
509.021	114.25
509.238	104.25
509.454	94.25
509.67	108.25
509.887	105.25
510.103	95.25
510.319	114.25
510.536	97.25
510.752	87.25
510.968	93.25
511.184	95.25
511.401	95.25
511.617	101.25
511.833	124.25
512.049	104.25
512.265	110.25
512.481	98.25
512.698	114.25
512.914	108.25
513.13	105.25
513.346	98.25
513.562	103.25
513.778	104.25
513.994	99.25
514.21	106.25
514.426	95.25
514.642	111.25
514.858	118.25
515.074	87.25
515.29	93.25
515.506	96.25
515.721	100.25
