Data from Location5.07152019.Energy5.Lamp.07192019.3%Agarose_HRD10591_15-37-52-388.txt Node
Date: Fri Jul 19 15:37:52 EDT 2019
User: cochatt
Spectrometer: HR+D1059
Trigger mode: 1
Integration Time (sec): 1.000000E-1
Scans to average: 1
Electric dark correction enabled: true
Nonlinearity correction enabled: false
Boxcar width: 0
XAxis mode: Wavelengths
Number of Pixels in Spectrum: 2048
>>>>>Begin Spectral Data<<<<<
223.165	-28.69
223.4	-28.69
223.635	-28.69
223.869	-17.69
224.104	-16.69
224.338	-16.69
224.573	-21.69
224.808	-3.69
225.042	1.31
225.277	-1.69
225.511	0.31
225.746	-1.69
225.98	16.31
226.215	13.31
226.449	7.31
226.683	18.31
226.918	29.31
227.152	22.31
227.387	30.31
227.621	28.31
227.856	46.31
228.09	46.31
228.324	44.31
228.559	50.31
228.793	63.31
229.027	65.31
229.262	65.31
229.496	63.31
229.73	66.31
229.964	70.31
230.199	79.31
230.433	64.31
230.667	78.31
230.901	86.31
231.136	80.31
231.37	72.31
231.604	76.31
231.838	90.31
232.072	84.31
232.306	86.31
232.541	68.31
232.775	73.31
233.009	76.31
233.243	67.31
233.477	84.31
233.711	95.31
233.945	86.31
234.179	76.31
234.413	94.31
234.647	80.31
234.881	87.31
235.115	70.31
235.349	72.31
235.583	85.31
235.817	75.31
236.051	78.31
236.285	92.31
236.519	79.31
236.753	70.31
236.987	73.31
237.221	81.31
237.455	72.31
237.689	73.31
237.922	63.31
238.156	73.31
238.39	67.31
238.624	71.31
238.858	79.31
239.091	76.31
239.325	90.31
239.559	76.31
239.793	79.31
240.027	63.31
240.26	70.31
240.494	63.31
240.728	67.31
240.961	72.31
241.195	84.31
241.429	77.31
241.662	75.31
241.896	82.31
242.13	82.31
242.363	75.31
242.597	69.31
242.83	71.31
243.064	79.31
243.298	73.31
243.531	75.31
243.765	89.31
243.998	78.31
244.232	73.31
244.465	79.31
244.699	71.31
244.932	78.31
245.166	67.31
245.399	85.31
245.633	73.31
245.866	76.31
246.099	72.31
246.333	77.31
246.566	82.31
246.8	80.31
247.033	79.31
247.266	71.31
247.5	90.31
247.733	80.31
247.966	88.31
248.2	65.31
248.433	79.31
248.666	62.31
248.899	81.31
249.133	65.31
249.366	70.31
249.599	89.31
249.832	77.31
250.066	72.31
250.299	58.31
250.532	82.31
250.765	74.31
250.998	72.31
251.231	69.31
251.465	69.31
251.698	83.31
251.931	84.31
252.164	74.31
252.397	74.31
252.63	74.31
252.863	70.31
253.096	60.31
253.329	64.31
253.562	74.31
253.795	77.31
254.028	76.31
254.261	91.31
254.494	89.31
254.727	75.31
254.96	64.31
255.193	65.31
255.426	80.31
255.659	95.31
255.892	78.31
256.124	81.31
256.357	87.31
256.59	77.31
256.823	91.31
257.056	71.31
257.289	80.31
257.521	64.31
257.754	81.31
257.987	81.31
258.22	81.31
258.452	90.31
258.685	76.31
258.918	82.31
259.151	77.31
259.383	82.31
259.616	76.31
259.849	78.31
260.081	77.31
260.314	80.31
260.547	93.31
260.779	85.31
261.012	78.31
261.244	88.31
261.477	102.31
261.71	75.31
261.942	67.31
262.175	75.31
262.407	76.31
262.64	77.31
262.872	89.31
263.105	78.31
263.337	84.31
263.57	90.31
263.802	92.31
264.035	103.31
264.267	82.31
264.499	79.31
264.732	79.31
264.964	70.31
265.197	80.31
265.429	92.31
265.661	86.31
265.894	83.31
266.126	91.31
266.358	91.31
266.591	74.31
266.823	92.31
267.055	83.31
267.287	74.31
267.52	84.31
267.752	82.31
267.984	77.31
268.216	86.31
268.448	81.31
268.681	76.31
268.913	80.31
269.145	84.31
269.377	76.31
269.609	81.31
269.841	90.31
270.073	79.31
270.306	85.31
270.538	68.31
270.77	80.31
271.002	87.31
271.234	80.31
271.466	83.31
271.698	68.31
271.93	76.31
272.162	79.31
272.394	76.31
272.626	67.31
272.858	90.31
273.09	91.31
273.322	69.31
273.553	82.31
273.785	72.31
274.017	67.31
274.249	91.31
274.481	72.31
274.713	86.31
274.945	100.31
275.176	69.31
275.408	75.31
275.64	75.31
275.872	77.31
276.104	86.31
276.335	80.31
276.567	83.31
276.799	70.31
277.031	89.31
277.262	84.31
277.494	92.31
277.726	73.31
277.957	74.31
278.189	83.31
278.421	75.31
278.652	79.31
278.884	84.31
279.115	79.31
279.347	67.31
279.579	87.31
279.81	62.31
280.042	82.31
280.273	89.31
280.505	83.31
280.736	79.31
280.968	68.31
281.199	80.31
281.431	73.31
281.662	85.31
281.894	80.31
282.125	91.31
282.356	90.31
282.588	75.31
282.819	82.31
283.051	90.31
283.282	74.31
283.513	74.31
283.745	96.31
283.976	80.31
284.207	80.31
284.439	70.31
284.67	82.31
284.901	91.31
285.132	67.31
285.364	76.31
285.595	89.31
285.826	85.31
286.057	84.31
286.288	89.31
286.52	89.31
286.751	90.31
286.982	97.31
287.213	90.31
287.444	85.31
287.675	82.31
287.906	87.31
288.138	94.31
288.369	84.31
288.6	75.31
288.831	78.31
289.062	85.31
289.293	76.31
289.524	81.31
289.755	82.31
289.986	78.31
290.217	94.31
290.448	82.31
290.679	90.31
290.91	88.31
291.141	81.31
291.371	74.31
291.602	86.31
291.833	80.31
292.064	78.31
292.295	86.31
292.526	78.31
292.757	76.31
292.987	83.31
293.218	76.31
293.449	85.31
293.68	101.31
293.91	73.31
294.141	89.31
294.372	80.31
294.603	78.31
294.833	63.31
295.064	84.31
295.295	78.31
295.525	84.31
295.756	83.31
295.987	73.31
296.217	87.31
296.448	75.31
296.679	89.31
296.909	99.31
297.14	82.31
297.37	76.31
297.601	90.31
297.831	88.31
298.062	86.31
298.292	72.31
298.523	80.31
298.753	86.31
298.984	86.31
299.214	73.31
299.445	91.31
299.675	103.31
299.905	94.31
300.136	94.31
300.366	83.31
300.597	82.31
300.827	68.31
301.057	97.31
301.288	82.31
301.518	90.31
301.748	73.31
301.979	79.31
302.209	87.31
302.439	88.31
302.669	87.31
302.9	80.31
303.13	76.31
303.36	81.31
303.59	74.31
303.82	100.31
304.051	80.31
304.281	92.31
304.511	75.31
304.741	73.31
304.971	80.31
305.201	86.31
305.431	92.31
305.661	89.31
305.891	93.31
306.121	90.31
306.352	84.31
306.582	83.31
306.812	93.31
307.042	83.31
307.272	83.31
307.502	86.31
307.731	74.31
307.961	84.31
308.191	90.31
308.421	98.31
308.651	84.31
308.881	88.31
309.111	101.31
309.341	84.31
309.571	94.31
309.8	93.31
310.03	79.31
310.26	85.31
310.49	75.31
310.72	74.31
310.949	91.31
311.179	79.31
311.409	75.31
311.639	79.31
311.868	93.31
312.098	100.31
312.328	96.31
312.557	74.31
312.787	78.31
313.017	97.31
313.246	80.31
313.476	87.31
313.706	79.31
313.935	75.31
314.165	77.31
314.394	85.31
314.624	87.31
314.853	97.31
315.083	78.31
315.312	88.31
315.542	85.31
315.771	92.31
316.001	89.31
316.23	94.31
316.46	88.31
316.689	90.31
316.919	81.31
317.148	81.31
317.377	87.31
317.607	99.31
317.836	83.31
318.065	91.31
318.295	83.31
318.524	85.31
318.753	99.31
318.983	94.31
319.212	92.31
319.441	93.31
319.67	95.31
319.9	89.31
320.129	96.31
320.358	91.31
320.587	83.31
320.816	83.31
321.046	86.31
321.275	82.31
321.504	68.31
321.733	92.31
321.962	91.31
322.191	87.31
322.42	77.31
322.649	100.31
322.878	83.31
323.108	67.31
323.337	83.31
323.566	79.31
323.795	95.31
324.024	100.31
324.253	81.31
324.482	75.31
324.71	102.31
324.939	92.31
325.168	77.31
325.397	88.31
325.626	87.31
325.855	91.31
326.084	82.31
326.313	87.31
326.542	78.31
326.77	74.31
326.999	97.31
327.228	88.31
327.457	87.31
327.686	68.31
327.914	86.31
328.143	90.31
328.372	88.31
328.6	79.31
328.829	76.31
329.058	88.31
329.287	82.31
329.515	78.31
329.744	81.31
329.972	85.31
330.201	82.31
330.43	83.31
330.658	86.31
330.887	78.31
331.115	93.31
331.344	93.31
331.572	110.31
331.801	95.31
332.03	82.31
332.258	72.31
332.486	85.31
332.715	86.31
332.943	85.31
333.172	101.31
333.4	91.31
333.629	73.31
333.857	87.31
334.085	84.31
334.314	76.31
334.542	90.31
334.771	80.31
334.999	81.31
335.227	83.31
335.455	84.31
335.684	76.31
335.912	78.31
336.14	90.31
336.369	89.31
336.597	88.31
336.825	85.31
337.053	79.31
337.281	79.31
337.51	80.31
337.738	88.31
337.966	82.31
338.194	75.31
338.422	75.31
338.65	87.31
338.878	82.31
339.106	96.31
339.334	80.31
339.562	94.31
339.79	83.31
340.018	89.31
340.246	86.31
340.474	90.31
340.702	86.31
340.93	90.31
341.158	75.31
341.386	77.31
341.614	76.31
341.842	86.31
342.07	83.31
342.298	86.31
342.526	76.31
342.754	81.31
342.981	86.31
343.209	87.31
343.437	82.31
343.665	79.31
343.893	79.31
344.12	86.31
344.348	88.31
344.576	82.31
344.804	86.31
345.031	83.31
345.259	73.31
345.487	90.31
345.714	88.31
345.942	96.31
346.17	84.31
346.397	93.31
346.625	73.31
346.853	97.31
347.08	96.31
347.308	83.31
347.535	79.31
347.763	81.31
347.99	67.31
348.218	71.31
348.445	83.31
348.673	82.31
348.9	82.31
349.128	91.31
349.355	76.31
349.583	78.31
349.81	74.31
350.037	75.31
350.265	88.31
350.492	68.31
350.72	90.31
350.947	74.31
351.174	75.31
351.402	74.31
351.629	91.31
351.856	81.31
352.083	83.31
352.311	79.31
352.538	67.31
352.765	87.31
352.992	76.31
353.22	84.31
353.447	92.31
353.674	81.31
353.901	87.31
354.128	74.31
354.355	83.31
354.583	90.31
354.81	93.31
355.037	86.31
355.264	85.31
355.491	72.31
355.718	82.31
355.945	75.31
356.172	82.31
356.399	73.31
356.626	78.31
356.853	87.31
357.08	77.31
357.307	87.31
357.534	76.31
357.761	74.31
357.988	81.31
358.215	109.31
358.441	82.31
358.668	92.31
358.895	87.31
359.122	84.31
359.349	91.31
359.576	78.31
359.802	83.31
360.029	68.31
360.256	98.31
360.483	71.31
360.709	91.31
360.936	86.31
361.163	90.31
361.39	86.31
361.616	86.31
361.843	89.31
362.07	88.31
362.296	77.31
362.523	90.31
362.749	88.31
362.976	78.31
363.203	101.31
363.429	81.31
363.656	75.31
363.882	82.31
364.109	94.31
364.335	90.31
364.562	72.31
364.788	78.31
365.015	78.31
365.241	79.31
365.468	84.31
365.694	74.31
365.92	82.31
366.147	68.31
366.373	80.31
366.599	75.31
366.826	75.31
367.052	82.31
367.278	90.31
367.505	85.31
367.731	83.31
367.957	83.31
368.184	82.31
368.41	70.31
368.636	84.31
368.862	84.31
369.089	102.31
369.315	91.31
369.541	76.31
369.767	74.31
369.993	92.31
370.219	74.31
370.445	76.31
370.672	79.31
370.898	80.31
371.124	80.31
371.35	86.31
371.576	84.31
371.802	93.31
372.028	90.31
372.254	73.31
372.48	88.31
372.706	63.31
372.932	83.31
373.158	89.31
373.384	90.31
373.61	79.31
373.835	90.31
374.061	84.31
374.287	92.31
374.513	84.31
374.739	76.31
374.965	79.31
375.191	73.31
375.416	88.31
375.642	82.31
375.868	79.31
376.094	88.31
376.319	90.31
376.545	80.31
376.771	82.31
376.997	87.31
377.222	83.31
377.448	88.31
377.674	74.31
377.899	82.31
378.125	86.31
378.35	80.31
378.576	88.31
378.802	91.31
379.027	93.31
379.253	80.31
379.478	88.31
379.704	85.31
379.929	76.31
380.155	92.31
380.38	90.31
380.606	75.31
380.831	86.31
381.057	98.31
381.282	73.31
381.507	78.31
381.733	79.31
381.958	75.31
382.184	90.31
382.409	90.31
382.634	95.31
382.86	86.31
383.085	82.31
383.31	84.31
383.535	95.31
383.761	73.31
383.986	89.31
384.211	87.31
384.436	91.31
384.662	75.31
384.887	83.31
385.112	86.31
385.337	87.31
385.562	90.31
385.787	89.31
386.013	96.31
386.238	91.31
386.463	96.31
386.688	86.31
386.913	79.31
387.138	83.31
387.363	98.31
387.588	96.31
387.813	100.31
388.038	79.31
388.263	96.31
388.488	84.31
388.713	82.31
388.938	93.31
389.163	81.31
389.387	77.31
389.612	102.31
389.837	101.31
390.062	85.31
390.287	79.31
390.512	73.31
390.736	86.31
390.961	71.31
391.186	81.31
391.411	85.31
391.636	99.31
391.86	83.31
392.085	91.31
392.31	92.31
392.534	89.31
392.759	81.31
392.984	97.31
393.208	93.31
393.433	76.31
393.658	94.31
393.882	78.31
394.107	80.31
394.331	84.31
394.556	90.31
394.78	71.31
395.005	78.31
395.229	78.31
395.454	99.31
395.678	92.31
395.903	82.31
396.127	99.31
396.352	83.31
396.576	96.31
396.801	78.31
397.025	93.31
397.249	87.31
397.474	80.31
397.698	90.31
397.922	76.31
398.147	82.31
398.371	89.31
398.595	89.31
398.82	83.31
399.044	95.31
399.268	102.31
399.492	89.31
399.717	96.31
399.941	89.31
400.165	96.31
400.389	82.31
400.613	90.31
400.837	91.31
401.062	77.31
401.286	76.31
401.51	91.31
401.734	81.31
401.958	81.31
402.182	90.31
402.406	89.31
402.63	77.31
402.854	100.31
403.078	94.31
403.302	96.31
403.526	91.31
403.75	90.31
403.974	73.31
404.198	93.31
404.422	91.31
404.645	94.31
404.869	75.31
405.093	84.31
405.317	88.31
405.541	89.31
405.765	90.31
405.988	85.31
406.212	82.31
406.436	80.31
406.66	87.31
406.883	90.31
407.107	83.31
407.331	89.31
407.555	82.31
407.778	83.31
408.002	79.31
408.226	90.31
408.449	81.31
408.673	90.31
408.896	100.31
409.12	84.31
409.344	82.31
409.567	87.31
409.791	102.31
410.014	88.31
410.238	101.31
410.461	93.31
410.685	88.31
410.908	102.31
411.132	88.31
411.355	81.31
411.578	88.31
411.802	89.31
412.025	84.31
412.249	95.31
412.472	97.31
412.695	86.31
412.919	78.31
413.142	87.31
413.365	98.31
413.589	99.31
413.812	80.31
414.035	91.31
414.258	83.31
414.482	91.31
414.705	92.31
414.928	102.31
415.151	86.31
415.374	87.31
415.597	90.31
415.821	91.31
416.044	89.31
416.267	86.31
416.49	81.31
416.713	99.31
416.936	104.31
417.159	84.31
417.382	88.31
417.605	80.31
417.828	83.31
418.051	104.31
418.274	94.31
418.497	88.31
418.72	109.31
418.943	88.31
419.166	106.31
419.389	98.31
419.611	97.31
419.834	97.31
420.057	86.31
420.28	107.31
420.503	94.31
420.726	96.31
420.948	84.31
421.171	90.31
421.394	105.31
421.617	76.31
421.839	73.31
422.062	94.31
422.285	87.31
422.507	86.31
422.73	89.31
422.953	95.31
423.175	86.31
423.398	80.31
423.621	104.31
423.843	100.31
424.066	95.31
424.288	93.31
424.511	92.31
424.733	98.31
424.956	105.31
425.178	78.31
425.401	85.31
425.623	89.31
425.846	84.31
426.068	86.31
426.291	88.31
426.513	108.31
426.735	99.31
426.958	104.31
427.18	103.31
427.402	86.31
427.625	86.31
427.847	91.31
428.069	97.31
428.292	82.31
428.514	94.31
428.736	101.31
428.958	82.31
429.181	82.31
429.403	80.31
429.625	93.31
429.847	86.31
430.069	85.31
430.292	95.31
430.514	66.31
430.736	84.31
430.958	82.31
431.18	96.31
431.402	98.31
431.624	95.31
431.846	82.31
432.068	83.31
432.29	74.31
432.512	82.31
432.734	97.31
432.956	85.31
433.178	104.31
433.4	106.31
433.622	100.31
433.844	85.31
434.066	96.31
434.287	91.31
434.509	80.31
434.731	79.31
434.953	81.31
435.175	91.31
435.397	87.31
435.618	85.31
435.84	95.31
436.062	95.31
436.284	97.31
436.505	78.31
436.727	99.31
436.949	81.31
437.17	92.31
437.392	93.31
437.614	86.31
437.835	86.31
438.057	95.31
438.278	77.31
438.5	79.31
438.721	86.31
438.943	91.31
439.165	101.31
439.386	89.31
439.608	89.31
439.829	103.31
440.05	97.31
440.272	89.31
440.493	95.31
440.715	96.31
440.936	91.31
441.158	95.31
441.379	86.31
441.6	95.31
441.822	99.31
442.043	86.31
442.264	79.31
442.486	96.31
442.707	94.31
442.928	98.31
443.149	99.31
443.371	86.31
443.592	82.31
443.813	106.31
444.034	97.31
444.255	90.31
444.476	100.31
444.698	94.31
444.919	104.31
445.14	213.31
445.361	144.31
445.582	92.31
445.803	92.31
446.024	83.31
446.245	104.31
446.466	111.31
446.687	93.31
446.908	94.31
447.129	101.31
447.35	94.31
447.571	95.31
447.792	87.31
448.013	112.31
448.234	95.31
448.455	96.31
448.675	96.31
448.896	103.31
449.117	95.31
449.338	87.31
449.559	94.31
449.779	113.31
450	101.31
450.221	90.31
450.442	107.31
450.662	94.31
450.883	97.31
451.104	99.31
451.324	95.31
451.545	84.31
451.766	94.31
451.986	98.31
452.207	90.31
452.428	95.31
452.648	81.31
452.869	88.31
453.089	102.31
453.31	94.31
453.53	79.31
453.751	80.31
453.971	84.31
454.192	91.31
454.412	82.31
454.633	79.31
454.853	103.31
455.073	84.31
455.294	85.31
455.514	91.31
455.734	96.31
455.955	86.31
456.175	86.31
456.395	92.31
456.616	104.31
456.836	98.31
457.056	86.31
457.276	73.31
457.497	81.31
457.717	95.31
457.937	82.31
458.157	88.31
458.377	87.31
458.598	85.31
458.818	75.31
459.038	94.31
459.258	70.31
459.478	75.31
459.698	80.31
459.918	79.31
460.138	81.31
460.358	68.31
460.578	94.31
460.798	97.31
461.018	81.31
461.238	87.31
461.458	87.31
461.678	87.31
461.898	91.31
462.118	88.31
462.338	86.31
462.558	71.31
462.777	94.31
462.997	86.31
463.217	104.31
463.437	88.31
463.657	95.31
463.876	100.31
464.096	110.31
464.316	92.31
464.536	96.31
464.755	97.31
464.975	103.31
465.195	89.31
465.414	80.31
465.634	83.31
465.854	100.31
466.073	100.31
466.293	98.31
466.512	91.31
466.732	94.31
466.951	80.31
467.171	98.31
467.391	87.31
467.61	99.31
467.829	97.31
468.049	92.31
468.268	90.31
468.488	89.31
468.707	97.31
468.927	94.31
469.146	92.31
469.365	104.31
469.585	107.31
469.804	92.31
470.023	96.31
470.243	98.31
470.462	92.31
470.681	98.31
470.901	100.31
471.12	102.31
471.339	105.31
471.558	92.31
471.777	102.31
471.997	94.31
472.216	92.31
472.435	77.31
472.654	82.31
472.873	90.31
473.092	91.31
473.311	99.31
473.53	92.31
473.749	83.31
473.968	103.31
474.187	81.31
474.406	95.31
474.625	104.31
474.844	93.31
475.063	82.31
475.282	103.31
475.501	82.31
475.72	104.31
475.939	86.31
476.158	79.31
476.377	97.31
476.596	92.31
476.814	103.31
477.033	82.31
477.252	77.31
477.471	91.31
477.69	98.31
477.908	104.31
478.127	84.31
478.346	92.31
478.564	100.31
478.783	91.31
479.002	106.31
479.22	98.31
479.439	103.31
479.658	80.31
479.876	81.31
480.095	82.31
480.313	95.31
480.532	89.31
480.751	84.31
480.969	83.31
481.188	84.31
481.406	79.31
481.624	93.31
481.843	92.31
482.061	87.31
482.28	80.31
482.498	89.31
482.717	86.31
482.935	83.31
483.153	100.31
483.372	114.31
483.59	92.31
483.808	99.31
484.027	89.31
484.245	101.31
484.463	99.31
484.681	112.31
484.9	105.31
485.118	97.31
485.336	87.31
485.554	88.31
485.772	88.31
485.99	98.31
486.209	100.31
486.427	99.31
486.645	103.31
486.863	97.31
487.081	90.31
487.299	90.31
487.517	90.31
487.735	107.31
487.953	107.31
488.171	113.31
488.389	107.31
488.607	87.31
488.825	85.31
489.043	111.31
489.261	109.31
489.479	103.31
489.696	97.31
489.914	97.31
490.132	92.31
490.35	101.31
490.568	106.31
490.786	99.31
491.003	113.31
491.221	103.31
491.439	120.31
491.657	99.31
491.874	101.31
492.092	119.31
492.31	122.31
492.527	114.31
492.745	126.31
492.963	116.31
493.18	124.31
493.398	110.31
493.615	108.31
493.833	94.31
494.05	110.31
494.268	107.31
494.485	96.31
494.703	108.31
494.92	116.31
495.138	114.31
495.355	111.31
495.573	95.31
495.79	102.31
496.008	103.31
496.225	92.31
496.442	99.31
496.66	115.31
496.877	96.31
497.094	118.31
497.312	102.31
497.529	110.31
497.746	90.31
497.963	94.31
498.181	83.31
498.398	94.31
498.615	95.31
498.832	89.31
499.049	96.31
499.267	108.31
499.484	104.31
499.701	100.31
499.918	108.31
500.135	94.31
500.352	108.31
500.569	112.31
500.786	104.31
501.003	98.31
501.22	97.31
501.437	104.31
501.654	106.31
501.871	99.31
502.088	103.31
502.305	95.31
502.522	97.31
502.739	86.31
502.956	110.31
503.172	99.31
503.389	99.31
503.606	92.31
503.823	100.31
504.04	89.31
504.256	110.31
504.473	104.31
504.69	102.31
504.907	97.31
505.123	90.31
505.34	90.31
505.557	99.31
505.773	88.31
505.99	92.31
506.207	84.31
506.423	86.31
506.64	100.31
506.856	97.31
507.073	99.31
507.289	85.31
507.506	103.31
507.722	102.31
507.939	101.31
508.155	93.31
508.372	105.31
508.588	102.31
508.805	90.31
509.021	83.31
509.238	90.31
509.454	81.31
509.67	76.31
509.887	88.31
510.103	89.31
510.319	97.31
510.536	89.31
510.752	99.31
510.968	78.31
511.184	82.31
511.401	76.31
511.617	94.31
511.833	80.31
512.049	95.31
512.265	82.31
512.481	86.31
512.698	81.31
512.914	86.31
513.13	73.31
513.346	85.31
513.562	85.31
513.778	70.31
513.994	105.31
514.21	94.31
514.426	96.31
514.642	82.31
514.858	78.31
515.074	83.31
515.29	74.31
515.506	86.31
515.721	87.31
515.937	84.31
516.153	95.31
516.369	89.31
516.585	76.31
516.801	74.31
517.016	76.31
517.232	96.31
517.448	75.31
