Data from Location5.07152019.Energy5.Lamp.07192019.3%Agarose_HRD10591_15-36-40-387.txt Node
Date: Fri Jul 19 15:36:40 EDT 2019
User: cochatt
Spectrometer: HR+D1059
Trigger mode: 1
Integration Time (sec): 1.000000E-1
Scans to average: 1
Electric dark correction enabled: true
Nonlinearity correction enabled: false
Boxcar width: 0
XAxis mode: Wavelengths
Number of Pixels in Spectrum: 2048
>>>>>Begin Spectral Data<<<<<
223.165	-3.06
223.4	-3.06
223.635	-3.06
223.869	-14.06
224.104	-6.06
224.338	-16.06
224.573	-26.06
224.808	-12.06
225.042	-10.06
225.277	-7.06
225.511	-7.06
225.746	7.94
225.98	19.94
226.215	15.94
226.449	0.94
226.683	16.94
226.918	13.94
227.152	25.94
227.387	40.94
227.621	41.94
227.856	28.94
228.09	47.94
228.324	47.94
228.559	58.94
228.793	61.94
229.027	71.94
229.262	56.94
229.496	64.94
229.73	75.94
229.964	84.94
230.199	79.94
230.433	61.94
230.667	86.94
230.901	72.94
231.136	65.94
231.37	76.94
231.604	87.94
231.838	77.94
232.072	76.94
232.306	82.94
232.541	80.94
232.775	99.94
233.009	88.94
233.243	85.94
233.477	86.94
233.711	75.94
233.945	83.94
234.179	87.94
234.413	83.94
234.647	88.94
234.881	92.94
235.115	75.94
235.349	81.94
235.583	74.94
235.817	86.94
236.051	81.94
236.285	79.94
236.519	86.94
236.753	70.94
236.987	70.94
237.221	79.94
237.455	69.94
237.689	71.94
237.922	83.94
238.156	67.94
238.39	71.94
238.624	85.94
238.858	73.94
239.091	81.94
239.325	101.94
239.559	72.94
239.793	88.94
240.027	90.94
240.26	79.94
240.494	65.94
240.728	81.94
240.961	80.94
241.195	79.94
241.429	79.94
241.662	93.94
241.896	70.94
242.13	78.94
242.363	72.94
242.597	76.94
242.83	81.94
243.064	72.94
243.298	73.94
243.531	92.94
243.765	72.94
243.998	83.94
244.232	90.94
244.465	83.94
244.699	83.94
244.932	76.94
245.166	83.94
245.399	77.94
245.633	86.94
245.866	73.94
246.099	89.94
246.333	75.94
246.566	77.94
246.8	75.94
247.033	83.94
247.266	79.94
247.5	82.94
247.733	84.94
247.966	84.94
248.2	82.94
248.433	77.94
248.666	83.94
248.899	80.94
249.133	80.94
249.366	86.94
249.599	83.94
249.832	85.94
250.066	79.94
250.299	75.94
250.532	84.94
250.765	89.94
250.998	82.94
251.231	87.94
251.465	85.94
251.698	77.94
251.931	63.94
252.164	87.94
252.397	76.94
252.63	87.94
252.863	82.94
253.096	79.94
253.329	69.94
253.562	91.94
253.795	76.94
254.028	82.94
254.261	93.94
254.494	72.94
254.727	85.94
254.96	66.94
255.193	74.94
255.426	85.94
255.659	93.94
255.892	87.94
256.124	84.94
256.357	82.94
256.59	69.94
256.823	65.94
257.056	83.94
257.289	89.94
257.521	79.94
257.754	81.94
257.987	72.94
258.22	81.94
258.452	74.94
258.685	77.94
258.918	70.94
259.151	93.94
259.383	74.94
259.616	80.94
259.849	87.94
260.081	82.94
260.314	83.94
260.547	95.94
260.779	87.94
261.012	83.94
261.244	79.94
261.477	83.94
261.71	94.94
261.942	79.94
262.175	84.94
262.407	89.94
262.64	83.94
262.872	79.94
263.105	77.94
263.337	93.94
263.57	89.94
263.802	84.94
264.035	95.94
264.267	82.94
264.499	80.94
264.732	73.94
264.964	93.94
265.197	73.94
265.429	76.94
265.661	96.94
265.894	81.94
266.126	79.94
266.358	83.94
266.591	65.94
266.823	75.94
267.055	77.94
267.287	76.94
267.52	82.94
267.752	84.94
267.984	82.94
268.216	83.94
268.448	80.94
268.681	87.94
268.913	72.94
269.145	79.94
269.377	93.94
269.609	83.94
269.841	75.94
270.073	88.94
270.306	86.94
270.538	85.94
270.77	81.94
271.002	77.94
271.234	89.94
271.466	92.94
271.698	85.94
271.93	65.94
272.162	77.94
272.394	76.94
272.626	86.94
272.858	92.94
273.09	92.94
273.322	84.94
273.553	76.94
273.785	89.94
274.017	79.94
274.249	82.94
274.481	79.94
274.713	82.94
274.945	78.94
275.176	77.94
275.408	77.94
275.64	78.94
275.872	82.94
276.104	72.94
276.335	59.94
276.567	89.94
276.799	71.94
277.031	84.94
277.262	79.94
277.494	71.94
277.726	71.94
277.957	97.94
278.189	91.94
278.421	79.94
278.652	88.94
278.884	83.94
279.115	82.94
279.347	88.94
279.579	94.94
279.81	80.94
280.042	87.94
280.273	97.94
280.505	78.94
280.736	86.94
280.968	91.94
281.199	80.94
281.431	76.94
281.662	88.94
281.894	82.94
282.125	83.94
282.356	105.94
282.588	79.94
282.819	95.94
283.051	96.94
283.282	88.94
283.513	98.94
283.745	91.94
283.976	82.94
284.207	84.94
284.439	83.94
284.67	104.94
284.901	73.94
285.132	78.94
285.364	73.94
285.595	83.94
285.826	79.94
286.057	97.94
286.288	89.94
286.52	82.94
286.751	77.94
286.982	80.94
287.213	85.94
287.444	92.94
287.675	98.94
287.906	79.94
288.138	70.94
288.369	82.94
288.6	91.94
288.831	87.94
289.062	77.94
289.293	83.94
289.524	77.94
289.755	101.94
289.986	94.94
290.217	77.94
290.448	92.94
290.679	85.94
290.91	85.94
291.141	80.94
291.371	83.94
291.602	97.94
291.833	101.94
292.064	83.94
292.295	86.94
292.526	80.94
292.757	79.94
292.987	95.94
293.218	67.94
293.449	89.94
293.68	85.94
293.91	87.94
294.141	84.94
294.372	89.94
294.603	103.94
294.833	88.94
295.064	71.94
295.295	89.94
295.525	99.94
295.756	90.94
295.987	83.94
296.217	89.94
296.448	94.94
296.679	104.94
296.909	89.94
297.14	76.94
297.37	81.94
297.601	87.94
297.831	81.94
298.062	86.94
298.292	95.94
298.523	83.94
298.753	88.94
298.984	81.94
299.214	77.94
299.445	97.94
299.675	86.94
299.905	105.94
300.136	89.94
300.366	90.94
300.597	74.94
300.827	90.94
301.057	68.94
301.288	77.94
301.518	90.94
301.748	77.94
301.979	84.94
302.209	74.94
302.439	74.94
302.669	84.94
302.9	92.94
303.13	88.94
303.36	84.94
303.59	94.94
303.82	82.94
304.051	74.94
304.281	82.94
304.511	82.94
304.741	86.94
304.971	84.94
305.201	81.94
305.431	94.94
305.661	83.94
305.891	88.94
306.121	92.94
306.352	84.94
306.582	84.94
306.812	96.94
307.042	78.94
307.272	85.94
307.502	79.94
307.731	89.94
307.961	102.94
308.191	86.94
308.421	88.94
308.651	86.94
308.881	96.94
309.111	72.94
309.341	81.94
309.571	76.94
309.8	94.94
310.03	87.94
310.26	77.94
310.49	82.94
310.72	88.94
310.949	88.94
311.179	73.94
311.409	94.94
311.639	84.94
311.868	82.94
312.098	91.94
312.328	87.94
312.557	89.94
312.787	97.94
313.017	67.94
313.246	85.94
313.476	85.94
313.706	82.94
313.935	90.94
314.165	87.94
314.394	86.94
314.624	97.94
314.853	87.94
315.083	98.94
315.312	83.94
315.542	87.94
315.771	83.94
316.001	84.94
316.23	83.94
316.46	84.94
316.689	83.94
316.919	84.94
317.148	89.94
317.377	88.94
317.607	80.94
317.836	84.94
318.065	89.94
318.295	75.94
318.524	86.94
318.753	86.94
318.983	86.94
319.212	84.94
319.441	88.94
319.67	84.94
319.9	86.94
320.129	89.94
320.358	88.94
320.587	76.94
320.816	103.94
321.046	74.94
321.275	85.94
321.504	100.94
321.733	87.94
321.962	106.94
322.191	88.94
322.42	75.94
322.649	82.94
322.878	79.94
323.108	95.94
323.337	86.94
323.566	91.94
323.795	86.94
324.024	89.94
324.253	88.94
324.482	77.94
324.71	92.94
324.939	92.94
325.168	96.94
325.397	85.94
325.626	83.94
325.855	85.94
326.084	75.94
326.313	103.94
326.542	84.94
326.77	88.94
326.999	93.94
327.228	87.94
327.457	75.94
327.686	86.94
327.914	89.94
328.143	77.94
328.372	87.94
328.6	103.94
328.829	78.94
329.058	89.94
329.287	103.94
329.515	73.94
329.744	95.94
329.972	96.94
330.201	86.94
330.43	82.94
330.658	84.94
330.887	83.94
331.115	97.94
331.344	76.94
331.572	94.94
331.801	79.94
332.03	83.94
332.258	93.94
332.486	92.94
332.715	99.94
332.943	85.94
333.172	95.94
333.4	81.94
333.629	86.94
333.857	83.94
334.085	87.94
334.314	91.94
334.542	88.94
334.771	93.94
334.999	73.94
335.227	87.94
335.455	77.94
335.684	90.94
335.912	97.94
336.14	81.94
336.369	92.94
336.597	101.94
336.825	90.94
337.053	82.94
337.281	103.94
337.51	90.94
337.738	82.94
337.966	84.94
338.194	87.94
338.422	73.94
338.65	78.94
338.878	89.94
339.106	83.94
339.334	80.94
339.562	88.94
339.79	80.94
340.018	84.94
340.246	93.94
340.474	87.94
340.702	85.94
340.93	86.94
341.158	81.94
341.386	81.94
341.614	82.94
341.842	77.94
342.07	73.94
342.298	90.94
342.526	76.94
342.754	75.94
342.981	92.94
343.209	83.94
343.437	92.94
343.665	69.94
343.893	91.94
344.12	102.94
344.348	104.94
344.576	87.94
344.804	94.94
345.031	90.94
345.259	90.94
345.487	100.94
345.714	93.94
345.942	95.94
346.17	83.94
346.397	81.94
346.625	88.94
346.853	79.94
347.08	79.94
347.308	83.94
347.535	81.94
347.763	77.94
347.99	87.94
348.218	68.94
348.445	93.94
348.673	79.94
348.9	79.94
349.128	87.94
349.355	81.94
349.583	87.94
349.81	72.94
350.037	92.94
350.265	83.94
350.492	83.94
350.72	71.94
350.947	74.94
351.174	89.94
351.402	84.94
351.629	86.94
351.856	81.94
352.083	68.94
352.311	82.94
352.538	86.94
352.765	95.94
352.992	97.94
353.22	77.94
353.447	82.94
353.674	90.94
353.901	90.94
354.128	82.94
354.355	81.94
354.583	88.94
354.81	93.94
355.037	89.94
355.264	83.94
355.491	89.94
355.718	69.94
355.945	87.94
356.172	77.94
356.399	75.94
356.626	89.94
356.853	83.94
357.08	88.94
357.307	86.94
357.534	78.94
357.761	96.94
357.988	84.94
358.215	85.94
358.441	83.94
358.668	92.94
358.895	69.94
359.122	81.94
359.349	78.94
359.576	83.94
359.802	99.94
360.029	77.94
360.256	93.94
360.483	79.94
360.709	77.94
360.936	91.94
361.163	100.94
361.39	83.94
361.616	89.94
361.843	94.94
362.07	79.94
362.296	85.94
362.523	98.94
362.749	105.94
362.976	80.94
363.203	84.94
363.429	87.94
363.656	98.94
363.882	86.94
364.109	81.94
364.335	77.94
364.562	85.94
364.788	85.94
365.015	99.94
365.241	86.94
365.468	70.94
365.694	85.94
365.92	82.94
366.147	71.94
366.373	79.94
366.599	84.94
366.826	93.94
367.052	91.94
367.278	92.94
367.505	80.94
367.731	82.94
367.957	98.94
368.184	82.94
368.41	78.94
368.636	82.94
368.862	93.94
369.089	78.94
369.315	88.94
369.541	96.94
369.767	78.94
369.993	86.94
370.219	82.94
370.445	85.94
370.672	97.94
370.898	79.94
371.124	73.94
371.35	92.94
371.576	100.94
371.802	90.94
372.028	94.94
372.254	88.94
372.48	87.94
372.706	83.94
372.932	93.94
373.158	90.94
373.384	76.94
373.61	75.94
373.835	93.94
374.061	78.94
374.287	85.94
374.513	80.94
374.739	80.94
374.965	96.94
375.191	84.94
375.416	93.94
375.642	88.94
375.868	83.94
376.094	76.94
376.319	84.94
376.545	87.94
376.771	87.94
376.997	101.94
377.222	77.94
377.448	89.94
377.674	87.94
377.899	77.94
378.125	72.94
378.35	84.94
378.576	89.94
378.802	103.94
379.027	77.94
379.253	91.94
379.478	84.94
379.704	83.94
379.929	91.94
380.155	76.94
380.38	80.94
380.606	81.94
380.831	91.94
381.057	91.94
381.282	85.94
381.507	88.94
381.733	85.94
381.958	90.94
382.184	76.94
382.409	84.94
382.634	99.94
382.86	86.94
383.085	85.94
383.31	91.94
383.535	77.94
383.761	91.94
383.986	86.94
384.211	92.94
384.436	95.94
384.662	91.94
384.887	95.94
385.112	85.94
385.337	87.94
385.562	88.94
385.787	87.94
386.013	97.94
386.238	87.94
386.463	97.94
386.688	96.94
386.913	68.94
387.138	93.94
387.363	92.94
387.588	97.94
387.813	93.94
388.038	91.94
388.263	91.94
388.488	96.94
388.713	80.94
388.938	82.94
389.163	109.94
389.387	84.94
389.612	89.94
389.837	85.94
390.062	71.94
390.287	87.94
390.512	74.94
390.736	86.94
390.961	94.94
391.186	89.94
391.411	89.94
391.636	96.94
391.86	95.94
392.085	71.94
392.31	87.94
392.534	86.94
392.759	77.94
392.984	95.94
393.208	96.94
393.433	83.94
393.658	77.94
393.882	71.94
394.107	91.94
394.331	91.94
394.556	90.94
394.78	79.94
395.005	92.94
395.229	82.94
395.454	82.94
395.678	68.94
395.903	77.94
396.127	95.94
396.352	88.94
396.576	75.94
396.801	93.94
397.025	82.94
397.249	80.94
397.474	88.94
397.698	88.94
397.922	89.94
398.147	81.94
398.371	87.94
398.595	104.94
398.82	85.94
399.044	87.94
399.268	82.94
399.492	81.94
399.717	96.94
399.941	88.94
400.165	88.94
400.389	95.94
400.613	99.94
400.837	94.94
401.062	91.94
401.286	95.94
401.51	84.94
401.734	81.94
401.958	85.94
402.182	79.94
402.406	101.94
402.63	76.94
402.854	83.94
403.078	81.94
403.302	93.94
403.526	86.94
403.75	95.94
403.974	79.94
404.198	87.94
404.422	101.94
404.645	88.94
404.869	107.94
405.093	89.94
405.317	101.94
405.541	90.94
405.765	102.94
405.988	103.94
406.212	82.94
406.436	96.94
406.66	104.94
406.883	92.94
407.107	86.94
407.331	92.94
407.555	89.94
407.778	93.94
408.002	91.94
408.226	85.94
408.449	84.94
408.673	95.94
408.896	83.94
409.12	75.94
409.344	83.94
409.567	82.94
409.791	96.94
410.014	81.94
410.238	97.94
410.461	92.94
410.685	100.94
410.908	90.94
411.132	90.94
411.355	102.94
411.578	95.94
411.802	74.94
412.025	76.94
412.249	83.94
412.472	88.94
412.695	85.94
412.919	95.94
413.142	77.94
413.365	98.94
413.589	96.94
413.812	84.94
414.035	82.94
414.258	93.94
414.482	78.94
414.705	94.94
414.928	105.94
415.151	95.94
415.374	77.94
415.597	89.94
415.821	101.94
416.044	89.94
416.267	92.94
416.49	94.94
416.713	81.94
416.936	91.94
417.159	107.94
417.382	94.94
417.605	92.94
417.828	95.94
418.051	93.94
418.274	97.94
418.497	96.94
418.72	89.94
418.943	88.94
419.166	102.94
419.389	95.94
419.611	93.94
419.834	92.94
420.057	91.94
420.28	88.94
420.503	84.94
420.726	98.94
420.948	90.94
421.171	85.94
421.394	91.94
421.617	98.94
421.839	84.94
422.062	94.94
422.285	83.94
422.507	91.94
422.73	89.94
422.953	84.94
423.175	109.94
423.398	92.94
423.621	87.94
423.843	85.94
424.066	101.94
424.288	95.94
424.511	105.94
424.733	97.94
424.956	90.94
425.178	95.94
425.401	96.94
425.623	95.94
425.846	95.94
426.068	93.94
426.291	101.94
426.513	92.94
426.735	100.94
426.958	97.94
427.18	90.94
427.402	104.94
427.625	90.94
427.847	92.94
428.069	87.94
428.292	86.94
428.514	74.94
428.736	89.94
428.958	104.94
429.181	93.94
429.403	88.94
429.625	91.94
429.847	67.94
430.069	97.94
430.292	100.94
430.514	103.94
430.736	91.94
430.958	99.94
431.18	81.94
431.402	95.94
431.624	93.94
431.846	85.94
432.068	95.94
432.29	93.94
432.512	82.94
432.734	87.94
432.956	88.94
433.178	97.94
433.4	104.94
433.622	97.94
433.844	80.94
434.066	91.94
434.287	89.94
434.509	82.94
434.731	93.94
434.953	84.94
435.175	99.94
435.397	105.94
435.618	102.94
435.84	100.94
436.062	84.94
436.284	98.94
436.505	89.94
436.727	96.94
436.949	89.94
437.17	108.94
437.392	95.94
437.614	87.94
437.835	79.94
438.057	77.94
438.278	91.94
438.5	93.94
438.721	85.94
438.943	92.94
439.165	95.94
439.386	98.94
439.608	104.94
439.829	89.94
440.05	82.94
440.272	101.94
440.493	117.94
440.715	86.94
440.936	97.94
441.158	80.94
441.379	101.94
441.6	99.94
441.822	86.94
442.043	86.94
442.264	112.94
442.486	98.94
442.707	94.94
442.928	109.94
443.149	87.94
443.371	95.94
443.592	84.94
443.813	103.94
444.034	96.94
444.255	96.94
444.476	96.94
444.698	100.94
444.919	102.94
445.14	193.94
445.361	167.94
445.582	98.94
445.803	95.94
446.024	98.94
446.245	99.94
446.466	88.94
446.687	87.94
446.908	90.94
447.129	85.94
447.35	88.94
447.571	96.94
447.792	91.94
448.013	80.94
448.234	93.94
448.455	98.94
448.675	102.94
448.896	104.94
449.117	101.94
449.338	86.94
449.559	91.94
449.779	88.94
450	106.94
450.221	103.94
450.442	103.94
450.662	88.94
450.883	96.94
451.104	99.94
451.324	95.94
451.545	94.94
451.766	89.94
451.986	72.94
452.207	101.94
452.428	101.94
452.648	107.94
452.869	85.94
453.089	79.94
453.31	90.94
453.53	81.94
453.751	89.94
453.971	75.94
454.192	77.94
454.412	69.94
454.633	97.94
454.853	90.94
455.073	85.94
455.294	99.94
455.514	108.94
455.734	102.94
455.955	90.94
456.175	87.94
456.395	93.94
456.616	76.94
456.836	89.94
457.056	83.94
457.276	96.94
457.497	87.94
457.717	88.94
457.937	88.94
458.157	93.94
458.377	79.94
458.598	81.94
458.818	82.94
459.038	87.94
459.258	79.94
459.478	77.94
459.698	80.94
459.918	87.94
460.138	95.94
460.358	82.94
460.578	87.94
460.798	93.94
461.018	90.94
461.238	107.94
461.458	91.94
461.678	87.94
461.898	89.94
462.118	83.94
462.338	77.94
462.558	101.94
462.777	79.94
462.997	79.94
463.217	94.94
463.437	86.94
463.657	99.94
463.876	98.94
464.096	80.94
464.316	83.94
464.536	101.94
464.755	93.94
464.975	91.94
465.195	99.94
465.414	94.94
465.634	99.94
465.854	96.94
466.073	91.94
466.293	89.94
466.512	107.94
466.732	91.94
466.951	100.94
467.171	89.94
467.391	91.94
467.61	103.94
467.829	96.94
468.049	89.94
468.268	109.94
468.488	100.94
468.707	98.94
468.927	97.94
469.146	89.94
469.365	108.94
469.585	92.94
469.804	101.94
470.023	89.94
470.243	95.94
470.462	105.94
470.681	89.94
470.901	81.94
471.12	88.94
471.339	100.94
471.558	88.94
471.777	97.94
471.997	91.94
472.216	101.94
472.435	93.94
472.654	91.94
472.873	84.94
473.092	97.94
473.311	102.94
473.53	85.94
473.749	90.94
473.968	101.94
474.187	88.94
474.406	103.94
474.625	92.94
474.844	110.94
475.063	99.94
475.282	82.94
475.501	81.94
475.72	95.94
475.939	79.94
476.158	98.94
476.377	82.94
476.596	101.94
476.814	73.94
477.033	86.94
477.252	105.94
477.471	114.94
477.69	98.94
477.908	100.94
478.127	94.94
478.346	91.94
478.564	94.94
478.783	104.94
479.002	99.94
479.22	96.94
479.439	90.94
479.658	100.94
479.876	95.94
480.095	90.94
480.313	103.94
480.532	96.94
480.751	105.94
480.969	86.94
481.188	87.94
481.406	88.94
481.624	91.94
481.843	82.94
482.061	78.94
482.28	87.94
482.498	84.94
482.717	93.94
482.935	95.94
483.153	104.94
483.372	82.94
483.59	99.94
483.808	93.94
484.027	103.94
484.245	96.94
484.463	98.94
484.681	121.94
484.9	95.94
485.118	103.94
485.336	93.94
485.554	88.94
485.772	96.94
485.99	84.94
486.209	94.94
486.427	89.94
486.645	92.94
486.863	83.94
487.081	95.94
487.299	106.94
487.517	101.94
487.735	114.94
487.953	121.94
488.171	113.94
488.389	101.94
488.607	113.94
488.825	100.94
489.043	101.94
489.261	101.94
489.479	101.94
489.696	99.94
489.914	103.94
490.132	97.94
490.35	108.94
490.568	105.94
490.786	104.94
491.003	107.94
491.221	99.94
491.439	109.94
491.657	111.94
491.874	117.94
492.092	125.94
492.31	123.94
492.527	116.94
492.745	125.94
492.963	113.94
493.18	124.94
493.398	105.94
493.615	116.94
493.833	97.94
494.05	100.94
494.268	99.94
494.485	95.94
494.703	118.94
494.92	120.94
495.138	103.94
495.355	100.94
495.573	109.94
495.79	110.94
496.008	106.94
496.225	107.94
496.442	106.94
496.66	116.94
496.877	102.94
497.094	111.94
497.312	103.94
497.529	96.94
497.746	107.94
497.963	87.94
498.181	90.94
498.398	90.94
498.615	100.94
498.832	104.94
499.049	91.94
499.267	81.94
499.484	77.94
499.701	97.94
499.918	99.94
500.135	103.94
500.352	85.94
500.569	95.94
500.786	104.94
501.003	100.94
501.22	79.94
501.437	113.94
501.654	98.94
501.871	97.94
502.088	92.94
502.305	100.94
502.522	103.94
502.739	103.94
502.956	88.94
503.172	98.94
503.389	96.94
503.606	99.94
503.823	106.94
504.04	92.94
504.256	98.94
504.473	100.94
504.69	90.94
504.907	98.94
505.123	94.94
505.34	92.94
505.557	87.94
505.773	97.94
505.99	89.94
506.207	108.94
506.423	99.94
506.64	87.94
506.856	80.94
507.073	94.94
507.289	107.94
507.506	89.94
507.722	76.94
507.939	85.94
508.155	98.94
508.372	86.94
508.588	90.94
508.805	88.94
509.021	87.94
509.238	91.94
509.454	83.94
509.67	92.94
509.887	71.94
510.103	79.94
510.319	86.94
510.536	99.94
510.752	94.94
510.968	87.94
511.184	82.94
511.401	85.94
511.617	80.94
511.833	90.94
512.049	64.94
512.265	81.94
512.481	94.94
512.698	89.94
512.914	80.94
513.13	73.94
513.346	91.94
513.562	87.94
513.778	106.94
513.994	76.94
514.21	90.94
514.426	101.94
514.642	84.94
514.858	96.94
515.074	88.94
515.29	93.94
515.506	75.94
515.721	76.94
515.937	88.94
516.153	91.94
516.369	92.94
516.585	89.94
516.801	99.94
517.016	84.94
517.232	85.94
