Data from Location5.07152019.Energy5.Lamp.07192019.3%Agarose_HRD10591_16-04-51-630.txt Node
Date: Fri Jul 19 16:04:51 EDT 2019
User: cochatt
Spectrometer: HR+D1059
Trigger mode: 1
Integration Time (sec): 1.000000E-1
Scans to average: 1
Electric dark correction enabled: true
Nonlinearity correction enabled: false
Boxcar width: 0
XAxis mode: Wavelengths
Number of Pixels in Spectrum: 2048
>>>>>Begin Spectral Data<<<<<
223.165	-27.56
223.4	-27.56
223.635	-27.56
223.869	-23.56
224.104	-17.56
224.338	2.44
224.573	-7.56
224.808	-3.56
225.042	-9.56
225.277	-15.56
225.511	7.44
225.746	-2.56
225.98	-7.56
226.215	13.44
226.449	19.44
226.683	28.44
226.918	26.44
227.152	17.44
227.387	38.44
227.621	47.44
227.856	31.44
228.09	34.44
228.324	50.44
228.559	52.44
228.793	56.44
229.027	52.44
229.262	57.44
229.496	79.44
229.73	66.44
229.964	64.44
230.199	68.44
230.433	68.44
230.667	63.44
230.901	79.44
231.136	88.44
231.37	68.44
231.604	85.44
231.838	71.44
232.072	79.44
232.306	77.44
232.541	68.44
232.775	81.44
233.009	79.44
233.243	76.44
233.477	90.44
233.711	64.44
233.945	79.44
234.179	76.44
234.413	93.44
234.647	84.44
234.881	69.44
235.115	85.44
235.349	75.44
235.583	81.44
235.817	86.44
236.051	90.44
236.285	84.44
236.519	80.44
236.753	80.44
236.987	77.44
237.221	74.44
237.455	82.44
237.689	63.44
237.922	80.44
238.156	94.44
238.39	85.44
238.624	74.44
238.858	84.44
239.091	66.44
239.325	56.44
239.559	77.44
239.793	65.44
240.027	88.44
240.26	82.44
240.494	81.44
240.728	72.44
240.961	66.44
241.195	72.44
241.429	66.44
241.662	61.44
241.896	92.44
242.13	80.44
242.363	88.44
242.597	81.44
242.83	72.44
243.064	66.44
243.298	78.44
243.531	67.44
243.765	69.44
243.998	79.44
244.232	76.44
244.465	68.44
244.699	82.44
244.932	80.44
245.166	79.44
245.399	85.44
245.633	73.44
245.866	83.44
246.099	83.44
246.333	84.44
246.566	79.44
246.8	77.44
247.033	73.44
247.266	66.44
247.5	74.44
247.733	80.44
247.966	65.44
248.2	79.44
248.433	81.44
248.666	75.44
248.899	79.44
249.133	81.44
249.366	85.44
249.599	83.44
249.832	71.44
250.066	70.44
250.299	96.44
250.532	78.44
250.765	75.44
250.998	71.44
251.231	73.44
251.465	91.44
251.698	79.44
251.931	81.44
252.164	78.44
252.397	70.44
252.63	88.44
252.863	84.44
253.096	77.44
253.329	79.44
253.562	76.44
253.795	74.44
254.028	78.44
254.261	76.44
254.494	80.44
254.727	73.44
254.96	73.44
255.193	80.44
255.426	80.44
255.659	64.44
255.892	85.44
256.124	73.44
256.357	72.44
256.59	82.44
256.823	82.44
257.056	70.44
257.289	81.44
257.521	69.44
257.754	84.44
257.987	73.44
258.22	94.44
258.452	72.44
258.685	78.44
258.918	90.44
259.151	75.44
259.383	75.44
259.616	78.44
259.849	75.44
260.081	101.44
260.314	78.44
260.547	73.44
260.779	78.44
261.012	75.44
261.244	76.44
261.477	89.44
261.71	74.44
261.942	84.44
262.175	81.44
262.407	80.44
262.64	86.44
262.872	75.44
263.105	77.44
263.337	82.44
263.57	64.44
263.802	90.44
264.035	80.44
264.267	70.44
264.499	69.44
264.732	92.44
264.964	92.44
265.197	92.44
265.429	99.44
265.661	79.44
265.894	79.44
266.126	76.44
266.358	78.44
266.591	73.44
266.823	82.44
267.055	75.44
267.287	78.44
267.52	82.44
267.752	70.44
267.984	77.44
268.216	84.44
268.448	84.44
268.681	84.44
268.913	85.44
269.145	93.44
269.377	78.44
269.609	82.44
269.841	88.44
270.073	68.44
270.306	88.44
270.538	84.44
270.77	80.44
271.002	99.44
271.234	89.44
271.466	76.44
271.698	84.44
271.93	89.44
272.162	73.44
272.394	89.44
272.626	80.44
272.858	78.44
273.09	90.44
273.322	82.44
273.553	78.44
273.785	83.44
274.017	80.44
274.249	87.44
274.481	85.44
274.713	94.44
274.945	94.44
275.176	81.44
275.408	78.44
275.64	87.44
275.872	86.44
276.104	82.44
276.335	89.44
276.567	81.44
276.799	85.44
277.031	69.44
277.262	94.44
277.494	88.44
277.726	85.44
277.957	65.44
278.189	97.44
278.421	86.44
278.652	103.44
278.884	82.44
279.115	76.44
279.347	86.44
279.579	66.44
279.81	89.44
280.042	82.44
280.273	93.44
280.505	93.44
280.736	82.44
280.968	87.44
281.199	90.44
281.431	93.44
281.662	67.44
281.894	78.44
282.125	68.44
282.356	86.44
282.588	105.44
282.819	78.44
283.051	80.44
283.282	73.44
283.513	89.44
283.745	93.44
283.976	81.44
284.207	82.44
284.439	78.44
284.67	81.44
284.901	95.44
285.132	88.44
285.364	97.44
285.595	74.44
285.826	87.44
286.057	92.44
286.288	86.44
286.52	80.44
286.751	99.44
286.982	90.44
287.213	92.44
287.444	87.44
287.675	88.44
287.906	87.44
288.138	94.44
288.369	83.44
288.6	87.44
288.831	81.44
289.062	93.44
289.293	91.44
289.524	94.44
289.755	73.44
289.986	75.44
290.217	89.44
290.448	87.44
290.679	92.44
290.91	88.44
291.141	90.44
291.371	89.44
291.602	89.44
291.833	90.44
292.064	86.44
292.295	77.44
292.526	80.44
292.757	88.44
292.987	88.44
293.218	80.44
293.449	91.44
293.68	90.44
293.91	101.44
294.141	82.44
294.372	77.44
294.603	73.44
294.833	99.44
295.064	106.44
295.295	94.44
295.525	95.44
295.756	105.44
295.987	89.44
296.217	96.44
296.448	68.44
296.679	78.44
296.909	101.44
297.14	100.44
297.37	101.44
297.601	72.44
297.831	95.44
298.062	87.44
298.292	94.44
298.523	100.44
298.753	77.44
298.984	83.44
299.214	89.44
299.445	91.44
299.675	83.44
299.905	85.44
300.136	96.44
300.366	85.44
300.597	87.44
300.827	99.44
301.057	92.44
301.288	96.44
301.518	77.44
301.748	93.44
301.979	96.44
302.209	84.44
302.439	78.44
302.669	94.44
302.9	80.44
303.13	82.44
303.36	88.44
303.59	85.44
303.82	92.44
304.051	82.44
304.281	91.44
304.511	91.44
304.741	90.44
304.971	82.44
305.201	88.44
305.431	87.44
305.661	87.44
305.891	82.44
306.121	80.44
306.352	84.44
306.582	101.44
306.812	86.44
307.042	83.44
307.272	95.44
307.502	95.44
307.731	99.44
307.961	100.44
308.191	93.44
308.421	88.44
308.651	97.44
308.881	99.44
309.111	78.44
309.341	88.44
309.571	96.44
309.8	93.44
310.03	88.44
310.26	89.44
310.49	100.44
310.72	96.44
310.949	78.44
311.179	82.44
311.409	88.44
311.639	94.44
311.868	105.44
312.098	93.44
312.328	92.44
312.557	84.44
312.787	86.44
313.017	96.44
313.246	94.44
313.476	96.44
313.706	97.44
313.935	99.44
314.165	85.44
314.394	87.44
314.624	87.44
314.853	85.44
315.083	78.44
315.312	81.44
315.542	93.44
315.771	89.44
316.001	74.44
316.23	90.44
316.46	104.44
316.689	93.44
316.919	95.44
317.148	91.44
317.377	96.44
317.607	96.44
317.836	90.44
318.065	95.44
318.295	92.44
318.524	75.44
318.753	92.44
318.983	99.44
319.212	76.44
319.441	88.44
319.67	84.44
319.9	82.44
320.129	89.44
320.358	79.44
320.587	77.44
320.816	75.44
321.046	87.44
321.275	90.44
321.504	74.44
321.733	91.44
321.962	101.44
322.191	95.44
322.42	89.44
322.649	93.44
322.878	85.44
323.108	83.44
323.337	93.44
323.566	91.44
323.795	88.44
324.024	97.44
324.253	90.44
324.482	94.44
324.71	78.44
324.939	93.44
325.168	87.44
325.397	86.44
325.626	96.44
325.855	97.44
326.084	95.44
326.313	95.44
326.542	86.44
326.77	97.44
326.999	94.44
327.228	88.44
327.457	92.44
327.686	101.44
327.914	92.44
328.143	101.44
328.372	98.44
328.6	83.44
328.829	84.44
329.058	95.44
329.287	92.44
329.515	89.44
329.744	86.44
329.972	83.44
330.201	86.44
330.43	101.44
330.658	83.44
330.887	101.44
331.115	86.44
331.344	93.44
331.572	97.44
331.801	82.44
332.03	87.44
332.258	86.44
332.486	69.44
332.715	94.44
332.943	103.44
333.172	88.44
333.4	104.44
333.629	95.44
333.857	99.44
334.085	95.44
334.314	91.44
334.542	90.44
334.771	88.44
334.999	92.44
335.227	102.44
335.455	98.44
335.684	88.44
335.912	94.44
336.14	103.44
336.369	91.44
336.597	92.44
336.825	87.44
337.053	96.44
337.281	91.44
337.51	96.44
337.738	83.44
337.966	92.44
338.194	88.44
338.422	82.44
338.65	84.44
338.878	82.44
339.106	92.44
339.334	104.44
339.562	77.44
339.79	87.44
340.018	93.44
340.246	95.44
340.474	91.44
340.702	90.44
340.93	82.44
341.158	90.44
341.386	75.44
341.614	95.44
341.842	81.44
342.07	83.44
342.298	86.44
342.526	99.44
342.754	101.44
342.981	81.44
343.209	98.44
343.437	74.44
343.665	85.44
343.893	96.44
344.12	97.44
344.348	79.44
344.576	97.44
344.804	78.44
345.031	84.44
345.259	96.44
345.487	84.44
345.714	84.44
345.942	79.44
346.17	81.44
346.397	86.44
346.625	100.44
346.853	80.44
347.08	96.44
347.308	97.44
347.535	87.44
347.763	81.44
347.99	90.44
348.218	85.44
348.445	86.44
348.673	76.44
348.9	94.44
349.128	102.44
349.355	97.44
349.583	94.44
349.81	93.44
350.037	81.44
350.265	83.44
350.492	83.44
350.72	96.44
350.947	89.44
351.174	87.44
351.402	90.44
351.629	90.44
351.856	81.44
352.083	76.44
352.311	71.44
352.538	92.44
352.765	82.44
352.992	90.44
353.22	90.44
353.447	95.44
353.674	79.44
353.901	83.44
354.128	81.44
354.355	90.44
354.583	80.44
354.81	83.44
355.037	98.44
355.264	88.44
355.491	94.44
355.718	89.44
355.945	97.44
356.172	93.44
356.399	84.44
356.626	87.44
356.853	95.44
357.08	87.44
357.307	92.44
357.534	89.44
357.761	92.44
357.988	85.44
358.215	96.44
358.441	98.44
358.668	75.44
358.895	96.44
359.122	90.44
359.349	74.44
359.576	101.44
359.802	83.44
360.029	85.44
360.256	87.44
360.483	96.44
360.709	98.44
360.936	91.44
361.163	98.44
361.39	94.44
361.616	83.44
361.843	82.44
362.07	84.44
362.296	83.44
362.523	90.44
362.749	96.44
362.976	87.44
363.203	74.44
363.429	88.44
363.656	83.44
363.882	95.44
364.109	92.44
364.335	89.44
364.562	95.44
364.788	87.44
365.015	74.44
365.241	99.44
365.468	88.44
365.694	81.44
365.92	90.44
366.147	92.44
366.373	94.44
366.599	92.44
366.826	84.44
367.052	86.44
367.278	88.44
367.505	89.44
367.731	80.44
367.957	99.44
368.184	93.44
368.41	100.44
368.636	86.44
368.862	100.44
369.089	97.44
369.315	92.44
369.541	89.44
369.767	93.44
369.993	90.44
370.219	86.44
370.445	98.44
370.672	101.44
370.898	85.44
371.124	71.44
371.35	96.44
371.576	84.44
371.802	83.44
372.028	83.44
372.254	77.44
372.48	85.44
372.706	89.44
372.932	104.44
373.158	81.44
373.384	80.44
373.61	81.44
373.835	93.44
374.061	76.44
374.287	94.44
374.513	87.44
374.739	93.44
374.965	79.44
375.191	95.44
375.416	85.44
375.642	92.44
375.868	95.44
376.094	84.44
376.319	96.44
376.545	85.44
376.771	96.44
376.997	88.44
377.222	86.44
377.448	112.44
377.674	93.44
377.899	95.44
378.125	95.44
378.35	87.44
378.576	91.44
378.802	92.44
379.027	95.44
379.253	92.44
379.478	89.44
379.704	94.44
379.929	97.44
380.155	83.44
380.38	87.44
380.606	101.44
380.831	77.44
381.057	94.44
381.282	70.44
381.507	93.44
381.733	104.44
381.958	89.44
382.184	87.44
382.409	87.44
382.634	84.44
382.86	96.44
383.085	99.44
383.31	92.44
383.535	95.44
383.761	88.44
383.986	77.44
384.211	94.44
384.436	98.44
384.662	95.44
384.887	94.44
385.112	88.44
385.337	104.44
385.562	87.44
385.787	99.44
386.013	100.44
386.238	102.44
386.463	92.44
386.688	71.44
386.913	89.44
387.138	85.44
387.363	87.44
387.588	101.44
387.813	89.44
388.038	86.44
388.263	90.44
388.488	95.44
388.713	86.44
388.938	106.44
389.163	87.44
389.387	84.44
389.612	103.44
389.837	88.44
390.062	88.44
390.287	93.44
390.512	89.44
390.736	72.44
390.961	95.44
391.186	85.44
391.411	85.44
391.636	96.44
391.86	88.44
392.085	80.44
392.31	101.44
392.534	94.44
392.759	92.44
392.984	100.44
393.208	97.44
393.433	94.44
393.658	93.44
393.882	79.44
394.107	92.44
394.331	87.44
394.556	83.44
394.78	89.44
395.005	94.44
395.229	96.44
395.454	99.44
395.678	91.44
395.903	95.44
396.127	88.44
396.352	94.44
396.576	93.44
396.801	96.44
397.025	80.44
397.249	89.44
397.474	83.44
397.698	92.44
397.922	95.44
398.147	86.44
398.371	83.44
398.595	86.44
398.82	87.44
399.044	97.44
399.268	99.44
399.492	87.44
399.717	103.44
399.941	106.44
400.165	98.44
400.389	105.44
400.613	99.44
400.837	98.44
401.062	89.44
401.286	89.44
401.51	101.44
401.734	87.44
401.958	94.44
402.182	86.44
402.406	97.44
402.63	95.44
402.854	95.44
403.078	100.44
403.302	98.44
403.526	93.44
403.75	98.44
403.974	101.44
404.198	94.44
404.422	87.44
404.645	100.44
404.869	85.44
405.093	90.44
405.317	88.44
405.541	92.44
405.765	81.44
405.988	104.44
406.212	95.44
406.436	102.44
406.66	106.44
406.883	93.44
407.107	102.44
407.331	102.44
407.555	83.44
407.778	88.44
408.002	102.44
408.226	103.44
408.449	87.44
408.673	113.44
408.896	115.44
409.12	98.44
409.344	99.44
409.567	84.44
409.791	95.44
410.014	75.44
410.238	93.44
410.461	104.44
410.685	92.44
410.908	93.44
411.132	88.44
411.355	94.44
411.578	94.44
411.802	93.44
412.025	96.44
412.249	84.44
412.472	95.44
412.695	103.44
412.919	102.44
413.142	93.44
413.365	102.44
413.589	104.44
413.812	94.44
414.035	100.44
414.258	99.44
414.482	97.44
414.705	96.44
414.928	86.44
415.151	93.44
415.374	84.44
415.597	96.44
415.821	89.44
416.044	90.44
416.267	91.44
416.49	100.44
416.713	95.44
416.936	97.44
417.159	93.44
417.382	108.44
417.605	92.44
417.828	92.44
418.051	97.44
418.274	95.44
418.497	92.44
418.72	84.44
418.943	90.44
419.166	94.44
419.389	104.44
419.611	100.44
419.834	83.44
420.057	102.44
420.28	83.44
420.503	90.44
420.726	84.44
420.948	97.44
421.171	93.44
421.394	93.44
421.617	73.44
421.839	94.44
422.062	98.44
422.285	88.44
422.507	85.44
422.73	101.44
422.953	101.44
423.175	104.44
423.398	97.44
423.621	109.44
423.843	94.44
424.066	90.44
424.288	96.44
424.511	100.44
424.733	102.44
424.956	90.44
425.178	90.44
425.401	92.44
425.623	80.44
425.846	94.44
426.068	91.44
426.291	94.44
426.513	96.44
426.735	103.44
426.958	92.44
427.18	100.44
427.402	88.44
427.625	82.44
427.847	80.44
428.069	91.44
428.292	86.44
428.514	91.44
428.736	100.44
428.958	88.44
429.181	104.44
429.403	105.44
429.625	97.44
429.847	95.44
430.069	94.44
430.292	85.44
430.514	92.44
430.736	86.44
430.958	90.44
431.18	93.44
431.402	104.44
431.624	103.44
431.846	86.44
432.068	95.44
432.29	101.44
432.512	101.44
432.734	105.44
432.956	108.44
433.178	101.44
433.4	98.44
433.622	103.44
433.844	102.44
434.066	80.44
434.287	89.44
434.509	83.44
434.731	88.44
434.953	89.44
435.175	98.44
435.397	98.44
435.618	106.44
435.84	97.44
436.062	88.44
436.284	89.44
436.505	78.44
436.727	93.44
436.949	80.44
437.17	87.44
437.392	83.44
437.614	97.44
437.835	82.44
438.057	92.44
438.278	96.44
438.5	75.44
438.721	88.44
438.943	84.44
439.165	83.44
439.386	82.44
439.608	88.44
439.829	79.44
440.05	88.44
440.272	100.44
440.493	98.44
440.715	104.44
440.936	86.44
441.158	103.44
441.379	101.44
441.6	88.44
441.822	84.44
442.043	88.44
442.264	97.44
442.486	91.44
442.707	109.44
442.928	99.44
443.149	94.44
443.371	93.44
443.592	94.44
443.813	84.44
444.034	83.44
444.255	84.44
444.476	83.44
444.698	104.44
444.919	89.44
445.14	229.44
445.361	154.44
445.582	86.44
445.803	89.44
446.024	103.44
446.245	85.44
446.466	82.44
446.687	89.44
446.908	80.44
447.129	86.44
447.35	86.44
447.571	93.44
447.792	94.44
448.013	93.44
448.234	111.44
448.455	84.44
448.675	86.44
448.896	96.44
449.117	105.44
449.338	92.44
449.559	85.44
449.779	87.44
450	96.44
450.221	96.44
450.442	88.44
450.662	93.44
450.883	96.44
451.104	105.44
451.324	72.44
451.545	84.44
451.766	88.44
451.986	106.44
452.207	103.44
452.428	84.44
452.648	89.44
452.869	89.44
453.089	89.44
453.31	78.44
453.53	94.44
453.751	101.44
453.971	83.44
454.192	91.44
454.412	84.44
454.633	94.44
454.853	100.44
455.073	85.44
455.294	84.44
455.514	101.44
455.734	93.44
455.955	93.44
456.175	84.44
456.395	92.44
456.616	97.44
456.836	85.44
457.056	90.44
457.276	96.44
457.497	89.44
457.717	105.44
457.937	92.44
458.157	89.44
458.377	85.44
458.598	82.44
458.818	85.44
459.038	84.44
459.258	94.44
459.478	83.44
459.698	108.44
459.918	96.44
460.138	78.44
460.358	106.44
460.578	93.44
460.798	97.44
461.018	109.44
461.238	94.44
461.458	99.44
461.678	93.44
461.898	89.44
462.118	93.44
462.338	101.44
462.558	97.44
462.777	96.44
462.997	97.44
463.217	94.44
463.437	103.44
463.657	106.44
463.876	94.44
464.096	106.44
464.316	98.44
464.536	100.44
464.755	100.44
464.975	112.44
465.195	101.44
465.414	108.44
465.634	92.44
465.854	94.44
466.073	88.44
466.293	106.44
466.512	86.44
466.732	85.44
466.951	82.44
467.171	102.44
467.391	93.44
467.61	95.44
467.829	97.44
468.049	103.44
468.268	113.44
468.488	96.44
468.707	111.44
468.927	96.44
469.146	96.44
469.365	101.44
469.585	83.44
469.804	106.44
470.023	99.44
470.243	100.44
470.462	101.44
470.681	99.44
470.901	115.44
471.12	82.44
471.339	97.44
471.558	88.44
471.777	93.44
471.997	89.44
472.216	91.44
472.435	92.44
472.654	89.44
472.873	110.44
473.092	93.44
473.311	95.44
473.53	94.44
473.749	89.44
473.968	97.44
474.187	88.44
474.406	102.44
474.625	94.44
474.844	93.44
475.063	93.44
475.282	97.44
475.501	89.44
475.72	87.44
475.939	99.44
476.158	93.44
476.377	95.44
476.596	95.44
476.814	90.44
477.033	99.44
477.252	85.44
477.471	86.44
477.69	95.44
477.908	108.44
478.127	105.44
478.346	99.44
478.564	99.44
478.783	84.44
479.002	106.44
479.22	104.44
479.439	101.44
479.658	93.44
479.876	108.44
480.095	94.44
480.313	101.44
480.532	102.44
480.751	104.44
480.969	88.44
481.188	95.44
481.406	103.44
481.624	95.44
481.843	101.44
482.061	89.44
482.28	78.44
482.498	115.44
482.717	110.44
482.935	99.44
483.153	112.44
483.372	100.44
483.59	96.44
483.808	115.44
484.027	89.44
484.245	94.44
484.463	103.44
484.681	100.44
484.9	96.44
485.118	100.44
485.336	88.44
485.554	97.44
485.772	94.44
485.99	103.44
486.209	108.44
486.427	91.44
486.645	82.44
486.863	105.44
487.081	110.44
487.299	120.44
487.517	104.44
487.735	105.44
487.953	110.44
488.171	108.44
488.389	97.44
488.607	102.44
488.825	110.44
489.043	94.44
489.261	106.44
489.479	113.44
489.696	121.44
489.914	103.44
490.132	94.44
490.35	90.44
490.568	103.44
490.786	94.44
491.003	109.44
491.221	106.44
491.439	104.44
491.657	121.44
491.874	112.44
492.092	118.44
492.31	121.44
492.527	112.44
492.745	104.44
492.963	109.44
493.18	105.44
493.398	109.44
493.615	94.44
493.833	100.44
494.05	108.44
494.268	112.44
494.485	116.44
494.703	93.44
494.92	101.44
495.138	106.44
495.355	104.44
495.573	128.44
495.79	98.44
496.008	103.44
496.225	106.44
496.442	117.44
496.66	112.44
496.877	97.44
497.094	92.44
497.312	98.44
497.529	105.44
497.746	107.44
497.963	114.44
498.181	106.44
498.398	85.44
498.615	114.44
498.832	119.44
499.049	126.44
499.267	132.44
499.484	126.44
499.701	128.44
499.918	134.44
500.135	137.44
500.352	144.44
500.569	166.44
500.786	162.44
501.003	139.44
501.22	144.44
501.437	130.44
501.654	121.44
501.871	118.44
502.088	112.44
502.305	108.44
502.522	118.44
502.739	104.44
502.956	122.44
503.172	102.44
503.389	105.44
503.606	109.44
503.823	117.44
504.04	101.44
504.256	112.44
504.473	123.44
504.69	107.44
504.907	117.44
505.123	108.44
505.34	108.44
505.557	111.44
505.773	101.44
505.99	98.44
506.207	90.44
506.423	101.44
506.64	94.44
506.856	96.44
507.073	88.44
507.289	88.44
507.506	110.44
507.722	97.44
507.939	106.44
508.155	115.44
508.372	101.44
508.588	95.44
508.805	98.44
509.021	112.44
509.238	103.44
509.454	93.44
509.67	88.44
509.887	100.44
510.103	99.44
510.319	94.44
510.536	98.44
510.752	107.44
510.968	94.44
511.184	116.44
511.401	91.44
511.617	93.44
511.833	93.44
512.049	100.44
512.265	89.44
512.481	89.44
512.698	95.44
512.914	113.44
513.13	87.44
513.346	78.44
513.562	95.44
513.778	117.44
513.994	107.44
514.21	99.44
514.426	89.44
514.642	104.44
514.858	105.44
515.074	94.44
515.29	101.44
515.506	114.44
515.721	108.44
515.937	112.44
