Data from Location5.07152019.Energy5.Lamp.07192019.3%Agarose_HRD10591_15-37-27-388.txt Node
Date: Fri Jul 19 15:37:27 EDT 2019
User: cochatt
Spectrometer: HR+D1059
Trigger mode: 1
Integration Time (sec): 1.000000E-1
Scans to average: 1
Electric dark correction enabled: true
Nonlinearity correction enabled: false
Boxcar width: 0
XAxis mode: Wavelengths
Number of Pixels in Spectrum: 2048
>>>>>Begin Spectral Data<<<<<
223.165	-2.88
223.4	-2.88
223.635	-2.88
223.869	-13.88
224.104	-25.88
224.338	-32.88
224.573	-14.88
224.808	6.12
225.042	3.12
225.277	3.12
225.511	-0.88
225.746	4.12
225.98	-0.88
226.215	7.12
226.449	0.12
226.683	20.12
226.918	19.12
227.152	29.12
227.387	37.12
227.621	35.12
227.856	46.12
228.09	40.12
228.324	37.12
228.559	43.12
228.793	60.12
229.027	60.12
229.262	74.12
229.496	76.12
229.73	73.12
229.964	61.12
230.199	76.12
230.433	67.12
230.667	79.12
230.901	74.12
231.136	66.12
231.37	86.12
231.604	80.12
231.838	90.12
232.072	72.12
232.306	96.12
232.541	89.12
232.775	83.12
233.009	81.12
233.243	66.12
233.477	86.12
233.711	80.12
233.945	86.12
234.179	78.12
234.413	84.12
234.647	76.12
234.881	83.12
235.115	75.12
235.349	85.12
235.583	77.12
235.817	82.12
236.051	67.12
236.285	85.12
236.519	91.12
236.753	87.12
236.987	81.12
237.221	69.12
237.455	80.12
237.689	71.12
237.922	71.12
238.156	89.12
238.39	76.12
238.624	80.12
238.858	76.12
239.091	85.12
239.325	89.12
239.559	85.12
239.793	79.12
240.027	77.12
240.26	79.12
240.494	75.12
240.728	86.12
240.961	84.12
241.195	78.12
241.429	64.12
241.662	70.12
241.896	74.12
242.13	81.12
242.363	80.12
242.597	70.12
242.83	81.12
243.064	73.12
243.298	76.12
243.531	72.12
243.765	70.12
243.998	72.12
244.232	88.12
244.465	90.12
244.699	77.12
244.932	76.12
245.166	90.12
245.399	83.12
245.633	73.12
245.866	74.12
246.099	76.12
246.333	85.12
246.566	72.12
246.8	77.12
247.033	67.12
247.266	73.12
247.5	87.12
247.733	72.12
247.966	69.12
248.2	81.12
248.433	82.12
248.666	86.12
248.899	92.12
249.133	82.12
249.366	78.12
249.599	83.12
249.832	76.12
250.066	84.12
250.299	74.12
250.532	66.12
250.765	66.12
250.998	86.12
251.231	76.12
251.465	84.12
251.698	83.12
251.931	72.12
252.164	80.12
252.397	72.12
252.63	79.12
252.863	93.12
253.096	83.12
253.329	72.12
253.562	81.12
253.795	82.12
254.028	83.12
254.261	68.12
254.494	79.12
254.727	66.12
254.96	75.12
255.193	83.12
255.426	76.12
255.659	80.12
255.892	86.12
256.124	81.12
256.357	75.12
256.59	81.12
256.823	83.12
257.056	94.12
257.289	93.12
257.521	74.12
257.754	89.12
257.987	82.12
258.22	81.12
258.452	83.12
258.685	86.12
258.918	67.12
259.151	79.12
259.383	77.12
259.616	79.12
259.849	91.12
260.081	73.12
260.314	82.12
260.547	87.12
260.779	97.12
261.012	82.12
261.244	79.12
261.477	96.12
261.71	63.12
261.942	79.12
262.175	75.12
262.407	75.12
262.64	76.12
262.872	74.12
263.105	90.12
263.337	72.12
263.57	76.12
263.802	85.12
264.035	84.12
264.267	97.12
264.499	79.12
264.732	79.12
264.964	78.12
265.197	81.12
265.429	77.12
265.661	91.12
265.894	72.12
266.126	80.12
266.358	97.12
266.591	70.12
266.823	86.12
267.055	98.12
267.287	100.12
267.52	74.12
267.752	88.12
267.984	78.12
268.216	75.12
268.448	98.12
268.681	80.12
268.913	81.12
269.145	99.12
269.377	80.12
269.609	83.12
269.841	86.12
270.073	81.12
270.306	77.12
270.538	81.12
270.77	96.12
271.002	86.12
271.234	84.12
271.466	82.12
271.698	90.12
271.93	82.12
272.162	92.12
272.394	97.12
272.626	75.12
272.858	84.12
273.09	93.12
273.322	95.12
273.553	79.12
273.785	100.12
274.017	91.12
274.249	81.12
274.481	81.12
274.713	77.12
274.945	79.12
275.176	80.12
275.408	85.12
275.64	96.12
275.872	100.12
276.104	101.12
276.335	81.12
276.567	97.12
276.799	82.12
277.031	83.12
277.262	68.12
277.494	88.12
277.726	73.12
277.957	70.12
278.189	82.12
278.421	100.12
278.652	85.12
278.884	89.12
279.115	83.12
279.347	89.12
279.579	85.12
279.81	88.12
280.042	78.12
280.273	83.12
280.505	89.12
280.736	84.12
280.968	96.12
281.199	67.12
281.431	80.12
281.662	87.12
281.894	79.12
282.125	75.12
282.356	84.12
282.588	98.12
282.819	86.12
283.051	80.12
283.282	92.12
283.513	75.12
283.745	80.12
283.976	73.12
284.207	88.12
284.439	68.12
284.67	91.12
284.901	73.12
285.132	78.12
285.364	99.12
285.595	94.12
285.826	85.12
286.057	90.12
286.288	92.12
286.52	76.12
286.751	80.12
286.982	91.12
287.213	84.12
287.444	92.12
287.675	91.12
287.906	80.12
288.138	91.12
288.369	57.12
288.6	88.12
288.831	84.12
289.062	85.12
289.293	91.12
289.524	84.12
289.755	78.12
289.986	103.12
290.217	86.12
290.448	79.12
290.679	83.12
290.91	84.12
291.141	83.12
291.371	76.12
291.602	91.12
291.833	91.12
292.064	80.12
292.295	94.12
292.526	70.12
292.757	94.12
292.987	89.12
293.218	76.12
293.449	92.12
293.68	95.12
293.91	88.12
294.141	80.12
294.372	83.12
294.603	71.12
294.833	86.12
295.064	72.12
295.295	67.12
295.525	87.12
295.756	95.12
295.987	75.12
296.217	87.12
296.448	77.12
296.679	89.12
296.909	79.12
297.14	90.12
297.37	80.12
297.601	90.12
297.831	65.12
298.062	104.12
298.292	103.12
298.523	92.12
298.753	84.12
298.984	96.12
299.214	91.12
299.445	80.12
299.675	86.12
299.905	82.12
300.136	80.12
300.366	89.12
300.597	98.12
300.827	89.12
301.057	103.12
301.288	88.12
301.518	88.12
301.748	90.12
301.979	101.12
302.209	91.12
302.439	75.12
302.669	92.12
302.9	78.12
303.13	83.12
303.36	96.12
303.59	85.12
303.82	83.12
304.051	89.12
304.281	85.12
304.511	79.12
304.741	86.12
304.971	88.12
305.201	106.12
305.431	110.12
305.661	80.12
305.891	89.12
306.121	94.12
306.352	74.12
306.582	96.12
306.812	94.12
307.042	85.12
307.272	88.12
307.502	79.12
307.731	86.12
307.961	83.12
308.191	75.12
308.421	90.12
308.651	86.12
308.881	105.12
309.111	89.12
309.341	90.12
309.571	83.12
309.8	95.12
310.03	81.12
310.26	80.12
310.49	86.12
310.72	81.12
310.949	80.12
311.179	89.12
311.409	91.12
311.639	99.12
311.868	96.12
312.098	83.12
312.328	78.12
312.557	97.12
312.787	73.12
313.017	83.12
313.246	87.12
313.476	87.12
313.706	86.12
313.935	86.12
314.165	84.12
314.394	87.12
314.624	76.12
314.853	82.12
315.083	89.12
315.312	90.12
315.542	99.12
315.771	93.12
316.001	86.12
316.23	98.12
316.46	76.12
316.689	85.12
316.919	94.12
317.148	88.12
317.377	79.12
317.607	80.12
317.836	90.12
318.065	83.12
318.295	89.12
318.524	91.12
318.753	77.12
318.983	83.12
319.212	97.12
319.441	93.12
319.67	88.12
319.9	95.12
320.129	86.12
320.358	78.12
320.587	82.12
320.816	87.12
321.046	88.12
321.275	85.12
321.504	92.12
321.733	89.12
321.962	90.12
322.191	96.12
322.42	91.12
322.649	95.12
322.878	88.12
323.108	98.12
323.337	98.12
323.566	89.12
323.795	83.12
324.024	81.12
324.253	87.12
324.482	92.12
324.71	87.12
324.939	82.12
325.168	80.12
325.397	87.12
325.626	82.12
325.855	78.12
326.084	87.12
326.313	80.12
326.542	90.12
326.77	90.12
326.999	89.12
327.228	81.12
327.457	92.12
327.686	83.12
327.914	95.12
328.143	85.12
328.372	88.12
328.6	82.12
328.829	87.12
329.058	98.12
329.287	95.12
329.515	60.12
329.744	86.12
329.972	92.12
330.201	79.12
330.43	72.12
330.658	88.12
330.887	84.12
331.115	94.12
331.344	93.12
331.572	92.12
331.801	86.12
332.03	83.12
332.258	92.12
332.486	102.12
332.715	96.12
332.943	72.12
333.172	89.12
333.4	75.12
333.629	94.12
333.857	77.12
334.085	99.12
334.314	76.12
334.542	95.12
334.771	74.12
334.999	80.12
335.227	86.12
335.455	77.12
335.684	90.12
335.912	67.12
336.14	75.12
336.369	97.12
336.597	71.12
336.825	85.12
337.053	84.12
337.281	87.12
337.51	75.12
337.738	102.12
337.966	89.12
338.194	92.12
338.422	85.12
338.65	84.12
338.878	102.12
339.106	87.12
339.334	83.12
339.562	84.12
339.79	85.12
340.018	98.12
340.246	71.12
340.474	84.12
340.702	80.12
340.93	69.12
341.158	74.12
341.386	82.12
341.614	79.12
341.842	75.12
342.07	88.12
342.298	94.12
342.526	80.12
342.754	90.12
342.981	87.12
343.209	86.12
343.437	90.12
343.665	84.12
343.893	94.12
344.12	92.12
344.348	82.12
344.576	79.12
344.804	88.12
345.031	85.12
345.259	92.12
345.487	85.12
345.714	76.12
345.942	88.12
346.17	93.12
346.397	98.12
346.625	87.12
346.853	86.12
347.08	95.12
347.308	90.12
347.535	79.12
347.763	75.12
347.99	91.12
348.218	87.12
348.445	98.12
348.673	90.12
348.9	87.12
349.128	96.12
349.355	79.12
349.583	87.12
349.81	80.12
350.037	91.12
350.265	73.12
350.492	89.12
350.72	84.12
350.947	87.12
351.174	90.12
351.402	80.12
351.629	74.12
351.856	84.12
352.083	95.12
352.311	91.12
352.538	80.12
352.765	98.12
352.992	97.12
353.22	95.12
353.447	82.12
353.674	75.12
353.901	87.12
354.128	93.12
354.355	87.12
354.583	81.12
354.81	85.12
355.037	93.12
355.264	96.12
355.491	76.12
355.718	92.12
355.945	78.12
356.172	89.12
356.399	75.12
356.626	78.12
356.853	83.12
357.08	68.12
357.307	75.12
357.534	84.12
357.761	89.12
357.988	99.12
358.215	75.12
358.441	81.12
358.668	88.12
358.895	86.12
359.122	82.12
359.349	74.12
359.576	80.12
359.802	89.12
360.029	81.12
360.256	88.12
360.483	80.12
360.709	82.12
360.936	83.12
361.163	91.12
361.39	99.12
361.616	74.12
361.843	86.12
362.07	78.12
362.296	76.12
362.523	80.12
362.749	86.12
362.976	84.12
363.203	82.12
363.429	82.12
363.656	80.12
363.882	84.12
364.109	83.12
364.335	87.12
364.562	82.12
364.788	71.12
365.015	83.12
365.241	80.12
365.468	87.12
365.694	83.12
365.92	81.12
366.147	83.12
366.373	83.12
366.599	84.12
366.826	74.12
367.052	87.12
367.278	89.12
367.505	75.12
367.731	95.12
367.957	88.12
368.184	87.12
368.41	87.12
368.636	75.12
368.862	91.12
369.089	73.12
369.315	87.12
369.541	76.12
369.767	93.12
369.993	78.12
370.219	89.12
370.445	71.12
370.672	82.12
370.898	92.12
371.124	86.12
371.35	70.12
371.576	80.12
371.802	71.12
372.028	80.12
372.254	78.12
372.48	80.12
372.706	94.12
372.932	80.12
373.158	88.12
373.384	85.12
373.61	85.12
373.835	91.12
374.061	90.12
374.287	73.12
374.513	86.12
374.739	87.12
374.965	74.12
375.191	89.12
375.416	83.12
375.642	80.12
375.868	82.12
376.094	88.12
376.319	83.12
376.545	81.12
376.771	80.12
376.997	89.12
377.222	80.12
377.448	100.12
377.674	85.12
377.899	96.12
378.125	91.12
378.35	79.12
378.576	87.12
378.802	79.12
379.027	80.12
379.253	77.12
379.478	90.12
379.704	80.12
379.929	80.12
380.155	93.12
380.38	87.12
380.606	79.12
380.831	83.12
381.057	72.12
381.282	88.12
381.507	81.12
381.733	85.12
381.958	95.12
382.184	93.12
382.409	80.12
382.634	96.12
382.86	100.12
383.085	81.12
383.31	88.12
383.535	96.12
383.761	77.12
383.986	81.12
384.211	84.12
384.436	80.12
384.662	81.12
384.887	83.12
385.112	80.12
385.337	67.12
385.562	83.12
385.787	85.12
386.013	80.12
386.238	96.12
386.463	95.12
386.688	85.12
386.913	83.12
387.138	84.12
387.363	86.12
387.588	88.12
387.813	97.12
388.038	92.12
388.263	73.12
388.488	83.12
388.713	95.12
388.938	81.12
389.163	82.12
389.387	89.12
389.612	75.12
389.837	98.12
390.062	85.12
390.287	91.12
390.512	70.12
390.736	99.12
390.961	83.12
391.186	73.12
391.411	90.12
391.636	79.12
391.86	85.12
392.085	86.12
392.31	92.12
392.534	75.12
392.759	82.12
392.984	75.12
393.208	97.12
393.433	90.12
393.658	86.12
393.882	92.12
394.107	85.12
394.331	91.12
394.556	90.12
394.78	96.12
395.005	76.12
395.229	79.12
395.454	80.12
395.678	87.12
395.903	93.12
396.127	93.12
396.352	81.12
396.576	71.12
396.801	85.12
397.025	87.12
397.249	96.12
397.474	96.12
397.698	80.12
397.922	77.12
398.147	78.12
398.371	82.12
398.595	88.12
398.82	89.12
399.044	79.12
399.268	81.12
399.492	81.12
399.717	79.12
399.941	83.12
400.165	81.12
400.389	84.12
400.613	79.12
400.837	100.12
401.062	77.12
401.286	101.12
401.51	95.12
401.734	87.12
401.958	93.12
402.182	91.12
402.406	117.12
402.63	85.12
402.854	82.12
403.078	91.12
403.302	91.12
403.526	94.12
403.75	96.12
403.974	86.12
404.198	93.12
404.422	93.12
404.645	83.12
404.869	91.12
405.093	98.12
405.317	85.12
405.541	87.12
405.765	91.12
405.988	90.12
406.212	86.12
406.436	93.12
406.66	106.12
406.883	91.12
407.107	95.12
407.331	90.12
407.555	88.12
407.778	97.12
408.002	100.12
408.226	87.12
408.449	91.12
408.673	86.12
408.896	85.12
409.12	91.12
409.344	82.12
409.567	82.12
409.791	89.12
410.014	91.12
410.238	86.12
410.461	89.12
410.685	99.12
410.908	92.12
411.132	103.12
411.355	91.12
411.578	87.12
411.802	90.12
412.025	76.12
412.249	86.12
412.472	73.12
412.695	90.12
412.919	75.12
413.142	96.12
413.365	95.12
413.589	104.12
413.812	90.12
414.035	87.12
414.258	105.12
414.482	91.12
414.705	73.12
414.928	79.12
415.151	79.12
415.374	84.12
415.597	90.12
415.821	91.12
416.044	91.12
416.267	90.12
416.49	88.12
416.713	84.12
416.936	92.12
417.159	87.12
417.382	98.12
417.605	93.12
417.828	80.12
418.051	92.12
418.274	93.12
418.497	70.12
418.72	88.12
418.943	84.12
419.166	93.12
419.389	77.12
419.611	100.12
419.834	77.12
420.057	94.12
420.28	92.12
420.503	88.12
420.726	97.12
420.948	71.12
421.171	81.12
421.394	93.12
421.617	94.12
421.839	89.12
422.062	90.12
422.285	82.12
422.507	103.12
422.73	91.12
422.953	99.12
423.175	99.12
423.398	99.12
423.621	97.12
423.843	84.12
424.066	92.12
424.288	91.12
424.511	91.12
424.733	95.12
424.956	95.12
425.178	86.12
425.401	92.12
425.623	95.12
425.846	103.12
426.068	102.12
426.291	92.12
426.513	86.12
426.735	88.12
426.958	87.12
427.18	78.12
427.402	75.12
427.625	89.12
427.847	90.12
428.069	88.12
428.292	110.12
428.514	96.12
428.736	99.12
428.958	109.12
429.181	92.12
429.403	89.12
429.625	104.12
429.847	84.12
430.069	96.12
430.292	111.12
430.514	89.12
430.736	94.12
430.958	107.12
431.18	90.12
431.402	72.12
431.624	97.12
431.846	82.12
432.068	85.12
432.29	84.12
432.512	94.12
432.734	104.12
432.956	105.12
433.178	84.12
433.4	101.12
433.622	106.12
433.844	98.12
434.066	89.12
434.287	83.12
434.509	88.12
434.731	98.12
434.953	83.12
435.175	92.12
435.397	101.12
435.618	98.12
435.84	84.12
436.062	86.12
436.284	88.12
436.505	88.12
436.727	97.12
436.949	93.12
437.17	104.12
437.392	97.12
437.614	87.12
437.835	79.12
438.057	95.12
438.278	104.12
438.5	108.12
438.721	83.12
438.943	86.12
439.165	74.12
439.386	89.12
439.608	111.12
439.829	100.12
440.05	105.12
440.272	88.12
440.493	97.12
440.715	98.12
440.936	105.12
441.158	98.12
441.379	101.12
441.6	97.12
441.822	87.12
442.043	98.12
442.264	96.12
442.486	102.12
442.707	92.12
442.928	99.12
443.149	89.12
443.371	94.12
443.592	91.12
443.813	90.12
444.034	96.12
444.255	89.12
444.476	96.12
444.698	102.12
444.919	98.12
445.14	228.12
445.361	140.12
445.582	101.12
445.803	105.12
446.024	95.12
446.245	95.12
446.466	95.12
446.687	84.12
446.908	91.12
447.129	97.12
447.35	96.12
447.571	96.12
447.792	95.12
448.013	98.12
448.234	99.12
448.455	91.12
448.675	103.12
448.896	99.12
449.117	98.12
449.338	83.12
449.559	90.12
449.779	95.12
450	94.12
450.221	95.12
450.442	90.12
450.662	94.12
450.883	94.12
451.104	95.12
451.324	101.12
451.545	98.12
451.766	98.12
451.986	94.12
452.207	97.12
452.428	99.12
452.648	107.12
452.869	97.12
453.089	100.12
453.31	86.12
453.53	99.12
453.751	88.12
453.971	75.12
454.192	79.12
454.412	95.12
454.633	90.12
454.853	98.12
455.073	90.12
455.294	81.12
455.514	91.12
455.734	93.12
455.955	80.12
456.175	88.12
456.395	91.12
456.616	83.12
456.836	82.12
457.056	98.12
457.276	87.12
457.497	85.12
457.717	83.12
457.937	98.12
458.157	90.12
458.377	75.12
458.598	71.12
458.818	83.12
459.038	87.12
459.258	80.12
459.478	86.12
459.698	71.12
459.918	92.12
460.138	86.12
460.358	76.12
460.578	93.12
460.798	86.12
461.018	89.12
461.238	95.12
461.458	85.12
461.678	99.12
461.898	108.12
462.118	92.12
462.338	93.12
462.558	84.12
462.777	80.12
462.997	93.12
463.217	83.12
463.437	92.12
463.657	100.12
463.876	86.12
464.096	94.12
464.316	82.12
464.536	81.12
464.755	86.12
464.975	106.12
465.195	97.12
465.414	92.12
465.634	76.12
465.854	116.12
466.073	105.12
466.293	94.12
466.512	95.12
466.732	83.12
466.951	79.12
467.171	88.12
467.391	89.12
467.61	94.12
467.829	95.12
468.049	95.12
468.268	93.12
468.488	102.12
468.707	84.12
468.927	83.12
469.146	93.12
469.365	97.12
469.585	104.12
469.804	98.12
470.023	91.12
470.243	98.12
470.462	90.12
470.681	105.12
470.901	90.12
471.12	99.12
471.339	113.12
471.558	95.12
471.777	95.12
471.997	96.12
472.216	102.12
472.435	88.12
472.654	88.12
472.873	83.12
473.092	90.12
473.311	91.12
473.53	82.12
473.749	101.12
473.968	94.12
474.187	92.12
474.406	95.12
474.625	94.12
474.844	94.12
475.063	84.12
475.282	100.12
475.501	77.12
475.72	84.12
475.939	93.12
476.158	84.12
476.377	94.12
476.596	92.12
476.814	72.12
477.033	90.12
477.252	89.12
477.471	81.12
477.69	90.12
477.908	99.12
478.127	100.12
478.346	86.12
478.564	90.12
478.783	85.12
479.002	94.12
479.22	96.12
479.439	98.12
479.658	81.12
479.876	102.12
480.095	82.12
480.313	86.12
480.532	80.12
480.751	92.12
480.969	81.12
481.188	80.12
481.406	104.12
481.624	90.12
481.843	78.12
482.061	75.12
482.28	83.12
482.498	96.12
482.717	81.12
482.935	98.12
483.153	83.12
483.372	74.12
483.59	98.12
483.808	100.12
484.027	103.12
484.245	103.12
484.463	92.12
484.681	101.12
484.9	95.12
485.118	88.12
485.336	84.12
485.554	89.12
485.772	91.12
485.99	85.12
486.209	89.12
486.427	94.12
486.645	87.12
486.863	90.12
487.081	88.12
487.299	98.12
487.517	105.12
487.735	106.12
487.953	103.12
488.171	104.12
488.389	109.12
488.607	96.12
488.825	104.12
489.043	94.12
489.261	108.12
489.479	103.12
489.696	94.12
489.914	83.12
490.132	103.12
490.35	98.12
490.568	102.12
490.786	99.12
491.003	96.12
491.221	111.12
491.439	116.12
491.657	103.12
491.874	122.12
492.092	121.12
492.31	136.12
492.527	117.12
492.745	114.12
492.963	107.12
493.18	114.12
493.398	116.12
493.615	110.12
493.833	111.12
494.05	95.12
494.268	112.12
494.485	96.12
494.703	102.12
494.92	87.12
495.138	98.12
495.355	106.12
495.573	100.12
495.79	106.12
496.008	113.12
496.225	104.12
496.442	104.12
496.66	115.12
496.877	116.12
497.094	103.12
497.312	102.12
497.529	102.12
497.746	100.12
497.963	97.12
498.181	94.12
498.398	97.12
498.615	99.12
498.832	88.12
499.049	97.12
499.267	86.12
499.484	82.12
499.701	114.12
499.918	97.12
500.135	99.12
500.352	99.12
500.569	105.12
500.786	92.12
501.003	98.12
501.22	111.12
501.437	95.12
501.654	98.12
501.871	86.12
502.088	97.12
502.305	89.12
502.522	79.12
502.739	100.12
502.956	83.12
503.172	106.12
503.389	100.12
503.606	91.12
503.823	115.12
504.04	96.12
504.256	92.12
504.473	98.12
504.69	99.12
504.907	98.12
505.123	106.12
505.34	94.12
505.557	78.12
505.773	97.12
505.99	94.12
506.207	95.12
506.423	93.12
506.64	102.12
506.856	96.12
507.073	86.12
507.289	97.12
507.506	106.12
507.722	111.12
507.939	83.12
508.155	94.12
508.372	91.12
508.588	94.12
508.805	95.12
509.021	90.12
509.238	82.12
509.454	89.12
509.67	87.12
509.887	88.12
510.103	84.12
510.319	91.12
510.536	82.12
510.752	85.12
510.968	83.12
511.184	79.12
511.401	101.12
511.617	79.12
511.833	83.12
512.049	93.12
512.265	76.12
512.481	89.12
512.698	82.12
512.914	88.12
513.13	86.12
513.346	67.12
513.562	99.12
513.778	89.12
513.994	86.12
514.21	72.12
514.426	81.12
514.642	81.12
514.858	92.12
515.074	97.12
515.29	84.12
515.506	87.12
515.721	80.12
515.937	74.12
516.153	89.12
516.369	103.12
516.585	87.12
516.801	74.12
517.016	90.12
517.232	75.12
517.448	83.12
517.664	89.12
517.879	75.12
