Data from Location5.07152019.Energy5.Lamp.07192019.3%Agarose_HRD10591_15-37-55-390.txt Node
Date: Fri Jul 19 15:37:55 EDT 2019
User: cochatt
Spectrometer: HR+D1059
Trigger mode: 1
Integration Time (sec): 1.000000E-1
Scans to average: 1
Electric dark correction enabled: true
Nonlinearity correction enabled: false
Boxcar width: 0
XAxis mode: Wavelengths
Number of Pixels in Spectrum: 2048
>>>>>Begin Spectral Data<<<<<
223.165	-11.81
223.4	-11.81
223.635	-11.81
223.869	-10.81
224.104	-13.81
224.338	-15.81
224.573	-24.81
224.808	-25.81
225.042	-10.81
225.277	-4.81
225.511	-1.81
225.746	-2.81
225.98	8.19
226.215	11.19
226.449	18.19
226.683	28.19
226.918	21.19
227.152	36.19
227.387	33.19
227.621	30.19
227.856	31.19
228.09	36.19
228.324	45.19
228.559	53.19
228.793	56.19
229.027	44.19
229.262	67.19
229.496	70.19
229.73	70.19
229.964	50.19
230.199	79.19
230.433	66.19
230.667	84.19
230.901	72.19
231.136	80.19
231.37	86.19
231.604	78.19
231.838	75.19
232.072	72.19
232.306	95.19
232.541	98.19
232.775	75.19
233.009	68.19
233.243	87.19
233.477	94.19
233.711	80.19
233.945	81.19
234.179	81.19
234.413	81.19
234.647	74.19
234.881	72.19
235.115	80.19
235.349	82.19
235.583	69.19
235.817	70.19
236.051	80.19
236.285	63.19
236.519	84.19
236.753	68.19
236.987	81.19
237.221	75.19
237.455	78.19
237.689	72.19
237.922	75.19
238.156	81.19
238.39	71.19
238.624	90.19
238.858	74.19
239.091	78.19
239.325	82.19
239.559	72.19
239.793	65.19
240.027	93.19
240.26	75.19
240.494	79.19
240.728	78.19
240.961	71.19
241.195	78.19
241.429	78.19
241.662	71.19
241.896	66.19
242.13	80.19
242.363	76.19
242.597	94.19
242.83	80.19
243.064	73.19
243.298	72.19
243.531	63.19
243.765	73.19
243.998	80.19
244.232	88.19
244.465	69.19
244.699	72.19
244.932	76.19
245.166	61.19
245.399	74.19
245.633	84.19
245.866	74.19
246.099	77.19
246.333	76.19
246.566	83.19
246.8	76.19
247.033	72.19
247.266	82.19
247.5	77.19
247.733	69.19
247.966	69.19
248.2	76.19
248.433	67.19
248.666	73.19
248.899	86.19
249.133	76.19
249.366	77.19
249.599	81.19
249.832	70.19
250.066	73.19
250.299	78.19
250.532	87.19
250.765	86.19
250.998	63.19
251.231	69.19
251.465	70.19
251.698	79.19
251.931	83.19
252.164	80.19
252.397	73.19
252.63	76.19
252.863	74.19
253.096	92.19
253.329	84.19
253.562	76.19
253.795	68.19
254.028	85.19
254.261	79.19
254.494	65.19
254.727	91.19
254.96	80.19
255.193	71.19
255.426	75.19
255.659	81.19
255.892	80.19
256.124	64.19
256.357	77.19
256.59	80.19
256.823	74.19
257.056	72.19
257.289	67.19
257.521	80.19
257.754	77.19
257.987	84.19
258.22	79.19
258.452	81.19
258.685	74.19
258.918	85.19
259.151	75.19
259.383	71.19
259.616	67.19
259.849	64.19
260.081	75.19
260.314	71.19
260.547	62.19
260.779	90.19
261.012	69.19
261.244	89.19
261.477	73.19
261.71	68.19
261.942	71.19
262.175	68.19
262.407	67.19
262.64	87.19
262.872	86.19
263.105	82.19
263.337	78.19
263.57	93.19
263.802	74.19
264.035	80.19
264.267	70.19
264.499	79.19
264.732	87.19
264.964	91.19
265.197	77.19
265.429	82.19
265.661	68.19
265.894	78.19
266.126	88.19
266.358	85.19
266.591	102.19
266.823	73.19
267.055	87.19
267.287	72.19
267.52	79.19
267.752	72.19
267.984	67.19
268.216	83.19
268.448	80.19
268.681	74.19
268.913	89.19
269.145	82.19
269.377	82.19
269.609	73.19
269.841	87.19
270.073	74.19
270.306	92.19
270.538	86.19
270.77	80.19
271.002	73.19
271.234	76.19
271.466	67.19
271.698	69.19
271.93	76.19
272.162	85.19
272.394	72.19
272.626	68.19
272.858	85.19
273.09	77.19
273.322	77.19
273.553	86.19
273.785	85.19
274.017	88.19
274.249	76.19
274.481	77.19
274.713	74.19
274.945	77.19
275.176	86.19
275.408	74.19
275.64	77.19
275.872	74.19
276.104	79.19
276.335	79.19
276.567	85.19
276.799	82.19
277.031	85.19
277.262	68.19
277.494	80.19
277.726	79.19
277.957	76.19
278.189	70.19
278.421	77.19
278.652	77.19
278.884	68.19
279.115	74.19
279.347	72.19
279.579	82.19
279.81	86.19
280.042	75.19
280.273	87.19
280.505	72.19
280.736	75.19
280.968	89.19
281.199	75.19
281.431	92.19
281.662	75.19
281.894	78.19
282.125	77.19
282.356	87.19
282.588	86.19
282.819	81.19
283.051	75.19
283.282	76.19
283.513	73.19
283.745	82.19
283.976	86.19
284.207	80.19
284.439	86.19
284.67	69.19
284.901	96.19
285.132	83.19
285.364	81.19
285.595	81.19
285.826	85.19
286.057	83.19
286.288	67.19
286.52	84.19
286.751	84.19
286.982	73.19
287.213	83.19
287.444	70.19
287.675	86.19
287.906	91.19
288.138	80.19
288.369	87.19
288.6	89.19
288.831	81.19
289.062	77.19
289.293	72.19
289.524	75.19
289.755	87.19
289.986	105.19
290.217	89.19
290.448	82.19
290.679	97.19
290.91	83.19
291.141	83.19
291.371	70.19
291.602	79.19
291.833	70.19
292.064	85.19
292.295	89.19
292.526	70.19
292.757	85.19
292.987	85.19
293.218	80.19
293.449	72.19
293.68	52.19
293.91	86.19
294.141	79.19
294.372	75.19
294.603	75.19
294.833	89.19
295.064	68.19
295.295	87.19
295.525	77.19
295.756	79.19
295.987	80.19
296.217	82.19
296.448	84.19
296.679	85.19
296.909	85.19
297.14	82.19
297.37	84.19
297.601	71.19
297.831	77.19
298.062	91.19
298.292	79.19
298.523	89.19
298.753	76.19
298.984	84.19
299.214	89.19
299.445	93.19
299.675	77.19
299.905	93.19
300.136	74.19
300.366	87.19
300.597	77.19
300.827	86.19
301.057	79.19
301.288	80.19
301.518	84.19
301.748	81.19
301.979	81.19
302.209	87.19
302.439	73.19
302.669	90.19
302.9	71.19
303.13	90.19
303.36	77.19
303.59	77.19
303.82	81.19
304.051	77.19
304.281	74.19
304.511	72.19
304.741	80.19
304.971	87.19
305.201	96.19
305.431	86.19
305.661	92.19
305.891	77.19
306.121	89.19
306.352	77.19
306.582	73.19
306.812	73.19
307.042	69.19
307.272	75.19
307.502	82.19
307.731	77.19
307.961	73.19
308.191	78.19
308.421	79.19
308.651	72.19
308.881	80.19
309.111	72.19
309.341	74.19
309.571	81.19
309.8	88.19
310.03	79.19
310.26	89.19
310.49	79.19
310.72	79.19
310.949	80.19
311.179	78.19
311.409	83.19
311.639	80.19
311.868	80.19
312.098	72.19
312.328	76.19
312.557	85.19
312.787	82.19
313.017	87.19
313.246	89.19
313.476	83.19
313.706	83.19
313.935	87.19
314.165	85.19
314.394	91.19
314.624	79.19
314.853	67.19
315.083	78.19
315.312	87.19
315.542	81.19
315.771	83.19
316.001	73.19
316.23	72.19
316.46	82.19
316.689	75.19
316.919	92.19
317.148	81.19
317.377	91.19
317.607	76.19
317.836	82.19
318.065	81.19
318.295	82.19
318.524	88.19
318.753	70.19
318.983	80.19
319.212	99.19
319.441	74.19
319.67	77.19
319.9	77.19
320.129	89.19
320.358	88.19
320.587	85.19
320.816	78.19
321.046	75.19
321.275	71.19
321.504	95.19
321.733	93.19
321.962	78.19
322.191	86.19
322.42	96.19
322.649	83.19
322.878	87.19
323.108	83.19
323.337	76.19
323.566	84.19
323.795	80.19
324.024	84.19
324.253	73.19
324.482	85.19
324.71	81.19
324.939	68.19
325.168	88.19
325.397	92.19
325.626	89.19
325.855	89.19
326.084	92.19
326.313	81.19
326.542	87.19
326.77	78.19
326.999	87.19
327.228	86.19
327.457	73.19
327.686	98.19
327.914	82.19
328.143	89.19
328.372	82.19
328.6	77.19
328.829	86.19
329.058	90.19
329.287	78.19
329.515	86.19
329.744	83.19
329.972	80.19
330.201	82.19
330.43	80.19
330.658	79.19
330.887	83.19
331.115	88.19
331.344	92.19
331.572	86.19
331.801	79.19
332.03	85.19
332.258	84.19
332.486	77.19
332.715	76.19
332.943	90.19
333.172	65.19
333.4	70.19
333.629	89.19
333.857	79.19
334.085	92.19
334.314	90.19
334.542	80.19
334.771	78.19
334.999	87.19
335.227	87.19
335.455	77.19
335.684	80.19
335.912	80.19
336.14	93.19
336.369	79.19
336.597	72.19
336.825	92.19
337.053	83.19
337.281	78.19
337.51	74.19
337.738	89.19
337.966	93.19
338.194	83.19
338.422	76.19
338.65	87.19
338.878	82.19
339.106	76.19
339.334	83.19
339.562	74.19
339.79	72.19
340.018	89.19
340.246	89.19
340.474	91.19
340.702	87.19
340.93	78.19
341.158	73.19
341.386	74.19
341.614	79.19
341.842	84.19
342.07	89.19
342.298	85.19
342.526	72.19
342.754	72.19
342.981	89.19
343.209	81.19
343.437	83.19
343.665	72.19
343.893	80.19
344.12	78.19
344.348	82.19
344.576	86.19
344.804	85.19
345.031	88.19
345.259	87.19
345.487	69.19
345.714	79.19
345.942	79.19
346.17	71.19
346.397	82.19
346.625	82.19
346.853	81.19
347.08	86.19
347.308	96.19
347.535	98.19
347.763	65.19
347.99	76.19
348.218	86.19
348.445	70.19
348.673	64.19
348.9	71.19
349.128	77.19
349.355	79.19
349.583	78.19
349.81	75.19
350.037	79.19
350.265	82.19
350.492	88.19
350.72	75.19
350.947	81.19
351.174	73.19
351.402	90.19
351.629	72.19
351.856	76.19
352.083	86.19
352.311	76.19
352.538	82.19
352.765	81.19
352.992	81.19
353.22	76.19
353.447	77.19
353.674	84.19
353.901	88.19
354.128	76.19
354.355	77.19
354.583	71.19
354.81	63.19
355.037	76.19
355.264	84.19
355.491	78.19
355.718	64.19
355.945	72.19
356.172	83.19
356.399	89.19
356.626	79.19
356.853	80.19
357.08	86.19
357.307	84.19
357.534	85.19
357.761	93.19
357.988	78.19
358.215	63.19
358.441	81.19
358.668	73.19
358.895	83.19
359.122	81.19
359.349	87.19
359.576	98.19
359.802	88.19
360.029	77.19
360.256	73.19
360.483	67.19
360.709	73.19
360.936	89.19
361.163	81.19
361.39	72.19
361.616	88.19
361.843	84.19
362.07	79.19
362.296	89.19
362.523	80.19
362.749	85.19
362.976	83.19
363.203	78.19
363.429	86.19
363.656	84.19
363.882	91.19
364.109	86.19
364.335	73.19
364.562	87.19
364.788	87.19
365.015	67.19
365.241	91.19
365.468	60.19
365.694	83.19
365.92	73.19
366.147	85.19
366.373	75.19
366.599	75.19
366.826	80.19
367.052	91.19
367.278	71.19
367.505	69.19
367.731	70.19
367.957	84.19
368.184	76.19
368.41	78.19
368.636	79.19
368.862	97.19
369.089	92.19
369.315	83.19
369.541	85.19
369.767	90.19
369.993	77.19
370.219	88.19
370.445	86.19
370.672	76.19
370.898	91.19
371.124	92.19
371.35	77.19
371.576	77.19
371.802	65.19
372.028	91.19
372.254	72.19
372.48	85.19
372.706	84.19
372.932	95.19
373.158	82.19
373.384	77.19
373.61	83.19
373.835	87.19
374.061	86.19
374.287	90.19
374.513	79.19
374.739	83.19
374.965	80.19
375.191	67.19
375.416	87.19
375.642	76.19
375.868	79.19
376.094	90.19
376.319	73.19
376.545	91.19
376.771	73.19
376.997	84.19
377.222	79.19
377.448	90.19
377.674	87.19
377.899	97.19
378.125	75.19
378.35	81.19
378.576	85.19
378.802	84.19
379.027	69.19
379.253	84.19
379.478	79.19
379.704	79.19
379.929	79.19
380.155	78.19
380.38	64.19
380.606	86.19
380.831	85.19
381.057	99.19
381.282	87.19
381.507	64.19
381.733	85.19
381.958	83.19
382.184	88.19
382.409	93.19
382.634	76.19
382.86	79.19
383.085	80.19
383.31	91.19
383.535	77.19
383.761	72.19
383.986	76.19
384.211	89.19
384.436	92.19
384.662	77.19
384.887	83.19
385.112	93.19
385.337	85.19
385.562	78.19
385.787	82.19
386.013	97.19
386.238	77.19
386.463	89.19
386.688	83.19
386.913	89.19
387.138	69.19
387.363	88.19
387.588	88.19
387.813	85.19
388.038	70.19
388.263	71.19
388.488	85.19
388.713	71.19
388.938	80.19
389.163	90.19
389.387	78.19
389.612	83.19
389.837	86.19
390.062	73.19
390.287	81.19
390.512	84.19
390.736	80.19
390.961	80.19
391.186	87.19
391.411	81.19
391.636	87.19
391.86	80.19
392.085	76.19
392.31	86.19
392.534	82.19
392.759	88.19
392.984	89.19
393.208	79.19
393.433	85.19
393.658	78.19
393.882	81.19
394.107	87.19
394.331	81.19
394.556	80.19
394.78	83.19
395.005	92.19
395.229	74.19
395.454	96.19
395.678	83.19
395.903	83.19
396.127	84.19
396.352	91.19
396.576	84.19
396.801	84.19
397.025	59.19
397.249	85.19
397.474	84.19
397.698	87.19
397.922	88.19
398.147	68.19
398.371	75.19
398.595	82.19
398.82	86.19
399.044	75.19
399.268	93.19
399.492	80.19
399.717	75.19
399.941	85.19
400.165	84.19
400.389	93.19
400.613	80.19
400.837	84.19
401.062	76.19
401.286	79.19
401.51	75.19
401.734	93.19
401.958	78.19
402.182	72.19
402.406	84.19
402.63	96.19
402.854	88.19
403.078	80.19
403.302	94.19
403.526	95.19
403.75	80.19
403.974	81.19
404.198	85.19
404.422	91.19
404.645	79.19
404.869	97.19
405.093	88.19
405.317	73.19
405.541	85.19
405.765	72.19
405.988	82.19
406.212	91.19
406.436	103.19
406.66	92.19
406.883	85.19
407.107	84.19
407.331	85.19
407.555	90.19
407.778	76.19
408.002	95.19
408.226	88.19
408.449	92.19
408.673	94.19
408.896	84.19
409.12	83.19
409.344	93.19
409.567	88.19
409.791	79.19
410.014	86.19
410.238	102.19
410.461	90.19
410.685	100.19
410.908	88.19
411.132	92.19
411.355	78.19
411.578	78.19
411.802	96.19
412.025	93.19
412.249	92.19
412.472	76.19
412.695	78.19
412.919	85.19
413.142	81.19
413.365	83.19
413.589	78.19
413.812	81.19
414.035	81.19
414.258	88.19
414.482	72.19
414.705	89.19
414.928	75.19
415.151	85.19
415.374	87.19
415.597	82.19
415.821	81.19
416.044	77.19
416.267	92.19
416.49	84.19
416.713	85.19
416.936	78.19
417.159	91.19
417.382	89.19
417.605	90.19
417.828	95.19
418.051	95.19
418.274	76.19
418.497	76.19
418.72	87.19
418.943	80.19
419.166	81.19
419.389	96.19
419.611	89.19
419.834	80.19
420.057	98.19
420.28	91.19
420.503	97.19
420.726	109.19
420.948	86.19
421.171	88.19
421.394	73.19
421.617	97.19
421.839	99.19
422.062	80.19
422.285	87.19
422.507	102.19
422.73	78.19
422.953	93.19
423.175	87.19
423.398	77.19
423.621	89.19
423.843	86.19
424.066	97.19
424.288	92.19
424.511	84.19
424.733	71.19
424.956	92.19
425.178	78.19
425.401	82.19
425.623	81.19
425.846	97.19
426.068	92.19
426.291	86.19
426.513	101.19
426.735	83.19
426.958	85.19
427.18	90.19
427.402	89.19
427.625	95.19
427.847	68.19
428.069	90.19
428.292	89.19
428.514	83.19
428.736	89.19
428.958	96.19
429.181	83.19
429.403	81.19
429.625	78.19
429.847	94.19
430.069	91.19
430.292	101.19
430.514	78.19
430.736	95.19
430.958	93.19
431.18	92.19
431.402	79.19
431.624	99.19
431.846	78.19
432.068	88.19
432.29	76.19
432.512	67.19
432.734	87.19
432.956	92.19
433.178	82.19
433.4	85.19
433.622	89.19
433.844	100.19
434.066	83.19
434.287	83.19
434.509	84.19
434.731	73.19
434.953	85.19
435.175	79.19
435.397	94.19
435.618	85.19
435.84	88.19
436.062	73.19
436.284	76.19
436.505	83.19
436.727	94.19
436.949	100.19
437.17	85.19
437.392	88.19
437.614	86.19
437.835	87.19
438.057	77.19
438.278	78.19
438.5	103.19
438.721	89.19
438.943	101.19
439.165	91.19
439.386	102.19
439.608	114.19
439.829	77.19
440.05	99.19
440.272	83.19
440.493	91.19
440.715	94.19
440.936	87.19
441.158	99.19
441.379	92.19
441.6	87.19
441.822	92.19
442.043	84.19
442.264	88.19
442.486	85.19
442.707	95.19
442.928	97.19
443.149	81.19
443.371	79.19
443.592	86.19
443.813	111.19
444.034	101.19
444.255	96.19
444.476	87.19
444.698	96.19
444.919	96.19
445.14	173.19
445.361	133.19
445.582	84.19
445.803	89.19
446.024	103.19
446.245	93.19
446.466	92.19
446.687	99.19
446.908	92.19
447.129	104.19
447.35	101.19
447.571	87.19
447.792	92.19
448.013	87.19
448.234	94.19
448.455	91.19
448.675	95.19
448.896	85.19
449.117	90.19
449.338	92.19
449.559	84.19
449.779	89.19
450	90.19
450.221	92.19
450.442	97.19
450.662	84.19
450.883	76.19
451.104	84.19
451.324	102.19
451.545	91.19
451.766	85.19
451.986	86.19
452.207	85.19
452.428	83.19
452.648	100.19
452.869	92.19
453.089	96.19
453.31	87.19
453.53	80.19
453.751	83.19
453.971	72.19
454.192	81.19
454.412	88.19
454.633	82.19
454.853	91.19
455.073	76.19
455.294	85.19
455.514	88.19
455.734	84.19
455.955	79.19
456.175	95.19
456.395	90.19
456.616	69.19
456.836	81.19
457.056	92.19
457.276	72.19
457.497	98.19
457.717	84.19
457.937	79.19
458.157	90.19
458.377	102.19
458.598	88.19
458.818	86.19
459.038	63.19
459.258	80.19
459.478	72.19
459.698	67.19
459.918	77.19
460.138	82.19
460.358	83.19
460.578	91.19
460.798	76.19
461.018	85.19
461.238	89.19
461.458	86.19
461.678	96.19
461.898	83.19
462.118	75.19
462.338	84.19
462.558	78.19
462.777	71.19
462.997	79.19
463.217	87.19
463.437	83.19
463.657	89.19
463.876	88.19
464.096	80.19
464.316	79.19
464.536	79.19
464.755	83.19
464.975	74.19
465.195	88.19
465.414	74.19
465.634	93.19
465.854	94.19
466.073	98.19
466.293	88.19
466.512	75.19
466.732	93.19
466.951	92.19
467.171	78.19
467.391	79.19
467.61	99.19
467.829	88.19
468.049	90.19
468.268	98.19
468.488	88.19
468.707	77.19
468.927	92.19
469.146	104.19
469.365	95.19
469.585	88.19
469.804	97.19
470.023	94.19
470.243	89.19
470.462	111.19
470.681	105.19
470.901	109.19
471.12	98.19
471.339	88.19
471.558	100.19
471.777	95.19
471.997	93.19
472.216	100.19
472.435	86.19
472.654	76.19
472.873	87.19
473.092	90.19
473.311	89.19
473.53	79.19
473.749	91.19
473.968	97.19
474.187	80.19
474.406	91.19
474.625	102.19
474.844	89.19
475.063	95.19
475.282	101.19
475.501	85.19
475.72	72.19
475.939	86.19
476.158	83.19
476.377	108.19
476.596	89.19
476.814	86.19
477.033	88.19
477.252	85.19
477.471	88.19
477.69	81.19
477.908	100.19
478.127	104.19
478.346	105.19
478.564	96.19
478.783	88.19
479.002	99.19
479.22	91.19
479.439	84.19
479.658	90.19
479.876	84.19
480.095	80.19
480.313	85.19
480.532	102.19
480.751	109.19
480.969	83.19
481.188	93.19
481.406	91.19
481.624	70.19
481.843	90.19
482.061	88.19
482.28	73.19
482.498	78.19
482.717	82.19
482.935	91.19
483.153	93.19
483.372	94.19
483.59	105.19
483.808	95.19
484.027	100.19
484.245	95.19
484.463	95.19
484.681	102.19
484.9	97.19
485.118	93.19
485.336	81.19
485.554	76.19
485.772	89.19
485.99	83.19
486.209	77.19
486.427	85.19
486.645	84.19
486.863	93.19
487.081	99.19
487.299	88.19
487.517	89.19
487.735	97.19
487.953	111.19
488.171	100.19
488.389	107.19
488.607	94.19
488.825	83.19
489.043	85.19
489.261	88.19
489.479	86.19
489.696	98.19
489.914	86.19
490.132	93.19
490.35	101.19
490.568	116.19
490.786	121.19
491.003	95.19
491.221	88.19
491.439	109.19
491.657	103.19
491.874	117.19
492.092	114.19
492.31	112.19
492.527	109.19
492.745	107.19
492.963	101.19
493.18	112.19
493.398	100.19
493.615	101.19
493.833	124.19
494.05	109.19
494.268	109.19
494.485	99.19
494.703	113.19
494.92	95.19
495.138	111.19
495.355	107.19
495.573	118.19
495.79	104.19
496.008	109.19
496.225	94.19
496.442	102.19
496.66	92.19
496.877	93.19
497.094	93.19
497.312	101.19
497.529	87.19
497.746	98.19
497.963	79.19
498.181	99.19
498.398	89.19
498.615	91.19
498.832	86.19
499.049	90.19
499.267	91.19
499.484	92.19
499.701	89.19
499.918	99.19
500.135	106.19
500.352	90.19
500.569	101.19
500.786	106.19
501.003	102.19
501.22	90.19
501.437	108.19
501.654	106.19
501.871	86.19
502.088	95.19
502.305	93.19
502.522	101.19
502.739	88.19
502.956	92.19
503.172	92.19
503.389	91.19
503.606	81.19
503.823	75.19
504.04	84.19
504.256	98.19
504.473	78.19
504.69	92.19
504.907	59.19
505.123	94.19
505.34	100.19
505.557	103.19
505.773	101.19
505.99	100.19
506.207	87.19
506.423	78.19
506.64	84.19
506.856	96.19
507.073	93.19
507.289	81.19
507.506	104.19
507.722	88.19
507.939	76.19
508.155	79.19
508.372	91.19
508.588	90.19
508.805	80.19
509.021	83.19
509.238	80.19
509.454	87.19
509.67	94.19
509.887	96.19
510.103	73.19
510.319	89.19
510.536	90.19
510.752	77.19
510.968	81.19
511.184	87.19
511.401	93.19
511.617	72.19
511.833	75.19
512.049	77.19
512.265	64.19
512.481	76.19
512.698	81.19
512.914	93.19
513.13	75.19
513.346	76.19
513.562	87.19
513.778	88.19
513.994	65.19
514.21	75.19
514.426	88.19
514.642	82.19
514.858	78.19
515.074	74.19
515.29	90.19
515.506	84.19
515.721	83.19
515.937	80.19
516.153	76.19
516.369	73.19
516.585	82.19
516.801	71.19
517.016	79.19
517.232	81.19
517.448	87.19
517.664	101.19
517.879	87.19
518.095	87.19
518.311	73.19
