Data from Location5.07152019.Energy5.Lamp.07192019.3%Agarose_HRD10591_16-03-58-628.txt Node
Date: Fri Jul 19 16:03:58 EDT 2019
User: cochatt
Spectrometer: HR+D1059
Trigger mode: 1
Integration Time (sec): 1.000000E-1
Scans to average: 1
Electric dark correction enabled: true
Nonlinearity correction enabled: false
Boxcar width: 0
XAxis mode: Wavelengths
Number of Pixels in Spectrum: 2048
>>>>>Begin Spectral Data<<<<<
223.165	-11.94
223.4	-11.94
223.635	-11.94
223.869	-22.94
224.104	-17.94
224.338	-15.94
224.573	-4.94
224.808	-17.94
225.042	-11.94
225.277	-1.94
225.511	-6.94
225.746	0.06
225.98	2.06
226.215	23.06
226.449	19.06
226.683	17.06
226.918	16.06
227.152	35.06
227.387	32.06
227.621	37.06
227.856	31.06
228.09	49.06
228.324	53.06
228.559	51.06
228.793	50.06
229.027	54.06
229.262	77.06
229.496	55.06
229.73	66.06
229.964	60.06
230.199	64.06
230.433	67.06
230.667	76.06
230.901	83.06
231.136	84.06
231.37	90.06
231.604	76.06
231.838	92.06
232.072	85.06
232.306	84.06
232.541	69.06
232.775	77.06
233.009	86.06
233.243	90.06
233.477	89.06
233.711	86.06
233.945	87.06
234.179	94.06
234.413	81.06
234.647	90.06
234.881	79.06
235.115	80.06
235.349	91.06
235.583	80.06
235.817	84.06
236.051	80.06
236.285	73.06
236.519	70.06
236.753	88.06
236.987	82.06
237.221	75.06
237.455	69.06
237.689	66.06
237.922	92.06
238.156	73.06
238.39	89.06
238.624	74.06
238.858	69.06
239.091	70.06
239.325	81.06
239.559	89.06
239.793	75.06
240.027	87.06
240.26	68.06
240.494	64.06
240.728	60.06
240.961	83.06
241.195	80.06
241.429	67.06
241.662	67.06
241.896	82.06
242.13	74.06
242.363	63.06
242.597	78.06
242.83	78.06
243.064	72.06
243.298	80.06
243.531	65.06
243.765	89.06
243.998	74.06
244.232	89.06
244.465	82.06
244.699	75.06
244.932	89.06
245.166	68.06
245.399	97.06
245.633	81.06
245.866	83.06
246.099	94.06
246.333	76.06
246.566	84.06
246.8	84.06
247.033	82.06
247.266	90.06
247.5	85.06
247.733	83.06
247.966	76.06
248.2	71.06
248.433	75.06
248.666	78.06
248.899	80.06
249.133	75.06
249.366	80.06
249.599	73.06
249.832	89.06
250.066	97.06
250.299	80.06
250.532	81.06
250.765	95.06
250.998	78.06
251.231	80.06
251.465	79.06
251.698	97.06
251.931	90.06
252.164	91.06
252.397	83.06
252.63	87.06
252.863	86.06
253.096	86.06
253.329	90.06
253.562	73.06
253.795	90.06
254.028	88.06
254.261	91.06
254.494	83.06
254.727	85.06
254.96	79.06
255.193	84.06
255.426	82.06
255.659	83.06
255.892	90.06
256.124	85.06
256.357	88.06
256.59	72.06
256.823	84.06
257.056	84.06
257.289	78.06
257.521	98.06
257.754	71.06
257.987	69.06
258.22	92.06
258.452	91.06
258.685	85.06
258.918	80.06
259.151	86.06
259.383	99.06
259.616	82.06
259.849	86.06
260.081	95.06
260.314	95.06
260.547	83.06
260.779	89.06
261.012	86.06
261.244	75.06
261.477	86.06
261.71	93.06
261.942	87.06
262.175	85.06
262.407	84.06
262.64	90.06
262.872	84.06
263.105	91.06
263.337	86.06
263.57	79.06
263.802	91.06
264.035	90.06
264.267	92.06
264.499	90.06
264.732	82.06
264.964	70.06
265.197	85.06
265.429	96.06
265.661	75.06
265.894	84.06
266.126	81.06
266.358	92.06
266.591	89.06
266.823	86.06
267.055	75.06
267.287	82.06
267.52	75.06
267.752	95.06
267.984	82.06
268.216	80.06
268.448	76.06
268.681	89.06
268.913	79.06
269.145	87.06
269.377	83.06
269.609	96.06
269.841	95.06
270.073	82.06
270.306	90.06
270.538	72.06
270.77	101.06
271.002	82.06
271.234	101.06
271.466	90.06
271.698	82.06
271.93	81.06
272.162	96.06
272.394	86.06
272.626	88.06
272.858	79.06
273.09	99.06
273.322	90.06
273.553	83.06
273.785	68.06
274.017	79.06
274.249	87.06
274.481	82.06
274.713	85.06
274.945	88.06
275.176	86.06
275.408	84.06
275.64	68.06
275.872	74.06
276.104	102.06
276.335	85.06
276.567	86.06
276.799	85.06
277.031	95.06
277.262	86.06
277.494	85.06
277.726	98.06
277.957	94.06
278.189	78.06
278.421	94.06
278.652	82.06
278.884	90.06
279.115	88.06
279.347	98.06
279.579	97.06
279.81	88.06
280.042	95.06
280.273	92.06
280.505	81.06
280.736	91.06
280.968	83.06
281.199	82.06
281.431	84.06
281.662	100.06
281.894	92.06
282.125	96.06
282.356	96.06
282.588	91.06
282.819	99.06
283.051	74.06
283.282	85.06
283.513	102.06
283.745	91.06
283.976	90.06
284.207	95.06
284.439	92.06
284.67	87.06
284.901	100.06
285.132	97.06
285.364	82.06
285.595	83.06
285.826	86.06
286.057	97.06
286.288	75.06
286.52	79.06
286.751	79.06
286.982	87.06
287.213	89.06
287.444	83.06
287.675	82.06
287.906	89.06
288.138	95.06
288.369	82.06
288.6	88.06
288.831	95.06
289.062	106.06
289.293	95.06
289.524	94.06
289.755	91.06
289.986	90.06
290.217	97.06
290.448	97.06
290.679	89.06
290.91	98.06
291.141	91.06
291.371	102.06
291.602	101.06
291.833	94.06
292.064	84.06
292.295	93.06
292.526	80.06
292.757	86.06
292.987	99.06
293.218	96.06
293.449	80.06
293.68	84.06
293.91	88.06
294.141	95.06
294.372	91.06
294.603	95.06
294.833	92.06
295.064	96.06
295.295	90.06
295.525	96.06
295.756	91.06
295.987	94.06
296.217	95.06
296.448	89.06
296.679	70.06
296.909	90.06
297.14	94.06
297.37	80.06
297.601	95.06
297.831	81.06
298.062	91.06
298.292	85.06
298.523	96.06
298.753	88.06
298.984	78.06
299.214	95.06
299.445	84.06
299.675	111.06
299.905	102.06
300.136	88.06
300.366	84.06
300.597	90.06
300.827	90.06
301.057	80.06
301.288	85.06
301.518	93.06
301.748	92.06
301.979	88.06
302.209	105.06
302.439	97.06
302.669	92.06
302.9	95.06
303.13	91.06
303.36	97.06
303.59	105.06
303.82	95.06
304.051	95.06
304.281	82.06
304.511	88.06
304.741	84.06
304.971	95.06
305.201	103.06
305.431	93.06
305.661	82.06
305.891	94.06
306.121	85.06
306.352	77.06
306.582	83.06
306.812	102.06
307.042	104.06
307.272	92.06
307.502	92.06
307.731	97.06
307.961	99.06
308.191	87.06
308.421	90.06
308.651	88.06
308.881	97.06
309.111	88.06
309.341	95.06
309.571	102.06
309.8	95.06
310.03	78.06
310.26	87.06
310.49	85.06
310.72	84.06
310.949	94.06
311.179	88.06
311.409	80.06
311.639	100.06
311.868	92.06
312.098	95.06
312.328	87.06
312.557	95.06
312.787	98.06
313.017	96.06
313.246	87.06
313.476	86.06
313.706	83.06
313.935	84.06
314.165	98.06
314.394	94.06
314.624	100.06
314.853	80.06
315.083	86.06
315.312	88.06
315.542	83.06
315.771	100.06
316.001	97.06
316.23	112.06
316.46	93.06
316.689	77.06
316.919	88.06
317.148	92.06
317.377	86.06
317.607	94.06
317.836	90.06
318.065	100.06
318.295	97.06
318.524	93.06
318.753	93.06
318.983	91.06
319.212	102.06
319.441	103.06
319.67	72.06
319.9	86.06
320.129	98.06
320.358	103.06
320.587	102.06
320.816	104.06
321.046	98.06
321.275	101.06
321.504	101.06
321.733	92.06
321.962	84.06
322.191	84.06
322.42	90.06
322.649	80.06
322.878	86.06
323.108	90.06
323.337	103.06
323.566	102.06
323.795	95.06
324.024	100.06
324.253	86.06
324.482	84.06
324.71	101.06
324.939	105.06
325.168	91.06
325.397	102.06
325.626	101.06
325.855	99.06
326.084	92.06
326.313	89.06
326.542	97.06
326.77	110.06
326.999	86.06
327.228	100.06
327.457	114.06
327.686	92.06
327.914	96.06
328.143	99.06
328.372	83.06
328.6	104.06
328.829	105.06
329.058	90.06
329.287	94.06
329.515	99.06
329.744	103.06
329.972	99.06
330.201	107.06
330.43	92.06
330.658	80.06
330.887	94.06
331.115	99.06
331.344	80.06
331.572	92.06
331.801	100.06
332.03	93.06
332.258	95.06
332.486	88.06
332.715	105.06
332.943	115.06
333.172	95.06
333.4	105.06
333.629	99.06
333.857	106.06
334.085	94.06
334.314	88.06
334.542	90.06
334.771	98.06
334.999	107.06
335.227	95.06
335.455	74.06
335.684	92.06
335.912	88.06
336.14	104.06
336.369	88.06
336.597	94.06
336.825	84.06
337.053	95.06
337.281	81.06
337.51	86.06
337.738	84.06
337.966	94.06
338.194	92.06
338.422	104.06
338.65	85.06
338.878	100.06
339.106	98.06
339.334	75.06
339.562	89.06
339.79	86.06
340.018	88.06
340.246	104.06
340.474	82.06
340.702	93.06
340.93	99.06
341.158	101.06
341.386	108.06
341.614	89.06
341.842	96.06
342.07	91.06
342.298	97.06
342.526	106.06
342.754	84.06
342.981	85.06
343.209	97.06
343.437	104.06
343.665	111.06
343.893	90.06
344.12	114.06
344.348	87.06
344.576	85.06
344.804	82.06
345.031	91.06
345.259	94.06
345.487	96.06
345.714	88.06
345.942	79.06
346.17	96.06
346.397	99.06
346.625	86.06
346.853	94.06
347.08	102.06
347.308	86.06
347.535	90.06
347.763	87.06
347.99	92.06
348.218	92.06
348.445	99.06
348.673	95.06
348.9	100.06
349.128	98.06
349.355	94.06
349.583	91.06
349.81	90.06
350.037	101.06
350.265	90.06
350.492	94.06
350.72	79.06
350.947	84.06
351.174	104.06
351.402	106.06
351.629	84.06
351.856	106.06
352.083	95.06
352.311	90.06
352.538	92.06
352.765	100.06
352.992	87.06
353.22	88.06
353.447	86.06
353.674	100.06
353.901	95.06
354.128	91.06
354.355	93.06
354.583	102.06
354.81	87.06
355.037	85.06
355.264	97.06
355.491	84.06
355.718	81.06
355.945	82.06
356.172	79.06
356.399	83.06
356.626	105.06
356.853	72.06
357.08	93.06
357.307	98.06
357.534	95.06
357.761	89.06
357.988	91.06
358.215	98.06
358.441	97.06
358.668	87.06
358.895	94.06
359.122	99.06
359.349	78.06
359.576	70.06
359.802	104.06
360.029	86.06
360.256	86.06
360.483	105.06
360.709	95.06
360.936	90.06
361.163	99.06
361.39	86.06
361.616	84.06
361.843	98.06
362.07	86.06
362.296	87.06
362.523	97.06
362.749	91.06
362.976	98.06
363.203	99.06
363.429	87.06
363.656	83.06
363.882	95.06
364.109	89.06
364.335	87.06
364.562	93.06
364.788	86.06
365.015	92.06
365.241	90.06
365.468	92.06
365.694	102.06
365.92	93.06
366.147	97.06
366.373	81.06
366.599	86.06
366.826	83.06
367.052	97.06
367.278	95.06
367.505	90.06
367.731	82.06
367.957	98.06
368.184	92.06
368.41	88.06
368.636	84.06
368.862	88.06
369.089	97.06
369.315	85.06
369.541	84.06
369.767	77.06
369.993	94.06
370.219	83.06
370.445	112.06
370.672	90.06
370.898	89.06
371.124	93.06
371.35	89.06
371.576	93.06
371.802	98.06
372.028	110.06
372.254	105.06
372.48	88.06
372.706	92.06
372.932	92.06
373.158	90.06
373.384	92.06
373.61	91.06
373.835	83.06
374.061	103.06
374.287	91.06
374.513	96.06
374.739	94.06
374.965	90.06
375.191	89.06
375.416	90.06
375.642	94.06
375.868	89.06
376.094	91.06
376.319	84.06
376.545	99.06
376.771	101.06
376.997	85.06
377.222	95.06
377.448	96.06
377.674	95.06
377.899	87.06
378.125	91.06
378.35	94.06
378.576	91.06
378.802	89.06
379.027	79.06
379.253	105.06
379.478	106.06
379.704	96.06
379.929	101.06
380.155	111.06
380.38	96.06
380.606	91.06
380.831	99.06
381.057	96.06
381.282	99.06
381.507	94.06
381.733	95.06
381.958	83.06
382.184	99.06
382.409	92.06
382.634	94.06
382.86	102.06
383.085	96.06
383.31	94.06
383.535	94.06
383.761	95.06
383.986	91.06
384.211	93.06
384.436	83.06
384.662	91.06
384.887	95.06
385.112	92.06
385.337	74.06
385.562	91.06
385.787	98.06
386.013	95.06
386.238	88.06
386.463	104.06
386.688	93.06
386.913	84.06
387.138	103.06
387.363	96.06
387.588	94.06
387.813	98.06
388.038	101.06
388.263	96.06
388.488	81.06
388.713	80.06
388.938	102.06
389.163	90.06
389.387	88.06
389.612	96.06
389.837	97.06
390.062	93.06
390.287	101.06
390.512	85.06
390.736	88.06
390.961	95.06
391.186	102.06
391.411	91.06
391.636	85.06
391.86	94.06
392.085	97.06
392.31	93.06
392.534	97.06
392.759	89.06
392.984	85.06
393.208	83.06
393.433	86.06
393.658	87.06
393.882	100.06
394.107	99.06
394.331	106.06
394.556	95.06
394.78	91.06
395.005	89.06
395.229	86.06
395.454	101.06
395.678	102.06
395.903	96.06
396.127	84.06
396.352	96.06
396.576	106.06
396.801	105.06
397.025	109.06
397.249	80.06
397.474	97.06
397.698	110.06
397.922	102.06
398.147	104.06
398.371	77.06
398.595	116.06
398.82	102.06
399.044	94.06
399.268	97.06
399.492	110.06
399.717	104.06
399.941	96.06
400.165	98.06
400.389	100.06
400.613	107.06
400.837	110.06
401.062	93.06
401.286	94.06
401.51	120.06
401.734	90.06
401.958	92.06
402.182	91.06
402.406	92.06
402.63	86.06
402.854	93.06
403.078	110.06
403.302	103.06
403.526	102.06
403.75	110.06
403.974	91.06
404.198	87.06
404.422	105.06
404.645	96.06
404.869	95.06
405.093	89.06
405.317	86.06
405.541	91.06
405.765	110.06
405.988	106.06
406.212	96.06
406.436	87.06
406.66	94.06
406.883	86.06
407.107	96.06
407.331	107.06
407.555	99.06
407.778	107.06
408.002	115.06
408.226	110.06
408.449	103.06
408.673	115.06
408.896	112.06
409.12	95.06
409.344	86.06
409.567	101.06
409.791	112.06
410.014	107.06
410.238	107.06
410.461	99.06
410.685	110.06
410.908	87.06
411.132	96.06
411.355	110.06
411.578	106.06
411.802	104.06
412.025	103.06
412.249	110.06
412.472	105.06
412.695	107.06
412.919	94.06
413.142	99.06
413.365	113.06
413.589	98.06
413.812	103.06
414.035	104.06
414.258	88.06
414.482	90.06
414.705	99.06
414.928	95.06
415.151	90.06
415.374	95.06
415.597	90.06
415.821	98.06
416.044	100.06
416.267	98.06
416.49	85.06
416.713	97.06
416.936	102.06
417.159	99.06
417.382	102.06
417.605	84.06
417.828	98.06
418.051	93.06
418.274	105.06
418.497	91.06
418.72	97.06
418.943	95.06
419.166	108.06
419.389	105.06
419.611	92.06
419.834	94.06
420.057	99.06
420.28	94.06
420.503	85.06
420.726	100.06
420.948	91.06
421.171	89.06
421.394	84.06
421.617	101.06
421.839	102.06
422.062	102.06
422.285	95.06
422.507	99.06
422.73	96.06
422.953	91.06
423.175	86.06
423.398	95.06
423.621	95.06
423.843	105.06
424.066	97.06
424.288	102.06
424.511	96.06
424.733	106.06
424.956	102.06
425.178	99.06
425.401	113.06
425.623	98.06
425.846	102.06
426.068	78.06
426.291	95.06
426.513	99.06
426.735	97.06
426.958	81.06
427.18	95.06
427.402	105.06
427.625	88.06
427.847	94.06
428.069	103.06
428.292	97.06
428.514	84.06
428.736	99.06
428.958	102.06
429.181	95.06
429.403	88.06
429.625	87.06
429.847	94.06
430.069	90.06
430.292	114.06
430.514	77.06
430.736	86.06
430.958	106.06
431.18	110.06
431.402	102.06
431.624	91.06
431.846	94.06
432.068	96.06
432.29	92.06
432.512	95.06
432.734	90.06
432.956	81.06
433.178	88.06
433.4	101.06
433.622	105.06
433.844	111.06
434.066	99.06
434.287	96.06
434.509	96.06
434.731	91.06
434.953	93.06
435.175	98.06
435.397	79.06
435.618	78.06
435.84	80.06
436.062	101.06
436.284	105.06
436.505	101.06
436.727	102.06
436.949	84.06
437.17	95.06
437.392	94.06
437.614	100.06
437.835	89.06
438.057	78.06
438.278	86.06
438.5	94.06
438.721	115.06
438.943	110.06
439.165	89.06
439.386	100.06
439.608	94.06
439.829	101.06
440.05	102.06
440.272	98.06
440.493	102.06
440.715	102.06
440.936	111.06
441.158	96.06
441.379	99.06
441.6	100.06
441.822	96.06
442.043	97.06
442.264	110.06
442.486	105.06
442.707	118.06
442.928	99.06
443.149	89.06
443.371	122.06
443.592	104.06
443.813	95.06
444.034	101.06
444.255	88.06
444.476	96.06
444.698	104.06
444.919	114.06
445.14	176.06
445.361	128.06
445.582	88.06
445.803	90.06
446.024	100.06
446.245	99.06
446.466	93.06
446.687	93.06
446.908	98.06
447.129	97.06
447.35	108.06
447.571	99.06
447.792	87.06
448.013	76.06
448.234	82.06
448.455	85.06
448.675	91.06
448.896	88.06
449.117	93.06
449.338	91.06
449.559	95.06
449.779	94.06
450	98.06
450.221	86.06
450.442	107.06
450.662	104.06
450.883	84.06
451.104	86.06
451.324	105.06
451.545	98.06
451.766	85.06
451.986	94.06
452.207	97.06
452.428	90.06
452.648	84.06
452.869	101.06
453.089	100.06
453.31	103.06
453.53	91.06
453.751	100.06
453.971	101.06
454.192	83.06
454.412	86.06
454.633	91.06
454.853	97.06
455.073	74.06
455.294	99.06
455.514	99.06
455.734	86.06
455.955	94.06
456.175	90.06
456.395	87.06
456.616	107.06
456.836	95.06
457.056	88.06
457.276	94.06
457.497	89.06
457.717	107.06
457.937	103.06
458.157	90.06
458.377	91.06
458.598	106.06
458.818	106.06
459.038	82.06
459.258	102.06
459.478	93.06
459.698	96.06
459.918	98.06
460.138	102.06
460.358	97.06
460.578	99.06
460.798	91.06
461.018	86.06
461.238	99.06
461.458	90.06
461.678	90.06
461.898	118.06
462.118	100.06
462.338	95.06
462.558	106.06
462.777	106.06
462.997	101.06
463.217	100.06
463.437	104.06
463.657	103.06
463.876	103.06
464.096	110.06
464.316	107.06
464.536	100.06
464.755	105.06
464.975	89.06
465.195	88.06
465.414	85.06
465.634	83.06
465.854	95.06
466.073	99.06
466.293	100.06
466.512	103.06
466.732	94.06
466.951	89.06
467.171	113.06
467.391	85.06
467.61	97.06
467.829	92.06
468.049	101.06
468.268	122.06
468.488	101.06
468.707	100.06
468.927	101.06
469.146	103.06
469.365	116.06
469.585	110.06
469.804	99.06
470.023	104.06
470.243	103.06
470.462	111.06
470.681	96.06
470.901	88.06
471.12	92.06
471.339	112.06
471.558	100.06
471.777	100.06
471.997	103.06
472.216	92.06
472.435	89.06
472.654	105.06
472.873	92.06
473.092	87.06
473.311	92.06
473.53	90.06
473.749	101.06
473.968	94.06
474.187	94.06
474.406	98.06
474.625	93.06
474.844	101.06
475.063	118.06
475.282	102.06
475.501	91.06
475.72	116.06
475.939	95.06
476.158	95.06
476.377	98.06
476.596	108.06
476.814	99.06
477.033	107.06
477.252	92.06
477.471	101.06
477.69	98.06
477.908	104.06
478.127	112.06
478.346	116.06
478.564	99.06
478.783	99.06
479.002	102.06
479.22	106.06
479.439	96.06
479.658	104.06
479.876	86.06
480.095	101.06
480.313	105.06
480.532	99.06
480.751	118.06
480.969	124.06
481.188	104.06
481.406	112.06
481.624	120.06
481.843	108.06
482.061	117.06
482.28	113.06
482.498	88.06
482.717	99.06
482.935	104.06
483.153	100.06
483.372	119.06
483.59	106.06
483.808	101.06
484.027	100.06
484.245	107.06
484.463	104.06
484.681	95.06
484.9	111.06
485.118	99.06
485.336	100.06
485.554	126.06
485.772	100.06
485.99	96.06
486.209	105.06
486.427	91.06
486.645	84.06
486.863	104.06
487.081	115.06
487.299	93.06
487.517	114.06
487.735	110.06
487.953	111.06
488.171	116.06
488.389	108.06
488.607	94.06
488.825	86.06
489.043	114.06
489.261	102.06
489.479	110.06
489.696	99.06
489.914	93.06
490.132	102.06
490.35	108.06
490.568	110.06
490.786	104.06
491.003	104.06
491.221	100.06
491.439	118.06
491.657	98.06
491.874	100.06
492.092	126.06
492.31	130.06
492.527	113.06
492.745	107.06
492.963	107.06
493.18	120.06
493.398	118.06
493.615	98.06
493.833	99.06
494.05	108.06
494.268	111.06
494.485	115.06
494.703	101.06
494.92	97.06
495.138	116.06
495.355	121.06
495.573	101.06
495.79	104.06
496.008	106.06
496.225	102.06
496.442	85.06
496.66	107.06
496.877	119.06
497.094	123.06
497.312	95.06
497.529	106.06
497.746	102.06
497.963	118.06
498.181	115.06
498.398	127.06
498.615	131.06
498.832	117.06
499.049	122.06
499.267	117.06
499.484	124.06
499.701	131.06
499.918	147.06
500.135	142.06
500.352	159.06
500.569	153.06
500.786	163.06
501.003	158.06
501.22	150.06
501.437	148.06
501.654	117.06
501.871	130.06
502.088	130.06
502.305	124.06
502.522	115.06
502.739	100.06
502.956	113.06
503.172	122.06
503.389	110.06
503.606	112.06
503.823	121.06
504.04	120.06
504.256	127.06
504.473	107.06
504.69	115.06
504.907	112.06
505.123	107.06
505.34	97.06
505.557	97.06
505.773	123.06
505.99	119.06
506.207	111.06
506.423	100.06
506.64	102.06
506.856	95.06
507.073	114.06
507.289	108.06
507.506	110.06
507.722	107.06
507.939	88.06
508.155	111.06
508.372	94.06
508.588	99.06
508.805	99.06
509.021	107.06
509.238	92.06
509.454	92.06
509.67	110.06
509.887	95.06
510.103	94.06
510.319	97.06
510.536	104.06
510.752	103.06
510.968	110.06
511.184	110.06
511.401	106.06
511.617	108.06
511.833	104.06
512.049	101.06
512.265	104.06
512.481	101.06
512.698	120.06
512.914	90.06
513.13	100.06
513.346	110.06
513.562	96.06
513.778	100.06
513.994	99.06
514.21	99.06
