Data from Location5.07152019.Energy5.Lamp.07192019.3%Agarose_HRD10591_16-04-04-628.txt Node
Date: Fri Jul 19 16:04:04 EDT 2019
User: cochatt
Spectrometer: HR+D1059
Trigger mode: 1
Integration Time (sec): 1.000000E-1
Scans to average: 1
Electric dark correction enabled: true
Nonlinearity correction enabled: false
Boxcar width: 0
XAxis mode: Wavelengths
Number of Pixels in Spectrum: 2048
>>>>>Begin Spectral Data<<<<<
223.165	-14.81
223.4	-14.81
223.635	-14.81
223.869	-15.81
224.104	-24.81
224.338	-5.81
224.573	-14.81
224.808	-17.81
225.042	-9.81
225.277	-1.81
225.511	-1.81
225.746	13.19
225.98	3.19
226.215	14.19
226.449	14.19
226.683	12.19
226.918	19.19
227.152	31.19
227.387	30.19
227.621	29.19
227.856	33.19
228.09	48.19
228.324	42.19
228.559	58.19
228.793	56.19
229.027	62.19
229.262	66.19
229.496	63.19
229.73	80.19
229.964	65.19
230.199	65.19
230.433	79.19
230.667	77.19
230.901	80.19
231.136	80.19
231.37	83.19
231.604	82.19
231.838	90.19
232.072	63.19
232.306	72.19
232.541	81.19
232.775	80.19
233.009	80.19
233.243	71.19
233.477	87.19
233.711	86.19
233.945	68.19
234.179	75.19
234.413	66.19
234.647	73.19
234.881	80.19
235.115	88.19
235.349	75.19
235.583	94.19
235.817	79.19
236.051	63.19
236.285	75.19
236.519	71.19
236.753	69.19
236.987	66.19
237.221	83.19
237.455	76.19
237.689	83.19
237.922	88.19
238.156	84.19
238.39	80.19
238.624	63.19
238.858	75.19
239.091	79.19
239.325	82.19
239.559	73.19
239.793	68.19
240.027	80.19
240.26	75.19
240.494	75.19
240.728	71.19
240.961	80.19
241.195	83.19
241.429	67.19
241.662	74.19
241.896	72.19
242.13	70.19
242.363	73.19
242.597	75.19
242.83	75.19
243.064	67.19
243.298	66.19
243.531	58.19
243.765	71.19
243.998	79.19
244.232	98.19
244.465	78.19
244.699	67.19
244.932	78.19
245.166	81.19
245.399	79.19
245.633	80.19
245.866	77.19
246.099	75.19
246.333	73.19
246.566	72.19
246.8	80.19
247.033	77.19
247.266	71.19
247.5	74.19
247.733	85.19
247.966	74.19
248.2	79.19
248.433	93.19
248.666	82.19
248.899	83.19
249.133	78.19
249.366	87.19
249.599	81.19
249.832	75.19
250.066	72.19
250.299	73.19
250.532	79.19
250.765	76.19
250.998	87.19
251.231	79.19
251.465	66.19
251.698	70.19
251.931	86.19
252.164	74.19
252.397	78.19
252.63	72.19
252.863	68.19
253.096	67.19
253.329	82.19
253.562	78.19
253.795	86.19
254.028	75.19
254.261	72.19
254.494	74.19
254.727	73.19
254.96	77.19
255.193	81.19
255.426	88.19
255.659	83.19
255.892	97.19
256.124	81.19
256.357	81.19
256.59	80.19
256.823	81.19
257.056	73.19
257.289	85.19
257.521	71.19
257.754	88.19
257.987	71.19
258.22	84.19
258.452	96.19
258.685	77.19
258.918	91.19
259.151	83.19
259.383	74.19
259.616	78.19
259.849	75.19
260.081	87.19
260.314	86.19
260.547	79.19
260.779	81.19
261.012	88.19
261.244	67.19
261.477	82.19
261.71	83.19
261.942	85.19
262.175	74.19
262.407	82.19
262.64	88.19
262.872	78.19
263.105	88.19
263.337	85.19
263.57	78.19
263.802	89.19
264.035	87.19
264.267	83.19
264.499	87.19
264.732	92.19
264.964	74.19
265.197	81.19
265.429	90.19
265.661	81.19
265.894	90.19
266.126	83.19
266.358	92.19
266.591	96.19
266.823	92.19
267.055	80.19
267.287	87.19
267.52	89.19
267.752	90.19
267.984	80.19
268.216	72.19
268.448	77.19
268.681	91.19
268.913	88.19
269.145	88.19
269.377	89.19
269.609	80.19
269.841	95.19
270.073	95.19
270.306	81.19
270.538	96.19
270.77	94.19
271.002	82.19
271.234	81.19
271.466	90.19
271.698	75.19
271.93	88.19
272.162	75.19
272.394	91.19
272.626	98.19
272.858	69.19
273.09	88.19
273.322	105.19
273.553	80.19
273.785	83.19
274.017	88.19
274.249	84.19
274.481	81.19
274.713	96.19
274.945	97.19
275.176	89.19
275.408	93.19
275.64	99.19
275.872	84.19
276.104	81.19
276.335	84.19
276.567	76.19
276.799	81.19
277.031	94.19
277.262	84.19
277.494	87.19
277.726	79.19
277.957	79.19
278.189	91.19
278.421	85.19
278.652	98.19
278.884	77.19
279.115	91.19
279.347	74.19
279.579	90.19
279.81	91.19
280.042	96.19
280.273	81.19
280.505	94.19
280.736	89.19
280.968	76.19
281.199	85.19
281.431	82.19
281.662	99.19
281.894	90.19
282.125	84.19
282.356	65.19
282.588	80.19
282.819	86.19
283.051	87.19
283.282	102.19
283.513	84.19
283.745	90.19
283.976	84.19
284.207	85.19
284.439	101.19
284.67	100.19
284.901	89.19
285.132	102.19
285.364	93.19
285.595	87.19
285.826	93.19
286.057	92.19
286.288	88.19
286.52	98.19
286.751	95.19
286.982	87.19
287.213	90.19
287.444	95.19
287.675	79.19
287.906	88.19
288.138	98.19
288.369	94.19
288.6	87.19
288.831	63.19
289.062	99.19
289.293	100.19
289.524	95.19
289.755	82.19
289.986	88.19
290.217	84.19
290.448	84.19
290.679	86.19
290.91	87.19
291.141	94.19
291.371	89.19
291.602	91.19
291.833	93.19
292.064	86.19
292.295	98.19
292.526	94.19
292.757	85.19
292.987	81.19
293.218	87.19
293.449	86.19
293.68	82.19
293.91	86.19
294.141	78.19
294.372	82.19
294.603	83.19
294.833	98.19
295.064	101.19
295.295	95.19
295.525	93.19
295.756	94.19
295.987	91.19
296.217	91.19
296.448	79.19
296.679	90.19
296.909	70.19
297.14	89.19
297.37	89.19
297.601	88.19
297.831	88.19
298.062	81.19
298.292	81.19
298.523	86.19
298.753	75.19
298.984	80.19
299.214	81.19
299.445	98.19
299.675	81.19
299.905	89.19
300.136	102.19
300.366	100.19
300.597	90.19
300.827	79.19
301.057	100.19
301.288	92.19
301.518	92.19
301.748	97.19
301.979	99.19
302.209	99.19
302.439	96.19
302.669	86.19
302.9	92.19
303.13	101.19
303.36	85.19
303.59	93.19
303.82	92.19
304.051	92.19
304.281	89.19
304.511	77.19
304.741	99.19
304.971	96.19
305.201	106.19
305.431	81.19
305.661	85.19
305.891	86.19
306.121	88.19
306.352	85.19
306.582	94.19
306.812	85.19
307.042	94.19
307.272	88.19
307.502	93.19
307.731	87.19
307.961	86.19
308.191	89.19
308.421	102.19
308.651	81.19
308.881	85.19
309.111	90.19
309.341	82.19
309.571	100.19
309.8	81.19
310.03	92.19
310.26	91.19
310.49	79.19
310.72	91.19
310.949	84.19
311.179	99.19
311.409	91.19
311.639	102.19
311.868	87.19
312.098	97.19
312.328	98.19
312.557	94.19
312.787	86.19
313.017	80.19
313.246	90.19
313.476	81.19
313.706	87.19
313.935	89.19
314.165	105.19
314.394	98.19
314.624	97.19
314.853	95.19
315.083	105.19
315.312	98.19
315.542	98.19
315.771	92.19
316.001	95.19
316.23	95.19
316.46	94.19
316.689	99.19
316.919	92.19
317.148	88.19
317.377	91.19
317.607	88.19
317.836	87.19
318.065	94.19
318.295	89.19
318.524	85.19
318.753	78.19
318.983	76.19
319.212	94.19
319.441	106.19
319.67	80.19
319.9	80.19
320.129	91.19
320.358	97.19
320.587	81.19
320.816	98.19
321.046	89.19
321.275	95.19
321.504	98.19
321.733	95.19
321.962	89.19
322.191	89.19
322.42	95.19
322.649	81.19
322.878	90.19
323.108	91.19
323.337	89.19
323.566	99.19
323.795	89.19
324.024	101.19
324.253	109.19
324.482	97.19
324.71	90.19
324.939	87.19
325.168	92.19
325.397	83.19
325.626	88.19
325.855	86.19
326.084	91.19
326.313	83.19
326.542	99.19
326.77	95.19
326.999	106.19
327.228	107.19
327.457	93.19
327.686	92.19
327.914	83.19
328.143	104.19
328.372	87.19
328.6	90.19
328.829	92.19
329.058	90.19
329.287	83.19
329.515	89.19
329.744	79.19
329.972	99.19
330.201	76.19
330.43	90.19
330.658	96.19
330.887	89.19
331.115	85.19
331.344	101.19
331.572	97.19
331.801	104.19
332.03	104.19
332.258	91.19
332.486	79.19
332.715	100.19
332.943	94.19
333.172	90.19
333.4	85.19
333.629	101.19
333.857	88.19
334.085	96.19
334.314	97.19
334.542	85.19
334.771	94.19
334.999	93.19
335.227	102.19
335.455	95.19
335.684	103.19
335.912	97.19
336.14	89.19
336.369	87.19
336.597	88.19
336.825	91.19
337.053	72.19
337.281	96.19
337.51	89.19
337.738	95.19
337.966	91.19
338.194	87.19
338.422	99.19
338.65	88.19
338.878	99.19
339.106	86.19
339.334	91.19
339.562	95.19
339.79	91.19
340.018	90.19
340.246	94.19
340.474	101.19
340.702	96.19
340.93	92.19
341.158	90.19
341.386	88.19
341.614	101.19
341.842	86.19
342.07	93.19
342.298	95.19
342.526	100.19
342.754	82.19
342.981	90.19
343.209	102.19
343.437	93.19
343.665	86.19
343.893	87.19
344.12	94.19
344.348	88.19
344.576	84.19
344.804	98.19
345.031	99.19
345.259	74.19
345.487	107.19
345.714	101.19
345.942	98.19
346.17	82.19
346.397	91.19
346.625	82.19
346.853	77.19
347.08	85.19
347.308	74.19
347.535	90.19
347.763	86.19
347.99	87.19
348.218	97.19
348.445	95.19
348.673	93.19
348.9	85.19
349.128	94.19
349.355	90.19
349.583	87.19
349.81	89.19
350.037	105.19
350.265	88.19
350.492	79.19
350.72	84.19
350.947	89.19
351.174	99.19
351.402	81.19
351.629	96.19
351.856	102.19
352.083	81.19
352.311	98.19
352.538	83.19
352.765	95.19
352.992	103.19
353.22	109.19
353.447	97.19
353.674	109.19
353.901	93.19
354.128	95.19
354.355	78.19
354.583	99.19
354.81	95.19
355.037	81.19
355.264	102.19
355.491	92.19
355.718	96.19
355.945	95.19
356.172	87.19
356.399	90.19
356.626	80.19
356.853	97.19
357.08	95.19
357.307	85.19
357.534	91.19
357.761	85.19
357.988	75.19
358.215	95.19
358.441	92.19
358.668	88.19
358.895	88.19
359.122	91.19
359.349	92.19
359.576	93.19
359.802	104.19
360.029	89.19
360.256	77.19
360.483	87.19
360.709	89.19
360.936	94.19
361.163	91.19
361.39	97.19
361.616	101.19
361.843	75.19
362.07	95.19
362.296	78.19
362.523	76.19
362.749	93.19
362.976	81.19
363.203	97.19
363.429	92.19
363.656	88.19
363.882	89.19
364.109	105.19
364.335	69.19
364.562	104.19
364.788	83.19
365.015	109.19
365.241	93.19
365.468	104.19
365.694	84.19
365.92	75.19
366.147	87.19
366.373	79.19
366.599	90.19
366.826	82.19
367.052	105.19
367.278	96.19
367.505	93.19
367.731	93.19
367.957	97.19
368.184	95.19
368.41	89.19
368.636	99.19
368.862	94.19
369.089	95.19
369.315	95.19
369.541	111.19
369.767	89.19
369.993	95.19
370.219	91.19
370.445	81.19
370.672	91.19
370.898	93.19
371.124	71.19
371.35	94.19
371.576	97.19
371.802	102.19
372.028	74.19
372.254	100.19
372.48	109.19
372.706	94.19
372.932	88.19
373.158	85.19
373.384	86.19
373.61	92.19
373.835	88.19
374.061	96.19
374.287	87.19
374.513	84.19
374.739	97.19
374.965	104.19
375.191	90.19
375.416	98.19
375.642	91.19
375.868	84.19
376.094	97.19
376.319	81.19
376.545	90.19
376.771	87.19
376.997	91.19
377.222	84.19
377.448	89.19
377.674	93.19
377.899	81.19
378.125	93.19
378.35	81.19
378.576	92.19
378.802	115.19
379.027	88.19
379.253	99.19
379.478	93.19
379.704	79.19
379.929	105.19
380.155	91.19
380.38	93.19
380.606	81.19
380.831	85.19
381.057	100.19
381.282	96.19
381.507	82.19
381.733	88.19
381.958	91.19
382.184	89.19
382.409	91.19
382.634	94.19
382.86	97.19
383.085	86.19
383.31	94.19
383.535	101.19
383.761	97.19
383.986	95.19
384.211	83.19
384.436	98.19
384.662	96.19
384.887	92.19
385.112	106.19
385.337	82.19
385.562	90.19
385.787	96.19
386.013	100.19
386.238	85.19
386.463	92.19
386.688	90.19
386.913	84.19
387.138	79.19
387.363	98.19
387.588	85.19
387.813	89.19
388.038	90.19
388.263	97.19
388.488	90.19
388.713	83.19
388.938	72.19
389.163	102.19
389.387	95.19
389.612	83.19
389.837	88.19
390.062	95.19
390.287	92.19
390.512	99.19
390.736	106.19
390.961	89.19
391.186	98.19
391.411	90.19
391.636	96.19
391.86	94.19
392.085	84.19
392.31	98.19
392.534	88.19
392.759	102.19
392.984	101.19
393.208	85.19
393.433	99.19
393.658	97.19
393.882	101.19
394.107	94.19
394.331	101.19
394.556	93.19
394.78	95.19
395.005	98.19
395.229	96.19
395.454	86.19
395.678	99.19
395.903	91.19
396.127	98.19
396.352	91.19
396.576	89.19
396.801	97.19
397.025	108.19
397.249	81.19
397.474	78.19
397.698	83.19
397.922	94.19
398.147	79.19
398.371	99.19
398.595	94.19
398.82	87.19
399.044	104.19
399.268	91.19
399.492	115.19
399.717	110.19
399.941	91.19
400.165	98.19
400.389	95.19
400.613	99.19
400.837	105.19
401.062	81.19
401.286	90.19
401.51	99.19
401.734	83.19
401.958	103.19
402.182	88.19
402.406	106.19
402.63	96.19
402.854	111.19
403.078	109.19
403.302	95.19
403.526	100.19
403.75	95.19
403.974	99.19
404.198	102.19
404.422	89.19
404.645	87.19
404.869	104.19
405.093	91.19
405.317	75.19
405.541	105.19
405.765	102.19
405.988	99.19
406.212	88.19
406.436	88.19
406.66	78.19
406.883	95.19
407.107	98.19
407.331	108.19
407.555	99.19
407.778	116.19
408.002	119.19
408.226	99.19
408.449	88.19
408.673	99.19
408.896	82.19
409.12	81.19
409.344	91.19
409.567	94.19
409.791	82.19
410.014	105.19
410.238	88.19
410.461	105.19
410.685	92.19
410.908	98.19
411.132	110.19
411.355	102.19
411.578	90.19
411.802	94.19
412.025	79.19
412.249	100.19
412.472	102.19
412.695	104.19
412.919	90.19
413.142	100.19
413.365	102.19
413.589	92.19
413.812	95.19
414.035	94.19
414.258	95.19
414.482	98.19
414.705	111.19
414.928	94.19
415.151	86.19
415.374	104.19
415.597	97.19
415.821	102.19
416.044	97.19
416.267	90.19
416.49	96.19
416.713	94.19
416.936	93.19
417.159	91.19
417.382	101.19
417.605	99.19
417.828	92.19
418.051	97.19
418.274	109.19
418.497	97.19
418.72	102.19
418.943	94.19
419.166	97.19
419.389	88.19
419.611	95.19
419.834	91.19
420.057	96.19
420.28	107.19
420.503	109.19
420.726	97.19
420.948	95.19
421.171	89.19
421.394	100.19
421.617	94.19
421.839	74.19
422.062	79.19
422.285	99.19
422.507	89.19
422.73	83.19
422.953	93.19
423.175	98.19
423.398	90.19
423.621	90.19
423.843	98.19
424.066	101.19
424.288	105.19
424.511	95.19
424.733	91.19
424.956	99.19
425.178	104.19
425.401	100.19
425.623	104.19
425.846	85.19
426.068	94.19
426.291	91.19
426.513	87.19
426.735	100.19
426.958	95.19
427.18	101.19
427.402	83.19
427.625	89.19
427.847	78.19
428.069	107.19
428.292	99.19
428.514	98.19
428.736	87.19
428.958	87.19
429.181	105.19
429.403	104.19
429.625	94.19
429.847	104.19
430.069	103.19
430.292	106.19
430.514	89.19
430.736	77.19
430.958	87.19
431.18	94.19
431.402	96.19
431.624	91.19
431.846	96.19
432.068	105.19
432.29	91.19
432.512	100.19
432.734	78.19
432.956	87.19
433.178	89.19
433.4	89.19
433.622	97.19
433.844	100.19
434.066	95.19
434.287	89.19
434.509	82.19
434.731	98.19
434.953	95.19
435.175	82.19
435.397	96.19
435.618	94.19
435.84	95.19
436.062	91.19
436.284	100.19
436.505	94.19
436.727	106.19
436.949	94.19
437.17	96.19
437.392	80.19
437.614	79.19
437.835	83.19
438.057	87.19
438.278	101.19
438.5	93.19
438.721	95.19
438.943	94.19
439.165	102.19
439.386	96.19
439.608	98.19
439.829	93.19
440.05	88.19
440.272	97.19
440.493	95.19
440.715	94.19
440.936	88.19
441.158	93.19
441.379	93.19
441.6	98.19
441.822	103.19
442.043	97.19
442.264	98.19
442.486	95.19
442.707	90.19
442.928	109.19
443.149	98.19
443.371	93.19
443.592	89.19
443.813	82.19
444.034	93.19
444.255	93.19
444.476	106.19
444.698	94.19
444.919	94.19
445.14	222.19
445.361	150.19
445.582	87.19
445.803	102.19
446.024	82.19
446.245	94.19
446.466	90.19
446.687	103.19
446.908	89.19
447.129	97.19
447.35	88.19
447.571	109.19
447.792	93.19
448.013	87.19
448.234	105.19
448.455	100.19
448.675	81.19
448.896	93.19
449.117	92.19
449.338	106.19
449.559	92.19
449.779	88.19
450	77.19
450.221	87.19
450.442	101.19
450.662	81.19
450.883	101.19
451.104	81.19
451.324	96.19
451.545	97.19
451.766	100.19
451.986	106.19
452.207	98.19
452.428	82.19
452.648	90.19
452.869	93.19
453.089	102.19
453.31	105.19
453.53	109.19
453.751	89.19
453.971	90.19
454.192	86.19
454.412	83.19
454.633	86.19
454.853	94.19
455.073	87.19
455.294	85.19
455.514	96.19
455.734	90.19
455.955	96.19
456.175	89.19
456.395	98.19
456.616	95.19
456.836	88.19
457.056	81.19
457.276	73.19
457.497	91.19
457.717	87.19
457.937	94.19
458.157	87.19
458.377	92.19
458.598	81.19
458.818	99.19
459.038	83.19
459.258	80.19
459.478	88.19
459.698	86.19
459.918	84.19
460.138	98.19
460.358	103.19
460.578	98.19
460.798	94.19
461.018	105.19
461.238	86.19
461.458	90.19
461.678	90.19
461.898	81.19
462.118	94.19
462.338	85.19
462.558	89.19
462.777	111.19
462.997	103.19
463.217	91.19
463.437	118.19
463.657	111.19
463.876	104.19
464.096	110.19
464.316	100.19
464.536	111.19
464.755	112.19
464.975	87.19
465.195	85.19
465.414	98.19
465.634	107.19
465.854	95.19
466.073	100.19
466.293	101.19
466.512	90.19
466.732	86.19
466.951	119.19
467.171	104.19
467.391	94.19
467.61	86.19
467.829	98.19
468.049	97.19
468.268	103.19
468.488	88.19
468.707	109.19
468.927	102.19
469.146	99.19
469.365	92.19
469.585	88.19
469.804	111.19
470.023	74.19
470.243	90.19
470.462	91.19
470.681	93.19
470.901	97.19
471.12	93.19
471.339	96.19
471.558	109.19
471.777	94.19
471.997	96.19
472.216	101.19
472.435	97.19
472.654	89.19
472.873	89.19
473.092	103.19
473.311	99.19
473.53	90.19
473.749	88.19
473.968	101.19
474.187	115.19
474.406	90.19
474.625	85.19
474.844	101.19
475.063	96.19
475.282	105.19
475.501	93.19
475.72	98.19
475.939	118.19
476.158	96.19
476.377	85.19
476.596	92.19
476.814	86.19
477.033	98.19
477.252	104.19
477.471	90.19
477.69	104.19
477.908	100.19
478.127	89.19
478.346	98.19
478.564	94.19
478.783	93.19
479.002	91.19
479.22	88.19
479.439	113.19
479.658	101.19
479.876	100.19
480.095	106.19
480.313	106.19
480.532	98.19
480.751	119.19
480.969	109.19
481.188	101.19
481.406	102.19
481.624	106.19
481.843	108.19
482.061	104.19
482.28	99.19
482.498	103.19
482.717	97.19
482.935	108.19
483.153	98.19
483.372	103.19
483.59	109.19
483.808	99.19
484.027	105.19
484.245	103.19
484.463	103.19
484.681	117.19
484.9	106.19
485.118	99.19
485.336	100.19
485.554	105.19
485.772	97.19
485.99	106.19
486.209	115.19
486.427	102.19
486.645	94.19
486.863	102.19
487.081	110.19
487.299	105.19
487.517	99.19
487.735	113.19
487.953	104.19
488.171	104.19
488.389	101.19
488.607	105.19
488.825	96.19
489.043	103.19
489.261	95.19
489.479	105.19
489.696	114.19
489.914	114.19
490.132	101.19
490.35	99.19
490.568	104.19
490.786	103.19
491.003	93.19
491.221	118.19
491.439	121.19
491.657	105.19
491.874	119.19
492.092	120.19
492.31	122.19
492.527	119.19
492.745	127.19
492.963	110.19
493.18	115.19
493.398	117.19
493.615	111.19
493.833	115.19
494.05	102.19
494.268	106.19
494.485	131.19
494.703	115.19
494.92	115.19
495.138	103.19
495.355	102.19
495.573	110.19
495.79	111.19
496.008	112.19
496.225	111.19
496.442	92.19
496.66	117.19
496.877	122.19
497.094	127.19
497.312	105.19
497.529	108.19
497.746	113.19
497.963	126.19
498.181	111.19
498.398	117.19
498.615	106.19
498.832	127.19
499.049	121.19
499.267	105.19
499.484	125.19
499.701	125.19
499.918	130.19
500.135	134.19
500.352	146.19
500.569	160.19
500.786	161.19
501.003	151.19
501.22	138.19
501.437	130.19
501.654	119.19
501.871	131.19
502.088	123.19
502.305	119.19
502.522	129.19
502.739	124.19
502.956	119.19
503.172	117.19
503.389	111.19
503.606	116.19
503.823	106.19
504.04	115.19
504.256	119.19
504.473	105.19
504.69	129.19
504.907	103.19
505.123	88.19
505.34	103.19
505.557	103.19
505.773	113.19
505.99	112.19
506.207	91.19
506.423	85.19
506.64	107.19
506.856	99.19
507.073	100.19
507.289	101.19
507.506	105.19
507.722	118.19
507.939	104.19
508.155	112.19
508.372	102.19
508.588	95.19
508.805	85.19
509.021	101.19
509.238	97.19
509.454	120.19
509.67	98.19
509.887	109.19
510.103	98.19
510.319	83.19
510.536	95.19
510.752	90.19
510.968	93.19
511.184	95.19
511.401	91.19
511.617	103.19
511.833	106.19
512.049	103.19
512.265	97.19
512.481	94.19
512.698	92.19
512.914	102.19
513.13	85.19
513.346	89.19
513.562	122.19
513.778	93.19
513.994	96.19
514.21	98.19
514.426	102.19
514.642	90.19
514.858	93.19
515.074	87.19
515.29	100.19
