Data from Location5.07152019.Energy5.Lamp.07192019.3%Agarose_HRD10591_15-36-37-386.txt Node
Date: Fri Jul 19 15:36:37 EDT 2019
User: cochatt
Spectrometer: HR+D1059
Trigger mode: 1
Integration Time (sec): 1.000000E-1
Scans to average: 1
Electric dark correction enabled: true
Nonlinearity correction enabled: false
Boxcar width: 0
XAxis mode: Wavelengths
Number of Pixels in Spectrum: 2048
>>>>>Begin Spectral Data<<<<<
223.165	-12.75
223.4	-12.75
223.635	-12.75
223.869	-14.75
224.104	-24.75
224.338	-10.75
224.573	-0.75
224.808	-10.75
225.042	-14.75
225.277	-6.75
225.511	-5.75
225.746	1.25
225.98	-5.75
226.215	22.25
226.449	12.25
226.683	26.25
226.918	21.25
227.152	24.25
227.387	33.25
227.621	37.25
227.856	24.25
228.09	34.25
228.324	58.25
228.559	67.25
228.793	59.25
229.027	46.25
229.262	74.25
229.496	60.25
229.73	69.25
229.964	75.25
230.199	72.25
230.433	69.25
230.667	82.25
230.901	78.25
231.136	78.25
231.37	82.25
231.604	83.25
231.838	80.25
232.072	87.25
232.306	80.25
232.541	87.25
232.775	85.25
233.009	74.25
233.243	80.25
233.477	80.25
233.711	82.25
233.945	81.25
234.179	81.25
234.413	87.25
234.647	88.25
234.881	87.25
235.115	92.25
235.349	78.25
235.583	73.25
235.817	91.25
236.051	83.25
236.285	65.25
236.519	73.25
236.753	83.25
236.987	67.25
237.221	95.25
237.455	77.25
237.689	78.25
237.922	72.25
238.156	85.25
238.39	91.25
238.624	78.25
238.858	74.25
239.091	76.25
239.325	75.25
239.559	66.25
239.793	83.25
240.027	85.25
240.26	66.25
240.494	73.25
240.728	71.25
240.961	71.25
241.195	73.25
241.429	66.25
241.662	75.25
241.896	55.25
242.13	79.25
242.363	76.25
242.597	74.25
242.83	73.25
243.064	58.25
243.298	63.25
243.531	74.25
243.765	79.25
243.998	89.25
244.232	86.25
244.465	74.25
244.699	90.25
244.932	76.25
245.166	90.25
245.399	70.25
245.633	69.25
245.866	85.25
246.099	69.25
246.333	76.25
246.566	81.25
246.8	86.25
247.033	84.25
247.266	80.25
247.5	72.25
247.733	86.25
247.966	76.25
248.2	93.25
248.433	75.25
248.666	77.25
248.899	82.25
249.133	75.25
249.366	84.25
249.599	77.25
249.832	83.25
250.066	83.25
250.299	65.25
250.532	82.25
250.765	80.25
250.998	85.25
251.231	76.25
251.465	72.25
251.698	76.25
251.931	75.25
252.164	81.25
252.397	72.25
252.63	90.25
252.863	91.25
253.096	81.25
253.329	80.25
253.562	84.25
253.795	89.25
254.028	73.25
254.261	91.25
254.494	81.25
254.727	85.25
254.96	84.25
255.193	72.25
255.426	63.25
255.659	64.25
255.892	84.25
256.124	81.25
256.357	90.25
256.59	88.25
256.823	80.25
257.056	86.25
257.289	71.25
257.521	74.25
257.754	80.25
257.987	75.25
258.22	88.25
258.452	70.25
258.685	78.25
258.918	73.25
259.151	87.25
259.383	75.25
259.616	85.25
259.849	74.25
260.081	62.25
260.314	78.25
260.547	71.25
260.779	75.25
261.012	78.25
261.244	75.25
261.477	83.25
261.71	75.25
261.942	87.25
262.175	85.25
262.407	72.25
262.64	97.25
262.872	90.25
263.105	88.25
263.337	93.25
263.57	72.25
263.802	85.25
264.035	83.25
264.267	76.25
264.499	70.25
264.732	79.25
264.964	78.25
265.197	74.25
265.429	81.25
265.661	85.25
265.894	81.25
266.126	83.25
266.358	73.25
266.591	77.25
266.823	85.25
267.055	74.25
267.287	85.25
267.52	98.25
267.752	84.25
267.984	74.25
268.216	69.25
268.448	64.25
268.681	74.25
268.913	87.25
269.145	89.25
269.377	78.25
269.609	87.25
269.841	77.25
270.073	80.25
270.306	76.25
270.538	91.25
270.77	90.25
271.002	81.25
271.234	76.25
271.466	90.25
271.698	79.25
271.93	75.25
272.162	77.25
272.394	91.25
272.626	95.25
272.858	80.25
273.09	94.25
273.322	81.25
273.553	68.25
273.785	69.25
274.017	88.25
274.249	78.25
274.481	78.25
274.713	69.25
274.945	85.25
275.176	79.25
275.408	87.25
275.64	93.25
275.872	84.25
276.104	71.25
276.335	81.25
276.567	95.25
276.799	83.25
277.031	65.25
277.262	82.25
277.494	99.25
277.726	75.25
277.957	78.25
278.189	88.25
278.421	67.25
278.652	83.25
278.884	72.25
279.115	77.25
279.347	82.25
279.579	86.25
279.81	80.25
280.042	75.25
280.273	84.25
280.505	93.25
280.736	75.25
280.968	92.25
281.199	68.25
281.431	88.25
281.662	90.25
281.894	90.25
282.125	89.25
282.356	92.25
282.588	85.25
282.819	94.25
283.051	81.25
283.282	81.25
283.513	76.25
283.745	96.25
283.976	113.25
284.207	104.25
284.439	87.25
284.67	91.25
284.901	80.25
285.132	84.25
285.364	93.25
285.595	81.25
285.826	77.25
286.057	63.25
286.288	94.25
286.52	85.25
286.751	77.25
286.982	85.25
287.213	85.25
287.444	83.25
287.675	83.25
287.906	71.25
288.138	89.25
288.369	91.25
288.6	75.25
288.831	84.25
289.062	96.25
289.293	90.25
289.524	70.25
289.755	94.25
289.986	73.25
290.217	84.25
290.448	85.25
290.679	86.25
290.91	72.25
291.141	79.25
291.371	89.25
291.602	97.25
291.833	85.25
292.064	102.25
292.295	93.25
292.526	87.25
292.757	82.25
292.987	82.25
293.218	84.25
293.449	84.25
293.68	81.25
293.91	82.25
294.141	79.25
294.372	74.25
294.603	76.25
294.833	85.25
295.064	83.25
295.295	73.25
295.525	89.25
295.756	82.25
295.987	83.25
296.217	96.25
296.448	73.25
296.679	94.25
296.909	70.25
297.14	72.25
297.37	90.25
297.601	82.25
297.831	85.25
298.062	68.25
298.292	86.25
298.523	96.25
298.753	82.25
298.984	88.25
299.214	94.25
299.445	79.25
299.675	77.25
299.905	96.25
300.136	81.25
300.366	73.25
300.597	85.25
300.827	100.25
301.057	89.25
301.288	93.25
301.518	75.25
301.748	84.25
301.979	77.25
302.209	90.25
302.439	71.25
302.669	87.25
302.9	81.25
303.13	87.25
303.36	93.25
303.59	80.25
303.82	92.25
304.051	76.25
304.281	76.25
304.511	83.25
304.741	84.25
304.971	80.25
305.201	83.25
305.431	90.25
305.661	79.25
305.891	80.25
306.121	77.25
306.352	87.25
306.582	91.25
306.812	65.25
307.042	75.25
307.272	84.25
307.502	91.25
307.731	83.25
307.961	78.25
308.191	97.25
308.421	70.25
308.651	74.25
308.881	90.25
309.111	89.25
309.341	87.25
309.571	75.25
309.8	85.25
310.03	87.25
310.26	78.25
310.49	79.25
310.72	91.25
310.949	77.25
311.179	70.25
311.409	71.25
311.639	77.25
311.868	82.25
312.098	83.25
312.328	91.25
312.557	95.25
312.787	83.25
313.017	78.25
313.246	94.25
313.476	89.25
313.706	85.25
313.935	83.25
314.165	85.25
314.394	83.25
314.624	88.25
314.853	84.25
315.083	81.25
315.312	78.25
315.542	94.25
315.771	85.25
316.001	88.25
316.23	73.25
316.46	88.25
316.689	77.25
316.919	74.25
317.148	86.25
317.377	90.25
317.607	77.25
317.836	86.25
318.065	86.25
318.295	81.25
318.524	83.25
318.753	69.25
318.983	82.25
319.212	78.25
319.441	82.25
319.67	86.25
319.9	83.25
320.129	91.25
320.358	98.25
320.587	90.25
320.816	81.25
321.046	87.25
321.275	83.25
321.504	73.25
321.733	83.25
321.962	78.25
322.191	90.25
322.42	79.25
322.649	79.25
322.878	79.25
323.108	84.25
323.337	73.25
323.566	91.25
323.795	71.25
324.024	98.25
324.253	82.25
324.482	90.25
324.71	84.25
324.939	78.25
325.168	85.25
325.397	89.25
325.626	74.25
325.855	80.25
326.084	76.25
326.313	84.25
326.542	90.25
326.77	75.25
326.999	88.25
327.228	80.25
327.457	76.25
327.686	77.25
327.914	81.25
328.143	78.25
328.372	72.25
328.6	75.25
328.829	91.25
329.058	90.25
329.287	90.25
329.515	87.25
329.744	83.25
329.972	85.25
330.201	73.25
330.43	95.25
330.658	85.25
330.887	84.25
331.115	73.25
331.344	76.25
331.572	87.25
331.801	76.25
332.03	93.25
332.258	100.25
332.486	72.25
332.715	77.25
332.943	85.25
333.172	83.25
333.4	91.25
333.629	91.25
333.857	88.25
334.085	80.25
334.314	90.25
334.542	86.25
334.771	78.25
334.999	90.25
335.227	94.25
335.455	86.25
335.684	105.25
335.912	84.25
336.14	69.25
336.369	95.25
336.597	87.25
336.825	90.25
337.053	79.25
337.281	83.25
337.51	96.25
337.738	102.25
337.966	86.25
338.194	86.25
338.422	96.25
338.65	90.25
338.878	90.25
339.106	80.25
339.334	78.25
339.562	76.25
339.79	93.25
340.018	75.25
340.246	85.25
340.474	84.25
340.702	82.25
340.93	77.25
341.158	81.25
341.386	93.25
341.614	82.25
341.842	80.25
342.07	84.25
342.298	88.25
342.526	73.25
342.754	86.25
342.981	89.25
343.209	79.25
343.437	90.25
343.665	83.25
343.893	88.25
344.12	85.25
344.348	81.25
344.576	91.25
344.804	78.25
345.031	61.25
345.259	88.25
345.487	80.25
345.714	81.25
345.942	91.25
346.17	83.25
346.397	84.25
346.625	86.25
346.853	78.25
347.08	84.25
347.308	82.25
347.535	80.25
347.763	85.25
347.99	81.25
348.218	87.25
348.445	86.25
348.673	82.25
348.9	90.25
349.128	80.25
349.355	82.25
349.583	98.25
349.81	86.25
350.037	96.25
350.265	82.25
350.492	78.25
350.72	79.25
350.947	90.25
351.174	81.25
351.402	79.25
351.629	84.25
351.856	71.25
352.083	78.25
352.311	81.25
352.538	93.25
352.765	91.25
352.992	71.25
353.22	93.25
353.447	88.25
353.674	84.25
353.901	99.25
354.128	90.25
354.355	87.25
354.583	78.25
354.81	83.25
355.037	78.25
355.264	85.25
355.491	86.25
355.718	92.25
355.945	92.25
356.172	86.25
356.399	90.25
356.626	98.25
356.853	88.25
357.08	92.25
357.307	96.25
357.534	83.25
357.761	75.25
357.988	93.25
358.215	82.25
358.441	90.25
358.668	93.25
358.895	82.25
359.122	65.25
359.349	75.25
359.576	79.25
359.802	79.25
360.029	87.25
360.256	71.25
360.483	83.25
360.709	77.25
360.936	82.25
361.163	89.25
361.39	73.25
361.616	81.25
361.843	84.25
362.07	77.25
362.296	71.25
362.523	86.25
362.749	94.25
362.976	98.25
363.203	89.25
363.429	75.25
363.656	75.25
363.882	76.25
364.109	78.25
364.335	89.25
364.562	76.25
364.788	77.25
365.015	86.25
365.241	81.25
365.468	90.25
365.694	90.25
365.92	86.25
366.147	90.25
366.373	99.25
366.599	88.25
366.826	80.25
367.052	95.25
367.278	83.25
367.505	87.25
367.731	90.25
367.957	82.25
368.184	97.25
368.41	90.25
368.636	92.25
368.862	79.25
369.089	56.25
369.315	82.25
369.541	81.25
369.767	78.25
369.993	82.25
370.219	88.25
370.445	80.25
370.672	107.25
370.898	74.25
371.124	79.25
371.35	87.25
371.576	69.25
371.802	85.25
372.028	89.25
372.254	84.25
372.48	87.25
372.706	88.25
372.932	85.25
373.158	82.25
373.384	93.25
373.61	91.25
373.835	90.25
374.061	90.25
374.287	100.25
374.513	93.25
374.739	100.25
374.965	85.25
375.191	94.25
375.416	86.25
375.642	68.25
375.868	88.25
376.094	73.25
376.319	67.25
376.545	62.25
376.771	81.25
376.997	74.25
377.222	79.25
377.448	98.25
377.674	66.25
377.899	87.25
378.125	93.25
378.35	97.25
378.576	81.25
378.802	94.25
379.027	81.25
379.253	72.25
379.478	93.25
379.704	78.25
379.929	83.25
380.155	88.25
380.38	77.25
380.606	78.25
380.831	88.25
381.057	100.25
381.282	84.25
381.507	94.25
381.733	81.25
381.958	87.25
382.184	66.25
382.409	91.25
382.634	87.25
382.86	93.25
383.085	94.25
383.31	93.25
383.535	75.25
383.761	74.25
383.986	81.25
384.211	88.25
384.436	99.25
384.662	83.25
384.887	85.25
385.112	83.25
385.337	78.25
385.562	77.25
385.787	75.25
386.013	82.25
386.238	81.25
386.463	89.25
386.688	78.25
386.913	83.25
387.138	94.25
387.363	84.25
387.588	98.25
387.813	82.25
388.038	86.25
388.263	73.25
388.488	83.25
388.713	85.25
388.938	88.25
389.163	88.25
389.387	97.25
389.612	82.25
389.837	78.25
390.062	80.25
390.287	86.25
390.512	86.25
390.736	89.25
390.961	72.25
391.186	83.25
391.411	93.25
391.636	91.25
391.86	71.25
392.085	92.25
392.31	86.25
392.534	86.25
392.759	81.25
392.984	86.25
393.208	73.25
393.433	97.25
393.658	75.25
393.882	83.25
394.107	92.25
394.331	70.25
394.556	85.25
394.78	81.25
395.005	94.25
395.229	74.25
395.454	92.25
395.678	88.25
395.903	84.25
396.127	93.25
396.352	92.25
396.576	88.25
396.801	93.25
397.025	85.25
397.249	76.25
397.474	96.25
397.698	88.25
397.922	88.25
398.147	85.25
398.371	87.25
398.595	87.25
398.82	81.25
399.044	90.25
399.268	91.25
399.492	74.25
399.717	78.25
399.941	88.25
400.165	89.25
400.389	91.25
400.613	79.25
400.837	95.25
401.062	76.25
401.286	87.25
401.51	86.25
401.734	91.25
401.958	91.25
402.182	88.25
402.406	78.25
402.63	87.25
402.854	88.25
403.078	84.25
403.302	81.25
403.526	86.25
403.75	96.25
403.974	89.25
404.198	95.25
404.422	84.25
404.645	72.25
404.869	82.25
405.093	79.25
405.317	86.25
405.541	85.25
405.765	87.25
405.988	94.25
406.212	92.25
406.436	97.25
406.66	85.25
406.883	80.25
407.107	91.25
407.331	87.25
407.555	86.25
407.778	74.25
408.002	95.25
408.226	86.25
408.449	95.25
408.673	86.25
408.896	88.25
409.12	94.25
409.344	95.25
409.567	91.25
409.791	104.25
410.014	91.25
410.238	85.25
410.461	74.25
410.685	76.25
410.908	88.25
411.132	78.25
411.355	82.25
411.578	90.25
411.802	95.25
412.025	95.25
412.249	95.25
412.472	82.25
412.695	80.25
412.919	89.25
413.142	89.25
413.365	97.25
413.589	89.25
413.812	86.25
414.035	96.25
414.258	86.25
414.482	101.25
414.705	85.25
414.928	76.25
415.151	80.25
415.374	104.25
415.597	88.25
415.821	93.25
416.044	86.25
416.267	96.25
416.49	100.25
416.713	86.25
416.936	100.25
417.159	89.25
417.382	91.25
417.605	93.25
417.828	88.25
418.051	117.25
418.274	93.25
418.497	89.25
418.72	86.25
418.943	82.25
419.166	96.25
419.389	96.25
419.611	87.25
419.834	93.25
420.057	91.25
420.28	105.25
420.503	99.25
420.726	97.25
420.948	89.25
421.171	94.25
421.394	107.25
421.617	94.25
421.839	98.25
422.062	83.25
422.285	101.25
422.507	92.25
422.73	95.25
422.953	79.25
423.175	96.25
423.398	93.25
423.621	97.25
423.843	81.25
424.066	79.25
424.288	92.25
424.511	94.25
424.733	101.25
424.956	101.25
425.178	100.25
425.401	91.25
425.623	90.25
425.846	80.25
426.068	96.25
426.291	97.25
426.513	94.25
426.735	89.25
426.958	99.25
427.18	86.25
427.402	93.25
427.625	98.25
427.847	86.25
428.069	73.25
428.292	93.25
428.514	89.25
428.736	85.25
428.958	95.25
429.181	98.25
429.403	91.25
429.625	94.25
429.847	96.25
430.069	81.25
430.292	97.25
430.514	89.25
430.736	101.25
430.958	93.25
431.18	94.25
431.402	80.25
431.624	79.25
431.846	70.25
432.068	82.25
432.29	81.25
432.512	102.25
432.734	89.25
432.956	100.25
433.178	89.25
433.4	88.25
433.622	96.25
433.844	87.25
434.066	90.25
434.287	94.25
434.509	100.25
434.731	87.25
434.953	80.25
435.175	83.25
435.397	94.25
435.618	101.25
435.84	79.25
436.062	90.25
436.284	95.25
436.505	101.25
436.727	98.25
436.949	94.25
437.17	70.25
437.392	97.25
437.614	93.25
437.835	91.25
438.057	78.25
438.278	99.25
438.5	89.25
438.721	100.25
438.943	79.25
439.165	95.25
439.386	94.25
439.608	97.25
439.829	93.25
440.05	92.25
440.272	93.25
440.493	98.25
440.715	91.25
440.936	95.25
441.158	85.25
441.379	101.25
441.6	103.25
441.822	96.25
442.043	92.25
442.264	95.25
442.486	97.25
442.707	96.25
442.928	93.25
443.149	94.25
443.371	98.25
443.592	109.25
443.813	96.25
444.034	95.25
444.255	107.25
444.476	87.25
444.698	91.25
444.919	90.25
445.14	245.25
445.361	164.25
445.582	107.25
445.803	102.25
446.024	98.25
446.245	99.25
446.466	92.25
446.687	88.25
446.908	86.25
447.129	97.25
447.35	98.25
447.571	89.25
447.792	97.25
448.013	93.25
448.234	75.25
448.455	88.25
448.675	93.25
448.896	85.25
449.117	97.25
449.338	96.25
449.559	94.25
449.779	102.25
450	97.25
450.221	79.25
450.442	87.25
450.662	102.25
450.883	94.25
451.104	100.25
451.324	87.25
451.545	99.25
451.766	87.25
451.986	80.25
452.207	85.25
452.428	86.25
452.648	81.25
452.869	88.25
453.089	93.25
453.31	88.25
453.53	89.25
453.751	89.25
453.971	87.25
454.192	90.25
454.412	85.25
454.633	87.25
454.853	95.25
455.073	109.25
455.294	82.25
455.514	101.25
455.734	97.25
455.955	83.25
456.175	104.25
456.395	99.25
456.616	83.25
456.836	85.25
457.056	94.25
457.276	82.25
457.497	89.25
457.717	89.25
457.937	86.25
458.157	97.25
458.377	86.25
458.598	87.25
458.818	88.25
459.038	94.25
459.258	86.25
459.478	83.25
459.698	74.25
459.918	88.25
460.138	79.25
460.358	96.25
460.578	97.25
460.798	102.25
461.018	87.25
461.238	89.25
461.458	93.25
461.678	86.25
461.898	92.25
462.118	92.25
462.338	94.25
462.558	99.25
462.777	83.25
462.997	87.25
463.217	90.25
463.437	76.25
463.657	83.25
463.876	89.25
464.096	70.25
464.316	67.25
464.536	79.25
464.755	94.25
464.975	85.25
465.195	76.25
465.414	93.25
465.634	89.25
465.854	81.25
466.073	84.25
466.293	84.25
466.512	107.25
466.732	91.25
466.951	98.25
467.171	92.25
467.391	88.25
467.61	93.25
467.829	103.25
468.049	100.25
468.268	89.25
468.488	94.25
468.707	91.25
468.927	95.25
469.146	92.25
469.365	102.25
469.585	86.25
469.804	84.25
470.023	101.25
470.243	113.25
470.462	95.25
470.681	102.25
470.901	83.25
471.12	93.25
471.339	112.25
471.558	102.25
471.777	97.25
471.997	97.25
472.216	87.25
472.435	70.25
472.654	80.25
472.873	84.25
473.092	92.25
473.311	89.25
473.53	84.25
473.749	85.25
473.968	99.25
474.187	83.25
474.406	82.25
474.625	103.25
474.844	94.25
475.063	95.25
475.282	91.25
475.501	99.25
475.72	92.25
475.939	86.25
476.158	92.25
476.377	94.25
476.596	78.25
476.814	86.25
477.033	92.25
477.252	90.25
477.471	87.25
477.69	98.25
477.908	87.25
478.127	96.25
478.346	90.25
478.564	84.25
478.783	96.25
479.002	86.25
479.22	97.25
479.439	87.25
479.658	86.25
479.876	91.25
480.095	85.25
480.313	84.25
480.532	95.25
480.751	106.25
480.969	85.25
481.188	82.25
481.406	78.25
481.624	85.25
481.843	87.25
482.061	80.25
482.28	77.25
482.498	87.25
482.717	93.25
482.935	105.25
483.153	83.25
483.372	100.25
483.59	91.25
483.808	77.25
484.027	98.25
484.245	95.25
484.463	88.25
484.681	106.25
484.9	92.25
485.118	101.25
485.336	82.25
485.554	81.25
485.772	94.25
485.99	78.25
486.209	78.25
486.427	83.25
486.645	98.25
486.863	96.25
487.081	97.25
487.299	97.25
487.517	96.25
487.735	100.25
487.953	108.25
488.171	102.25
488.389	100.25
488.607	91.25
488.825	101.25
489.043	90.25
489.261	95.25
489.479	93.25
489.696	106.25
489.914	102.25
490.132	93.25
490.35	100.25
490.568	107.25
490.786	105.25
491.003	96.25
491.221	108.25
491.439	105.25
491.657	113.25
491.874	102.25
492.092	121.25
492.31	127.25
492.527	110.25
492.745	125.25
492.963	113.25
493.18	100.25
493.398	93.25
493.615	104.25
493.833	110.25
494.05	95.25
494.268	96.25
494.485	114.25
494.703	105.25
494.92	101.25
495.138	110.25
495.355	104.25
495.573	127.25
495.79	92.25
496.008	104.25
496.225	94.25
496.442	116.25
496.66	90.25
496.877	99.25
497.094	103.25
497.312	97.25
497.529	110.25
497.746	113.25
497.963	100.25
498.181	111.25
498.398	97.25
498.615	99.25
498.832	95.25
499.049	80.25
499.267	81.25
499.484	92.25
499.701	93.25
499.918	105.25
500.135	91.25
500.352	95.25
500.569	105.25
500.786	100.25
501.003	105.25
501.22	95.25
501.437	80.25
501.654	92.25
501.871	93.25
502.088	96.25
502.305	105.25
502.522	96.25
502.739	105.25
502.956	95.25
503.172	103.25
503.389	92.25
503.606	105.25
503.823	93.25
504.04	105.25
504.256	95.25
504.473	94.25
504.69	90.25
504.907	101.25
505.123	91.25
505.34	94.25
505.557	102.25
505.773	105.25
505.99	99.25
506.207	107.25
506.423	92.25
506.64	102.25
506.856	88.25
507.073	90.25
507.289	95.25
507.506	76.25
507.722	104.25
507.939	102.25
508.155	93.25
508.372	97.25
508.588	74.25
508.805	99.25
509.021	94.25
509.238	89.25
509.454	82.25
509.67	85.25
509.887	90.25
510.103	84.25
510.319	100.25
510.536	90.25
510.752	77.25
510.968	82.25
511.184	87.25
511.401	84.25
511.617	85.25
511.833	95.25
512.049	85.25
512.265	86.25
512.481	98.25
512.698	83.25
512.914	87.25
513.13	78.25
513.346	86.25
513.562	86.25
513.778	76.25
513.994	81.25
514.21	81.25
514.426	99.25
514.642	82.25
514.858	80.25
515.074	78.25
515.29	82.25
515.506	71.25
515.721	86.25
515.937	84.25
516.153	91.25
516.369	90.25
516.585	83.25
516.801	85.25
517.016	95.25
517.232	81.25
517.448	85.25
517.664	84.25
517.879	83.25
