Data from Location5.07152019.Energy5.Lamp.07192019.3%Agarose_HRD10591_16-04-01-628.txt Node
Date: Fri Jul 19 16:04:01 EDT 2019
User: cochatt
Spectrometer: HR+D1059
Trigger mode: 1
Integration Time (sec): 1.000000E-1
Scans to average: 1
Electric dark correction enabled: true
Nonlinearity correction enabled: false
Boxcar width: 0
XAxis mode: Wavelengths
Number of Pixels in Spectrum: 2048
>>>>>Begin Spectral Data<<<<<
223.165	-19.12
223.4	-19.12
223.635	-19.12
223.869	-18.12
224.104	-31.12
224.338	-21.12
224.573	-17.12
224.808	-3.12
225.042	-5.12
225.277	-2.12
225.511	-0.12
225.746	1.88
225.98	16.88
226.215	7.88
226.449	15.88
226.683	22.88
226.918	26.88
227.152	24.88
227.387	29.88
227.621	45.88
227.856	54.88
228.09	20.88
228.324	59.88
228.559	70.88
228.793	54.88
229.027	69.88
229.262	57.88
229.496	59.88
229.73	74.88
229.964	79.88
230.199	78.88
230.433	82.88
230.667	92.88
230.901	67.88
231.136	78.88
231.37	74.88
231.604	80.88
231.838	67.88
232.072	81.88
232.306	72.88
232.541	68.88
232.775	72.88
233.009	81.88
233.243	72.88
233.477	80.88
233.711	80.88
233.945	85.88
234.179	98.88
234.413	90.88
234.647	74.88
234.881	66.88
235.115	82.88
235.349	86.88
235.583	78.88
235.817	73.88
236.051	79.88
236.285	83.88
236.519	89.88
236.753	89.88
236.987	84.88
237.221	71.88
237.455	72.88
237.689	68.88
237.922	69.88
238.156	69.88
238.39	78.88
238.624	76.88
238.858	72.88
239.091	57.88
239.325	81.88
239.559	92.88
239.793	75.88
240.027	75.88
240.26	77.88
240.494	67.88
240.728	67.88
240.961	84.88
241.195	83.88
241.429	82.88
241.662	72.88
241.896	89.88
242.13	75.88
242.363	83.88
242.597	69.88
242.83	70.88
243.064	79.88
243.298	65.88
243.531	79.88
243.765	72.88
243.998	71.88
244.232	72.88
244.465	75.88
244.699	70.88
244.932	79.88
245.166	86.88
245.399	75.88
245.633	67.88
245.866	81.88
246.099	70.88
246.333	71.88
246.566	74.88
246.8	67.88
247.033	71.88
247.266	84.88
247.5	79.88
247.733	73.88
247.966	71.88
248.2	74.88
248.433	78.88
248.666	85.88
248.899	83.88
249.133	70.88
249.366	94.88
249.599	65.88
249.832	90.88
250.066	63.88
250.299	76.88
250.532	80.88
250.765	79.88
250.998	81.88
251.231	78.88
251.465	79.88
251.698	72.88
251.931	83.88
252.164	70.88
252.397	79.88
252.63	77.88
252.863	80.88
253.096	78.88
253.329	77.88
253.562	88.88
253.795	86.88
254.028	81.88
254.261	81.88
254.494	90.88
254.727	89.88
254.96	82.88
255.193	86.88
255.426	78.88
255.659	90.88
255.892	89.88
256.124	85.88
256.357	74.88
256.59	90.88
256.823	81.88
257.056	83.88
257.289	70.88
257.521	80.88
257.754	79.88
257.987	97.88
258.22	86.88
258.452	85.88
258.685	77.88
258.918	69.88
259.151	79.88
259.383	72.88
259.616	81.88
259.849	92.88
260.081	70.88
260.314	72.88
260.547	71.88
260.779	74.88
261.012	80.88
261.244	81.88
261.477	77.88
261.71	78.88
261.942	76.88
262.175	93.88
262.407	91.88
262.64	85.88
262.872	70.88
263.105	94.88
263.337	83.88
263.57	80.88
263.802	72.88
264.035	83.88
264.267	76.88
264.499	86.88
264.732	82.88
264.964	93.88
265.197	83.88
265.429	73.88
265.661	75.88
265.894	83.88
266.126	73.88
266.358	74.88
266.591	67.88
266.823	78.88
267.055	84.88
267.287	88.88
267.52	81.88
267.752	86.88
267.984	82.88
268.216	82.88
268.448	94.88
268.681	79.88
268.913	93.88
269.145	89.88
269.377	85.88
269.609	71.88
269.841	77.88
270.073	79.88
270.306	96.88
270.538	95.88
270.77	93.88
271.002	84.88
271.234	93.88
271.466	88.88
271.698	77.88
271.93	89.88
272.162	82.88
272.394	90.88
272.626	81.88
272.858	90.88
273.09	87.88
273.322	82.88
273.553	84.88
273.785	82.88
274.017	92.88
274.249	87.88
274.481	81.88
274.713	87.88
274.945	85.88
275.176	88.88
275.408	86.88
275.64	89.88
275.872	84.88
276.104	91.88
276.335	88.88
276.567	98.88
276.799	95.88
277.031	95.88
277.262	99.88
277.494	83.88
277.726	81.88
277.957	86.88
278.189	88.88
278.421	78.88
278.652	70.88
278.884	83.88
279.115	82.88
279.347	91.88
279.579	77.88
279.81	90.88
280.042	89.88
280.273	96.88
280.505	96.88
280.736	87.88
280.968	86.88
281.199	65.88
281.431	90.88
281.662	99.88
281.894	84.88
282.125	93.88
282.356	103.88
282.588	109.88
282.819	107.88
283.051	97.88
283.282	90.88
283.513	96.88
283.745	96.88
283.976	88.88
284.207	91.88
284.439	96.88
284.67	87.88
284.901	90.88
285.132	90.88
285.364	89.88
285.595	74.88
285.826	92.88
286.057	72.88
286.288	83.88
286.52	87.88
286.751	90.88
286.982	74.88
287.213	87.88
287.444	97.88
287.675	86.88
287.906	88.88
288.138	89.88
288.369	87.88
288.6	95.88
288.831	101.88
289.062	85.88
289.293	85.88
289.524	87.88
289.755	86.88
289.986	84.88
290.217	83.88
290.448	85.88
290.679	95.88
290.91	69.88
291.141	86.88
291.371	82.88
291.602	80.88
291.833	78.88
292.064	97.88
292.295	83.88
292.526	86.88
292.757	87.88
292.987	94.88
293.218	89.88
293.449	89.88
293.68	76.88
293.91	85.88
294.141	84.88
294.372	88.88
294.603	91.88
294.833	71.88
295.064	78.88
295.295	83.88
295.525	77.88
295.756	93.88
295.987	92.88
296.217	81.88
296.448	83.88
296.679	73.88
296.909	98.88
297.14	98.88
297.37	85.88
297.601	91.88
297.831	89.88
298.062	87.88
298.292	82.88
298.523	94.88
298.753	93.88
298.984	82.88
299.214	103.88
299.445	94.88
299.675	100.88
299.905	94.88
300.136	92.88
300.366	68.88
300.597	81.88
300.827	86.88
301.057	90.88
301.288	90.88
301.518	90.88
301.748	81.88
301.979	99.88
302.209	86.88
302.439	83.88
302.669	90.88
302.9	103.88
303.13	95.88
303.36	101.88
303.59	98.88
303.82	96.88
304.051	90.88
304.281	80.88
304.511	86.88
304.741	87.88
304.971	90.88
305.201	91.88
305.431	70.88
305.661	92.88
305.891	84.88
306.121	93.88
306.352	104.88
306.582	85.88
306.812	84.88
307.042	100.88
307.272	88.88
307.502	92.88
307.731	88.88
307.961	95.88
308.191	101.88
308.421	101.88
308.651	100.88
308.881	100.88
309.111	91.88
309.341	101.88
309.571	95.88
309.8	103.88
310.03	102.88
310.26	98.88
310.49	98.88
310.72	82.88
310.949	83.88
311.179	81.88
311.409	95.88
311.639	81.88
311.868	81.88
312.098	94.88
312.328	97.88
312.557	109.88
312.787	95.88
313.017	99.88
313.246	83.88
313.476	93.88
313.706	99.88
313.935	99.88
314.165	103.88
314.394	95.88
314.624	87.88
314.853	94.88
315.083	93.88
315.312	91.88
315.542	91.88
315.771	102.88
316.001	79.88
316.23	93.88
316.46	88.88
316.689	98.88
316.919	82.88
317.148	81.88
317.377	86.88
317.607	97.88
317.836	85.88
318.065	86.88
318.295	85.88
318.524	94.88
318.753	89.88
318.983	108.88
319.212	87.88
319.441	91.88
319.67	74.88
319.9	78.88
320.129	96.88
320.358	89.88
320.587	89.88
320.816	81.88
321.046	92.88
321.275	92.88
321.504	94.88
321.733	110.88
321.962	84.88
322.191	93.88
322.42	92.88
322.649	78.88
322.878	89.88
323.108	100.88
323.337	85.88
323.566	86.88
323.795	97.88
324.024	83.88
324.253	94.88
324.482	97.88
324.71	88.88
324.939	88.88
325.168	85.88
325.397	87.88
325.626	87.88
325.855	79.88
326.084	99.88
326.313	97.88
326.542	90.88
326.77	100.88
326.999	101.88
327.228	81.88
327.457	93.88
327.686	100.88
327.914	93.88
328.143	103.88
328.372	83.88
328.6	104.88
328.829	98.88
329.058	94.88
329.287	95.88
329.515	88.88
329.744	94.88
329.972	90.88
330.201	91.88
330.43	79.88
330.658	89.88
330.887	86.88
331.115	81.88
331.344	81.88
331.572	111.88
331.801	93.88
332.03	97.88
332.258	96.88
332.486	98.88
332.715	86.88
332.943	83.88
333.172	100.88
333.4	99.88
333.629	90.88
333.857	92.88
334.085	86.88
334.314	109.88
334.542	90.88
334.771	90.88
334.999	102.88
335.227	98.88
335.455	95.88
335.684	83.88
335.912	105.88
336.14	93.88
336.369	100.88
336.597	94.88
336.825	106.88
337.053	80.88
337.281	87.88
337.51	99.88
337.738	102.88
337.966	102.88
338.194	108.88
338.422	95.88
338.65	99.88
338.878	97.88
339.106	95.88
339.334	97.88
339.562	88.88
339.79	86.88
340.018	85.88
340.246	88.88
340.474	95.88
340.702	95.88
340.93	87.88
341.158	103.88
341.386	101.88
341.614	96.88
341.842	100.88
342.07	94.88
342.298	87.88
342.526	81.88
342.754	90.88
342.981	100.88
343.209	93.88
343.437	89.88
343.665	90.88
343.893	100.88
344.12	99.88
344.348	82.88
344.576	94.88
344.804	102.88
345.031	95.88
345.259	86.88
345.487	91.88
345.714	90.88
345.942	94.88
346.17	85.88
346.397	79.88
346.625	97.88
346.853	101.88
347.08	94.88
347.308	88.88
347.535	98.88
347.763	103.88
347.99	95.88
348.218	92.88
348.445	90.88
348.673	88.88
348.9	96.88
349.128	93.88
349.355	91.88
349.583	94.88
349.81	102.88
350.037	78.88
350.265	93.88
350.492	93.88
350.72	96.88
350.947	90.88
351.174	114.88
351.402	98.88
351.629	82.88
351.856	91.88
352.083	83.88
352.311	102.88
352.538	84.88
352.765	98.88
352.992	102.88
353.22	76.88
353.447	97.88
353.674	96.88
353.901	97.88
354.128	85.88
354.355	94.88
354.583	82.88
354.81	81.88
355.037	100.88
355.264	92.88
355.491	90.88
355.718	91.88
355.945	94.88
356.172	86.88
356.399	85.88
356.626	95.88
356.853	99.88
357.08	101.88
357.307	102.88
357.534	83.88
357.761	84.88
357.988	90.88
358.215	104.88
358.441	85.88
358.668	101.88
358.895	89.88
359.122	100.88
359.349	98.88
359.576	87.88
359.802	97.88
360.029	101.88
360.256	98.88
360.483	80.88
360.709	83.88
360.936	93.88
361.163	93.88
361.39	82.88
361.616	100.88
361.843	97.88
362.07	95.88
362.296	103.88
362.523	77.88
362.749	82.88
362.976	90.88
363.203	96.88
363.429	87.88
363.656	107.88
363.882	96.88
364.109	93.88
364.335	86.88
364.562	90.88
364.788	83.88
365.015	96.88
365.241	100.88
365.468	78.88
365.694	91.88
365.92	91.88
366.147	81.88
366.373	93.88
366.599	98.88
366.826	66.88
367.052	90.88
367.278	99.88
367.505	96.88
367.731	89.88
367.957	97.88
368.184	87.88
368.41	88.88
368.636	83.88
368.862	95.88
369.089	103.88
369.315	110.88
369.541	89.88
369.767	96.88
369.993	90.88
370.219	90.88
370.445	97.88
370.672	95.88
370.898	95.88
371.124	91.88
371.35	95.88
371.576	93.88
371.802	83.88
372.028	94.88
372.254	104.88
372.48	90.88
372.706	96.88
372.932	92.88
373.158	98.88
373.384	84.88
373.61	99.88
373.835	95.88
374.061	99.88
374.287	83.88
374.513	82.88
374.739	94.88
374.965	101.88
375.191	93.88
375.416	90.88
375.642	106.88
375.868	100.88
376.094	79.88
376.319	88.88
376.545	91.88
376.771	81.88
376.997	76.88
377.222	86.88
377.448	89.88
377.674	87.88
377.899	85.88
378.125	87.88
378.35	104.88
378.576	85.88
378.802	86.88
379.027	91.88
379.253	79.88
379.478	88.88
379.704	90.88
379.929	72.88
380.155	104.88
380.38	101.88
380.606	97.88
380.831	81.88
381.057	93.88
381.282	87.88
381.507	105.88
381.733	99.88
381.958	89.88
382.184	98.88
382.409	94.88
382.634	68.88
382.86	96.88
383.085	84.88
383.31	96.88
383.535	83.88
383.761	87.88
383.986	96.88
384.211	99.88
384.436	107.88
384.662	88.88
384.887	97.88
385.112	79.88
385.337	92.88
385.562	77.88
385.787	86.88
386.013	99.88
386.238	92.88
386.463	94.88
386.688	97.88
386.913	96.88
387.138	93.88
387.363	107.88
387.588	97.88
387.813	97.88
388.038	99.88
388.263	93.88
388.488	86.88
388.713	96.88
388.938	95.88
389.163	92.88
389.387	99.88
389.612	90.88
389.837	96.88
390.062	95.88
390.287	101.88
390.512	88.88
390.736	97.88
390.961	101.88
391.186	81.88
391.411	89.88
391.636	98.88
391.86	101.88
392.085	85.88
392.31	79.88
392.534	101.88
392.759	106.88
392.984	98.88
393.208	101.88
393.433	97.88
393.658	101.88
393.882	103.88
394.107	89.88
394.331	86.88
394.556	113.88
394.78	90.88
395.005	102.88
395.229	94.88
395.454	103.88
395.678	93.88
395.903	115.88
396.127	101.88
396.352	97.88
396.576	98.88
396.801	89.88
397.025	98.88
397.249	105.88
397.474	95.88
397.698	92.88
397.922	96.88
398.147	92.88
398.371	96.88
398.595	111.88
398.82	90.88
399.044	94.88
399.268	91.88
399.492	106.88
399.717	97.88
399.941	95.88
400.165	94.88
400.389	94.88
400.613	95.88
400.837	101.88
401.062	89.88
401.286	106.88
401.51	94.88
401.734	107.88
401.958	106.88
402.182	94.88
402.406	89.88
402.63	103.88
402.854	101.88
403.078	97.88
403.302	105.88
403.526	114.88
403.75	103.88
403.974	105.88
404.198	96.88
404.422	94.88
404.645	104.88
404.869	92.88
405.093	93.88
405.317	103.88
405.541	103.88
405.765	94.88
405.988	103.88
406.212	102.88
406.436	106.88
406.66	98.88
406.883	95.88
407.107	95.88
407.331	101.88
407.555	99.88
407.778	116.88
408.002	102.88
408.226	98.88
408.449	106.88
408.673	105.88
408.896	104.88
409.12	100.88
409.344	93.88
409.567	101.88
409.791	90.88
410.014	101.88
410.238	94.88
410.461	92.88
410.685	99.88
410.908	94.88
411.132	95.88
411.355	102.88
411.578	114.88
411.802	98.88
412.025	97.88
412.249	92.88
412.472	101.88
412.695	98.88
412.919	96.88
413.142	103.88
413.365	97.88
413.589	101.88
413.812	101.88
414.035	97.88
414.258	85.88
414.482	81.88
414.705	99.88
414.928	88.88
415.151	88.88
415.374	97.88
415.597	99.88
415.821	106.88
416.044	90.88
416.267	92.88
416.49	111.88
416.713	90.88
416.936	107.88
417.159	98.88
417.382	93.88
417.605	81.88
417.828	90.88
418.051	93.88
418.274	111.88
418.497	110.88
418.72	104.88
418.943	111.88
419.166	101.88
419.389	105.88
419.611	107.88
419.834	89.88
420.057	98.88
420.28	98.88
420.503	104.88
420.726	101.88
420.948	82.88
421.171	102.88
421.394	99.88
421.617	99.88
421.839	111.88
422.062	87.88
422.285	86.88
422.507	107.88
422.73	112.88
422.953	89.88
423.175	100.88
423.398	102.88
423.621	93.88
423.843	94.88
424.066	91.88
424.288	97.88
424.511	104.88
424.733	113.88
424.956	95.88
425.178	113.88
425.401	100.88
425.623	96.88
425.846	95.88
426.068	84.88
426.291	95.88
426.513	81.88
426.735	102.88
426.958	98.88
427.18	109.88
427.402	111.88
427.625	103.88
427.847	100.88
428.069	109.88
428.292	90.88
428.514	91.88
428.736	94.88
428.958	87.88
429.181	107.88
429.403	99.88
429.625	99.88
429.847	104.88
430.069	96.88
430.292	99.88
430.514	91.88
430.736	93.88
430.958	80.88
431.18	100.88
431.402	91.88
431.624	95.88
431.846	91.88
432.068	78.88
432.29	99.88
432.512	95.88
432.734	90.88
432.956	88.88
433.178	110.88
433.4	115.88
433.622	109.88
433.844	93.88
434.066	106.88
434.287	94.88
434.509	102.88
434.731	84.88
434.953	97.88
435.175	85.88
435.397	94.88
435.618	89.88
435.84	86.88
436.062	82.88
436.284	96.88
436.505	73.88
436.727	84.88
436.949	96.88
437.17	104.88
437.392	92.88
437.614	97.88
437.835	89.88
438.057	102.88
438.278	91.88
438.5	97.88
438.721	87.88
438.943	98.88
439.165	87.88
439.386	91.88
439.608	88.88
439.829	101.88
440.05	98.88
440.272	94.88
440.493	97.88
440.715	97.88
440.936	100.88
441.158	81.88
441.379	98.88
441.6	102.88
441.822	87.88
442.043	80.88
442.264	98.88
442.486	90.88
442.707	79.88
442.928	90.88
443.149	73.88
443.371	92.88
443.592	82.88
443.813	94.88
444.034	93.88
444.255	96.88
444.476	94.88
444.698	102.88
444.919	102.88
445.14	181.88
445.361	131.88
445.582	108.88
445.803	104.88
446.024	101.88
446.245	91.88
446.466	103.88
446.687	90.88
446.908	96.88
447.129	105.88
447.35	90.88
447.571	98.88
447.792	103.88
448.013	90.88
448.234	90.88
448.455	81.88
448.675	113.88
448.896	99.88
449.117	87.88
449.338	97.88
449.559	87.88
449.779	88.88
450	105.88
450.221	87.88
450.442	97.88
450.662	81.88
450.883	96.88
451.104	91.88
451.324	93.88
451.545	85.88
451.766	89.88
451.986	89.88
452.207	84.88
452.428	93.88
452.648	104.88
452.869	94.88
453.089	91.88
453.31	87.88
453.53	86.88
453.751	95.88
453.971	96.88
454.192	101.88
454.412	84.88
454.633	112.88
454.853	109.88
455.073	94.88
455.294	88.88
455.514	104.88
455.734	83.88
455.955	93.88
456.175	92.88
456.395	105.88
456.616	90.88
456.836	87.88
457.056	88.88
457.276	96.88
457.497	91.88
457.717	97.88
457.937	102.88
458.157	102.88
458.377	95.88
458.598	93.88
458.818	90.88
459.038	97.88
459.258	105.88
459.478	95.88
459.698	98.88
459.918	90.88
460.138	91.88
460.358	118.88
460.578	99.88
460.798	107.88
461.018	94.88
461.238	101.88
461.458	94.88
461.678	97.88
461.898	102.88
462.118	104.88
462.338	105.88
462.558	88.88
462.777	96.88
462.997	85.88
463.217	93.88
463.437	99.88
463.657	99.88
463.876	112.88
464.096	111.88
464.316	86.88
464.536	107.88
464.755	118.88
464.975	104.88
465.195	103.88
465.414	89.88
465.634	97.88
465.854	97.88
466.073	94.88
466.293	97.88
466.512	97.88
466.732	108.88
466.951	100.88
467.171	90.88
467.391	101.88
467.61	86.88
467.829	102.88
468.049	98.88
468.268	101.88
468.488	98.88
468.707	96.88
468.927	94.88
469.146	104.88
469.365	93.88
469.585	108.88
469.804	108.88
470.023	92.88
470.243	98.88
470.462	104.88
470.681	106.88
470.901	92.88
471.12	90.88
471.339	96.88
471.558	98.88
471.777	98.88
471.997	99.88
472.216	95.88
472.435	106.88
472.654	105.88
472.873	104.88
473.092	98.88
473.311	91.88
473.53	90.88
473.749	91.88
473.968	105.88
474.187	89.88
474.406	99.88
474.625	89.88
474.844	106.88
475.063	102.88
475.282	80.88
475.501	105.88
475.72	81.88
475.939	95.88
476.158	92.88
476.377	102.88
476.596	98.88
476.814	101.88
477.033	88.88
477.252	88.88
477.471	111.88
477.69	101.88
477.908	92.88
478.127	107.88
478.346	95.88
478.564	95.88
478.783	99.88
479.002	118.88
479.22	99.88
479.439	109.88
479.658	103.88
479.876	101.88
480.095	104.88
480.313	96.88
480.532	99.88
480.751	104.88
480.969	99.88
481.188	106.88
481.406	106.88
481.624	96.88
481.843	106.88
482.061	101.88
482.28	93.88
482.498	95.88
482.717	97.88
482.935	90.88
483.153	87.88
483.372	105.88
483.59	101.88
483.808	97.88
484.027	114.88
484.245	105.88
484.463	102.88
484.681	96.88
484.9	101.88
485.118	103.88
485.336	104.88
485.554	100.88
485.772	102.88
485.99	106.88
486.209	96.88
486.427	120.88
486.645	96.88
486.863	114.88
487.081	103.88
487.299	111.88
487.517	104.88
487.735	99.88
487.953	118.88
488.171	111.88
488.389	107.88
488.607	102.88
488.825	104.88
489.043	104.88
489.261	103.88
489.479	109.88
489.696	107.88
489.914	109.88
490.132	111.88
490.35	101.88
490.568	104.88
490.786	102.88
491.003	97.88
491.221	120.88
491.439	113.88
491.657	123.88
491.874	112.88
492.092	121.88
492.31	119.88
492.527	117.88
492.745	106.88
492.963	113.88
493.18	111.88
493.398	126.88
493.615	112.88
493.833	120.88
494.05	116.88
494.268	134.88
494.485	118.88
494.703	105.88
494.92	98.88
495.138	104.88
495.355	114.88
495.573	102.88
495.79	112.88
496.008	105.88
496.225	122.88
496.442	109.88
496.66	107.88
496.877	104.88
497.094	118.88
497.312	117.88
497.529	117.88
497.746	118.88
497.963	101.88
498.181	111.88
498.398	98.88
498.615	100.88
498.832	117.88
499.049	113.88
499.267	118.88
499.484	123.88
499.701	136.88
499.918	150.88
500.135	163.88
500.352	155.88
500.569	177.88
500.786	149.88
501.003	147.88
501.22	144.88
501.437	145.88
501.654	129.88
501.871	137.88
502.088	121.88
502.305	121.88
502.522	112.88
502.739	119.88
502.956	103.88
503.172	118.88
503.389	103.88
503.606	112.88
503.823	116.88
504.04	102.88
504.256	115.88
504.473	110.88
504.69	109.88
504.907	122.88
505.123	115.88
505.34	111.88
505.557	110.88
505.773	115.88
505.99	94.88
506.207	96.88
506.423	104.88
506.64	102.88
506.856	99.88
507.073	99.88
507.289	107.88
507.506	97.88
507.722	85.88
507.939	107.88
508.155	95.88
508.372	99.88
508.588	104.88
508.805	103.88
509.021	118.88
509.238	109.88
509.454	101.88
509.67	107.88
509.887	98.88
510.103	88.88
510.319	95.88
510.536	96.88
510.752	96.88
510.968	121.88
511.184	92.88
511.401	96.88
511.617	114.88
511.833	89.88
512.049	90.88
512.265	102.88
512.481	117.88
512.698	98.88
512.914	108.88
513.13	101.88
513.346	91.88
513.562	94.88
513.778	93.88
513.994	86.88
514.21	99.88
514.426	87.88
514.642	98.88
