Data from Location5.07152019.Energy5.Lamp.07192019.3%Agarose_HRD10591_16-04-58-629.txt Node
Date: Fri Jul 19 16:04:58 EDT 2019
User: cochatt
Spectrometer: HR+D1059
Trigger mode: 1
Integration Time (sec): 1.000000E-1
Scans to average: 1
Electric dark correction enabled: true
Nonlinearity correction enabled: false
Boxcar width: 0
XAxis mode: Wavelengths
Number of Pixels in Spectrum: 2048
>>>>>Begin Spectral Data<<<<<
223.165	-19.19
223.4	-19.19
223.635	-19.19
223.869	-19.19
224.104	-13.19
224.338	-9.19
224.573	-14.19
224.808	-13.19
225.042	-8.19
225.277	-15.19
225.511	0.81
225.746	2.81
225.98	3.81
226.215	25.81
226.449	10.81
226.683	19.81
226.918	28.81
227.152	18.81
227.387	24.81
227.621	23.81
227.856	25.81
228.09	64.81
228.324	40.81
228.559	53.81
228.793	48.81
229.027	62.81
229.262	63.81
229.496	55.81
229.73	68.81
229.964	58.81
230.199	72.81
230.433	77.81
230.667	62.81
230.901	80.81
231.136	79.81
231.37	77.81
231.604	85.81
231.838	78.81
232.072	86.81
232.306	82.81
232.541	77.81
232.775	79.81
233.009	88.81
233.243	81.81
233.477	70.81
233.711	95.81
233.945	77.81
234.179	73.81
234.413	71.81
234.647	62.81
234.881	76.81
235.115	62.81
235.349	66.81
235.583	70.81
235.817	76.81
236.051	73.81
236.285	75.81
236.519	75.81
236.753	72.81
236.987	62.81
237.221	72.81
237.455	62.81
237.689	68.81
237.922	85.81
238.156	80.81
238.39	78.81
238.624	72.81
238.858	89.81
239.091	69.81
239.325	71.81
239.559	69.81
239.793	69.81
240.027	77.81
240.26	80.81
240.494	97.81
240.728	84.81
240.961	80.81
241.195	78.81
241.429	71.81
241.662	72.81
241.896	82.81
242.13	86.81
242.363	68.81
242.597	80.81
242.83	77.81
243.064	81.81
243.298	81.81
243.531	74.81
243.765	78.81
243.998	86.81
244.232	61.81
244.465	73.81
244.699	78.81
244.932	87.81
245.166	81.81
245.399	81.81
245.633	72.81
245.866	73.81
246.099	91.81
246.333	87.81
246.566	75.81
246.8	85.81
247.033	81.81
247.266	69.81
247.5	79.81
247.733	87.81
247.966	84.81
248.2	63.81
248.433	69.81
248.666	78.81
248.899	90.81
249.133	85.81
249.366	85.81
249.599	84.81
249.832	91.81
250.066	74.81
250.299	84.81
250.532	84.81
250.765	75.81
250.998	77.81
251.231	79.81
251.465	94.81
251.698	74.81
251.931	69.81
252.164	77.81
252.397	82.81
252.63	79.81
252.863	84.81
253.096	74.81
253.329	79.81
253.562	82.81
253.795	92.81
254.028	81.81
254.261	81.81
254.494	88.81
254.727	81.81
254.96	80.81
255.193	80.81
255.426	82.81
255.659	80.81
255.892	80.81
256.124	85.81
256.357	95.81
256.59	71.81
256.823	82.81
257.056	78.81
257.289	71.81
257.521	81.81
257.754	84.81
257.987	75.81
258.22	82.81
258.452	87.81
258.685	69.81
258.918	81.81
259.151	78.81
259.383	79.81
259.616	87.81
259.849	85.81
260.081	75.81
260.314	84.81
260.547	65.81
260.779	79.81
261.012	86.81
261.244	86.81
261.477	85.81
261.71	79.81
261.942	80.81
262.175	82.81
262.407	80.81
262.64	75.81
262.872	73.81
263.105	95.81
263.337	86.81
263.57	78.81
263.802	89.81
264.035	89.81
264.267	71.81
264.499	81.81
264.732	85.81
264.964	82.81
265.197	76.81
265.429	82.81
265.661	80.81
265.894	94.81
266.126	99.81
266.358	65.81
266.591	85.81
266.823	69.81
267.055	71.81
267.287	94.81
267.52	89.81
267.752	74.81
267.984	85.81
268.216	88.81
268.448	88.81
268.681	82.81
268.913	88.81
269.145	93.81
269.377	97.81
269.609	80.81
269.841	80.81
270.073	94.81
270.306	79.81
270.538	88.81
270.77	73.81
271.002	93.81
271.234	86.81
271.466	81.81
271.698	83.81
271.93	91.81
272.162	95.81
272.394	84.81
272.626	86.81
272.858	85.81
273.09	76.81
273.322	75.81
273.553	63.81
273.785	83.81
274.017	77.81
274.249	105.81
274.481	85.81
274.713	81.81
274.945	85.81
275.176	93.81
275.408	71.81
275.64	77.81
275.872	88.81
276.104	69.81
276.335	71.81
276.567	80.81
276.799	69.81
277.031	74.81
277.262	82.81
277.494	92.81
277.726	88.81
277.957	69.81
278.189	78.81
278.421	89.81
278.652	85.81
278.884	81.81
279.115	86.81
279.347	78.81
279.579	79.81
279.81	84.81
280.042	92.81
280.273	89.81
280.505	88.81
280.736	98.81
280.968	86.81
281.199	80.81
281.431	84.81
281.662	84.81
281.894	96.81
282.125	92.81
282.356	85.81
282.588	80.81
282.819	83.81
283.051	84.81
283.282	83.81
283.513	85.81
283.745	91.81
283.976	78.81
284.207	78.81
284.439	93.81
284.67	86.81
284.901	79.81
285.132	84.81
285.364	83.81
285.595	89.81
285.826	84.81
286.057	88.81
286.288	77.81
286.52	87.81
286.751	96.81
286.982	98.81
287.213	91.81
287.444	91.81
287.675	94.81
287.906	89.81
288.138	85.81
288.369	83.81
288.6	80.81
288.831	85.81
289.062	83.81
289.293	91.81
289.524	79.81
289.755	93.81
289.986	87.81
290.217	83.81
290.448	91.81
290.679	83.81
290.91	89.81
291.141	87.81
291.371	93.81
291.602	82.81
291.833	77.81
292.064	86.81
292.295	85.81
292.526	87.81
292.757	79.81
292.987	86.81
293.218	94.81
293.449	88.81
293.68	84.81
293.91	91.81
294.141	70.81
294.372	93.81
294.603	101.81
294.833	91.81
295.064	89.81
295.295	83.81
295.525	81.81
295.756	102.81
295.987	81.81
296.217	79.81
296.448	83.81
296.679	94.81
296.909	84.81
297.14	80.81
297.37	88.81
297.601	85.81
297.831	79.81
298.062	97.81
298.292	87.81
298.523	106.81
298.753	73.81
298.984	74.81
299.214	95.81
299.445	88.81
299.675	90.81
299.905	88.81
300.136	89.81
300.366	102.81
300.597	87.81
300.827	85.81
301.057	79.81
301.288	89.81
301.518	93.81
301.748	81.81
301.979	89.81
302.209	80.81
302.439	71.81
302.669	98.81
302.9	91.81
303.13	91.81
303.36	81.81
303.59	94.81
303.82	91.81
304.051	95.81
304.281	88.81
304.511	84.81
304.741	95.81
304.971	91.81
305.201	87.81
305.431	85.81
305.661	97.81
305.891	90.81
306.121	85.81
306.352	88.81
306.582	88.81
306.812	98.81
307.042	93.81
307.272	87.81
307.502	81.81
307.731	93.81
307.961	68.81
308.191	85.81
308.421	87.81
308.651	84.81
308.881	95.81
309.111	93.81
309.341	63.81
309.571	93.81
309.8	99.81
310.03	94.81
310.26	101.81
310.49	95.81
310.72	95.81
310.949	65.81
311.179	93.81
311.409	86.81
311.639	81.81
311.868	92.81
312.098	95.81
312.328	88.81
312.557	84.81
312.787	79.81
313.017	86.81
313.246	92.81
313.476	82.81
313.706	90.81
313.935	77.81
314.165	76.81
314.394	92.81
314.624	83.81
314.853	78.81
315.083	80.81
315.312	94.81
315.542	80.81
315.771	99.81
316.001	101.81
316.23	87.81
316.46	81.81
316.689	97.81
316.919	75.81
317.148	85.81
317.377	95.81
317.607	90.81
317.836	83.81
318.065	79.81
318.295	76.81
318.524	89.81
318.753	84.81
318.983	93.81
319.212	83.81
319.441	88.81
319.67	103.81
319.9	72.81
320.129	96.81
320.358	93.81
320.587	81.81
320.816	88.81
321.046	89.81
321.275	87.81
321.504	94.81
321.733	88.81
321.962	97.81
322.191	87.81
322.42	91.81
322.649	94.81
322.878	90.81
323.108	84.81
323.337	69.81
323.566	93.81
323.795	71.81
324.024	82.81
324.253	83.81
324.482	88.81
324.71	70.81
324.939	74.81
325.168	99.81
325.397	97.81
325.626	88.81
325.855	95.81
326.084	91.81
326.313	84.81
326.542	100.81
326.77	87.81
326.999	91.81
327.228	92.81
327.457	80.81
327.686	84.81
327.914	81.81
328.143	100.81
328.372	86.81
328.6	88.81
328.829	80.81
329.058	99.81
329.287	91.81
329.515	83.81
329.744	87.81
329.972	94.81
330.201	89.81
330.43	92.81
330.658	83.81
330.887	96.81
331.115	92.81
331.344	101.81
331.572	81.81
331.801	82.81
332.03	111.81
332.258	84.81
332.486	87.81
332.715	95.81
332.943	89.81
333.172	94.81
333.4	81.81
333.629	105.81
333.857	103.81
334.085	97.81
334.314	95.81
334.542	99.81
334.771	87.81
334.999	87.81
335.227	94.81
335.455	95.81
335.684	88.81
335.912	84.81
336.14	79.81
336.369	77.81
336.597	84.81
336.825	99.81
337.053	98.81
337.281	95.81
337.51	86.81
337.738	94.81
337.966	100.81
338.194	93.81
338.422	80.81
338.65	99.81
338.878	92.81
339.106	89.81
339.334	86.81
339.562	115.81
339.79	79.81
340.018	84.81
340.246	83.81
340.474	93.81
340.702	100.81
340.93	83.81
341.158	90.81
341.386	92.81
341.614	94.81
341.842	99.81
342.07	93.81
342.298	84.81
342.526	107.81
342.754	89.81
342.981	100.81
343.209	96.81
343.437	99.81
343.665	86.81
343.893	94.81
344.12	95.81
344.348	89.81
344.576	91.81
344.804	71.81
345.031	87.81
345.259	94.81
345.487	83.81
345.714	104.81
345.942	90.81
346.17	79.81
346.397	83.81
346.625	87.81
346.853	84.81
347.08	94.81
347.308	97.81
347.535	96.81
347.763	78.81
347.99	75.81
348.218	91.81
348.445	81.81
348.673	81.81
348.9	82.81
349.128	104.81
349.355	98.81
349.583	82.81
349.81	87.81
350.037	97.81
350.265	93.81
350.492	95.81
350.72	95.81
350.947	86.81
351.174	81.81
351.402	96.81
351.629	96.81
351.856	94.81
352.083	85.81
352.311	91.81
352.538	98.81
352.765	86.81
352.992	86.81
353.22	99.81
353.447	86.81
353.674	90.81
353.901	94.81
354.128	87.81
354.355	84.81
354.583	83.81
354.81	92.81
355.037	95.81
355.264	97.81
355.491	79.81
355.718	86.81
355.945	86.81
356.172	83.81
356.399	86.81
356.626	82.81
356.853	82.81
357.08	85.81
357.307	94.81
357.534	71.81
357.761	96.81
357.988	88.81
358.215	74.81
358.441	90.81
358.668	100.81
358.895	74.81
359.122	88.81
359.349	88.81
359.576	95.81
359.802	102.81
360.029	93.81
360.256	83.81
360.483	83.81
360.709	72.81
360.936	87.81
361.163	73.81
361.39	105.81
361.616	103.81
361.843	82.81
362.07	93.81
362.296	93.81
362.523	84.81
362.749	87.81
362.976	73.81
363.203	92.81
363.429	85.81
363.656	96.81
363.882	92.81
364.109	101.81
364.335	67.81
364.562	100.81
364.788	78.81
365.015	88.81
365.241	93.81
365.468	88.81
365.694	83.81
365.92	92.81
366.147	79.81
366.373	94.81
366.599	87.81
366.826	84.81
367.052	98.81
367.278	89.81
367.505	88.81
367.731	98.81
367.957	88.81
368.184	66.81
368.41	88.81
368.636	83.81
368.862	78.81
369.089	80.81
369.315	91.81
369.541	85.81
369.767	101.81
369.993	93.81
370.219	98.81
370.445	85.81
370.672	93.81
370.898	93.81
371.124	82.81
371.35	93.81
371.576	92.81
371.802	99.81
372.028	83.81
372.254	84.81
372.48	91.81
372.706	87.81
372.932	91.81
373.158	90.81
373.384	89.81
373.61	94.81
373.835	90.81
374.061	83.81
374.287	84.81
374.513	77.81
374.739	67.81
374.965	97.81
375.191	85.81
375.416	79.81
375.642	99.81
375.868	79.81
376.094	88.81
376.319	82.81
376.545	86.81
376.771	98.81
376.997	103.81
377.222	79.81
377.448	100.81
377.674	87.81
377.899	80.81
378.125	87.81
378.35	75.81
378.576	95.81
378.802	92.81
379.027	86.81
379.253	100.81
379.478	80.81
379.704	75.81
379.929	73.81
380.155	82.81
380.38	92.81
380.606	80.81
380.831	78.81
381.057	86.81
381.282	78.81
381.507	85.81
381.733	99.81
381.958	87.81
382.184	75.81
382.409	86.81
382.634	100.81
382.86	87.81
383.085	97.81
383.31	85.81
383.535	99.81
383.761	78.81
383.986	94.81
384.211	83.81
384.436	91.81
384.662	82.81
384.887	88.81
385.112	91.81
385.337	91.81
385.562	92.81
385.787	89.81
386.013	96.81
386.238	96.81
386.463	90.81
386.688	93.81
386.913	102.81
387.138	96.81
387.363	102.81
387.588	78.81
387.813	97.81
388.038	95.81
388.263	96.81
388.488	83.81
388.713	97.81
388.938	84.81
389.163	73.81
389.387	82.81
389.612	97.81
389.837	99.81
390.062	86.81
390.287	100.81
390.512	90.81
390.736	83.81
390.961	87.81
391.186	107.81
391.411	97.81
391.636	101.81
391.86	81.81
392.085	96.81
392.31	97.81
392.534	98.81
392.759	90.81
392.984	88.81
393.208	76.81
393.433	76.81
393.658	87.81
393.882	92.81
394.107	102.81
394.331	94.81
394.556	87.81
394.78	81.81
395.005	87.81
395.229	81.81
395.454	80.81
395.678	86.81
395.903	79.81
396.127	83.81
396.352	89.81
396.576	100.81
396.801	88.81
397.025	99.81
397.249	103.81
397.474	79.81
397.698	79.81
397.922	87.81
398.147	95.81
398.371	95.81
398.595	89.81
398.82	85.81
399.044	99.81
399.268	95.81
399.492	94.81
399.717	101.81
399.941	86.81
400.165	100.81
400.389	111.81
400.613	92.81
400.837	106.81
401.062	101.81
401.286	87.81
401.51	109.81
401.734	80.81
401.958	102.81
402.182	88.81
402.406	90.81
402.63	92.81
402.854	87.81
403.078	91.81
403.302	91.81
403.526	97.81
403.75	99.81
403.974	96.81
404.198	97.81
404.422	94.81
404.645	91.81
404.869	98.81
405.093	101.81
405.317	113.81
405.541	87.81
405.765	92.81
405.988	98.81
406.212	106.81
406.436	88.81
406.66	93.81
406.883	92.81
407.107	92.81
407.331	99.81
407.555	88.81
407.778	108.81
408.002	97.81
408.226	89.81
408.449	95.81
408.673	93.81
408.896	91.81
409.12	90.81
409.344	113.81
409.567	90.81
409.791	85.81
410.014	96.81
410.238	96.81
410.461	91.81
410.685	95.81
410.908	87.81
411.132	95.81
411.355	99.81
411.578	87.81
411.802	104.81
412.025	88.81
412.249	99.81
412.472	95.81
412.695	90.81
412.919	95.81
413.142	98.81
413.365	90.81
413.589	78.81
413.812	97.81
414.035	96.81
414.258	101.81
414.482	84.81
414.705	105.81
414.928	100.81
415.151	90.81
415.374	108.81
415.597	81.81
415.821	93.81
416.044	97.81
416.267	75.81
416.49	80.81
416.713	108.81
416.936	95.81
417.159	92.81
417.382	91.81
417.605	95.81
417.828	84.81
418.051	93.81
418.274	93.81
418.497	91.81
418.72	86.81
418.943	98.81
419.166	85.81
419.389	79.81
419.611	100.81
419.834	88.81
420.057	83.81
420.28	94.81
420.503	99.81
420.726	105.81
420.948	101.81
421.171	98.81
421.394	95.81
421.617	96.81
421.839	102.81
422.062	91.81
422.285	79.81
422.507	98.81
422.73	103.81
422.953	99.81
423.175	92.81
423.398	90.81
423.621	81.81
423.843	93.81
424.066	96.81
424.288	88.81
424.511	91.81
424.733	98.81
424.956	103.81
425.178	99.81
425.401	89.81
425.623	98.81
425.846	101.81
426.068	110.81
426.291	93.81
426.513	89.81
426.735	107.81
426.958	84.81
427.18	97.81
427.402	87.81
427.625	97.81
427.847	84.81
428.069	82.81
428.292	96.81
428.514	87.81
428.736	92.81
428.958	97.81
429.181	83.81
429.403	95.81
429.625	84.81
429.847	85.81
430.069	84.81
430.292	98.81
430.514	89.81
430.736	76.81
430.958	92.81
431.18	103.81
431.402	88.81
431.624	95.81
431.846	95.81
432.068	85.81
432.29	94.81
432.512	91.81
432.734	84.81
432.956	88.81
433.178	96.81
433.4	85.81
433.622	96.81
433.844	84.81
434.066	86.81
434.287	101.81
434.509	86.81
434.731	88.81
434.953	84.81
435.175	79.81
435.397	98.81
435.618	93.81
435.84	97.81
436.062	92.81
436.284	91.81
436.505	89.81
436.727	81.81
436.949	93.81
437.17	91.81
437.392	89.81
437.614	81.81
437.835	96.81
438.057	83.81
438.278	109.81
438.5	73.81
438.721	91.81
438.943	94.81
439.165	88.81
439.386	98.81
439.608	95.81
439.829	90.81
440.05	100.81
440.272	81.81
440.493	80.81
440.715	88.81
440.936	104.81
441.158	84.81
441.379	89.81
441.6	87.81
441.822	84.81
442.043	78.81
442.264	90.81
442.486	96.81
442.707	89.81
442.928	85.81
443.149	107.81
443.371	96.81
443.592	99.81
443.813	89.81
444.034	84.81
444.255	85.81
444.476	103.81
444.698	104.81
444.919	95.81
445.14	219.81
445.361	145.81
445.582	97.81
445.803	92.81
446.024	81.81
446.245	100.81
446.466	92.81
446.687	95.81
446.908	109.81
447.129	95.81
447.35	91.81
447.571	94.81
447.792	92.81
448.013	90.81
448.234	87.81
448.455	88.81
448.675	95.81
448.896	100.81
449.117	91.81
449.338	95.81
449.559	101.81
449.779	100.81
450	87.81
450.221	84.81
450.442	83.81
450.662	96.81
450.883	81.81
451.104	95.81
451.324	93.81
451.545	92.81
451.766	84.81
451.986	81.81
452.207	88.81
452.428	88.81
452.648	90.81
452.869	83.81
453.089	79.81
453.31	93.81
453.53	88.81
453.751	88.81
453.971	84.81
454.192	93.81
454.412	80.81
454.633	86.81
454.853	96.81
455.073	90.81
455.294	95.81
455.514	84.81
455.734	85.81
455.955	80.81
456.175	80.81
456.395	80.81
456.616	90.81
456.836	95.81
457.056	99.81
457.276	88.81
457.497	80.81
457.717	88.81
457.937	84.81
458.157	83.81
458.377	92.81
458.598	93.81
458.818	74.81
459.038	84.81
459.258	83.81
459.478	91.81
459.698	94.81
459.918	85.81
460.138	92.81
460.358	92.81
460.578	88.81
460.798	79.81
461.018	98.81
461.238	77.81
461.458	92.81
461.678	84.81
461.898	91.81
462.118	88.81
462.338	84.81
462.558	94.81
462.777	106.81
462.997	91.81
463.217	119.81
463.437	93.81
463.657	85.81
463.876	89.81
464.096	98.81
464.316	102.81
464.536	93.81
464.755	86.81
464.975	93.81
465.195	100.81
465.414	79.81
465.634	87.81
465.854	93.81
466.073	101.81
466.293	83.81
466.512	84.81
466.732	84.81
466.951	82.81
467.171	101.81
467.391	98.81
467.61	102.81
467.829	82.81
468.049	78.81
468.268	80.81
468.488	77.81
468.707	92.81
468.927	99.81
469.146	91.81
469.365	85.81
469.585	109.81
469.804	86.81
470.023	84.81
470.243	92.81
470.462	96.81
470.681	91.81
470.901	117.81
471.12	92.81
471.339	93.81
471.558	90.81
471.777	83.81
471.997	85.81
472.216	100.81
472.435	87.81
472.654	87.81
472.873	99.81
473.092	87.81
473.311	94.81
473.53	100.81
473.749	95.81
473.968	99.81
474.187	100.81
474.406	78.81
474.625	94.81
474.844	96.81
475.063	94.81
475.282	94.81
475.501	104.81
475.72	108.81
475.939	87.81
476.158	74.81
476.377	102.81
476.596	86.81
476.814	96.81
477.033	96.81
477.252	98.81
477.471	98.81
477.69	96.81
477.908	93.81
478.127	94.81
478.346	94.81
478.564	87.81
478.783	73.81
479.002	97.81
479.22	92.81
479.439	104.81
479.658	96.81
479.876	89.81
480.095	110.81
480.313	91.81
480.532	108.81
480.751	111.81
480.969	97.81
481.188	102.81
481.406	102.81
481.624	99.81
481.843	90.81
482.061	100.81
482.28	108.81
482.498	92.81
482.717	99.81
482.935	107.81
483.153	98.81
483.372	110.81
483.59	103.81
483.808	94.81
484.027	103.81
484.245	105.81
484.463	101.81
484.681	120.81
484.9	96.81
485.118	101.81
485.336	108.81
485.554	107.81
485.772	87.81
485.99	107.81
486.209	90.81
486.427	103.81
486.645	96.81
486.863	110.81
487.081	82.81
487.299	94.81
487.517	82.81
487.735	94.81
487.953	101.81
488.171	91.81
488.389	96.81
488.607	101.81
488.825	94.81
489.043	106.81
489.261	99.81
489.479	94.81
489.696	113.81
489.914	107.81
490.132	111.81
490.35	95.81
490.568	91.81
490.786	100.81
491.003	96.81
491.221	104.81
491.439	112.81
491.657	115.81
491.874	111.81
492.092	108.81
492.31	92.81
492.527	109.81
492.745	117.81
492.963	118.81
493.18	112.81
493.398	93.81
493.615	89.81
493.833	116.81
494.05	120.81
494.268	110.81
494.485	108.81
494.703	114.81
494.92	116.81
495.138	116.81
495.355	113.81
495.573	109.81
495.79	86.81
496.008	90.81
496.225	100.81
496.442	117.81
496.66	120.81
496.877	108.81
497.094	94.81
497.312	102.81
497.529	102.81
497.746	91.81
497.963	99.81
498.181	93.81
498.398	94.81
498.615	93.81
498.832	95.81
499.049	116.81
499.267	103.81
499.484	111.81
499.701	126.81
499.918	132.81
500.135	129.81
500.352	156.81
500.569	143.81
500.786	158.81
501.003	159.81
501.22	140.81
501.437	124.81
501.654	126.81
501.871	124.81
502.088	112.81
502.305	108.81
502.522	108.81
502.739	96.81
502.956	105.81
503.172	89.81
503.389	99.81
503.606	107.81
503.823	99.81
504.04	116.81
504.256	108.81
504.473	95.81
504.69	117.81
504.907	117.81
505.123	120.81
505.34	110.81
505.557	99.81
505.773	109.81
505.99	101.81
506.207	110.81
506.423	94.81
506.64	93.81
506.856	86.81
507.073	96.81
507.289	92.81
507.506	91.81
507.722	109.81
507.939	103.81
508.155	93.81
508.372	96.81
508.588	107.81
508.805	89.81
509.021	112.81
509.238	105.81
509.454	106.81
509.67	101.81
509.887	100.81
510.103	105.81
510.319	100.81
510.536	118.81
510.752	89.81
510.968	101.81
511.184	100.81
511.401	97.81
511.617	110.81
511.833	104.81
512.049	81.81
512.265	93.81
512.481	96.81
512.698	95.81
512.914	116.81
513.13	95.81
513.346	88.81
513.562	100.81
513.778	87.81
513.994	84.81
514.21	82.81
514.426	97.81
514.642	101.81
514.858	79.81
515.074	105.81
515.29	116.81
515.506	104.81
515.721	95.81
515.937	94.81
516.153	88.81
516.369	97.81
516.585	105.81
