Data from Location5.07152019.Energy5.Lamp.07192019.3%Agarose_HRD10591_15-37-00-396.txt Node
Date: Fri Jul 19 15:37:00 EDT 2019
User: cochatt
Spectrometer: HR+D1059
Trigger mode: 1
Integration Time (sec): 1.000000E-1
Scans to average: 1
Electric dark correction enabled: true
Nonlinearity correction enabled: false
Boxcar width: 0
XAxis mode: Wavelengths
Number of Pixels in Spectrum: 2048
>>>>>Begin Spectral Data<<<<<
223.165	-20.88
223.4	-20.88
223.635	-20.88
223.869	-18.88
224.104	-2.88
224.338	-11.88
224.573	-11.88
224.808	-9.88
225.042	-1.88
225.277	-2.88
225.511	-4.88
225.746	-6.88
225.98	-0.88
226.215	11.12
226.449	8.12
226.683	22.12
226.918	28.12
227.152	24.12
227.387	44.12
227.621	12.12
227.856	45.12
228.09	49.12
228.324	53.12
228.559	49.12
228.793	67.12
229.027	52.12
229.262	56.12
229.496	69.12
229.73	65.12
229.964	67.12
230.199	64.12
230.433	73.12
230.667	80.12
230.901	77.12
231.136	75.12
231.37	73.12
231.604	84.12
231.838	86.12
232.072	65.12
232.306	76.12
232.541	83.12
232.775	80.12
233.009	84.12
233.243	99.12
233.477	88.12
233.711	80.12
233.945	78.12
234.179	91.12
234.413	76.12
234.647	81.12
234.881	76.12
235.115	80.12
235.349	78.12
235.583	76.12
235.817	86.12
236.051	80.12
236.285	80.12
236.519	72.12
236.753	79.12
236.987	77.12
237.221	65.12
237.455	75.12
237.689	78.12
237.922	76.12
238.156	63.12
238.39	73.12
238.624	72.12
238.858	79.12
239.091	77.12
239.325	65.12
239.559	68.12
239.793	70.12
240.027	69.12
240.26	70.12
240.494	68.12
240.728	73.12
240.961	79.12
241.195	70.12
241.429	73.12
241.662	67.12
241.896	76.12
242.13	74.12
242.363	86.12
242.597	91.12
242.83	72.12
243.064	82.12
243.298	73.12
243.531	84.12
243.765	73.12
243.998	74.12
244.232	73.12
244.465	78.12
244.699	77.12
244.932	69.12
245.166	68.12
245.399	73.12
245.633	83.12
245.866	72.12
246.099	77.12
246.333	88.12
246.566	66.12
246.8	73.12
247.033	63.12
247.266	70.12
247.5	88.12
247.733	77.12
247.966	69.12
248.2	84.12
248.433	69.12
248.666	85.12
248.899	80.12
249.133	89.12
249.366	81.12
249.599	78.12
249.832	75.12
250.066	74.12
250.299	75.12
250.532	77.12
250.765	82.12
250.998	85.12
251.231	77.12
251.465	78.12
251.698	78.12
251.931	79.12
252.164	83.12
252.397	85.12
252.63	56.12
252.863	69.12
253.096	77.12
253.329	81.12
253.562	89.12
253.795	84.12
254.028	73.12
254.261	84.12
254.494	70.12
254.727	73.12
254.96	76.12
255.193	73.12
255.426	80.12
255.659	83.12
255.892	79.12
256.124	73.12
256.357	72.12
256.59	83.12
256.823	88.12
257.056	83.12
257.289	71.12
257.521	71.12
257.754	90.12
257.987	83.12
258.22	87.12
258.452	71.12
258.685	74.12
258.918	65.12
259.151	66.12
259.383	71.12
259.616	75.12
259.849	77.12
260.081	80.12
260.314	70.12
260.547	85.12
260.779	64.12
261.012	65.12
261.244	77.12
261.477	72.12
261.71	73.12
261.942	74.12
262.175	80.12
262.407	62.12
262.64	81.12
262.872	86.12
263.105	86.12
263.337	81.12
263.57	73.12
263.802	82.12
264.035	73.12
264.267	81.12
264.499	73.12
264.732	79.12
264.964	62.12
265.197	82.12
265.429	78.12
265.661	82.12
265.894	76.12
266.126	77.12
266.358	77.12
266.591	85.12
266.823	67.12
267.055	77.12
267.287	82.12
267.52	86.12
267.752	72.12
267.984	74.12
268.216	86.12
268.448	78.12
268.681	60.12
268.913	94.12
269.145	85.12
269.377	65.12
269.609	74.12
269.841	71.12
270.073	85.12
270.306	99.12
270.538	74.12
270.77	63.12
271.002	91.12
271.234	76.12
271.466	84.12
271.698	82.12
271.93	87.12
272.162	85.12
272.394	89.12
272.626	77.12
272.858	81.12
273.09	73.12
273.322	83.12
273.553	74.12
273.785	72.12
274.017	87.12
274.249	86.12
274.481	76.12
274.713	92.12
274.945	91.12
275.176	67.12
275.408	77.12
275.64	71.12
275.872	73.12
276.104	89.12
276.335	90.12
276.567	69.12
276.799	84.12
277.031	88.12
277.262	85.12
277.494	84.12
277.726	91.12
277.957	85.12
278.189	94.12
278.421	67.12
278.652	78.12
278.884	87.12
279.115	77.12
279.347	82.12
279.579	84.12
279.81	90.12
280.042	80.12
280.273	76.12
280.505	78.12
280.736	75.12
280.968	72.12
281.199	86.12
281.431	73.12
281.662	84.12
281.894	85.12
282.125	60.12
282.356	69.12
282.588	79.12
282.819	81.12
283.051	89.12
283.282	70.12
283.513	78.12
283.745	77.12
283.976	57.12
284.207	84.12
284.439	88.12
284.67	73.12
284.901	85.12
285.132	72.12
285.364	81.12
285.595	80.12
285.826	82.12
286.057	84.12
286.288	86.12
286.52	105.12
286.751	98.12
286.982	88.12
287.213	68.12
287.444	77.12
287.675	75.12
287.906	96.12
288.138	89.12
288.369	91.12
288.6	77.12
288.831	79.12
289.062	79.12
289.293	82.12
289.524	85.12
289.755	79.12
289.986	83.12
290.217	89.12
290.448	89.12
290.679	87.12
290.91	82.12
291.141	80.12
291.371	82.12
291.602	83.12
291.833	78.12
292.064	82.12
292.295	93.12
292.526	82.12
292.757	87.12
292.987	68.12
293.218	81.12
293.449	84.12
293.68	77.12
293.91	73.12
294.141	92.12
294.372	79.12
294.603	83.12
294.833	84.12
295.064	73.12
295.295	95.12
295.525	85.12
295.756	87.12
295.987	76.12
296.217	75.12
296.448	79.12
296.679	78.12
296.909	86.12
297.14	82.12
297.37	82.12
297.601	67.12
297.831	79.12
298.062	89.12
298.292	75.12
298.523	77.12
298.753	77.12
298.984	77.12
299.214	84.12
299.445	76.12
299.675	94.12
299.905	92.12
300.136	87.12
300.366	86.12
300.597	78.12
300.827	90.12
301.057	76.12
301.288	72.12
301.518	73.12
301.748	88.12
301.979	83.12
302.209	83.12
302.439	85.12
302.669	81.12
302.9	90.12
303.13	77.12
303.36	76.12
303.59	79.12
303.82	78.12
304.051	96.12
304.281	80.12
304.511	88.12
304.741	75.12
304.971	84.12
305.201	82.12
305.431	96.12
305.661	78.12
305.891	79.12
306.121	98.12
306.352	80.12
306.582	90.12
306.812	83.12
307.042	80.12
307.272	76.12
307.502	92.12
307.731	96.12
307.961	76.12
308.191	88.12
308.421	83.12
308.651	64.12
308.881	84.12
309.111	83.12
309.341	96.12
309.571	78.12
309.8	66.12
310.03	67.12
310.26	77.12
310.49	97.12
310.72	88.12
310.949	78.12
311.179	84.12
311.409	84.12
311.639	81.12
311.868	94.12
312.098	76.12
312.328	86.12
312.557	80.12
312.787	65.12
313.017	87.12
313.246	93.12
313.476	86.12
313.706	78.12
313.935	65.12
314.165	74.12
314.394	75.12
314.624	72.12
314.853	86.12
315.083	74.12
315.312	81.12
315.542	81.12
315.771	88.12
316.001	94.12
316.23	75.12
316.46	90.12
316.689	78.12
316.919	75.12
317.148	82.12
317.377	92.12
317.607	77.12
317.836	88.12
318.065	84.12
318.295	93.12
318.524	79.12
318.753	70.12
318.983	76.12
319.212	72.12
319.441	85.12
319.67	88.12
319.9	92.12
320.129	92.12
320.358	94.12
320.587	63.12
320.816	84.12
321.046	94.12
321.275	88.12
321.504	87.12
321.733	78.12
321.962	99.12
322.191	83.12
322.42	92.12
322.649	92.12
322.878	87.12
323.108	81.12
323.337	84.12
323.566	82.12
323.795	78.12
324.024	79.12
324.253	83.12
324.482	74.12
324.71	94.12
324.939	92.12
325.168	91.12
325.397	81.12
325.626	75.12
325.855	101.12
326.084	74.12
326.313	84.12
326.542	85.12
326.77	86.12
326.999	84.12
327.228	74.12
327.457	87.12
327.686	80.12
327.914	71.12
328.143	85.12
328.372	66.12
328.6	89.12
328.829	74.12
329.058	86.12
329.287	73.12
329.515	66.12
329.744	83.12
329.972	67.12
330.201	86.12
330.43	88.12
330.658	83.12
330.887	84.12
331.115	77.12
331.344	84.12
331.572	98.12
331.801	96.12
332.03	59.12
332.258	73.12
332.486	79.12
332.715	82.12
332.943	81.12
333.172	74.12
333.4	83.12
333.629	92.12
333.857	84.12
334.085	82.12
334.314	91.12
334.542	90.12
334.771	89.12
334.999	69.12
335.227	72.12
335.455	74.12
335.684	87.12
335.912	85.12
336.14	76.12
336.369	72.12
336.597	74.12
336.825	70.12
337.053	82.12
337.281	81.12
337.51	76.12
337.738	81.12
337.966	88.12
338.194	79.12
338.422	88.12
338.65	87.12
338.878	87.12
339.106	73.12
339.334	63.12
339.562	82.12
339.79	78.12
340.018	93.12
340.246	94.12
340.474	93.12
340.702	83.12
340.93	83.12
341.158	76.12
341.386	81.12
341.614	70.12
341.842	88.12
342.07	80.12
342.298	73.12
342.526	86.12
342.754	72.12
342.981	84.12
343.209	74.12
343.437	84.12
343.665	88.12
343.893	85.12
344.12	76.12
344.348	85.12
344.576	87.12
344.804	76.12
345.031	79.12
345.259	77.12
345.487	72.12
345.714	83.12
345.942	89.12
346.17	64.12
346.397	77.12
346.625	71.12
346.853	89.12
347.08	77.12
347.308	72.12
347.535	78.12
347.763	80.12
347.99	88.12
348.218	80.12
348.445	75.12
348.673	77.12
348.9	85.12
349.128	66.12
349.355	77.12
349.583	82.12
349.81	68.12
350.037	74.12
350.265	69.12
350.492	64.12
350.72	82.12
350.947	73.12
351.174	86.12
351.402	76.12
351.629	87.12
351.856	86.12
352.083	97.12
352.311	71.12
352.538	63.12
352.765	91.12
352.992	81.12
353.22	78.12
353.447	91.12
353.674	90.12
353.901	94.12
354.128	88.12
354.355	85.12
354.583	79.12
354.81	92.12
355.037	67.12
355.264	76.12
355.491	73.12
355.718	60.12
355.945	69.12
356.172	71.12
356.399	65.12
356.626	88.12
356.853	83.12
357.08	84.12
357.307	80.12
357.534	79.12
357.761	70.12
357.988	88.12
358.215	84.12
358.441	86.12
358.668	80.12
358.895	96.12
359.122	84.12
359.349	82.12
359.576	70.12
359.802	72.12
360.029	84.12
360.256	87.12
360.483	71.12
360.709	93.12
360.936	88.12
361.163	84.12
361.39	79.12
361.616	73.12
361.843	93.12
362.07	82.12
362.296	76.12
362.523	68.12
362.749	80.12
362.976	75.12
363.203	86.12
363.429	82.12
363.656	83.12
363.882	78.12
364.109	87.12
364.335	83.12
364.562	84.12
364.788	81.12
365.015	80.12
365.241	88.12
365.468	85.12
365.694	73.12
365.92	82.12
366.147	71.12
366.373	81.12
366.599	88.12
366.826	73.12
367.052	92.12
367.278	81.12
367.505	80.12
367.731	72.12
367.957	80.12
368.184	83.12
368.41	88.12
368.636	78.12
368.862	85.12
369.089	80.12
369.315	75.12
369.541	79.12
369.767	66.12
369.993	71.12
370.219	75.12
370.445	73.12
370.672	92.12
370.898	88.12
371.124	83.12
371.35	69.12
371.576	79.12
371.802	111.12
372.028	78.12
372.254	83.12
372.48	74.12
372.706	76.12
372.932	77.12
373.158	79.12
373.384	90.12
373.61	84.12
373.835	80.12
374.061	86.12
374.287	81.12
374.513	66.12
374.739	80.12
374.965	77.12
375.191	73.12
375.416	70.12
375.642	91.12
375.868	74.12
376.094	68.12
376.319	83.12
376.545	71.12
376.771	70.12
376.997	87.12
377.222	82.12
377.448	83.12
377.674	67.12
377.899	83.12
378.125	70.12
378.35	83.12
378.576	90.12
378.802	87.12
379.027	76.12
379.253	80.12
379.478	77.12
379.704	71.12
379.929	64.12
380.155	80.12
380.38	88.12
380.606	87.12
380.831	85.12
381.057	87.12
381.282	82.12
381.507	80.12
381.733	91.12
381.958	80.12
382.184	79.12
382.409	95.12
382.634	75.12
382.86	83.12
383.085	80.12
383.31	83.12
383.535	86.12
383.761	86.12
383.986	86.12
384.211	88.12
384.436	90.12
384.662	70.12
384.887	87.12
385.112	90.12
385.337	73.12
385.562	89.12
385.787	89.12
386.013	79.12
386.238	94.12
386.463	85.12
386.688	78.12
386.913	89.12
387.138	88.12
387.363	77.12
387.588	95.12
387.813	92.12
388.038	92.12
388.263	85.12
388.488	76.12
388.713	69.12
388.938	85.12
389.163	88.12
389.387	70.12
389.612	84.12
389.837	83.12
390.062	84.12
390.287	82.12
390.512	86.12
390.736	71.12
390.961	86.12
391.186	89.12
391.411	89.12
391.636	74.12
391.86	79.12
392.085	84.12
392.31	90.12
392.534	85.12
392.759	78.12
392.984	91.12
393.208	87.12
393.433	80.12
393.658	76.12
393.882	86.12
394.107	83.12
394.331	88.12
394.556	78.12
394.78	80.12
395.005	78.12
395.229	67.12
395.454	64.12
395.678	79.12
395.903	89.12
396.127	81.12
396.352	70.12
396.576	87.12
396.801	81.12
397.025	75.12
397.249	71.12
397.474	79.12
397.698	72.12
397.922	78.12
398.147	82.12
398.371	72.12
398.595	87.12
398.82	74.12
399.044	85.12
399.268	72.12
399.492	84.12
399.717	76.12
399.941	80.12
400.165	83.12
400.389	78.12
400.613	84.12
400.837	86.12
401.062	87.12
401.286	79.12
401.51	71.12
401.734	82.12
401.958	90.12
402.182	95.12
402.406	88.12
402.63	85.12
402.854	86.12
403.078	79.12
403.302	83.12
403.526	76.12
403.75	79.12
403.974	93.12
404.198	76.12
404.422	82.12
404.645	96.12
404.869	89.12
405.093	98.12
405.317	68.12
405.541	94.12
405.765	94.12
405.988	92.12
406.212	67.12
406.436	80.12
406.66	81.12
406.883	104.12
407.107	69.12
407.331	78.12
407.555	72.12
407.778	71.12
408.002	77.12
408.226	82.12
408.449	79.12
408.673	77.12
408.896	96.12
409.12	85.12
409.344	87.12
409.567	94.12
409.791	76.12
410.014	86.12
410.238	88.12
410.461	84.12
410.685	89.12
410.908	75.12
411.132	94.12
411.355	96.12
411.578	77.12
411.802	85.12
412.025	88.12
412.249	101.12
412.472	81.12
412.695	92.12
412.919	83.12
413.142	81.12
413.365	85.12
413.589	84.12
413.812	80.12
414.035	85.12
414.258	94.12
414.482	84.12
414.705	95.12
414.928	93.12
415.151	94.12
415.374	82.12
415.597	81.12
415.821	85.12
416.044	94.12
416.267	88.12
416.49	82.12
416.713	80.12
416.936	88.12
417.159	88.12
417.382	88.12
417.605	91.12
417.828	81.12
418.051	87.12
418.274	96.12
418.497	106.12
418.72	87.12
418.943	96.12
419.166	93.12
419.389	89.12
419.611	85.12
419.834	78.12
420.057	94.12
420.28	86.12
420.503	71.12
420.726	95.12
420.948	88.12
421.171	85.12
421.394	95.12
421.617	88.12
421.839	100.12
422.062	84.12
422.285	82.12
422.507	97.12
422.73	97.12
422.953	101.12
423.175	101.12
423.398	88.12
423.621	94.12
423.843	94.12
424.066	94.12
424.288	94.12
424.511	94.12
424.733	87.12
424.956	84.12
425.178	88.12
425.401	86.12
425.623	91.12
425.846	85.12
426.068	82.12
426.291	84.12
426.513	98.12
426.735	85.12
426.958	87.12
427.18	79.12
427.402	82.12
427.625	106.12
427.847	78.12
428.069	97.12
428.292	98.12
428.514	100.12
428.736	92.12
428.958	93.12
429.181	94.12
429.403	87.12
429.625	90.12
429.847	84.12
430.069	110.12
430.292	84.12
430.514	79.12
430.736	89.12
430.958	92.12
431.18	86.12
431.402	88.12
431.624	87.12
431.846	91.12
432.068	83.12
432.29	85.12
432.512	79.12
432.734	85.12
432.956	90.12
433.178	104.12
433.4	98.12
433.622	93.12
433.844	83.12
434.066	82.12
434.287	70.12
434.509	76.12
434.731	84.12
434.953	89.12
435.175	96.12
435.397	90.12
435.618	78.12
435.84	92.12
436.062	87.12
436.284	107.12
436.505	87.12
436.727	110.12
436.949	78.12
437.17	88.12
437.392	84.12
437.614	81.12
437.835	80.12
438.057	84.12
438.278	95.12
438.5	95.12
438.721	92.12
438.943	95.12
439.165	92.12
439.386	93.12
439.608	88.12
439.829	94.12
440.05	106.12
440.272	101.12
440.493	107.12
440.715	91.12
440.936	109.12
441.158	114.12
441.379	86.12
441.6	116.12
441.822	83.12
442.043	81.12
442.264	84.12
442.486	92.12
442.707	92.12
442.928	98.12
443.149	86.12
443.371	90.12
443.592	92.12
443.813	100.12
444.034	98.12
444.255	86.12
444.476	107.12
444.698	100.12
444.919	89.12
445.14	159.12
445.361	119.12
445.582	95.12
445.803	85.12
446.024	90.12
446.245	83.12
446.466	85.12
446.687	87.12
446.908	114.12
447.129	98.12
447.35	89.12
447.571	79.12
447.792	99.12
448.013	97.12
448.234	90.12
448.455	89.12
448.675	91.12
448.896	75.12
449.117	99.12
449.338	101.12
449.559	91.12
449.779	81.12
450	86.12
450.221	95.12
450.442	95.12
450.662	105.12
450.883	111.12
451.104	106.12
451.324	97.12
451.545	90.12
451.766	83.12
451.986	96.12
452.207	77.12
452.428	100.12
452.648	87.12
452.869	90.12
453.089	91.12
453.31	93.12
453.53	84.12
453.751	93.12
453.971	85.12
454.192	95.12
454.412	92.12
454.633	61.12
454.853	88.12
455.073	94.12
455.294	92.12
455.514	86.12
455.734	86.12
455.955	82.12
456.175	77.12
456.395	83.12
456.616	77.12
456.836	77.12
457.056	94.12
457.276	85.12
457.497	79.12
457.717	76.12
457.937	86.12
458.157	92.12
458.377	76.12
458.598	86.12
458.818	77.12
459.038	80.12
459.258	76.12
459.478	88.12
459.698	99.12
459.918	83.12
460.138	77.12
460.358	85.12
460.578	84.12
460.798	94.12
461.018	83.12
461.238	93.12
461.458	80.12
461.678	91.12
461.898	77.12
462.118	94.12
462.338	86.12
462.558	84.12
462.777	67.12
462.997	95.12
463.217	76.12
463.437	92.12
463.657	72.12
463.876	95.12
464.096	95.12
464.316	76.12
464.536	81.12
464.755	82.12
464.975	83.12
465.195	82.12
465.414	84.12
465.634	85.12
465.854	80.12
466.073	85.12
466.293	90.12
466.512	83.12
466.732	88.12
466.951	104.12
467.171	95.12
467.391	85.12
467.61	86.12
467.829	88.12
468.049	101.12
468.268	92.12
468.488	85.12
468.707	87.12
468.927	96.12
469.146	92.12
469.365	95.12
469.585	93.12
469.804	101.12
470.023	88.12
470.243	95.12
470.462	88.12
470.681	94.12
470.901	93.12
471.12	85.12
471.339	99.12
471.558	102.12
471.777	92.12
471.997	92.12
472.216	85.12
472.435	91.12
472.654	95.12
472.873	77.12
473.092	76.12
473.311	97.12
473.53	82.12
473.749	95.12
473.968	94.12
474.187	83.12
474.406	84.12
474.625	80.12
474.844	93.12
475.063	90.12
475.282	86.12
475.501	99.12
475.72	89.12
475.939	97.12
476.158	88.12
476.377	83.12
476.596	81.12
476.814	92.12
477.033	83.12
477.252	101.12
477.471	105.12
477.69	107.12
477.908	90.12
478.127	86.12
478.346	92.12
478.564	85.12
478.783	87.12
479.002	88.12
479.22	100.12
479.439	92.12
479.658	76.12
479.876	89.12
480.095	77.12
480.313	106.12
480.532	80.12
480.751	97.12
480.969	81.12
481.188	86.12
481.406	86.12
481.624	68.12
481.843	88.12
482.061	83.12
482.28	93.12
482.498	78.12
482.717	77.12
482.935	90.12
483.153	99.12
483.372	111.12
483.59	91.12
483.808	88.12
484.027	93.12
484.245	102.12
484.463	99.12
484.681	103.12
484.9	92.12
485.118	96.12
485.336	89.12
485.554	94.12
485.772	91.12
485.99	94.12
486.209	87.12
486.427	87.12
486.645	93.12
486.863	79.12
487.081	92.12
487.299	85.12
487.517	96.12
487.735	90.12
487.953	110.12
488.171	117.12
488.389	113.12
488.607	91.12
488.825	97.12
489.043	92.12
489.261	91.12
489.479	97.12
489.696	85.12
489.914	103.12
490.132	102.12
490.35	95.12
490.568	96.12
490.786	122.12
491.003	95.12
491.221	86.12
491.439	102.12
491.657	114.12
491.874	103.12
492.092	100.12
492.31	114.12
492.527	110.12
492.745	115.12
492.963	106.12
493.18	89.12
493.398	94.12
493.615	99.12
493.833	111.12
494.05	118.12
494.268	115.12
494.485	110.12
494.703	103.12
494.92	95.12
495.138	103.12
495.355	108.12
495.573	79.12
495.79	102.12
496.008	93.12
496.225	98.12
496.442	104.12
496.66	102.12
496.877	99.12
497.094	105.12
497.312	103.12
497.529	111.12
497.746	96.12
497.963	96.12
498.181	104.12
498.398	100.12
498.615	78.12
498.832	85.12
499.049	91.12
499.267	88.12
499.484	97.12
499.701	90.12
499.918	95.12
500.135	93.12
500.352	89.12
500.569	97.12
500.786	97.12
501.003	92.12
501.22	96.12
501.437	90.12
501.654	98.12
501.871	102.12
502.088	96.12
502.305	93.12
502.522	95.12
502.739	98.12
502.956	95.12
503.172	80.12
503.389	82.12
503.606	92.12
503.823	89.12
504.04	76.12
504.256	75.12
504.473	88.12
504.69	110.12
504.907	86.12
505.123	83.12
505.34	92.12
505.557	84.12
505.773	91.12
505.99	89.12
506.207	93.12
506.423	95.12
506.64	74.12
506.856	88.12
507.073	104.12
507.289	92.12
507.506	91.12
507.722	93.12
507.939	94.12
508.155	94.12
508.372	94.12
508.588	100.12
508.805	87.12
509.021	91.12
509.238	93.12
509.454	67.12
509.67	79.12
509.887	70.12
510.103	90.12
510.319	78.12
510.536	92.12
510.752	93.12
510.968	73.12
511.184	88.12
511.401	77.12
511.617	86.12
511.833	92.12
512.049	91.12
512.265	93.12
512.481	89.12
512.698	79.12
512.914	89.12
513.13	92.12
513.346	84.12
513.562	93.12
513.778	81.12
513.994	88.12
514.21	94.12
514.426	83.12
514.642	93.12
514.858	82.12
515.074	76.12
515.29	89.12
515.506	82.12
515.721	97.12
515.937	84.12
516.153	83.12
516.369	71.12
516.585	76.12
516.801	76.12
517.016	95.12
517.232	77.12
517.448	93.12
517.664	73.12
517.879	91.12
518.095	84.12
518.311	79.12
518.527	77.12
