Data from Location5.07152019.Energy5.Lamp.07192019.3%Agarose_HRD10591_16-05-11-629.txt Node
Date: Fri Jul 19 16:05:11 EDT 2019
User: cochatt
Spectrometer: HR+D1059
Trigger mode: 1
Integration Time (sec): 1.000000E-1
Scans to average: 1
Electric dark correction enabled: true
Nonlinearity correction enabled: false
Boxcar width: 0
XAxis mode: Wavelengths
Number of Pixels in Spectrum: 2048
>>>>>Begin Spectral Data<<<<<
223.165	-12.19
223.4	-12.19
223.635	-12.19
223.869	-19.19
224.104	-3.19
224.338	-1.19
224.573	-19.19
224.808	-15.19
225.042	-2.19
225.277	-12.19
225.511	-11.19
225.746	-7.19
225.98	7.81
226.215	5.81
226.449	16.81
226.683	10.81
226.918	22.81
227.152	38.81
227.387	33.81
227.621	17.81
227.856	27.81
228.09	46.81
228.324	52.81
228.559	51.81
228.793	54.81
229.027	76.81
229.262	79.81
229.496	65.81
229.73	68.81
229.964	74.81
230.199	77.81
230.433	65.81
230.667	64.81
230.901	73.81
231.136	73.81
231.37	63.81
231.604	74.81
231.838	74.81
232.072	72.81
232.306	81.81
232.541	83.81
232.775	87.81
233.009	72.81
233.243	79.81
233.477	82.81
233.711	70.81
233.945	76.81
234.179	74.81
234.413	102.81
234.647	74.81
234.881	63.81
235.115	69.81
235.349	73.81
235.583	85.81
235.817	85.81
236.051	68.81
236.285	71.81
236.519	73.81
236.753	81.81
236.987	70.81
237.221	75.81
237.455	76.81
237.689	68.81
237.922	78.81
238.156	71.81
238.39	74.81
238.624	69.81
238.858	75.81
239.091	78.81
239.325	78.81
239.559	84.81
239.793	73.81
240.027	62.81
240.26	82.81
240.494	82.81
240.728	85.81
240.961	76.81
241.195	72.81
241.429	70.81
241.662	71.81
241.896	79.81
242.13	70.81
242.363	64.81
242.597	87.81
242.83	67.81
243.064	80.81
243.298	90.81
243.531	59.81
243.765	80.81
243.998	75.81
244.232	81.81
244.465	74.81
244.699	66.81
244.932	67.81
245.166	82.81
245.399	74.81
245.633	81.81
245.866	79.81
246.099	67.81
246.333	82.81
246.566	74.81
246.8	77.81
247.033	69.81
247.266	79.81
247.5	90.81
247.733	74.81
247.966	69.81
248.2	70.81
248.433	78.81
248.666	84.81
248.899	80.81
249.133	82.81
249.366	84.81
249.599	71.81
249.832	77.81
250.066	87.81
250.299	77.81
250.532	89.81
250.765	81.81
250.998	96.81
251.231	69.81
251.465	77.81
251.698	78.81
251.931	79.81
252.164	94.81
252.397	88.81
252.63	63.81
252.863	71.81
253.096	79.81
253.329	81.81
253.562	81.81
253.795	73.81
254.028	73.81
254.261	78.81
254.494	84.81
254.727	82.81
254.96	72.81
255.193	82.81
255.426	83.81
255.659	76.81
255.892	74.81
256.124	76.81
256.357	80.81
256.59	87.81
256.823	76.81
257.056	82.81
257.289	75.81
257.521	88.81
257.754	86.81
257.987	82.81
258.22	100.81
258.452	65.81
258.685	82.81
258.918	75.81
259.151	82.81
259.383	79.81
259.616	73.81
259.849	86.81
260.081	88.81
260.314	89.81
260.547	74.81
260.779	76.81
261.012	80.81
261.244	85.81
261.477	78.81
261.71	92.81
261.942	78.81
262.175	73.81
262.407	84.81
262.64	76.81
262.872	77.81
263.105	88.81
263.337	81.81
263.57	73.81
263.802	94.81
264.035	81.81
264.267	77.81
264.499	72.81
264.732	89.81
264.964	86.81
265.197	82.81
265.429	85.81
265.661	84.81
265.894	80.81
266.126	70.81
266.358	89.81
266.591	80.81
266.823	90.81
267.055	90.81
267.287	91.81
267.52	82.81
267.752	85.81
267.984	71.81
268.216	76.81
268.448	84.81
268.681	95.81
268.913	85.81
269.145	88.81
269.377	90.81
269.609	70.81
269.841	80.81
270.073	67.81
270.306	89.81
270.538	83.81
270.77	85.81
271.002	84.81
271.234	88.81
271.466	83.81
271.698	89.81
271.93	84.81
272.162	90.81
272.394	78.81
272.626	87.81
272.858	82.81
273.09	86.81
273.322	98.81
273.553	80.81
273.785	88.81
274.017	98.81
274.249	82.81
274.481	98.81
274.713	80.81
274.945	85.81
275.176	93.81
275.408	80.81
275.64	84.81
275.872	95.81
276.104	79.81
276.335	78.81
276.567	93.81
276.799	70.81
277.031	63.81
277.262	82.81
277.494	87.81
277.726	100.81
277.957	82.81
278.189	74.81
278.421	76.81
278.652	84.81
278.884	82.81
279.115	81.81
279.347	73.81
279.579	86.81
279.81	80.81
280.042	84.81
280.273	73.81
280.505	86.81
280.736	89.81
280.968	72.81
281.199	86.81
281.431	85.81
281.662	89.81
281.894	92.81
282.125	89.81
282.356	97.81
282.588	83.81
282.819	89.81
283.051	88.81
283.282	78.81
283.513	89.81
283.745	77.81
283.976	86.81
284.207	88.81
284.439	97.81
284.67	87.81
284.901	80.81
285.132	92.81
285.364	94.81
285.595	80.81
285.826	88.81
286.057	78.81
286.288	77.81
286.52	101.81
286.751	88.81
286.982	86.81
287.213	87.81
287.444	73.81
287.675	88.81
287.906	81.81
288.138	93.81
288.369	93.81
288.6	86.81
288.831	89.81
289.062	78.81
289.293	89.81
289.524	87.81
289.755	102.81
289.986	87.81
290.217	96.81
290.448	88.81
290.679	94.81
290.91	90.81
291.141	70.81
291.371	85.81
291.602	89.81
291.833	92.81
292.064	85.81
292.295	83.81
292.526	93.81
292.757	88.81
292.987	88.81
293.218	91.81
293.449	82.81
293.68	93.81
293.91	82.81
294.141	82.81
294.372	86.81
294.603	88.81
294.833	94.81
295.064	86.81
295.295	82.81
295.525	84.81
295.756	88.81
295.987	92.81
296.217	91.81
296.448	94.81
296.679	103.81
296.909	86.81
297.14	92.81
297.37	69.81
297.601	85.81
297.831	97.81
298.062	92.81
298.292	92.81
298.523	86.81
298.753	90.81
298.984	94.81
299.214	83.81
299.445	72.81
299.675	90.81
299.905	78.81
300.136	93.81
300.366	100.81
300.597	88.81
300.827	82.81
301.057	101.81
301.288	99.81
301.518	94.81
301.748	86.81
301.979	89.81
302.209	85.81
302.439	91.81
302.669	106.81
302.9	89.81
303.13	88.81
303.36	89.81
303.59	101.81
303.82	101.81
304.051	83.81
304.281	82.81
304.511	86.81
304.741	82.81
304.971	75.81
305.201	80.81
305.431	85.81
305.661	90.81
305.891	77.81
306.121	82.81
306.352	95.81
306.582	72.81
306.812	90.81
307.042	82.81
307.272	89.81
307.502	92.81
307.731	85.81
307.961	85.81
308.191	92.81
308.421	91.81
308.651	70.81
308.881	84.81
309.111	70.81
309.341	88.81
309.571	94.81
309.8	85.81
310.03	89.81
310.26	97.81
310.49	90.81
310.72	88.81
310.949	90.81
311.179	69.81
311.409	82.81
311.639	95.81
311.868	92.81
312.098	92.81
312.328	90.81
312.557	86.81
312.787	77.81
313.017	82.81
313.246	83.81
313.476	87.81
313.706	95.81
313.935	90.81
314.165	78.81
314.394	87.81
314.624	85.81
314.853	85.81
315.083	81.81
315.312	77.81
315.542	96.81
315.771	91.81
316.001	95.81
316.23	84.81
316.46	77.81
316.689	81.81
316.919	81.81
317.148	91.81
317.377	88.81
317.607	73.81
317.836	84.81
318.065	82.81
318.295	83.81
318.524	92.81
318.753	105.81
318.983	85.81
319.212	85.81
319.441	93.81
319.67	77.81
319.9	85.81
320.129	85.81
320.358	82.81
320.587	79.81
320.816	82.81
321.046	84.81
321.275	100.81
321.504	77.81
321.733	88.81
321.962	80.81
322.191	101.81
322.42	80.81
322.649	92.81
322.878	100.81
323.108	93.81
323.337	79.81
323.566	82.81
323.795	95.81
324.024	97.81
324.253	87.81
324.482	94.81
324.71	95.81
324.939	93.81
325.168	95.81
325.397	92.81
325.626	80.81
325.855	93.81
326.084	101.81
326.313	102.81
326.542	93.81
326.77	101.81
326.999	86.81
327.228	82.81
327.457	93.81
327.686	102.81
327.914	93.81
328.143	97.81
328.372	98.81
328.6	79.81
328.829	84.81
329.058	91.81
329.287	94.81
329.515	99.81
329.744	95.81
329.972	96.81
330.201	87.81
330.43	90.81
330.658	93.81
330.887	80.81
331.115	97.81
331.344	95.81
331.572	89.81
331.801	76.81
332.03	80.81
332.258	82.81
332.486	93.81
332.715	78.81
332.943	91.81
333.172	95.81
333.4	90.81
333.629	88.81
333.857	88.81
334.085	83.81
334.314	94.81
334.542	102.81
334.771	75.81
334.999	94.81
335.227	81.81
335.455	93.81
335.684	84.81
335.912	94.81
336.14	83.81
336.369	80.81
336.597	92.81
336.825	94.81
337.053	90.81
337.281	92.81
337.51	87.81
337.738	91.81
337.966	76.81
338.194	89.81
338.422	99.81
338.65	91.81
338.878	86.81
339.106	103.81
339.334	96.81
339.562	93.81
339.79	92.81
340.018	76.81
340.246	85.81
340.474	95.81
340.702	93.81
340.93	67.81
341.158	74.81
341.386	97.81
341.614	89.81
341.842	88.81
342.07	83.81
342.298	91.81
342.526	82.81
342.754	93.81
342.981	86.81
343.209	86.81
343.437	97.81
343.665	84.81
343.893	92.81
344.12	85.81
344.348	82.81
344.576	81.81
344.804	88.81
345.031	91.81
345.259	75.81
345.487	92.81
345.714	86.81
345.942	89.81
346.17	87.81
346.397	94.81
346.625	92.81
346.853	106.81
347.08	89.81
347.308	83.81
347.535	98.81
347.763	95.81
347.99	101.81
348.218	97.81
348.445	88.81
348.673	94.81
348.9	104.81
349.128	88.81
349.355	88.81
349.583	85.81
349.81	74.81
350.037	82.81
350.265	95.81
350.492	93.81
350.72	96.81
350.947	81.81
351.174	83.81
351.402	87.81
351.629	84.81
351.856	77.81
352.083	85.81
352.311	82.81
352.538	93.81
352.765	98.81
352.992	90.81
353.22	102.81
353.447	89.81
353.674	93.81
353.901	81.81
354.128	71.81
354.355	66.81
354.583	83.81
354.81	91.81
355.037	92.81
355.264	83.81
355.491	95.81
355.718	67.81
355.945	91.81
356.172	93.81
356.399	90.81
356.626	82.81
356.853	89.81
357.08	85.81
357.307	93.81
357.534	82.81
357.761	96.81
357.988	79.81
358.215	86.81
358.441	73.81
358.668	83.81
358.895	92.81
359.122	96.81
359.349	95.81
359.576	94.81
359.802	85.81
360.029	90.81
360.256	81.81
360.483	84.81
360.709	92.81
360.936	87.81
361.163	95.81
361.39	83.81
361.616	78.81
361.843	97.81
362.07	89.81
362.296	91.81
362.523	88.81
362.749	93.81
362.976	85.81
363.203	87.81
363.429	80.81
363.656	92.81
363.882	108.81
364.109	82.81
364.335	85.81
364.562	92.81
364.788	77.81
365.015	86.81
365.241	90.81
365.468	95.81
365.694	91.81
365.92	106.81
366.147	97.81
366.373	74.81
366.599	84.81
366.826	88.81
367.052	94.81
367.278	96.81
367.505	80.81
367.731	85.81
367.957	74.81
368.184	92.81
368.41	81.81
368.636	79.81
368.862	86.81
369.089	100.81
369.315	92.81
369.541	98.81
369.767	92.81
369.993	89.81
370.219	101.81
370.445	87.81
370.672	94.81
370.898	91.81
371.124	100.81
371.35	78.81
371.576	88.81
371.802	91.81
372.028	79.81
372.254	88.81
372.48	78.81
372.706	78.81
372.932	85.81
373.158	85.81
373.384	99.81
373.61	98.81
373.835	88.81
374.061	75.81
374.287	91.81
374.513	85.81
374.739	77.81
374.965	86.81
375.191	84.81
375.416	77.81
375.642	80.81
375.868	108.81
376.094	78.81
376.319	84.81
376.545	85.81
376.771	84.81
376.997	75.81
377.222	84.81
377.448	88.81
377.674	98.81
377.899	83.81
378.125	86.81
378.35	85.81
378.576	83.81
378.802	93.81
379.027	84.81
379.253	78.81
379.478	85.81
379.704	77.81
379.929	84.81
380.155	75.81
380.38	84.81
380.606	93.81
380.831	84.81
381.057	102.81
381.282	82.81
381.507	76.81
381.733	89.81
381.958	84.81
382.184	92.81
382.409	77.81
382.634	88.81
382.86	93.81
383.085	90.81
383.31	87.81
383.535	76.81
383.761	84.81
383.986	103.81
384.211	83.81
384.436	85.81
384.662	97.81
384.887	94.81
385.112	86.81
385.337	80.81
385.562	82.81
385.787	95.81
386.013	94.81
386.238	87.81
386.463	78.81
386.688	85.81
386.913	97.81
387.138	89.81
387.363	102.81
387.588	102.81
387.813	92.81
388.038	89.81
388.263	93.81
388.488	106.81
388.713	105.81
388.938	86.81
389.163	88.81
389.387	86.81
389.612	83.81
389.837	86.81
390.062	87.81
390.287	95.81
390.512	83.81
390.736	101.81
390.961	92.81
391.186	89.81
391.411	90.81
391.636	81.81
391.86	77.81
392.085	81.81
392.31	103.81
392.534	91.81
392.759	86.81
392.984	88.81
393.208	92.81
393.433	82.81
393.658	93.81
393.882	87.81
394.107	80.81
394.331	97.81
394.556	86.81
394.78	87.81
395.005	79.81
395.229	86.81
395.454	92.81
395.678	88.81
395.903	85.81
396.127	113.81
396.352	81.81
396.576	82.81
396.801	87.81
397.025	94.81
397.249	97.81
397.474	88.81
397.698	87.81
397.922	94.81
398.147	88.81
398.371	94.81
398.595	97.81
398.82	96.81
399.044	84.81
399.268	96.81
399.492	90.81
399.717	115.81
399.941	88.81
400.165	83.81
400.389	88.81
400.613	90.81
400.837	103.81
401.062	86.81
401.286	92.81
401.51	87.81
401.734	90.81
401.958	94.81
402.182	90.81
402.406	87.81
402.63	72.81
402.854	96.81
403.078	96.81
403.302	89.81
403.526	92.81
403.75	90.81
403.974	110.81
404.198	90.81
404.422	85.81
404.645	94.81
404.869	98.81
405.093	98.81
405.317	81.81
405.541	87.81
405.765	98.81
405.988	95.81
406.212	84.81
406.436	100.81
406.66	109.81
406.883	97.81
407.107	87.81
407.331	92.81
407.555	87.81
407.778	101.81
408.002	94.81
408.226	85.81
408.449	84.81
408.673	75.81
408.896	97.81
409.12	91.81
409.344	85.81
409.567	98.81
409.791	99.81
410.014	91.81
410.238	88.81
410.461	80.81
410.685	95.81
410.908	86.81
411.132	78.81
411.355	82.81
411.578	92.81
411.802	93.81
412.025	87.81
412.249	85.81
412.472	95.81
412.695	79.81
412.919	93.81
413.142	98.81
413.365	82.81
413.589	99.81
413.812	99.81
414.035	80.81
414.258	96.81
414.482	85.81
414.705	86.81
414.928	97.81
415.151	82.81
415.374	85.81
415.597	93.81
415.821	93.81
416.044	88.81
416.267	85.81
416.49	82.81
416.713	82.81
416.936	79.81
417.159	82.81
417.382	77.81
417.605	76.81
417.828	91.81
418.051	91.81
418.274	96.81
418.497	105.81
418.72	97.81
418.943	95.81
419.166	90.81
419.389	95.81
419.611	91.81
419.834	93.81
420.057	100.81
420.28	90.81
420.503	77.81
420.726	78.81
420.948	86.81
421.171	85.81
421.394	102.81
421.617	84.81
421.839	97.81
422.062	86.81
422.285	95.81
422.507	83.81
422.73	80.81
422.953	88.81
423.175	83.81
423.398	84.81
423.621	81.81
423.843	87.81
424.066	87.81
424.288	84.81
424.511	82.81
424.733	92.81
424.956	96.81
425.178	80.81
425.401	89.81
425.623	89.81
425.846	83.81
426.068	89.81
426.291	88.81
426.513	78.81
426.735	82.81
426.958	71.81
427.18	96.81
427.402	86.81
427.625	77.81
427.847	96.81
428.069	102.81
428.292	88.81
428.514	85.81
428.736	91.81
428.958	95.81
429.181	92.81
429.403	89.81
429.625	84.81
429.847	84.81
430.069	82.81
430.292	82.81
430.514	95.81
430.736	93.81
430.958	95.81
431.18	95.81
431.402	94.81
431.624	103.81
431.846	86.81
432.068	82.81
432.29	97.81
432.512	111.81
432.734	92.81
432.956	101.81
433.178	79.81
433.4	98.81
433.622	80.81
433.844	77.81
434.066	96.81
434.287	88.81
434.509	86.81
434.731	93.81
434.953	95.81
435.175	91.81
435.397	88.81
435.618	108.81
435.84	97.81
436.062	94.81
436.284	89.81
436.505	78.81
436.727	90.81
436.949	85.81
437.17	81.81
437.392	86.81
437.614	98.81
437.835	101.81
438.057	82.81
438.278	81.81
438.5	89.81
438.721	79.81
438.943	88.81
439.165	79.81
439.386	84.81
439.608	93.81
439.829	92.81
440.05	88.81
440.272	105.81
440.493	87.81
440.715	84.81
440.936	98.81
441.158	91.81
441.379	90.81
441.6	85.81
441.822	94.81
442.043	92.81
442.264	96.81
442.486	94.81
442.707	87.81
442.928	92.81
443.149	91.81
443.371	90.81
443.592	87.81
443.813	102.81
444.034	87.81
444.255	97.81
444.476	82.81
444.698	87.81
444.919	85.81
445.14	221.81
445.361	139.81
445.582	90.81
445.803	89.81
446.024	84.81
446.245	102.81
446.466	95.81
446.687	97.81
446.908	88.81
447.129	80.81
447.35	101.81
447.571	90.81
447.792	101.81
448.013	93.81
448.234	79.81
448.455	81.81
448.675	90.81
448.896	88.81
449.117	76.81
449.338	89.81
449.559	94.81
449.779	72.81
450	87.81
450.221	85.81
450.442	73.81
450.662	98.81
450.883	75.81
451.104	96.81
451.324	79.81
451.545	78.81
451.766	92.81
451.986	95.81
452.207	88.81
452.428	81.81
452.648	90.81
452.869	75.81
453.089	97.81
453.31	79.81
453.53	81.81
453.751	89.81
453.971	81.81
454.192	89.81
454.412	83.81
454.633	82.81
454.853	92.81
455.073	86.81
455.294	89.81
455.514	78.81
455.734	96.81
455.955	78.81
456.175	89.81
456.395	90.81
456.616	88.81
456.836	88.81
457.056	86.81
457.276	71.81
457.497	96.81
457.717	85.81
457.937	98.81
458.157	91.81
458.377	77.81
458.598	76.81
458.818	85.81
459.038	88.81
459.258	86.81
459.478	82.81
459.698	92.81
459.918	74.81
460.138	87.81
460.358	79.81
460.578	93.81
460.798	97.81
461.018	83.81
461.238	78.81
461.458	76.81
461.678	90.81
461.898	95.81
462.118	97.81
462.338	114.81
462.558	92.81
462.777	79.81
462.997	98.81
463.217	97.81
463.437	89.81
463.657	87.81
463.876	85.81
464.096	81.81
464.316	84.81
464.536	93.81
464.755	85.81
464.975	87.81
465.195	89.81
465.414	82.81
465.634	95.81
465.854	89.81
466.073	94.81
466.293	107.81
466.512	100.81
466.732	95.81
466.951	85.81
467.171	93.81
467.391	82.81
467.61	102.81
467.829	78.81
468.049	94.81
468.268	94.81
468.488	89.81
468.707	92.81
468.927	88.81
469.146	103.81
469.365	97.81
469.585	99.81
469.804	93.81
470.023	83.81
470.243	100.81
470.462	96.81
470.681	97.81
470.901	75.81
471.12	92.81
471.339	97.81
471.558	87.81
471.777	104.81
471.997	103.81
472.216	88.81
472.435	93.81
472.654	76.81
472.873	101.81
473.092	80.81
473.311	83.81
473.53	84.81
473.749	89.81
473.968	82.81
474.187	87.81
474.406	90.81
474.625	97.81
474.844	111.81
475.063	92.81
475.282	98.81
475.501	88.81
475.72	98.81
475.939	97.81
476.158	100.81
476.377	98.81
476.596	89.81
476.814	97.81
477.033	95.81
477.252	96.81
477.471	91.81
477.69	90.81
477.908	100.81
478.127	98.81
478.346	89.81
478.564	92.81
478.783	95.81
479.002	100.81
479.22	96.81
479.439	106.81
479.658	82.81
479.876	84.81
480.095	94.81
480.313	99.81
480.532	94.81
480.751	102.81
480.969	97.81
481.188	93.81
481.406	98.81
481.624	84.81
481.843	84.81
482.061	90.81
482.28	89.81
482.498	96.81
482.717	87.81
482.935	80.81
483.153	97.81
483.372	117.81
483.59	93.81
483.808	96.81
484.027	98.81
484.245	81.81
484.463	105.81
484.681	96.81
484.9	89.81
485.118	100.81
485.336	92.81
485.554	101.81
485.772	86.81
485.99	89.81
486.209	97.81
486.427	95.81
486.645	100.81
486.863	102.81
487.081	93.81
487.299	102.81
487.517	101.81
487.735	108.81
487.953	102.81
488.171	90.81
488.389	102.81
488.607	110.81
488.825	100.81
489.043	107.81
489.261	101.81
489.479	88.81
489.696	80.81
489.914	102.81
490.132	104.81
490.35	94.81
490.568	98.81
490.786	108.81
491.003	101.81
491.221	98.81
491.439	112.81
491.657	110.81
491.874	122.81
492.092	105.81
492.31	110.81
492.527	101.81
492.745	113.81
492.963	102.81
493.18	103.81
493.398	104.81
493.615	108.81
493.833	99.81
494.05	105.81
494.268	102.81
494.485	106.81
494.703	110.81
494.92	98.81
495.138	116.81
495.355	105.81
495.573	102.81
495.79	108.81
496.008	99.81
496.225	103.81
496.442	100.81
496.66	109.81
496.877	108.81
497.094	100.81
497.312	112.81
497.529	99.81
497.746	115.81
497.963	113.81
498.181	91.81
498.398	95.81
498.615	102.81
498.832	105.81
499.049	99.81
499.267	115.81
499.484	124.81
499.701	120.81
499.918	116.81
500.135	129.81
500.352	136.81
500.569	127.81
500.786	151.81
501.003	133.81
501.22	119.81
501.437	124.81
501.654	119.81
501.871	107.81
502.088	101.81
502.305	108.81
502.522	110.81
502.739	96.81
502.956	104.81
503.172	109.81
503.389	106.81
503.606	85.81
503.823	102.81
504.04	98.81
504.256	100.81
504.473	104.81
504.69	104.81
504.907	102.81
505.123	103.81
505.34	105.81
505.557	107.81
505.773	114.81
505.99	91.81
506.207	92.81
506.423	99.81
506.64	110.81
506.856	104.81
507.073	87.81
507.289	105.81
507.506	86.81
507.722	97.81
507.939	90.81
508.155	100.81
508.372	93.81
508.588	100.81
508.805	91.81
509.021	92.81
509.238	96.81
509.454	94.81
509.67	91.81
509.887	97.81
510.103	90.81
510.319	101.81
510.536	96.81
510.752	93.81
510.968	106.81
511.184	87.81
511.401	99.81
511.617	96.81
511.833	100.81
512.049	91.81
512.265	73.81
512.481	102.81
512.698	88.81
512.914	100.81
513.13	89.81
513.346	102.81
513.562	99.81
513.778	96.81
513.994	94.81
514.21	90.81
514.426	99.81
514.642	100.81
514.858	92.81
515.074	100.81
515.29	98.81
515.506	100.81
515.721	89.81
515.937	100.81
516.153	106.81
516.369	102.81
516.585	97.81
516.801	92.81
517.016	100.81
