Data from Location5.07152019.Energy5.Lamp.07192019.3%Agarose_HRD10591_16-03-29-630.txt Node
Date: Fri Jul 19 16:03:29 EDT 2019
User: cochatt
Spectrometer: HR+D1059
Trigger mode: 1
Integration Time (sec): 1.000000E-1
Scans to average: 1
Electric dark correction enabled: true
Nonlinearity correction enabled: false
Boxcar width: 0
XAxis mode: Wavelengths
Number of Pixels in Spectrum: 2048
>>>>>Begin Spectral Data<<<<<
223.165	-7.19
223.4	-7.19
223.635	-7.19
223.869	-9.19
224.104	-12.19
224.338	-26.19
224.573	-30.19
224.808	-14.19
225.042	-3.19
225.277	-3.19
225.511	-1.19
225.746	10.81
225.98	9.81
226.215	15.81
226.449	15.81
226.683	9.81
226.918	12.81
227.152	31.81
227.387	40.81
227.621	54.81
227.856	35.81
228.09	37.81
228.324	50.81
228.559	60.81
228.793	58.81
229.027	59.81
229.262	59.81
229.496	71.81
229.73	60.81
229.964	79.81
230.199	77.81
230.433	81.81
230.667	79.81
230.901	77.81
231.136	81.81
231.37	74.81
231.604	73.81
231.838	71.81
232.072	84.81
232.306	73.81
232.541	91.81
232.775	78.81
233.009	91.81
233.243	77.81
233.477	83.81
233.711	74.81
233.945	82.81
234.179	83.81
234.413	89.81
234.647	74.81
234.881	91.81
235.115	70.81
235.349	79.81
235.583	86.81
235.817	70.81
236.051	69.81
236.285	71.81
236.519	57.81
236.753	74.81
236.987	75.81
237.221	78.81
237.455	80.81
237.689	73.81
237.922	73.81
238.156	61.81
238.39	76.81
238.624	73.81
238.858	74.81
239.091	68.81
239.325	72.81
239.559	71.81
239.793	91.81
240.027	77.81
240.26	87.81
240.494	74.81
240.728	67.81
240.961	65.81
241.195	66.81
241.429	75.81
241.662	81.81
241.896	75.81
242.13	81.81
242.363	86.81
242.597	70.81
242.83	73.81
243.064	81.81
243.298	75.81
243.531	84.81
243.765	73.81
243.998	80.81
244.232	80.81
244.465	98.81
244.699	78.81
244.932	72.81
245.166	83.81
245.399	90.81
245.633	84.81
245.866	89.81
246.099	84.81
246.333	77.81
246.566	85.81
246.8	84.81
247.033	84.81
247.266	87.81
247.5	76.81
247.733	76.81
247.966	85.81
248.2	75.81
248.433	77.81
248.666	77.81
248.899	72.81
249.133	73.81
249.366	91.81
249.599	80.81
249.832	82.81
250.066	83.81
250.299	89.81
250.532	79.81
250.765	83.81
250.998	78.81
251.231	71.81
251.465	82.81
251.698	84.81
251.931	77.81
252.164	75.81
252.397	80.81
252.63	73.81
252.863	88.81
253.096	77.81
253.329	84.81
253.562	82.81
253.795	85.81
254.028	81.81
254.261	82.81
254.494	89.81
254.727	92.81
254.96	84.81
255.193	84.81
255.426	75.81
255.659	64.81
255.892	82.81
256.124	71.81
256.357	76.81
256.59	87.81
256.823	88.81
257.056	79.81
257.289	78.81
257.521	88.81
257.754	88.81
257.987	69.81
258.22	87.81
258.452	88.81
258.685	76.81
258.918	82.81
259.151	79.81
259.383	84.81
259.616	79.81
259.849	65.81
260.081	74.81
260.314	85.81
260.547	71.81
260.779	72.81
261.012	79.81
261.244	85.81
261.477	98.81
261.71	95.81
261.942	80.81
262.175	72.81
262.407	85.81
262.64	91.81
262.872	84.81
263.105	70.81
263.337	74.81
263.57	78.81
263.802	90.81
264.035	81.81
264.267	80.81
264.499	82.81
264.732	88.81
264.964	81.81
265.197	72.81
265.429	71.81
265.661	90.81
265.894	79.81
266.126	90.81
266.358	87.81
266.591	80.81
266.823	97.81
267.055	86.81
267.287	88.81
267.52	83.81
267.752	75.81
267.984	87.81
268.216	101.81
268.448	82.81
268.681	87.81
268.913	91.81
269.145	85.81
269.377	87.81
269.609	75.81
269.841	86.81
270.073	98.81
270.306	81.81
270.538	70.81
270.77	76.81
271.002	91.81
271.234	86.81
271.466	98.81
271.698	88.81
271.93	78.81
272.162	75.81
272.394	68.81
272.626	106.81
272.858	89.81
273.09	88.81
273.322	92.81
273.553	91.81
273.785	99.81
274.017	81.81
274.249	72.81
274.481	82.81
274.713	92.81
274.945	77.81
275.176	92.81
275.408	83.81
275.64	96.81
275.872	88.81
276.104	85.81
276.335	86.81
276.567	78.81
276.799	82.81
277.031	94.81
277.262	94.81
277.494	81.81
277.726	95.81
277.957	91.81
278.189	82.81
278.421	94.81
278.652	96.81
278.884	83.81
279.115	74.81
279.347	79.81
279.579	97.81
279.81	72.81
280.042	96.81
280.273	103.81
280.505	83.81
280.736	97.81
280.968	103.81
281.199	81.81
281.431	80.81
281.662	85.81
281.894	83.81
282.125	81.81
282.356	78.81
282.588	121.81
282.819	88.81
283.051	90.81
283.282	82.81
283.513	86.81
283.745	86.81
283.976	93.81
284.207	87.81
284.439	97.81
284.67	106.81
284.901	99.81
285.132	90.81
285.364	79.81
285.595	83.81
285.826	101.81
286.057	93.81
286.288	93.81
286.52	89.81
286.751	99.81
286.982	99.81
287.213	90.81
287.444	110.81
287.675	91.81
287.906	93.81
288.138	86.81
288.369	91.81
288.6	80.81
288.831	90.81
289.062	98.81
289.293	74.81
289.524	87.81
289.755	95.81
289.986	82.81
290.217	98.81
290.448	96.81
290.679	77.81
290.91	83.81
291.141	76.81
291.371	80.81
291.602	85.81
291.833	103.81
292.064	95.81
292.295	87.81
292.526	105.81
292.757	82.81
292.987	105.81
293.218	81.81
293.449	82.81
293.68	78.81
293.91	90.81
294.141	83.81
294.372	97.81
294.603	84.81
294.833	90.81
295.064	92.81
295.295	86.81
295.525	86.81
295.756	96.81
295.987	83.81
296.217	106.81
296.448	96.81
296.679	72.81
296.909	97.81
297.14	91.81
297.37	84.81
297.601	85.81
297.831	74.81
298.062	90.81
298.292	85.81
298.523	78.81
298.753	76.81
298.984	114.81
299.214	86.81
299.445	94.81
299.675	110.81
299.905	94.81
300.136	79.81
300.366	84.81
300.597	88.81
300.827	89.81
301.057	86.81
301.288	99.81
301.518	94.81
301.748	100.81
301.979	90.81
302.209	86.81
302.439	86.81
302.669	87.81
302.9	100.81
303.13	88.81
303.36	94.81
303.59	90.81
303.82	94.81
304.051	85.81
304.281	98.81
304.511	96.81
304.741	82.81
304.971	92.81
305.201	98.81
305.431	80.81
305.661	91.81
305.891	92.81
306.121	80.81
306.352	95.81
306.582	96.81
306.812	90.81
307.042	94.81
307.272	74.81
307.502	87.81
307.731	91.81
307.961	88.81
308.191	83.81
308.421	94.81
308.651	97.81
308.881	84.81
309.111	89.81
309.341	87.81
309.571	96.81
309.8	102.81
310.03	84.81
310.26	86.81
310.49	80.81
310.72	87.81
310.949	87.81
311.179	95.81
311.409	97.81
311.639	97.81
311.868	85.81
312.098	67.81
312.328	98.81
312.557	88.81
312.787	86.81
313.017	95.81
313.246	98.81
313.476	82.81
313.706	80.81
313.935	85.81
314.165	72.81
314.394	94.81
314.624	98.81
314.853	95.81
315.083	74.81
315.312	78.81
315.542	92.81
315.771	88.81
316.001	104.81
316.23	94.81
316.46	87.81
316.689	77.81
316.919	95.81
317.148	98.81
317.377	93.81
317.607	91.81
317.836	80.81
318.065	98.81
318.295	85.81
318.524	91.81
318.753	96.81
318.983	93.81
319.212	76.81
319.441	92.81
319.67	96.81
319.9	106.81
320.129	94.81
320.358	100.81
320.587	89.81
320.816	81.81
321.046	82.81
321.275	88.81
321.504	109.81
321.733	96.81
321.962	96.81
322.191	86.81
322.42	104.81
322.649	107.81
322.878	92.81
323.108	67.81
323.337	95.81
323.566	89.81
323.795	95.81
324.024	91.81
324.253	92.81
324.482	92.81
324.71	90.81
324.939	95.81
325.168	77.81
325.397	74.81
325.626	88.81
325.855	74.81
326.084	101.81
326.313	103.81
326.542	97.81
326.77	88.81
326.999	91.81
327.228	91.81
327.457	92.81
327.686	93.81
327.914	88.81
328.143	84.81
328.372	79.81
328.6	90.81
328.829	101.81
329.058	78.81
329.287	97.81
329.515	80.81
329.744	92.81
329.972	85.81
330.201	94.81
330.43	100.81
330.658	105.81
330.887	89.81
331.115	81.81
331.344	102.81
331.572	96.81
331.801	102.81
332.03	100.81
332.258	89.81
332.486	94.81
332.715	98.81
332.943	101.81
333.172	103.81
333.4	96.81
333.629	106.81
333.857	93.81
334.085	95.81
334.314	91.81
334.542	89.81
334.771	92.81
334.999	85.81
335.227	91.81
335.455	95.81
335.684	96.81
335.912	100.81
336.14	90.81
336.369	76.81
336.597	80.81
336.825	93.81
337.053	93.81
337.281	97.81
337.51	91.81
337.738	93.81
337.966	86.81
338.194	91.81
338.422	106.81
338.65	87.81
338.878	91.81
339.106	89.81
339.334	82.81
339.562	72.81
339.79	82.81
340.018	89.81
340.246	79.81
340.474	91.81
340.702	95.81
340.93	98.81
341.158	99.81
341.386	88.81
341.614	81.81
341.842	97.81
342.07	94.81
342.298	103.81
342.526	100.81
342.754	95.81
342.981	90.81
343.209	96.81
343.437	93.81
343.665	79.81
343.893	91.81
344.12	95.81
344.348	93.81
344.576	98.81
344.804	99.81
345.031	102.81
345.259	100.81
345.487	92.81
345.714	86.81
345.942	86.81
346.17	102.81
346.397	98.81
346.625	90.81
346.853	104.81
347.08	94.81
347.308	97.81
347.535	88.81
347.763	82.81
347.99	94.81
348.218	98.81
348.445	93.81
348.673	83.81
348.9	100.81
349.128	94.81
349.355	103.81
349.583	92.81
349.81	99.81
350.037	73.81
350.265	68.81
350.492	83.81
350.72	88.81
350.947	89.81
351.174	86.81
351.402	97.81
351.629	87.81
351.856	82.81
352.083	72.81
352.311	90.81
352.538	76.81
352.765	89.81
352.992	96.81
353.22	89.81
353.447	109.81
353.674	98.81
353.901	90.81
354.128	97.81
354.355	106.81
354.583	87.81
354.81	87.81
355.037	106.81
355.264	91.81
355.491	90.81
355.718	83.81
355.945	89.81
356.172	81.81
356.399	84.81
356.626	87.81
356.853	92.81
357.08	83.81
357.307	90.81
357.534	101.81
357.761	85.81
357.988	96.81
358.215	82.81
358.441	80.81
358.668	96.81
358.895	100.81
359.122	91.81
359.349	70.81
359.576	95.81
359.802	99.81
360.029	101.81
360.256	95.81
360.483	92.81
360.709	92.81
360.936	92.81
361.163	90.81
361.39	88.81
361.616	98.81
361.843	77.81
362.07	92.81
362.296	95.81
362.523	82.81
362.749	99.81
362.976	86.81
363.203	92.81
363.429	98.81
363.656	76.81
363.882	92.81
364.109	99.81
364.335	87.81
364.562	98.81
364.788	83.81
365.015	94.81
365.241	99.81
365.468	86.81
365.694	108.81
365.92	99.81
366.147	96.81
366.373	105.81
366.599	77.81
366.826	87.81
367.052	97.81
367.278	111.81
367.505	89.81
367.731	97.81
367.957	91.81
368.184	96.81
368.41	84.81
368.636	83.81
368.862	92.81
369.089	103.81
369.315	86.81
369.541	93.81
369.767	98.81
369.993	94.81
370.219	91.81
370.445	91.81
370.672	93.81
370.898	89.81
371.124	93.81
371.35	99.81
371.576	92.81
371.802	90.81
372.028	91.81
372.254	96.81
372.48	86.81
372.706	84.81
372.932	89.81
373.158	83.81
373.384	82.81
373.61	87.81
373.835	87.81
374.061	82.81
374.287	77.81
374.513	88.81
374.739	84.81
374.965	90.81
375.191	95.81
375.416	84.81
375.642	99.81
375.868	103.81
376.094	97.81
376.319	107.81
376.545	76.81
376.771	103.81
376.997	83.81
377.222	88.81
377.448	79.81
377.674	87.81
377.899	89.81
378.125	90.81
378.35	84.81
378.576	105.81
378.802	86.81
379.027	80.81
379.253	84.81
379.478	95.81
379.704	99.81
379.929	89.81
380.155	84.81
380.38	92.81
380.606	88.81
380.831	99.81
381.057	99.81
381.282	97.81
381.507	98.81
381.733	91.81
381.958	89.81
382.184	87.81
382.409	110.81
382.634	84.81
382.86	101.81
383.085	100.81
383.31	94.81
383.535	94.81
383.761	99.81
383.986	103.81
384.211	96.81
384.436	103.81
384.662	103.81
384.887	95.81
385.112	99.81
385.337	89.81
385.562	94.81
385.787	88.81
386.013	102.81
386.238	94.81
386.463	85.81
386.688	99.81
386.913	90.81
387.138	87.81
387.363	87.81
387.588	91.81
387.813	92.81
388.038	98.81
388.263	85.81
388.488	90.81
388.713	86.81
388.938	90.81
389.163	88.81
389.387	94.81
389.612	106.81
389.837	83.81
390.062	91.81
390.287	79.81
390.512	85.81
390.736	86.81
390.961	93.81
391.186	103.81
391.411	99.81
391.636	85.81
391.86	102.81
392.085	84.81
392.31	91.81
392.534	103.81
392.759	96.81
392.984	118.81
393.208	99.81
393.433	101.81
393.658	98.81
393.882	97.81
394.107	99.81
394.331	94.81
394.556	94.81
394.78	90.81
395.005	94.81
395.229	101.81
395.454	96.81
395.678	98.81
395.903	82.81
396.127	91.81
396.352	98.81
396.576	86.81
396.801	83.81
397.025	89.81
397.249	76.81
397.474	110.81
397.698	96.81
397.922	108.81
398.147	92.81
398.371	100.81
398.595	90.81
398.82	92.81
399.044	103.81
399.268	92.81
399.492	110.81
399.717	95.81
399.941	96.81
400.165	90.81
400.389	106.81
400.613	106.81
400.837	98.81
401.062	98.81
401.286	96.81
401.51	110.81
401.734	96.81
401.958	92.81
402.182	99.81
402.406	85.81
402.63	96.81
402.854	91.81
403.078	98.81
403.302	90.81
403.526	96.81
403.75	92.81
403.974	86.81
404.198	99.81
404.422	87.81
404.645	81.81
404.869	97.81
405.093	101.81
405.317	89.81
405.541	96.81
405.765	95.81
405.988	97.81
406.212	102.81
406.436	85.81
406.66	96.81
406.883	100.81
407.107	99.81
407.331	92.81
407.555	83.81
407.778	102.81
408.002	98.81
408.226	90.81
408.449	82.81
408.673	91.81
408.896	90.81
409.12	97.81
409.344	94.81
409.567	89.81
409.791	100.81
410.014	83.81
410.238	108.81
410.461	94.81
410.685	98.81
410.908	81.81
411.132	82.81
411.355	80.81
411.578	98.81
411.802	101.81
412.025	106.81
412.249	86.81
412.472	78.81
412.695	98.81
412.919	97.81
413.142	91.81
413.365	96.81
413.589	92.81
413.812	89.81
414.035	94.81
414.258	104.81
414.482	98.81
414.705	101.81
414.928	85.81
415.151	88.81
415.374	99.81
415.597	91.81
415.821	99.81
416.044	88.81
416.267	88.81
416.49	101.81
416.713	88.81
416.936	103.81
417.159	86.81
417.382	89.81
417.605	82.81
417.828	94.81
418.051	88.81
418.274	107.81
418.497	94.81
418.72	100.81
418.943	96.81
419.166	95.81
419.389	91.81
419.611	99.81
419.834	74.81
420.057	113.81
420.28	113.81
420.503	104.81
420.726	98.81
420.948	97.81
421.171	105.81
421.394	108.81
421.617	87.81
421.839	80.81
422.062	102.81
422.285	92.81
422.507	92.81
422.73	94.81
422.953	106.81
423.175	104.81
423.398	93.81
423.621	94.81
423.843	94.81
424.066	102.81
424.288	87.81
424.511	103.81
424.733	87.81
424.956	96.81
425.178	107.81
425.401	102.81
425.623	94.81
425.846	106.81
426.068	97.81
426.291	93.81
426.513	88.81
426.735	113.81
426.958	91.81
427.18	94.81
427.402	94.81
427.625	81.81
427.847	99.81
428.069	89.81
428.292	79.81
428.514	93.81
428.736	95.81
428.958	103.81
429.181	86.81
429.403	71.81
429.625	94.81
429.847	80.81
430.069	83.81
430.292	91.81
430.514	78.81
430.736	84.81
430.958	106.81
431.18	86.81
431.402	101.81
431.624	93.81
431.846	99.81
432.068	83.81
432.29	84.81
432.512	92.81
432.734	107.81
432.956	98.81
433.178	99.81
433.4	86.81
433.622	97.81
433.844	94.81
434.066	83.81
434.287	95.81
434.509	93.81
434.731	87.81
434.953	93.81
435.175	89.81
435.397	96.81
435.618	88.81
435.84	96.81
436.062	79.81
436.284	92.81
436.505	91.81
436.727	85.81
436.949	79.81
437.17	88.81
437.392	89.81
437.614	80.81
437.835	99.81
438.057	98.81
438.278	87.81
438.5	98.81
438.721	94.81
438.943	96.81
439.165	90.81
439.386	90.81
439.608	97.81
439.829	95.81
440.05	84.81
440.272	97.81
440.493	98.81
440.715	82.81
440.936	83.81
441.158	107.81
441.379	104.81
441.6	104.81
441.822	99.81
442.043	99.81
442.264	93.81
442.486	91.81
442.707	96.81
442.928	98.81
443.149	91.81
443.371	94.81
443.592	92.81
443.813	94.81
444.034	94.81
444.255	96.81
444.476	96.81
444.698	94.81
444.919	95.81
445.14	214.81
445.361	142.81
445.582	93.81
445.803	83.81
446.024	84.81
446.245	83.81
446.466	95.81
446.687	90.81
446.908	86.81
447.129	91.81
447.35	92.81
447.571	102.81
447.792	97.81
448.013	88.81
448.234	96.81
448.455	99.81
448.675	99.81
448.896	93.81
449.117	98.81
449.338	96.81
449.559	91.81
449.779	80.81
450	96.81
450.221	104.81
450.442	106.81
450.662	92.81
450.883	87.81
451.104	91.81
451.324	91.81
451.545	82.81
451.766	87.81
451.986	83.81
452.207	86.81
452.428	97.81
452.648	94.81
452.869	86.81
453.089	98.81
453.31	82.81
453.53	98.81
453.751	100.81
453.971	91.81
454.192	70.81
454.412	92.81
454.633	80.81
454.853	95.81
455.073	94.81
455.294	96.81
455.514	94.81
455.734	98.81
455.955	87.81
456.175	70.81
456.395	84.81
456.616	77.81
456.836	105.81
457.056	85.81
457.276	97.81
457.497	88.81
457.717	97.81
457.937	90.81
458.157	88.81
458.377	89.81
458.598	85.81
458.818	96.81
459.038	91.81
459.258	104.81
459.478	101.81
459.698	88.81
459.918	98.81
460.138	96.81
460.358	104.81
460.578	95.81
460.798	98.81
461.018	102.81
461.238	98.81
461.458	100.81
461.678	83.81
461.898	80.81
462.118	109.81
462.338	92.81
462.558	87.81
462.777	90.81
462.997	82.81
463.217	98.81
463.437	105.81
463.657	93.81
463.876	103.81
464.096	103.81
464.316	117.81
464.536	94.81
464.755	100.81
464.975	98.81
465.195	90.81
465.414	84.81
465.634	94.81
465.854	99.81
466.073	91.81
466.293	95.81
466.512	106.81
466.732	111.81
466.951	88.81
467.171	75.81
467.391	94.81
467.61	98.81
467.829	83.81
468.049	120.81
468.268	103.81
468.488	100.81
468.707	92.81
468.927	91.81
469.146	90.81
469.365	80.81
469.585	107.81
469.804	92.81
470.023	82.81
470.243	105.81
470.462	95.81
470.681	104.81
470.901	92.81
471.12	98.81
471.339	96.81
471.558	99.81
471.777	88.81
471.997	94.81
472.216	89.81
472.435	89.81
472.654	95.81
472.873	101.81
473.092	112.81
473.311	99.81
473.53	83.81
473.749	91.81
473.968	107.81
474.187	98.81
474.406	82.81
474.625	110.81
474.844	104.81
475.063	91.81
475.282	88.81
475.501	88.81
475.72	98.81
475.939	106.81
476.158	80.81
476.377	94.81
476.596	89.81
476.814	88.81
477.033	102.81
477.252	95.81
477.471	81.81
477.69	90.81
477.908	104.81
478.127	110.81
478.346	95.81
478.564	89.81
478.783	105.81
479.002	112.81
479.22	102.81
479.439	106.81
479.658	103.81
479.876	99.81
480.095	99.81
480.313	103.81
480.532	106.81
480.751	89.81
480.969	92.81
481.188	86.81
481.406	100.81
481.624	105.81
481.843	95.81
482.061	110.81
482.28	93.81
482.498	83.81
482.717	92.81
482.935	90.81
483.153	108.81
483.372	93.81
483.59	100.81
483.808	88.81
484.027	104.81
484.245	99.81
484.463	98.81
484.681	102.81
484.9	91.81
485.118	87.81
485.336	96.81
485.554	94.81
485.772	95.81
485.99	106.81
486.209	88.81
486.427	114.81
486.645	96.81
486.863	108.81
487.081	100.81
487.299	106.81
487.517	98.81
487.735	111.81
487.953	115.81
488.171	118.81
488.389	101.81
488.607	94.81
488.825	106.81
489.043	99.81
489.261	112.81
489.479	105.81
489.696	104.81
489.914	103.81
490.132	115.81
490.35	116.81
490.568	90.81
490.786	98.81
491.003	96.81
491.221	84.81
491.439	98.81
491.657	120.81
491.874	113.81
492.092	116.81
492.31	121.81
492.527	104.81
492.745	118.81
492.963	118.81
493.18	118.81
493.398	119.81
493.615	104.81
493.833	106.81
494.05	97.81
494.268	122.81
494.485	112.81
494.703	106.81
494.92	112.81
495.138	116.81
495.355	114.81
495.573	117.81
495.79	116.81
496.008	108.81
496.225	115.81
496.442	115.81
496.66	123.81
496.877	114.81
497.094	113.81
497.312	100.81
497.529	100.81
497.746	111.81
497.963	112.81
498.181	123.81
498.398	119.81
498.615	118.81
498.832	103.81
499.049	132.81
499.267	114.81
499.484	118.81
499.701	114.81
499.918	126.81
500.135	144.81
500.352	147.81
500.569	146.81
500.786	138.81
501.003	128.81
501.22	122.81
501.437	131.81
501.654	113.81
501.871	118.81
502.088	114.81
502.305	115.81
502.522	123.81
502.739	121.81
502.956	125.81
503.172	105.81
503.389	111.81
503.606	98.81
503.823	107.81
504.04	109.81
504.256	94.81
504.473	113.81
504.69	108.81
504.907	110.81
505.123	106.81
505.34	107.81
505.557	104.81
505.773	112.81
505.99	103.81
506.207	94.81
506.423	100.81
506.64	97.81
506.856	114.81
507.073	104.81
507.289	95.81
507.506	99.81
507.722	95.81
507.939	98.81
508.155	117.81
508.372	106.81
508.588	82.81
508.805	102.81
509.021	110.81
509.238	102.81
509.454	102.81
509.67	110.81
509.887	98.81
510.103	110.81
510.319	91.81
510.536	100.81
510.752	96.81
510.968	123.81
511.184	97.81
511.401	88.81
511.617	92.81
511.833	92.81
512.049	104.81
512.265	93.81
512.481	81.81
512.698	98.81
512.914	89.81
513.13	87.81
513.346	100.81
513.562	90.81
513.778	112.81
513.994	103.81
514.21	106.81
514.426	101.81
514.642	111.81
514.858	92.81
515.074	104.81
515.29	103.81
515.506	97.81
515.721	98.81
