Data from Location5.07152019.Energy5.Lamp.07192019.3%Agarose_HRD10591_16-02-43-629.txt Node
Date: Fri Jul 19 16:02:43 EDT 2019
User: cochatt
Spectrometer: HR+D1059
Trigger mode: 1
Integration Time (sec): 1.000000E-1
Scans to average: 1
Electric dark correction enabled: true
Nonlinearity correction enabled: false
Boxcar width: 0
XAxis mode: Wavelengths
Number of Pixels in Spectrum: 2048
>>>>>Begin Spectral Data<<<<<
223.165	-19.81
223.4	-19.81
223.635	-19.81
223.869	-5.81
224.104	-7.81
224.338	-15.81
224.573	-20.81
224.808	-7.81
225.042	-11.81
225.277	-4.81
225.511	-12.81
225.746	1.19
225.98	4.19
226.215	9.19
226.449	4.19
226.683	13.19
226.918	29.19
227.152	46.19
227.387	38.19
227.621	45.19
227.856	26.19
228.09	48.19
228.324	35.19
228.559	46.19
228.793	63.19
229.027	59.19
229.262	71.19
229.496	83.19
229.73	64.19
229.964	70.19
230.199	72.19
230.433	86.19
230.667	74.19
230.901	83.19
231.136	80.19
231.37	83.19
231.604	79.19
231.838	69.19
232.072	85.19
232.306	84.19
232.541	66.19
232.775	74.19
233.009	88.19
233.243	96.19
233.477	82.19
233.711	85.19
233.945	74.19
234.179	83.19
234.413	77.19
234.647	92.19
234.881	91.19
235.115	74.19
235.349	86.19
235.583	75.19
235.817	67.19
236.051	79.19
236.285	84.19
236.519	88.19
236.753	71.19
236.987	75.19
237.221	91.19
237.455	81.19
237.689	81.19
237.922	82.19
238.156	71.19
238.39	88.19
238.624	86.19
238.858	76.19
239.091	79.19
239.325	80.19
239.559	97.19
239.793	78.19
240.027	77.19
240.26	75.19
240.494	73.19
240.728	81.19
240.961	75.19
241.195	72.19
241.429	83.19
241.662	86.19
241.896	82.19
242.13	84.19
242.363	76.19
242.597	67.19
242.83	64.19
243.064	72.19
243.298	77.19
243.531	80.19
243.765	83.19
243.998	73.19
244.232	84.19
244.465	84.19
244.699	81.19
244.932	90.19
245.166	68.19
245.399	96.19
245.633	83.19
245.866	82.19
246.099	64.19
246.333	73.19
246.566	71.19
246.8	72.19
247.033	64.19
247.266	94.19
247.5	76.19
247.733	75.19
247.966	88.19
248.2	63.19
248.433	86.19
248.666	86.19
248.899	75.19
249.133	82.19
249.366	84.19
249.599	76.19
249.832	82.19
250.066	73.19
250.299	98.19
250.532	81.19
250.765	73.19
250.998	67.19
251.231	83.19
251.465	81.19
251.698	89.19
251.931	81.19
252.164	74.19
252.397	82.19
252.63	76.19
252.863	83.19
253.096	80.19
253.329	94.19
253.562	77.19
253.795	81.19
254.028	96.19
254.261	64.19
254.494	74.19
254.727	88.19
254.96	75.19
255.193	73.19
255.426	78.19
255.659	113.19
255.892	82.19
256.124	86.19
256.357	83.19
256.59	88.19
256.823	74.19
257.056	75.19
257.289	88.19
257.521	68.19
257.754	78.19
257.987	63.19
258.22	75.19
258.452	91.19
258.685	91.19
258.918	66.19
259.151	77.19
259.383	74.19
259.616	75.19
259.849	78.19
260.081	77.19
260.314	81.19
260.547	82.19
260.779	73.19
261.012	80.19
261.244	81.19
261.477	81.19
261.71	78.19
261.942	82.19
262.175	88.19
262.407	81.19
262.64	86.19
262.872	77.19
263.105	81.19
263.337	92.19
263.57	76.19
263.802	80.19
264.035	98.19
264.267	78.19
264.499	88.19
264.732	74.19
264.964	79.19
265.197	83.19
265.429	86.19
265.661	83.19
265.894	89.19
266.126	80.19
266.358	70.19
266.591	93.19
266.823	77.19
267.055	84.19
267.287	94.19
267.52	83.19
267.752	84.19
267.984	90.19
268.216	79.19
268.448	92.19
268.681	81.19
268.913	89.19
269.145	84.19
269.377	86.19
269.609	88.19
269.841	97.19
270.073	98.19
270.306	85.19
270.538	84.19
270.77	79.19
271.002	72.19
271.234	91.19
271.466	89.19
271.698	94.19
271.93	92.19
272.162	84.19
272.394	82.19
272.626	86.19
272.858	83.19
273.09	94.19
273.322	85.19
273.553	74.19
273.785	94.19
274.017	92.19
274.249	87.19
274.481	87.19
274.713	89.19
274.945	86.19
275.176	78.19
275.408	75.19
275.64	80.19
275.872	90.19
276.104	79.19
276.335	90.19
276.567	79.19
276.799	88.19
277.031	68.19
277.262	93.19
277.494	86.19
277.726	84.19
277.957	78.19
278.189	78.19
278.421	91.19
278.652	83.19
278.884	77.19
279.115	87.19
279.347	79.19
279.579	76.19
279.81	91.19
280.042	89.19
280.273	79.19
280.505	84.19
280.736	81.19
280.968	77.19
281.199	87.19
281.431	90.19
281.662	92.19
281.894	94.19
282.125	95.19
282.356	86.19
282.588	87.19
282.819	85.19
283.051	80.19
283.282	89.19
283.513	95.19
283.745	78.19
283.976	80.19
284.207	86.19
284.439	86.19
284.67	83.19
284.901	58.19
285.132	74.19
285.364	83.19
285.595	102.19
285.826	90.19
286.057	80.19
286.288	86.19
286.52	89.19
286.751	92.19
286.982	94.19
287.213	92.19
287.444	84.19
287.675	89.19
287.906	77.19
288.138	81.19
288.369	86.19
288.6	104.19
288.831	87.19
289.062	91.19
289.293	88.19
289.524	70.19
289.755	84.19
289.986	90.19
290.217	76.19
290.448	86.19
290.679	94.19
290.91	98.19
291.141	95.19
291.371	93.19
291.602	90.19
291.833	86.19
292.064	96.19
292.295	88.19
292.526	95.19
292.757	82.19
292.987	99.19
293.218	94.19
293.449	88.19
293.68	84.19
293.91	83.19
294.141	92.19
294.372	91.19
294.603	99.19
294.833	91.19
295.064	110.19
295.295	90.19
295.525	96.19
295.756	100.19
295.987	87.19
296.217	93.19
296.448	101.19
296.679	83.19
296.909	92.19
297.14	102.19
297.37	77.19
297.601	89.19
297.831	92.19
298.062	107.19
298.292	98.19
298.523	103.19
298.753	92.19
298.984	86.19
299.214	92.19
299.445	94.19
299.675	99.19
299.905	100.19
300.136	99.19
300.366	92.19
300.597	102.19
300.827	86.19
301.057	99.19
301.288	101.19
301.518	96.19
301.748	100.19
301.979	90.19
302.209	88.19
302.439	84.19
302.669	88.19
302.9	96.19
303.13	91.19
303.36	95.19
303.59	88.19
303.82	92.19
304.051	92.19
304.281	88.19
304.511	99.19
304.741	84.19
304.971	101.19
305.201	85.19
305.431	71.19
305.661	80.19
305.891	85.19
306.121	76.19
306.352	94.19
306.582	84.19
306.812	90.19
307.042	97.19
307.272	88.19
307.502	92.19
307.731	101.19
307.961	91.19
308.191	89.19
308.421	93.19
308.651	87.19
308.881	84.19
309.111	90.19
309.341	91.19
309.571	71.19
309.8	97.19
310.03	110.19
310.26	86.19
310.49	85.19
310.72	86.19
310.949	94.19
311.179	90.19
311.409	89.19
311.639	99.19
311.868	102.19
312.098	98.19
312.328	85.19
312.557	93.19
312.787	91.19
313.017	87.19
313.246	96.19
313.476	95.19
313.706	99.19
313.935	91.19
314.165	87.19
314.394	101.19
314.624	75.19
314.853	86.19
315.083	81.19
315.312	100.19
315.542	93.19
315.771	98.19
316.001	101.19
316.23	96.19
316.46	92.19
316.689	87.19
316.919	84.19
317.148	89.19
317.377	90.19
317.607	92.19
317.836	87.19
318.065	101.19
318.295	102.19
318.524	88.19
318.753	81.19
318.983	93.19
319.212	96.19
319.441	90.19
319.67	94.19
319.9	85.19
320.129	81.19
320.358	101.19
320.587	86.19
320.816	89.19
321.046	92.19
321.275	79.19
321.504	94.19
321.733	79.19
321.962	93.19
322.191	91.19
322.42	82.19
322.649	90.19
322.878	87.19
323.108	92.19
323.337	95.19
323.566	102.19
323.795	96.19
324.024	94.19
324.253	76.19
324.482	88.19
324.71	93.19
324.939	94.19
325.168	80.19
325.397	99.19
325.626	80.19
325.855	98.19
326.084	110.19
326.313	106.19
326.542	91.19
326.77	94.19
326.999	102.19
327.228	105.19
327.457	103.19
327.686	88.19
327.914	102.19
328.143	94.19
328.372	73.19
328.6	102.19
328.829	88.19
329.058	94.19
329.287	93.19
329.515	91.19
329.744	102.19
329.972	103.19
330.201	86.19
330.43	96.19
330.658	95.19
330.887	93.19
331.115	79.19
331.344	105.19
331.572	87.19
331.801	101.19
332.03	91.19
332.258	84.19
332.486	82.19
332.715	103.19
332.943	97.19
333.172	92.19
333.4	90.19
333.629	92.19
333.857	93.19
334.085	98.19
334.314	111.19
334.542	90.19
334.771	92.19
334.999	106.19
335.227	92.19
335.455	97.19
335.684	96.19
335.912	93.19
336.14	89.19
336.369	84.19
336.597	80.19
336.825	95.19
337.053	104.19
337.281	89.19
337.51	90.19
337.738	90.19
337.966	98.19
338.194	80.19
338.422	88.19
338.65	81.19
338.878	100.19
339.106	99.19
339.334	105.19
339.562	95.19
339.79	81.19
340.018	85.19
340.246	78.19
340.474	97.19
340.702	104.19
340.93	103.19
341.158	85.19
341.386	85.19
341.614	107.19
341.842	80.19
342.07	85.19
342.298	95.19
342.526	89.19
342.754	85.19
342.981	78.19
343.209	101.19
343.437	97.19
343.665	85.19
343.893	82.19
344.12	92.19
344.348	99.19
344.576	88.19
344.804	91.19
345.031	76.19
345.259	95.19
345.487	89.19
345.714	96.19
345.942	98.19
346.17	87.19
346.397	85.19
346.625	89.19
346.853	102.19
347.08	79.19
347.308	104.19
347.535	97.19
347.763	92.19
347.99	103.19
348.218	90.19
348.445	91.19
348.673	94.19
348.9	95.19
349.128	107.19
349.355	89.19
349.583	98.19
349.81	87.19
350.037	94.19
350.265	89.19
350.492	97.19
350.72	89.19
350.947	91.19
351.174	98.19
351.402	67.19
351.629	92.19
351.856	94.19
352.083	110.19
352.311	90.19
352.538	91.19
352.765	98.19
352.992	87.19
353.22	98.19
353.447	91.19
353.674	92.19
353.901	92.19
354.128	92.19
354.355	88.19
354.583	92.19
354.81	95.19
355.037	86.19
355.264	95.19
355.491	93.19
355.718	100.19
355.945	99.19
356.172	104.19
356.399	119.19
356.626	87.19
356.853	78.19
357.08	89.19
357.307	87.19
357.534	95.19
357.761	95.19
357.988	85.19
358.215	95.19
358.441	83.19
358.668	95.19
358.895	85.19
359.122	84.19
359.349	107.19
359.576	100.19
359.802	104.19
360.029	94.19
360.256	97.19
360.483	92.19
360.709	85.19
360.936	92.19
361.163	84.19
361.39	87.19
361.616	94.19
361.843	100.19
362.07	85.19
362.296	87.19
362.523	98.19
362.749	91.19
362.976	85.19
363.203	89.19
363.429	75.19
363.656	97.19
363.882	100.19
364.109	89.19
364.335	90.19
364.562	87.19
364.788	96.19
365.015	87.19
365.241	91.19
365.468	108.19
365.694	98.19
365.92	94.19
366.147	97.19
366.373	87.19
366.599	91.19
366.826	87.19
367.052	87.19
367.278	99.19
367.505	90.19
367.731	85.19
367.957	86.19
368.184	92.19
368.41	95.19
368.636	80.19
368.862	76.19
369.089	92.19
369.315	90.19
369.541	87.19
369.767	87.19
369.993	103.19
370.219	117.19
370.445	84.19
370.672	82.19
370.898	89.19
371.124	110.19
371.35	88.19
371.576	85.19
371.802	90.19
372.028	106.19
372.254	89.19
372.48	94.19
372.706	97.19
372.932	71.19
373.158	92.19
373.384	82.19
373.61	82.19
373.835	90.19
374.061	87.19
374.287	90.19
374.513	88.19
374.739	76.19
374.965	94.19
375.191	95.19
375.416	109.19
375.642	91.19
375.868	100.19
376.094	97.19
376.319	90.19
376.545	112.19
376.771	78.19
376.997	112.19
377.222	91.19
377.448	80.19
377.674	92.19
377.899	96.19
378.125	95.19
378.35	87.19
378.576	71.19
378.802	91.19
379.027	100.19
379.253	96.19
379.478	74.19
379.704	102.19
379.929	106.19
380.155	89.19
380.38	87.19
380.606	84.19
380.831	85.19
381.057	94.19
381.282	92.19
381.507	80.19
381.733	95.19
381.958	99.19
382.184	91.19
382.409	86.19
382.634	93.19
382.86	94.19
383.085	99.19
383.31	105.19
383.535	85.19
383.761	107.19
383.986	81.19
384.211	94.19
384.436	88.19
384.662	92.19
384.887	113.19
385.112	82.19
385.337	85.19
385.562	92.19
385.787	92.19
386.013	94.19
386.238	103.19
386.463	74.19
386.688	92.19
386.913	82.19
387.138	85.19
387.363	98.19
387.588	90.19
387.813	91.19
388.038	89.19
388.263	93.19
388.488	88.19
388.713	83.19
388.938	100.19
389.163	97.19
389.387	92.19
389.612	76.19
389.837	87.19
390.062	82.19
390.287	91.19
390.512	101.19
390.736	106.19
390.961	91.19
391.186	105.19
391.411	92.19
391.636	99.19
391.86	86.19
392.085	92.19
392.31	91.19
392.534	95.19
392.759	115.19
392.984	95.19
393.208	90.19
393.433	95.19
393.658	94.19
393.882	83.19
394.107	95.19
394.331	91.19
394.556	78.19
394.78	89.19
395.005	92.19
395.229	98.19
395.454	83.19
395.678	91.19
395.903	90.19
396.127	103.19
396.352	94.19
396.576	99.19
396.801	89.19
397.025	95.19
397.249	97.19
397.474	102.19
397.698	90.19
397.922	97.19
398.147	106.19
398.371	95.19
398.595	98.19
398.82	94.19
399.044	94.19
399.268	97.19
399.492	114.19
399.717	113.19
399.941	107.19
400.165	107.19
400.389	114.19
400.613	100.19
400.837	94.19
401.062	98.19
401.286	113.19
401.51	90.19
401.734	89.19
401.958	94.19
402.182	94.19
402.406	100.19
402.63	92.19
402.854	95.19
403.078	98.19
403.302	100.19
403.526	99.19
403.75	98.19
403.974	118.19
404.198	117.19
404.422	100.19
404.645	94.19
404.869	109.19
405.093	96.19
405.317	105.19
405.541	95.19
405.765	98.19
405.988	111.19
406.212	98.19
406.436	106.19
406.66	108.19
406.883	96.19
407.107	102.19
407.331	102.19
407.555	99.19
407.778	112.19
408.002	116.19
408.226	97.19
408.449	104.19
408.673	109.19
408.896	103.19
409.12	108.19
409.344	104.19
409.567	100.19
409.791	100.19
410.014	103.19
410.238	102.19
410.461	93.19
410.685	108.19
410.908	90.19
411.132	96.19
411.355	103.19
411.578	101.19
411.802	103.19
412.025	110.19
412.249	94.19
412.472	91.19
412.695	101.19
412.919	96.19
413.142	103.19
413.365	98.19
413.589	94.19
413.812	92.19
414.035	103.19
414.258	94.19
414.482	113.19
414.705	92.19
414.928	95.19
415.151	96.19
415.374	98.19
415.597	85.19
415.821	93.19
416.044	103.19
416.267	93.19
416.49	93.19
416.713	103.19
416.936	95.19
417.159	94.19
417.382	106.19
417.605	90.19
417.828	98.19
418.051	90.19
418.274	103.19
418.497	104.19
418.72	100.19
418.943	88.19
419.166	100.19
419.389	106.19
419.611	98.19
419.834	92.19
420.057	95.19
420.28	88.19
420.503	91.19
420.726	104.19
420.948	96.19
421.171	103.19
421.394	91.19
421.617	89.19
421.839	102.19
422.062	88.19
422.285	97.19
422.507	89.19
422.73	89.19
422.953	98.19
423.175	98.19
423.398	93.19
423.621	102.19
423.843	99.19
424.066	98.19
424.288	104.19
424.511	113.19
424.733	102.19
424.956	94.19
425.178	106.19
425.401	98.19
425.623	95.19
425.846	86.19
426.068	89.19
426.291	91.19
426.513	81.19
426.735	102.19
426.958	100.19
427.18	98.19
427.402	86.19
427.625	113.19
427.847	90.19
428.069	102.19
428.292	107.19
428.514	94.19
428.736	86.19
428.958	80.19
429.181	107.19
429.403	97.19
429.625	100.19
429.847	97.19
430.069	84.19
430.292	90.19
430.514	102.19
430.736	94.19
430.958	91.19
431.18	102.19
431.402	78.19
431.624	100.19
431.846	97.19
432.068	100.19
432.29	98.19
432.512	73.19
432.734	84.19
432.956	91.19
433.178	110.19
433.4	103.19
433.622	97.19
433.844	106.19
434.066	103.19
434.287	101.19
434.509	104.19
434.731	105.19
434.953	103.19
435.175	98.19
435.397	101.19
435.618	97.19
435.84	95.19
436.062	92.19
436.284	94.19
436.505	104.19
436.727	99.19
436.949	110.19
437.17	86.19
437.392	96.19
437.614	87.19
437.835	92.19
438.057	95.19
438.278	88.19
438.5	94.19
438.721	96.19
438.943	93.19
439.165	98.19
439.386	98.19
439.608	77.19
439.829	107.19
440.05	101.19
440.272	80.19
440.493	89.19
440.715	90.19
440.936	96.19
441.158	95.19
441.379	101.19
441.6	85.19
441.822	92.19
442.043	97.19
442.264	104.19
442.486	105.19
442.707	80.19
442.928	94.19
443.149	91.19
443.371	107.19
443.592	102.19
443.813	100.19
444.034	96.19
444.255	94.19
444.476	102.19
444.698	111.19
444.919	98.19
445.14	219.19
445.361	135.19
445.582	104.19
445.803	97.19
446.024	97.19
446.245	94.19
446.466	79.19
446.687	102.19
446.908	78.19
447.129	99.19
447.35	92.19
447.571	97.19
447.792	99.19
448.013	79.19
448.234	80.19
448.455	94.19
448.675	92.19
448.896	79.19
449.117	99.19
449.338	91.19
449.559	104.19
449.779	83.19
450	105.19
450.221	108.19
450.442	90.19
450.662	88.19
450.883	86.19
451.104	87.19
451.324	99.19
451.545	98.19
451.766	103.19
451.986	91.19
452.207	92.19
452.428	89.19
452.648	92.19
452.869	106.19
453.089	98.19
453.31	87.19
453.53	95.19
453.751	89.19
453.971	99.19
454.192	92.19
454.412	91.19
454.633	92.19
454.853	97.19
455.073	103.19
455.294	87.19
455.514	82.19
455.734	80.19
455.955	92.19
456.175	95.19
456.395	88.19
456.616	92.19
456.836	89.19
457.056	93.19
457.276	107.19
457.497	93.19
457.717	100.19
457.937	93.19
458.157	96.19
458.377	98.19
458.598	91.19
458.818	86.19
459.038	99.19
459.258	106.19
459.478	96.19
459.698	96.19
459.918	102.19
460.138	106.19
460.358	96.19
460.578	103.19
460.798	102.19
461.018	101.19
461.238	96.19
461.458	114.19
461.678	104.19
461.898	102.19
462.118	116.19
462.338	102.19
462.558	99.19
462.777	111.19
462.997	104.19
463.217	101.19
463.437	98.19
463.657	97.19
463.876	98.19
464.096	111.19
464.316	110.19
464.536	101.19
464.755	119.19
464.975	112.19
465.195	94.19
465.414	92.19
465.634	85.19
465.854	100.19
466.073	91.19
466.293	110.19
466.512	101.19
466.732	94.19
466.951	93.19
467.171	96.19
467.391	85.19
467.61	86.19
467.829	90.19
468.049	95.19
468.268	105.19
468.488	99.19
468.707	88.19
468.927	97.19
469.146	90.19
469.365	115.19
469.585	90.19
469.804	124.19
470.023	98.19
470.243	105.19
470.462	95.19
470.681	83.19
470.901	105.19
471.12	92.19
471.339	97.19
471.558	105.19
471.777	94.19
471.997	94.19
472.216	99.19
472.435	97.19
472.654	100.19
472.873	102.19
473.092	95.19
473.311	87.19
473.53	100.19
473.749	96.19
473.968	91.19
474.187	113.19
474.406	96.19
474.625	101.19
474.844	101.19
475.063	107.19
475.282	94.19
475.501	95.19
475.72	106.19
475.939	83.19
476.158	93.19
476.377	82.19
476.596	95.19
476.814	95.19
477.033	103.19
477.252	104.19
477.471	105.19
477.69	93.19
477.908	86.19
478.127	110.19
478.346	89.19
478.564	107.19
478.783	115.19
479.002	105.19
479.22	111.19
479.439	87.19
479.658	99.19
479.876	104.19
480.095	105.19
480.313	102.19
480.532	121.19
480.751	112.19
480.969	103.19
481.188	94.19
481.406	103.19
481.624	96.19
481.843	100.19
482.061	93.19
482.28	107.19
482.498	105.19
482.717	117.19
482.935	100.19
483.153	110.19
483.372	90.19
483.59	112.19
483.808	105.19
484.027	109.19
484.245	95.19
484.463	108.19
484.681	108.19
484.9	105.19
485.118	99.19
485.336	112.19
485.554	117.19
485.772	110.19
485.99	91.19
486.209	106.19
486.427	117.19
486.645	96.19
486.863	106.19
487.081	95.19
487.299	102.19
487.517	102.19
487.735	109.19
487.953	101.19
488.171	104.19
488.389	101.19
488.607	111.19
488.825	103.19
489.043	92.19
489.261	111.19
489.479	99.19
489.696	90.19
489.914	101.19
490.132	107.19
490.35	114.19
490.568	119.19
490.786	110.19
491.003	106.19
491.221	112.19
491.439	107.19
491.657	112.19
491.874	113.19
492.092	105.19
492.31	123.19
492.527	114.19
492.745	117.19
492.963	110.19
493.18	122.19
493.398	107.19
493.615	120.19
493.833	123.19
494.05	117.19
494.268	114.19
494.485	106.19
494.703	105.19
494.92	120.19
495.138	114.19
495.355	98.19
495.573	117.19
495.79	111.19
496.008	125.19
496.225	117.19
496.442	122.19
496.66	127.19
496.877	124.19
497.094	116.19
497.312	119.19
497.529	130.19
497.746	108.19
497.963	130.19
498.181	112.19
498.398	116.19
498.615	132.19
498.832	119.19
499.049	126.19
499.267	118.19
499.484	123.19
499.701	146.19
499.918	149.19
500.135	147.19
500.352	174.19
500.569	174.19
500.786	171.19
501.003	161.19
501.22	157.19
501.437	127.19
501.654	122.19
501.871	133.19
502.088	118.19
502.305	133.19
502.522	117.19
502.739	120.19
502.956	118.19
503.172	105.19
503.389	112.19
503.606	101.19
503.823	90.19
504.04	111.19
504.256	118.19
504.473	102.19
504.69	106.19
504.907	122.19
505.123	102.19
505.34	99.19
505.557	119.19
505.773	112.19
505.99	112.19
506.207	103.19
506.423	102.19
506.64	107.19
506.856	101.19
507.073	120.19
507.289	112.19
507.506	101.19
507.722	98.19
507.939	110.19
508.155	95.19
508.372	97.19
508.588	93.19
508.805	97.19
509.021	102.19
509.238	86.19
509.454	87.19
509.67	113.19
509.887	99.19
510.103	98.19
510.319	92.19
510.536	112.19
510.752	86.19
510.968	91.19
511.184	87.19
511.401	99.19
511.617	104.19
511.833	92.19
512.049	80.19
512.265	104.19
512.481	106.19
512.698	108.19
512.914	92.19
513.13	104.19
513.346	105.19
513.562	112.19
513.778	107.19
513.994	110.19
514.21	90.19
514.426	102.19
