Data from Location5.07152019.Energy5.Lamp.07192019.3%Agarose_HRD10591_15-37-14-387.txt Node
Date: Fri Jul 19 15:37:14 EDT 2019
User: cochatt
Spectrometer: HR+D1059
Trigger mode: 1
Integration Time (sec): 1.000000E-1
Scans to average: 1
Electric dark correction enabled: true
Nonlinearity correction enabled: false
Boxcar width: 0
XAxis mode: Wavelengths
Number of Pixels in Spectrum: 2048
>>>>>Begin Spectral Data<<<<<
223.165	-19.88
223.4	-19.88
223.635	-19.88
223.869	-22.88
224.104	-20.88
224.338	-11.88
224.573	-0.88
224.808	-17.88
225.042	-1.88
225.277	-9.88
225.511	-1.88
225.746	16.12
225.98	14.12
226.215	6.12
226.449	8.12
226.683	10.12
226.918	22.12
227.152	31.12
227.387	33.12
227.621	48.12
227.856	50.12
228.09	58.12
228.324	54.12
228.559	64.12
228.793	58.12
229.027	54.12
229.262	65.12
229.496	53.12
229.73	71.12
229.964	74.12
230.199	77.12
230.433	75.12
230.667	82.12
230.901	81.12
231.136	86.12
231.37	87.12
231.604	75.12
231.838	95.12
232.072	87.12
232.306	91.12
232.541	94.12
232.775	93.12
233.009	87.12
233.243	69.12
233.477	87.12
233.711	68.12
233.945	75.12
234.179	74.12
234.413	80.12
234.647	86.12
234.881	86.12
235.115	67.12
235.349	63.12
235.583	69.12
235.817	95.12
236.051	85.12
236.285	67.12
236.519	82.12
236.753	73.12
236.987	92.12
237.221	75.12
237.455	64.12
237.689	76.12
237.922	88.12
238.156	72.12
238.39	66.12
238.624	75.12
238.858	76.12
239.091	82.12
239.325	81.12
239.559	89.12
239.793	76.12
240.027	80.12
240.26	84.12
240.494	75.12
240.728	75.12
240.961	69.12
241.195	92.12
241.429	78.12
241.662	72.12
241.896	86.12
242.13	78.12
242.363	73.12
242.597	82.12
242.83	83.12
243.064	68.12
243.298	77.12
243.531	78.12
243.765	89.12
243.998	77.12
244.232	78.12
244.465	79.12
244.699	74.12
244.932	66.12
245.166	80.12
245.399	86.12
245.633	89.12
245.866	76.12
246.099	78.12
246.333	71.12
246.566	91.12
246.8	70.12
247.033	88.12
247.266	82.12
247.5	83.12
247.733	82.12
247.966	75.12
248.2	80.12
248.433	75.12
248.666	79.12
248.899	87.12
249.133	66.12
249.366	79.12
249.599	85.12
249.832	80.12
250.066	88.12
250.299	94.12
250.532	88.12
250.765	83.12
250.998	69.12
251.231	84.12
251.465	84.12
251.698	59.12
251.931	82.12
252.164	76.12
252.397	67.12
252.63	75.12
252.863	65.12
253.096	82.12
253.329	73.12
253.562	64.12
253.795	85.12
254.028	79.12
254.261	76.12
254.494	81.12
254.727	74.12
254.96	71.12
255.193	80.12
255.426	66.12
255.659	80.12
255.892	83.12
256.124	78.12
256.357	80.12
256.59	79.12
256.823	74.12
257.056	83.12
257.289	78.12
257.521	82.12
257.754	76.12
257.987	91.12
258.22	86.12
258.452	81.12
258.685	76.12
258.918	83.12
259.151	70.12
259.383	87.12
259.616	73.12
259.849	86.12
260.081	88.12
260.314	71.12
260.547	71.12
260.779	72.12
261.012	81.12
261.244	83.12
261.477	83.12
261.71	83.12
261.942	88.12
262.175	72.12
262.407	91.12
262.64	96.12
262.872	70.12
263.105	80.12
263.337	80.12
263.57	80.12
263.802	63.12
264.035	90.12
264.267	80.12
264.499	82.12
264.732	86.12
264.964	71.12
265.197	78.12
265.429	86.12
265.661	88.12
265.894	62.12
266.126	74.12
266.358	86.12
266.591	86.12
266.823	95.12
267.055	90.12
267.287	84.12
267.52	73.12
267.752	94.12
267.984	70.12
268.216	92.12
268.448	84.12
268.681	72.12
268.913	85.12
269.145	84.12
269.377	81.12
269.609	71.12
269.841	67.12
270.073	82.12
270.306	74.12
270.538	67.12
270.77	75.12
271.002	78.12
271.234	78.12
271.466	83.12
271.698	80.12
271.93	88.12
272.162	82.12
272.394	72.12
272.626	72.12
272.858	80.12
273.09	85.12
273.322	79.12
273.553	85.12
273.785	84.12
274.017	88.12
274.249	87.12
274.481	85.12
274.713	89.12
274.945	88.12
275.176	90.12
275.408	96.12
275.64	84.12
275.872	86.12
276.104	92.12
276.335	82.12
276.567	71.12
276.799	72.12
277.031	76.12
277.262	95.12
277.494	81.12
277.726	95.12
277.957	82.12
278.189	73.12
278.421	77.12
278.652	79.12
278.884	70.12
279.115	78.12
279.347	85.12
279.579	88.12
279.81	87.12
280.042	74.12
280.273	88.12
280.505	90.12
280.736	76.12
280.968	72.12
281.199	84.12
281.431	80.12
281.662	91.12
281.894	89.12
282.125	80.12
282.356	80.12
282.588	91.12
282.819	79.12
283.051	75.12
283.282	87.12
283.513	91.12
283.745	75.12
283.976	86.12
284.207	75.12
284.439	101.12
284.67	74.12
284.901	81.12
285.132	83.12
285.364	87.12
285.595	85.12
285.826	73.12
286.057	81.12
286.288	94.12
286.52	86.12
286.751	87.12
286.982	77.12
287.213	88.12
287.444	77.12
287.675	91.12
287.906	85.12
288.138	87.12
288.369	92.12
288.6	84.12
288.831	82.12
289.062	80.12
289.293	88.12
289.524	81.12
289.755	85.12
289.986	76.12
290.217	83.12
290.448	93.12
290.679	97.12
290.91	83.12
291.141	88.12
291.371	77.12
291.602	80.12
291.833	82.12
292.064	86.12
292.295	79.12
292.526	93.12
292.757	95.12
292.987	89.12
293.218	82.12
293.449	84.12
293.68	91.12
293.91	91.12
294.141	87.12
294.372	91.12
294.603	76.12
294.833	72.12
295.064	85.12
295.295	81.12
295.525	89.12
295.756	84.12
295.987	82.12
296.217	79.12
296.448	99.12
296.679	103.12
296.909	86.12
297.14	88.12
297.37	89.12
297.601	85.12
297.831	89.12
298.062	97.12
298.292	89.12
298.523	88.12
298.753	87.12
298.984	73.12
299.214	102.12
299.445	80.12
299.675	84.12
299.905	69.12
300.136	80.12
300.366	82.12
300.597	85.12
300.827	72.12
301.057	82.12
301.288	86.12
301.518	86.12
301.748	83.12
301.979	73.12
302.209	80.12
302.439	90.12
302.669	84.12
302.9	76.12
303.13	79.12
303.36	92.12
303.59	76.12
303.82	84.12
304.051	96.12
304.281	71.12
304.511	75.12
304.741	87.12
304.971	92.12
305.201	94.12
305.431	86.12
305.661	95.12
305.891	76.12
306.121	90.12
306.352	83.12
306.582	85.12
306.812	80.12
307.042	75.12
307.272	76.12
307.502	73.12
307.731	76.12
307.961	96.12
308.191	82.12
308.421	76.12
308.651	84.12
308.881	91.12
309.111	107.12
309.341	83.12
309.571	94.12
309.8	83.12
310.03	87.12
310.26	89.12
310.49	85.12
310.72	90.12
310.949	83.12
311.179	73.12
311.409	83.12
311.639	78.12
311.868	87.12
312.098	84.12
312.328	80.12
312.557	93.12
312.787	86.12
313.017	90.12
313.246	83.12
313.476	89.12
313.706	80.12
313.935	84.12
314.165	78.12
314.394	88.12
314.624	75.12
314.853	76.12
315.083	102.12
315.312	77.12
315.542	81.12
315.771	88.12
316.001	77.12
316.23	87.12
316.46	87.12
316.689	88.12
316.919	89.12
317.148	94.12
317.377	93.12
317.607	75.12
317.836	95.12
318.065	91.12
318.295	83.12
318.524	92.12
318.753	74.12
318.983	81.12
319.212	83.12
319.441	86.12
319.67	97.12
319.9	77.12
320.129	90.12
320.358	92.12
320.587	96.12
320.816	83.12
321.046	76.12
321.275	100.12
321.504	89.12
321.733	69.12
321.962	80.12
322.191	85.12
322.42	82.12
322.649	84.12
322.878	97.12
323.108	85.12
323.337	94.12
323.566	81.12
323.795	86.12
324.024	82.12
324.253	82.12
324.482	94.12
324.71	88.12
324.939	92.12
325.168	82.12
325.397	97.12
325.626	78.12
325.855	81.12
326.084	92.12
326.313	82.12
326.542	94.12
326.77	84.12
326.999	90.12
327.228	99.12
327.457	100.12
327.686	88.12
327.914	84.12
328.143	89.12
328.372	99.12
328.6	86.12
328.829	96.12
329.058	90.12
329.287	74.12
329.515	86.12
329.744	97.12
329.972	88.12
330.201	76.12
330.43	81.12
330.658	78.12
330.887	72.12
331.115	79.12
331.344	82.12
331.572	97.12
331.801	84.12
332.03	75.12
332.258	87.12
332.486	76.12
332.715	88.12
332.943	85.12
333.172	81.12
333.4	88.12
333.629	86.12
333.857	84.12
334.085	71.12
334.314	76.12
334.542	81.12
334.771	102.12
334.999	94.12
335.227	83.12
335.455	94.12
335.684	90.12
335.912	90.12
336.14	97.12
336.369	79.12
336.597	71.12
336.825	88.12
337.053	86.12
337.281	89.12
337.51	82.12
337.738	83.12
337.966	81.12
338.194	77.12
338.422	83.12
338.65	65.12
338.878	87.12
339.106	94.12
339.334	91.12
339.562	78.12
339.79	81.12
340.018	81.12
340.246	91.12
340.474	86.12
340.702	75.12
340.93	83.12
341.158	83.12
341.386	95.12
341.614	80.12
341.842	97.12
342.07	96.12
342.298	87.12
342.526	82.12
342.754	91.12
342.981	75.12
343.209	80.12
343.437	85.12
343.665	75.12
343.893	92.12
344.12	82.12
344.348	73.12
344.576	66.12
344.804	87.12
345.031	97.12
345.259	91.12
345.487	72.12
345.714	77.12
345.942	100.12
346.17	82.12
346.397	99.12
346.625	85.12
346.853	75.12
347.08	88.12
347.308	93.12
347.535	92.12
347.763	82.12
347.99	92.12
348.218	93.12
348.445	85.12
348.673	94.12
348.9	80.12
349.128	83.12
349.355	84.12
349.583	92.12
349.81	87.12
350.037	84.12
350.265	80.12
350.492	85.12
350.72	81.12
350.947	84.12
351.174	82.12
351.402	83.12
351.629	81.12
351.856	79.12
352.083	86.12
352.311	92.12
352.538	93.12
352.765	80.12
352.992	72.12
353.22	92.12
353.447	80.12
353.674	66.12
353.901	66.12
354.128	82.12
354.355	88.12
354.583	81.12
354.81	87.12
355.037	86.12
355.264	90.12
355.491	96.12
355.718	81.12
355.945	79.12
356.172	90.12
356.399	79.12
356.626	86.12
356.853	86.12
357.08	81.12
357.307	83.12
357.534	93.12
357.761	88.12
357.988	75.12
358.215	89.12
358.441	92.12
358.668	84.12
358.895	89.12
359.122	82.12
359.349	58.12
359.576	84.12
359.802	87.12
360.029	85.12
360.256	73.12
360.483	83.12
360.709	78.12
360.936	89.12
361.163	89.12
361.39	73.12
361.616	76.12
361.843	89.12
362.07	90.12
362.296	83.12
362.523	86.12
362.749	87.12
362.976	84.12
363.203	86.12
363.429	89.12
363.656	81.12
363.882	73.12
364.109	94.12
364.335	80.12
364.562	85.12
364.788	77.12
365.015	87.12
365.241	80.12
365.468	96.12
365.694	80.12
365.92	93.12
366.147	89.12
366.373	84.12
366.599	86.12
366.826	80.12
367.052	91.12
367.278	77.12
367.505	96.12
367.731	92.12
367.957	75.12
368.184	92.12
368.41	100.12
368.636	80.12
368.862	81.12
369.089	81.12
369.315	91.12
369.541	89.12
369.767	85.12
369.993	72.12
370.219	74.12
370.445	74.12
370.672	85.12
370.898	88.12
371.124	67.12
371.35	90.12
371.576	84.12
371.802	87.12
372.028	82.12
372.254	82.12
372.48	78.12
372.706	89.12
372.932	84.12
373.158	90.12
373.384	89.12
373.61	80.12
373.835	94.12
374.061	79.12
374.287	74.12
374.513	88.12
374.739	92.12
374.965	73.12
375.191	93.12
375.416	95.12
375.642	79.12
375.868	83.12
376.094	91.12
376.319	81.12
376.545	80.12
376.771	92.12
376.997	90.12
377.222	91.12
377.448	81.12
377.674	83.12
377.899	96.12
378.125	76.12
378.35	90.12
378.576	80.12
378.802	73.12
379.027	73.12
379.253	88.12
379.478	88.12
379.704	92.12
379.929	76.12
380.155	82.12
380.38	87.12
380.606	82.12
380.831	92.12
381.057	94.12
381.282	98.12
381.507	88.12
381.733	90.12
381.958	79.12
382.184	82.12
382.409	85.12
382.634	80.12
382.86	91.12
383.085	90.12
383.31	78.12
383.535	79.12
383.761	97.12
383.986	67.12
384.211	86.12
384.436	76.12
384.662	91.12
384.887	101.12
385.112	83.12
385.337	94.12
385.562	90.12
385.787	70.12
386.013	82.12
386.238	77.12
386.463	70.12
386.688	85.12
386.913	76.12
387.138	81.12
387.363	84.12
387.588	79.12
387.813	84.12
388.038	86.12
388.263	85.12
388.488	79.12
388.713	84.12
388.938	86.12
389.163	89.12
389.387	79.12
389.612	99.12
389.837	84.12
390.062	86.12
390.287	88.12
390.512	64.12
390.736	91.12
390.961	84.12
391.186	98.12
391.411	72.12
391.636	94.12
391.86	91.12
392.085	91.12
392.31	88.12
392.534	73.12
392.759	86.12
392.984	100.12
393.208	96.12
393.433	92.12
393.658	85.12
393.882	80.12
394.107	83.12
394.331	79.12
394.556	94.12
394.78	76.12
395.005	84.12
395.229	84.12
395.454	102.12
395.678	86.12
395.903	84.12
396.127	89.12
396.352	94.12
396.576	82.12
396.801	83.12
397.025	79.12
397.249	82.12
397.474	83.12
397.698	72.12
397.922	79.12
398.147	83.12
398.371	84.12
398.595	88.12
398.82	101.12
399.044	84.12
399.268	98.12
399.492	81.12
399.717	91.12
399.941	92.12
400.165	78.12
400.389	89.12
400.613	99.12
400.837	90.12
401.062	84.12
401.286	94.12
401.51	88.12
401.734	88.12
401.958	95.12
402.182	77.12
402.406	94.12
402.63	96.12
402.854	82.12
403.078	86.12
403.302	88.12
403.526	88.12
403.75	88.12
403.974	85.12
404.198	99.12
404.422	100.12
404.645	83.12
404.869	77.12
405.093	107.12
405.317	95.12
405.541	93.12
405.765	83.12
405.988	87.12
406.212	90.12
406.436	88.12
406.66	92.12
406.883	86.12
407.107	94.12
407.331	83.12
407.555	98.12
407.778	88.12
408.002	87.12
408.226	93.12
408.449	96.12
408.673	90.12
408.896	86.12
409.12	87.12
409.344	74.12
409.567	85.12
409.791	71.12
410.014	92.12
410.238	83.12
410.461	106.12
410.685	97.12
410.908	97.12
411.132	94.12
411.355	86.12
411.578	95.12
411.802	82.12
412.025	96.12
412.249	89.12
412.472	86.12
412.695	80.12
412.919	96.12
413.142	84.12
413.365	84.12
413.589	91.12
413.812	88.12
414.035	79.12
414.258	90.12
414.482	80.12
414.705	94.12
414.928	97.12
415.151	85.12
415.374	86.12
415.597	86.12
415.821	106.12
416.044	79.12
416.267	104.12
416.49	99.12
416.713	90.12
416.936	84.12
417.159	90.12
417.382	92.12
417.605	83.12
417.828	91.12
418.051	80.12
418.274	91.12
418.497	99.12
418.72	96.12
418.943	104.12
419.166	90.12
419.389	94.12
419.611	81.12
419.834	85.12
420.057	89.12
420.28	75.12
420.503	87.12
420.726	94.12
420.948	94.12
421.171	88.12
421.394	100.12
421.617	88.12
421.839	92.12
422.062	90.12
422.285	79.12
422.507	88.12
422.73	100.12
422.953	94.12
423.175	111.12
423.398	85.12
423.621	91.12
423.843	91.12
424.066	100.12
424.288	87.12
424.511	99.12
424.733	97.12
424.956	114.12
425.178	110.12
425.401	90.12
425.623	103.12
425.846	83.12
426.068	91.12
426.291	95.12
426.513	83.12
426.735	99.12
426.958	102.12
427.18	88.12
427.402	90.12
427.625	98.12
427.847	95.12
428.069	102.12
428.292	84.12
428.514	87.12
428.736	77.12
428.958	78.12
429.181	94.12
429.403	97.12
429.625	92.12
429.847	82.12
430.069	74.12
430.292	82.12
430.514	79.12
430.736	91.12
430.958	99.12
431.18	80.12
431.402	103.12
431.624	80.12
431.846	87.12
432.068	83.12
432.29	83.12
432.512	100.12
432.734	97.12
432.956	72.12
433.178	100.12
433.4	87.12
433.622	92.12
433.844	95.12
434.066	92.12
434.287	85.12
434.509	76.12
434.731	79.12
434.953	71.12
435.175	90.12
435.397	97.12
435.618	73.12
435.84	93.12
436.062	87.12
436.284	83.12
436.505	109.12
436.727	90.12
436.949	87.12
437.17	83.12
437.392	110.12
437.614	98.12
437.835	94.12
438.057	88.12
438.278	99.12
438.5	103.12
438.721	90.12
438.943	91.12
439.165	101.12
439.386	107.12
439.608	92.12
439.829	94.12
440.05	102.12
440.272	79.12
440.493	83.12
440.715	88.12
440.936	102.12
441.158	111.12
441.379	88.12
441.6	76.12
441.822	92.12
442.043	99.12
442.264	90.12
442.486	100.12
442.707	96.12
442.928	90.12
443.149	93.12
443.371	83.12
443.592	100.12
443.813	105.12
444.034	101.12
444.255	91.12
444.476	99.12
444.698	87.12
444.919	84.12
445.14	191.12
445.361	150.12
445.582	82.12
445.803	87.12
446.024	87.12
446.245	94.12
446.466	105.12
446.687	94.12
446.908	104.12
447.129	108.12
447.35	103.12
447.571	93.12
447.792	97.12
448.013	102.12
448.234	81.12
448.455	96.12
448.675	85.12
448.896	87.12
449.117	100.12
449.338	74.12
449.559	84.12
449.779	88.12
450	83.12
450.221	80.12
450.442	98.12
450.662	104.12
450.883	90.12
451.104	105.12
451.324	105.12
451.545	89.12
451.766	97.12
451.986	92.12
452.207	87.12
452.428	90.12
452.648	94.12
452.869	82.12
453.089	74.12
453.31	86.12
453.53	97.12
453.751	80.12
453.971	77.12
454.192	94.12
454.412	90.12
454.633	96.12
454.853	90.12
455.073	91.12
455.294	95.12
455.514	91.12
455.734	94.12
455.955	82.12
456.175	84.12
456.395	83.12
456.616	84.12
456.836	86.12
457.056	77.12
457.276	91.12
457.497	75.12
457.717	85.12
457.937	98.12
458.157	94.12
458.377	95.12
458.598	97.12
458.818	92.12
459.038	81.12
459.258	78.12
459.478	79.12
459.698	69.12
459.918	96.12
460.138	94.12
460.358	104.12
460.578	91.12
460.798	84.12
461.018	80.12
461.238	80.12
461.458	89.12
461.678	80.12
461.898	88.12
462.118	79.12
462.338	96.12
462.558	79.12
462.777	99.12
462.997	91.12
463.217	87.12
463.437	87.12
463.657	85.12
463.876	94.12
464.096	89.12
464.316	85.12
464.536	86.12
464.755	91.12
464.975	90.12
465.195	92.12
465.414	91.12
465.634	86.12
465.854	82.12
466.073	96.12
466.293	82.12
466.512	84.12
466.732	108.12
466.951	91.12
467.171	95.12
467.391	90.12
467.61	90.12
467.829	89.12
468.049	98.12
468.268	91.12
468.488	88.12
468.707	82.12
468.927	96.12
469.146	92.12
469.365	106.12
469.585	83.12
469.804	90.12
470.023	69.12
470.243	88.12
470.462	92.12
470.681	92.12
470.901	89.12
471.12	103.12
471.339	98.12
471.558	85.12
471.777	107.12
471.997	93.12
472.216	99.12
472.435	104.12
472.654	84.12
472.873	79.12
473.092	79.12
473.311	75.12
473.53	102.12
473.749	100.12
473.968	73.12
474.187	93.12
474.406	76.12
474.625	86.12
474.844	91.12
475.063	84.12
475.282	87.12
475.501	86.12
475.72	95.12
475.939	97.12
476.158	99.12
476.377	101.12
476.596	86.12
476.814	84.12
477.033	90.12
477.252	102.12
477.471	90.12
477.69	85.12
477.908	92.12
478.127	108.12
478.346	79.12
478.564	84.12
478.783	97.12
479.002	103.12
479.22	91.12
479.439	91.12
479.658	106.12
479.876	83.12
480.095	70.12
480.313	90.12
480.532	90.12
480.751	89.12
480.969	86.12
481.188	97.12
481.406	94.12
481.624	88.12
481.843	79.12
482.061	96.12
482.28	82.12
482.498	83.12
482.717	90.12
482.935	91.12
483.153	96.12
483.372	107.12
483.59	98.12
483.808	100.12
484.027	99.12
484.245	81.12
484.463	88.12
484.681	98.12
484.9	88.12
485.118	96.12
485.336	107.12
485.554	87.12
485.772	104.12
485.99	71.12
486.209	82.12
486.427	91.12
486.645	91.12
486.863	107.12
487.081	102.12
487.299	100.12
487.517	90.12
487.735	101.12
487.953	113.12
488.171	116.12
488.389	104.12
488.607	113.12
488.825	95.12
489.043	96.12
489.261	99.12
489.479	87.12
489.696	85.12
489.914	97.12
490.132	90.12
490.35	107.12
490.568	93.12
490.786	96.12
491.003	92.12
491.221	107.12
491.439	107.12
491.657	105.12
491.874	112.12
492.092	115.12
492.31	131.12
492.527	110.12
492.745	122.12
492.963	116.12
493.18	115.12
493.398	104.12
493.615	110.12
493.833	121.12
494.05	98.12
494.268	96.12
494.485	100.12
494.703	105.12
494.92	103.12
495.138	107.12
495.355	105.12
495.573	110.12
495.79	101.12
496.008	94.12
496.225	111.12
496.442	108.12
496.66	98.12
496.877	113.12
497.094	102.12
497.312	98.12
497.529	97.12
497.746	104.12
497.963	93.12
498.181	106.12
498.398	97.12
498.615	103.12
498.832	87.12
499.049	94.12
499.267	72.12
499.484	77.12
499.701	74.12
499.918	101.12
500.135	103.12
500.352	106.12
500.569	91.12
500.786	94.12
501.003	82.12
501.22	104.12
501.437	91.12
501.654	104.12
501.871	105.12
502.088	97.12
502.305	102.12
502.522	101.12
502.739	83.12
502.956	96.12
503.172	82.12
503.389	75.12
503.606	86.12
503.823	94.12
504.04	87.12
504.256	83.12
504.473	91.12
504.69	96.12
504.907	93.12
505.123	98.12
505.34	97.12
505.557	92.12
505.773	102.12
505.99	80.12
506.207	100.12
506.423	92.12
506.64	85.12
506.856	87.12
507.073	99.12
507.289	104.12
507.506	92.12
507.722	86.12
507.939	81.12
508.155	89.12
508.372	80.12
508.588	92.12
508.805	89.12
509.021	88.12
509.238	88.12
509.454	96.12
509.67	88.12
509.887	83.12
510.103	94.12
510.319	85.12
510.536	97.12
510.752	80.12
510.968	72.12
511.184	75.12
511.401	89.12
511.617	88.12
511.833	88.12
512.049	73.12
512.265	85.12
512.481	85.12
512.698	76.12
512.914	66.12
513.13	86.12
513.346	90.12
513.562	90.12
513.778	91.12
513.994	80.12
514.21	92.12
514.426	86.12
514.642	69.12
514.858	76.12
515.074	80.12
515.29	96.12
515.506	72.12
515.721	79.12
515.937	82.12
516.153	78.12
516.369	91.12
516.585	74.12
516.801	86.12
517.016	80.12
517.232	86.12
517.448	95.12
517.664	91.12
517.879	84.12
