Data from Location5.07152019.Energy5.Lamp.07192019.3%Agarose_HRD10591_15-36-03-387.txt Node
Date: Fri Jul 19 15:36:03 EDT 2019
User: cochatt
Spectrometer: HR+D1059
Trigger mode: 1
Integration Time (sec): 1.000000E-1
Scans to average: 1
Electric dark correction enabled: true
Nonlinearity correction enabled: false
Boxcar width: 0
XAxis mode: Wavelengths
Number of Pixels in Spectrum: 2048
>>>>>Begin Spectral Data<<<<<
223.165	-8.56
223.4	-8.56
223.635	-8.56
223.869	-10.56
224.104	-12.56
224.338	-11.56
224.573	-11.56
224.808	-5.56
225.042	-20.56
225.277	-19.56
225.511	6.44
225.746	4.44
225.98	9.44
226.215	15.44
226.449	14.44
226.683	0.44
226.918	21.44
227.152	28.44
227.387	33.44
227.621	40.44
227.856	39.44
228.09	45.44
228.324	54.44
228.559	54.44
228.793	70.44
229.027	65.44
229.262	68.44
229.496	74.44
229.73	65.44
229.964	76.44
230.199	62.44
230.433	74.44
230.667	76.44
230.901	89.44
231.136	90.44
231.37	86.44
231.604	83.44
231.838	80.44
232.072	88.44
232.306	88.44
232.541	97.44
232.775	79.44
233.009	92.44
233.243	91.44
233.477	78.44
233.711	84.44
233.945	90.44
234.179	81.44
234.413	80.44
234.647	80.44
234.881	85.44
235.115	91.44
235.349	78.44
235.583	83.44
235.817	77.44
236.051	78.44
236.285	89.44
236.519	73.44
236.753	74.44
236.987	86.44
237.221	67.44
237.455	81.44
237.689	86.44
237.922	79.44
238.156	84.44
238.39	85.44
238.624	77.44
238.858	71.44
239.091	78.44
239.325	75.44
239.559	73.44
239.793	78.44
240.027	73.44
240.26	82.44
240.494	81.44
240.728	66.44
240.961	71.44
241.195	77.44
241.429	77.44
241.662	86.44
241.896	72.44
242.13	62.44
242.363	73.44
242.597	79.44
242.83	82.44
243.064	86.44
243.298	88.44
243.531	75.44
243.765	76.44
243.998	78.44
244.232	81.44
244.465	81.44
244.699	81.44
244.932	75.44
245.166	81.44
245.399	76.44
245.633	88.44
245.866	80.44
246.099	72.44
246.333	76.44
246.566	73.44
246.8	67.44
247.033	91.44
247.266	73.44
247.5	65.44
247.733	97.44
247.966	90.44
248.2	89.44
248.433	82.44
248.666	82.44
248.899	86.44
249.133	72.44
249.366	92.44
249.599	80.44
249.832	74.44
250.066	78.44
250.299	74.44
250.532	69.44
250.765	79.44
250.998	76.44
251.231	84.44
251.465	86.44
251.698	92.44
251.931	87.44
252.164	101.44
252.397	77.44
252.63	85.44
252.863	85.44
253.096	85.44
253.329	85.44
253.562	85.44
253.795	88.44
254.028	85.44
254.261	71.44
254.494	70.44
254.727	90.44
254.96	81.44
255.193	70.44
255.426	83.44
255.659	85.44
255.892	79.44
256.124	86.44
256.357	68.44
256.59	84.44
256.823	82.44
257.056	73.44
257.289	79.44
257.521	83.44
257.754	88.44
257.987	76.44
258.22	81.44
258.452	98.44
258.685	88.44
258.918	82.44
259.151	87.44
259.383	79.44
259.616	83.44
259.849	81.44
260.081	80.44
260.314	82.44
260.547	67.44
260.779	78.44
261.012	77.44
261.244	77.44
261.477	78.44
261.71	93.44
261.942	68.44
262.175	90.44
262.407	77.44
262.64	73.44
262.872	74.44
263.105	74.44
263.337	81.44
263.57	92.44
263.802	75.44
264.035	64.44
264.267	82.44
264.499	73.44
264.732	74.44
264.964	87.44
265.197	79.44
265.429	78.44
265.661	76.44
265.894	66.44
266.126	85.44
266.358	89.44
266.591	88.44
266.823	88.44
267.055	86.44
267.287	82.44
267.52	78.44
267.752	92.44
267.984	88.44
268.216	78.44
268.448	99.44
268.681	83.44
268.913	82.44
269.145	85.44
269.377	86.44
269.609	81.44
269.841	81.44
270.073	74.44
270.306	83.44
270.538	77.44
270.77	75.44
271.002	91.44
271.234	71.44
271.466	83.44
271.698	87.44
271.93	81.44
272.162	93.44
272.394	102.44
272.626	88.44
272.858	68.44
273.09	81.44
273.322	85.44
273.553	85.44
273.785	83.44
274.017	78.44
274.249	92.44
274.481	91.44
274.713	79.44
274.945	85.44
275.176	82.44
275.408	74.44
275.64	93.44
275.872	84.44
276.104	93.44
276.335	86.44
276.567	80.44
276.799	89.44
277.031	82.44
277.262	78.44
277.494	76.44
277.726	73.44
277.957	100.44
278.189	76.44
278.421	84.44
278.652	81.44
278.884	73.44
279.115	73.44
279.347	78.44
279.579	86.44
279.81	84.44
280.042	91.44
280.273	94.44
280.505	83.44
280.736	85.44
280.968	82.44
281.199	75.44
281.431	77.44
281.662	84.44
281.894	94.44
282.125	95.44
282.356	81.44
282.588	86.44
282.819	77.44
283.051	85.44
283.282	94.44
283.513	93.44
283.745	84.44
283.976	74.44
284.207	90.44
284.439	89.44
284.67	81.44
284.901	83.44
285.132	84.44
285.364	70.44
285.595	78.44
285.826	86.44
286.057	79.44
286.288	83.44
286.52	78.44
286.751	94.44
286.982	88.44
287.213	76.44
287.444	69.44
287.675	91.44
287.906	77.44
288.138	84.44
288.369	70.44
288.6	84.44
288.831	72.44
289.062	92.44
289.293	74.44
289.524	82.44
289.755	89.44
289.986	86.44
290.217	88.44
290.448	83.44
290.679	94.44
290.91	80.44
291.141	70.44
291.371	97.44
291.602	84.44
291.833	96.44
292.064	94.44
292.295	78.44
292.526	87.44
292.757	88.44
292.987	79.44
293.218	82.44
293.449	84.44
293.68	74.44
293.91	90.44
294.141	86.44
294.372	84.44
294.603	79.44
294.833	89.44
295.064	92.44
295.295	88.44
295.525	76.44
295.756	86.44
295.987	81.44
296.217	90.44
296.448	81.44
296.679	87.44
296.909	91.44
297.14	89.44
297.37	84.44
297.601	81.44
297.831	86.44
298.062	83.44
298.292	89.44
298.523	85.44
298.753	99.44
298.984	72.44
299.214	67.44
299.445	88.44
299.675	106.44
299.905	85.44
300.136	87.44
300.366	94.44
300.597	75.44
300.827	91.44
301.057	92.44
301.288	85.44
301.518	84.44
301.748	83.44
301.979	93.44
302.209	90.44
302.439	78.44
302.669	93.44
302.9	86.44
303.13	85.44
303.36	82.44
303.59	89.44
303.82	87.44
304.051	85.44
304.281	87.44
304.511	87.44
304.741	87.44
304.971	81.44
305.201	73.44
305.431	81.44
305.661	89.44
305.891	86.44
306.121	81.44
306.352	80.44
306.582	84.44
306.812	77.44
307.042	73.44
307.272	70.44
307.502	81.44
307.731	86.44
307.961	88.44
308.191	79.44
308.421	83.44
308.651	85.44
308.881	82.44
309.111	79.44
309.341	77.44
309.571	82.44
309.8	94.44
310.03	101.44
310.26	88.44
310.49	84.44
310.72	85.44
310.949	73.44
311.179	84.44
311.409	86.44
311.639	85.44
311.868	83.44
312.098	94.44
312.328	80.44
312.557	87.44
312.787	86.44
313.017	91.44
313.246	87.44
313.476	100.44
313.706	78.44
313.935	85.44
314.165	84.44
314.394	89.44
314.624	86.44
314.853	73.44
315.083	82.44
315.312	88.44
315.542	84.44
315.771	81.44
316.001	87.44
316.23	84.44
316.46	88.44
316.689	73.44
316.919	100.44
317.148	94.44
317.377	100.44
317.607	95.44
317.836	102.44
318.065	94.44
318.295	85.44
318.524	81.44
318.753	94.44
318.983	92.44
319.212	82.44
319.441	83.44
319.67	100.44
319.9	86.44
320.129	90.44
320.358	95.44
320.587	90.44
320.816	97.44
321.046	82.44
321.275	79.44
321.504	91.44
321.733	78.44
321.962	77.44
322.191	86.44
322.42	85.44
322.649	85.44
322.878	82.44
323.108	79.44
323.337	89.44
323.566	89.44
323.795	79.44
324.024	81.44
324.253	78.44
324.482	81.44
324.71	83.44
324.939	81.44
325.168	95.44
325.397	90.44
325.626	89.44
325.855	80.44
326.084	75.44
326.313	86.44
326.542	75.44
326.77	91.44
326.999	94.44
327.228	98.44
327.457	83.44
327.686	94.44
327.914	80.44
328.143	85.44
328.372	92.44
328.6	94.44
328.829	89.44
329.058	77.44
329.287	85.44
329.515	93.44
329.744	92.44
329.972	84.44
330.201	82.44
330.43	88.44
330.658	77.44
330.887	90.44
331.115	77.44
331.344	84.44
331.572	78.44
331.801	78.44
332.03	93.44
332.258	88.44
332.486	87.44
332.715	93.44
332.943	82.44
333.172	88.44
333.4	78.44
333.629	89.44
333.857	93.44
334.085	81.44
334.314	83.44
334.542	78.44
334.771	85.44
334.999	100.44
335.227	85.44
335.455	89.44
335.684	76.44
335.912	84.44
336.14	90.44
336.369	89.44
336.597	85.44
336.825	67.44
337.053	88.44
337.281	95.44
337.51	84.44
337.738	83.44
337.966	94.44
338.194	81.44
338.422	83.44
338.65	84.44
338.878	85.44
339.106	79.44
339.334	70.44
339.562	82.44
339.79	93.44
340.018	69.44
340.246	85.44
340.474	80.44
340.702	79.44
340.93	90.44
341.158	94.44
341.386	84.44
341.614	89.44
341.842	93.44
342.07	98.44
342.298	79.44
342.526	69.44
342.754	81.44
342.981	82.44
343.209	76.44
343.437	77.44
343.665	94.44
343.893	93.44
344.12	82.44
344.348	92.44
344.576	75.44
344.804	82.44
345.031	91.44
345.259	94.44
345.487	71.44
345.714	77.44
345.942	93.44
346.17	83.44
346.397	89.44
346.625	80.44
346.853	91.44
347.08	78.44
347.308	89.44
347.535	96.44
347.763	88.44
347.99	95.44
348.218	82.44
348.445	91.44
348.673	73.44
348.9	101.44
349.128	102.44
349.355	86.44
349.583	99.44
349.81	98.44
350.037	85.44
350.265	89.44
350.492	75.44
350.72	88.44
350.947	84.44
351.174	82.44
351.402	84.44
351.629	84.44
351.856	82.44
352.083	88.44
352.311	89.44
352.538	71.44
352.765	91.44
352.992	88.44
353.22	86.44
353.447	83.44
353.674	84.44
353.901	84.44
354.128	72.44
354.355	91.44
354.583	82.44
354.81	96.44
355.037	85.44
355.264	82.44
355.491	83.44
355.718	97.44
355.945	96.44
356.172	74.44
356.399	77.44
356.626	78.44
356.853	79.44
357.08	73.44
357.307	79.44
357.534	92.44
357.761	84.44
357.988	95.44
358.215	84.44
358.441	90.44
358.668	91.44
358.895	94.44
359.122	70.44
359.349	74.44
359.576	88.44
359.802	90.44
360.029	87.44
360.256	82.44
360.483	83.44
360.709	80.44
360.936	74.44
361.163	82.44
361.39	91.44
361.616	86.44
361.843	88.44
362.07	76.44
362.296	82.44
362.523	90.44
362.749	88.44
362.976	82.44
363.203	89.44
363.429	75.44
363.656	82.44
363.882	89.44
364.109	86.44
364.335	78.44
364.562	80.44
364.788	98.44
365.015	86.44
365.241	87.44
365.468	74.44
365.694	69.44
365.92	82.44
366.147	71.44
366.373	72.44
366.599	77.44
366.826	84.44
367.052	81.44
367.278	80.44
367.505	95.44
367.731	87.44
367.957	83.44
368.184	77.44
368.41	83.44
368.636	98.44
368.862	100.44
369.089	91.44
369.315	88.44
369.541	69.44
369.767	95.44
369.993	80.44
370.219	81.44
370.445	98.44
370.672	97.44
370.898	83.44
371.124	86.44
371.35	77.44
371.576	82.44
371.802	85.44
372.028	71.44
372.254	83.44
372.48	90.44
372.706	72.44
372.932	69.44
373.158	86.44
373.384	92.44
373.61	104.44
373.835	92.44
374.061	82.44
374.287	91.44
374.513	92.44
374.739	83.44
374.965	77.44
375.191	83.44
375.416	72.44
375.642	93.44
375.868	89.44
376.094	92.44
376.319	75.44
376.545	77.44
376.771	85.44
376.997	82.44
377.222	80.44
377.448	81.44
377.674	84.44
377.899	102.44
378.125	83.44
378.35	101.44
378.576	92.44
378.802	94.44
379.027	94.44
379.253	82.44
379.478	98.44
379.704	91.44
379.929	86.44
380.155	85.44
380.38	95.44
380.606	85.44
380.831	82.44
381.057	87.44
381.282	83.44
381.507	87.44
381.733	81.44
381.958	87.44
382.184	84.44
382.409	82.44
382.634	91.44
382.86	80.44
383.085	97.44
383.31	108.44
383.535	84.44
383.761	72.44
383.986	83.44
384.211	97.44
384.436	84.44
384.662	92.44
384.887	79.44
385.112	96.44
385.337	86.44
385.562	96.44
385.787	82.44
386.013	99.44
386.238	88.44
386.463	90.44
386.688	87.44
386.913	90.44
387.138	88.44
387.363	88.44
387.588	78.44
387.813	103.44
388.038	81.44
388.263	90.44
388.488	85.44
388.713	81.44
388.938	99.44
389.163	87.44
389.387	97.44
389.612	90.44
389.837	83.44
390.062	82.44
390.287	84.44
390.512	99.44
390.736	96.44
390.961	81.44
391.186	84.44
391.411	83.44
391.636	85.44
391.86	97.44
392.085	87.44
392.31	88.44
392.534	89.44
392.759	65.44
392.984	76.44
393.208	88.44
393.433	83.44
393.658	94.44
393.882	88.44
394.107	95.44
394.331	91.44
394.556	86.44
394.78	88.44
395.005	96.44
395.229	94.44
395.454	86.44
395.678	72.44
395.903	86.44
396.127	89.44
396.352	103.44
396.576	92.44
396.801	85.44
397.025	82.44
397.249	93.44
397.474	87.44
397.698	88.44
397.922	82.44
398.147	81.44
398.371	84.44
398.595	103.44
398.82	97.44
399.044	86.44
399.268	88.44
399.492	86.44
399.717	80.44
399.941	77.44
400.165	88.44
400.389	92.44
400.613	87.44
400.837	83.44
401.062	90.44
401.286	93.44
401.51	79.44
401.734	91.44
401.958	93.44
402.182	91.44
402.406	98.44
402.63	94.44
402.854	92.44
403.078	73.44
403.302	92.44
403.526	90.44
403.75	84.44
403.974	96.44
404.198	91.44
404.422	78.44
404.645	109.44
404.869	81.44
405.093	105.44
405.317	88.44
405.541	104.44
405.765	81.44
405.988	91.44
406.212	91.44
406.436	106.44
406.66	80.44
406.883	82.44
407.107	83.44
407.331	94.44
407.555	90.44
407.778	89.44
408.002	94.44
408.226	93.44
408.449	72.44
408.673	86.44
408.896	108.44
409.12	94.44
409.344	82.44
409.567	93.44
409.791	90.44
410.014	92.44
410.238	82.44
410.461	93.44
410.685	89.44
410.908	84.44
411.132	95.44
411.355	92.44
411.578	93.44
411.802	92.44
412.025	84.44
412.249	92.44
412.472	95.44
412.695	91.44
412.919	96.44
413.142	90.44
413.365	86.44
413.589	96.44
413.812	79.44
414.035	81.44
414.258	122.44
414.482	86.44
414.705	89.44
414.928	97.44
415.151	97.44
415.374	94.44
415.597	94.44
415.821	93.44
416.044	102.44
416.267	98.44
416.49	97.44
416.713	91.44
416.936	96.44
417.159	93.44
417.382	98.44
417.605	102.44
417.828	97.44
418.051	92.44
418.274	101.44
418.497	84.44
418.72	95.44
418.943	97.44
419.166	88.44
419.389	107.44
419.611	90.44
419.834	86.44
420.057	83.44
420.28	94.44
420.503	80.44
420.726	88.44
420.948	98.44
421.171	89.44
421.394	98.44
421.617	80.44
421.839	105.44
422.062	88.44
422.285	85.44
422.507	100.44
422.73	94.44
422.953	93.44
423.175	98.44
423.398	109.44
423.621	80.44
423.843	77.44
424.066	89.44
424.288	85.44
424.511	80.44
424.733	73.44
424.956	95.44
425.178	98.44
425.401	97.44
425.623	96.44
425.846	94.44
426.068	96.44
426.291	87.44
426.513	88.44
426.735	97.44
426.958	89.44
427.18	98.44
427.402	89.44
427.625	96.44
427.847	84.44
428.069	89.44
428.292	95.44
428.514	101.44
428.736	85.44
428.958	89.44
429.181	101.44
429.403	90.44
429.625	102.44
429.847	90.44
430.069	94.44
430.292	109.44
430.514	98.44
430.736	90.44
430.958	85.44
431.18	89.44
431.402	82.44
431.624	91.44
431.846	87.44
432.068	93.44
432.29	101.44
432.512	89.44
432.734	94.44
432.956	92.44
433.178	103.44
433.4	106.44
433.622	85.44
433.844	88.44
434.066	105.44
434.287	74.44
434.509	87.44
434.731	86.44
434.953	78.44
435.175	88.44
435.397	97.44
435.618	96.44
435.84	91.44
436.062	93.44
436.284	94.44
436.505	102.44
436.727	91.44
436.949	83.44
437.17	107.44
437.392	103.44
437.614	84.44
437.835	93.44
438.057	88.44
438.278	80.44
438.5	81.44
438.721	93.44
438.943	112.44
439.165	96.44
439.386	98.44
439.608	90.44
439.829	94.44
440.05	100.44
440.272	97.44
440.493	104.44
440.715	79.44
440.936	89.44
441.158	102.44
441.379	85.44
441.6	92.44
441.822	87.44
442.043	96.44
442.264	96.44
442.486	96.44
442.707	82.44
442.928	103.44
443.149	97.44
443.371	91.44
443.592	88.44
443.813	94.44
444.034	97.44
444.255	112.44
444.476	104.44
444.698	86.44
444.919	93.44
445.14	187.44
445.361	147.44
445.582	89.44
445.803	104.44
446.024	90.44
446.245	113.44
446.466	92.44
446.687	100.44
446.908	102.44
447.129	100.44
447.35	106.44
447.571	106.44
447.792	75.44
448.013	94.44
448.234	87.44
448.455	96.44
448.675	98.44
448.896	92.44
449.117	89.44
449.338	96.44
449.559	103.44
449.779	97.44
450	95.44
450.221	94.44
450.442	101.44
450.662	101.44
450.883	96.44
451.104	96.44
451.324	99.44
451.545	96.44
451.766	96.44
451.986	86.44
452.207	95.44
452.428	91.44
452.648	90.44
452.869	85.44
453.089	96.44
453.31	80.44
453.53	87.44
453.751	96.44
453.971	73.44
454.192	93.44
454.412	90.44
454.633	90.44
454.853	95.44
455.073	92.44
455.294	88.44
455.514	85.44
455.734	87.44
455.955	100.44
456.175	91.44
456.395	91.44
456.616	81.44
456.836	89.44
457.056	94.44
457.276	89.44
457.497	91.44
457.717	73.44
457.937	88.44
458.157	92.44
458.377	81.44
458.598	81.44
458.818	98.44
459.038	88.44
459.258	74.44
459.478	84.44
459.698	117.44
459.918	90.44
460.138	87.44
460.358	106.44
460.578	89.44
460.798	97.44
461.018	94.44
461.238	98.44
461.458	88.44
461.678	96.44
461.898	88.44
462.118	81.44
462.338	96.44
462.558	86.44
462.777	95.44
462.997	94.44
463.217	69.44
463.437	81.44
463.657	92.44
463.876	94.44
464.096	83.44
464.316	88.44
464.536	79.44
464.755	91.44
464.975	83.44
465.195	87.44
465.414	108.44
465.634	84.44
465.854	86.44
466.073	100.44
466.293	82.44
466.512	77.44
466.732	78.44
466.951	84.44
467.171	90.44
467.391	90.44
467.61	101.44
467.829	102.44
468.049	107.44
468.268	89.44
468.488	93.44
468.707	91.44
468.927	98.44
469.146	93.44
469.365	109.44
469.585	93.44
469.804	88.44
470.023	99.44
470.243	94.44
470.462	108.44
470.681	110.44
470.901	95.44
471.12	93.44
471.339	95.44
471.558	96.44
471.777	93.44
471.997	94.44
472.216	103.44
472.435	90.44
472.654	87.44
472.873	93.44
473.092	99.44
473.311	80.44
473.53	92.44
473.749	85.44
473.968	102.44
474.187	88.44
474.406	90.44
474.625	86.44
474.844	101.44
475.063	92.44
475.282	89.44
475.501	88.44
475.72	94.44
475.939	93.44
476.158	91.44
476.377	91.44
476.596	77.44
476.814	91.44
477.033	81.44
477.252	96.44
477.471	98.44
477.69	103.44
477.908	103.44
478.127	98.44
478.346	92.44
478.564	92.44
478.783	85.44
479.002	86.44
479.22	94.44
479.439	75.44
479.658	103.44
479.876	86.44
480.095	72.44
480.313	84.44
480.532	110.44
480.751	85.44
480.969	74.44
481.188	80.44
481.406	91.44
481.624	88.44
481.843	75.44
482.061	78.44
482.28	102.44
482.498	102.44
482.717	81.44
482.935	106.44
483.153	89.44
483.372	98.44
483.59	109.44
483.808	103.44
484.027	86.44
484.245	108.44
484.463	89.44
484.681	96.44
484.9	109.44
485.118	82.44
485.336	96.44
485.554	98.44
485.772	82.44
485.99	96.44
486.209	97.44
486.427	95.44
486.645	97.44
486.863	100.44
487.081	102.44
487.299	90.44
487.517	101.44
487.735	105.44
487.953	115.44
488.171	105.44
488.389	112.44
488.607	104.44
488.825	96.44
489.043	93.44
489.261	96.44
489.479	104.44
489.696	86.44
489.914	98.44
490.132	101.44
490.35	101.44
490.568	103.44
490.786	101.44
491.003	107.44
491.221	107.44
491.439	115.44
491.657	110.44
491.874	117.44
492.092	117.44
492.31	126.44
492.527	125.44
492.745	123.44
492.963	120.44
493.18	99.44
493.398	114.44
493.615	105.44
493.833	113.44
494.05	97.44
494.268	106.44
494.485	93.44
494.703	99.44
494.92	105.44
495.138	98.44
495.355	90.44
495.573	113.44
495.79	109.44
496.008	121.44
496.225	112.44
496.442	118.44
496.66	124.44
496.877	105.44
497.094	118.44
497.312	109.44
497.529	99.44
497.746	97.44
497.963	77.44
498.181	94.44
498.398	91.44
498.615	96.44
498.832	104.44
499.049	89.44
499.267	97.44
499.484	96.44
499.701	88.44
499.918	98.44
500.135	98.44
500.352	98.44
500.569	112.44
500.786	101.44
501.003	97.44
501.22	107.44
501.437	94.44
501.654	110.44
501.871	89.44
502.088	106.44
502.305	109.44
502.522	106.44
502.739	109.44
502.956	92.44
503.172	96.44
503.389	98.44
503.606	100.44
503.823	97.44
504.04	98.44
504.256	89.44
504.473	89.44
504.69	100.44
504.907	107.44
505.123	90.44
505.34	83.44
505.557	88.44
505.773	87.44
505.99	90.44
506.207	94.44
506.423	101.44
506.64	92.44
506.856	88.44
507.073	90.44
507.289	90.44
507.506	97.44
507.722	98.44
507.939	89.44
508.155	103.44
508.372	93.44
508.588	101.44
508.805	91.44
509.021	83.44
509.238	80.44
509.454	91.44
509.67	94.44
509.887	78.44
510.103	79.44
510.319	84.44
510.536	89.44
510.752	80.44
510.968	92.44
511.184	83.44
511.401	97.44
511.617	88.44
511.833	80.44
512.049	81.44
512.265	86.44
512.481	88.44
512.698	76.44
512.914	82.44
513.13	92.44
513.346	80.44
513.562	94.44
513.778	95.44
513.994	84.44
514.21	81.44
514.426	78.44
514.642	74.44
514.858	81.44
515.074	89.44
515.29	99.44
515.506	92.44
515.721	87.44
515.937	88.44
516.153	86.44
516.369	86.44
516.585	84.44
516.801	84.44
517.016	96.44
517.232	98.44
517.448	97.44
517.664	94.44
