Data from Location5.07152019.Energy5.Lamp.07192019.3%Agarose_HRD10591_16-03-11-628.txt Node
Date: Fri Jul 19 16:03:11 EDT 2019
User: cochatt
Spectrometer: HR+D1059
Trigger mode: 1
Integration Time (sec): 1.000000E-1
Scans to average: 1
Electric dark correction enabled: true
Nonlinearity correction enabled: false
Boxcar width: 0
XAxis mode: Wavelengths
Number of Pixels in Spectrum: 2048
>>>>>Begin Spectral Data<<<<<
223.165	-10.5
223.4	-10.5
223.635	-10.5
223.869	-18.5
224.104	-15.5
224.338	-17.5
224.573	-10.5
224.808	-20.5
225.042	-0.5
225.277	-1.5
225.511	6.5
225.746	2.5
225.98	4.5
226.215	8.5
226.449	9.5
226.683	17.5
226.918	22.5
227.152	23.5
227.387	33.5
227.621	36.5
227.856	40.5
228.09	41.5
228.324	37.5
228.559	57.5
228.793	53.5
229.027	65.5
229.262	80.5
229.496	65.5
229.73	66.5
229.964	72.5
230.199	71.5
230.433	80.5
230.667	88.5
230.901	72.5
231.136	62.5
231.37	69.5
231.604	86.5
231.838	85.5
232.072	85.5
232.306	87.5
232.541	87.5
232.775	80.5
233.009	85.5
233.243	85.5
233.477	96.5
233.711	77.5
233.945	84.5
234.179	79.5
234.413	81.5
234.647	80.5
234.881	102.5
235.115	77.5
235.349	95.5
235.583	75.5
235.817	80.5
236.051	90.5
236.285	85.5
236.519	76.5
236.753	83.5
236.987	86.5
237.221	74.5
237.455	78.5
237.689	84.5
237.922	80.5
238.156	85.5
238.39	91.5
238.624	79.5
238.858	86.5
239.091	77.5
239.325	79.5
239.559	78.5
239.793	69.5
240.027	83.5
240.26	84.5
240.494	79.5
240.728	79.5
240.961	59.5
241.195	68.5
241.429	78.5
241.662	77.5
241.896	73.5
242.13	78.5
242.363	72.5
242.597	85.5
242.83	84.5
243.064	74.5
243.298	79.5
243.531	63.5
243.765	61.5
243.998	87.5
244.232	89.5
244.465	83.5
244.699	75.5
244.932	81.5
245.166	76.5
245.399	86.5
245.633	87.5
245.866	74.5
246.099	64.5
246.333	77.5
246.566	73.5
246.8	102.5
247.033	61.5
247.266	68.5
247.5	89.5
247.733	76.5
247.966	81.5
248.2	71.5
248.433	74.5
248.666	68.5
248.899	76.5
249.133	65.5
249.366	93.5
249.599	77.5
249.832	95.5
250.066	87.5
250.299	82.5
250.532	84.5
250.765	81.5
250.998	90.5
251.231	76.5
251.465	94.5
251.698	73.5
251.931	75.5
252.164	73.5
252.397	74.5
252.63	62.5
252.863	79.5
253.096	77.5
253.329	71.5
253.562	76.5
253.795	86.5
254.028	92.5
254.261	76.5
254.494	81.5
254.727	85.5
254.96	77.5
255.193	74.5
255.426	65.5
255.659	78.5
255.892	86.5
256.124	79.5
256.357	63.5
256.59	97.5
256.823	78.5
257.056	81.5
257.289	86.5
257.521	97.5
257.754	77.5
257.987	84.5
258.22	87.5
258.452	82.5
258.685	85.5
258.918	88.5
259.151	84.5
259.383	84.5
259.616	86.5
259.849	97.5
260.081	86.5
260.314	89.5
260.547	83.5
260.779	77.5
261.012	88.5
261.244	88.5
261.477	84.5
261.71	84.5
261.942	73.5
262.175	64.5
262.407	81.5
262.64	80.5
262.872	86.5
263.105	79.5
263.337	83.5
263.57	88.5
263.802	91.5
264.035	85.5
264.267	87.5
264.499	92.5
264.732	71.5
264.964	81.5
265.197	79.5
265.429	81.5
265.661	75.5
265.894	89.5
266.126	80.5
266.358	85.5
266.591	86.5
266.823	89.5
267.055	90.5
267.287	99.5
267.52	95.5
267.752	76.5
267.984	87.5
268.216	81.5
268.448	99.5
268.681	96.5
268.913	87.5
269.145	87.5
269.377	70.5
269.609	76.5
269.841	100.5
270.073	88.5
270.306	85.5
270.538	71.5
270.77	98.5
271.002	80.5
271.234	84.5
271.466	78.5
271.698	85.5
271.93	78.5
272.162	83.5
272.394	94.5
272.626	95.5
272.858	81.5
273.09	82.5
273.322	94.5
273.553	71.5
273.785	96.5
274.017	97.5
274.249	96.5
274.481	86.5
274.713	100.5
274.945	86.5
275.176	82.5
275.408	90.5
275.64	94.5
275.872	87.5
276.104	88.5
276.335	89.5
276.567	82.5
276.799	97.5
277.031	85.5
277.262	93.5
277.494	92.5
277.726	96.5
277.957	79.5
278.189	83.5
278.421	83.5
278.652	83.5
278.884	97.5
279.115	74.5
279.347	97.5
279.579	88.5
279.81	72.5
280.042	82.5
280.273	85.5
280.505	72.5
280.736	84.5
280.968	80.5
281.199	78.5
281.431	90.5
281.662	72.5
281.894	98.5
282.125	86.5
282.356	95.5
282.588	86.5
282.819	86.5
283.051	99.5
283.282	84.5
283.513	75.5
283.745	89.5
283.976	92.5
284.207	81.5
284.439	86.5
284.67	91.5
284.901	85.5
285.132	84.5
285.364	79.5
285.595	89.5
285.826	96.5
286.057	76.5
286.288	84.5
286.52	89.5
286.751	78.5
286.982	87.5
287.213	88.5
287.444	81.5
287.675	92.5
287.906	79.5
288.138	82.5
288.369	89.5
288.6	100.5
288.831	78.5
289.062	84.5
289.293	91.5
289.524	106.5
289.755	95.5
289.986	80.5
290.217	89.5
290.448	84.5
290.679	94.5
290.91	99.5
291.141	70.5
291.371	84.5
291.602	82.5
291.833	109.5
292.064	93.5
292.295	78.5
292.526	87.5
292.757	93.5
292.987	105.5
293.218	98.5
293.449	85.5
293.68	77.5
293.91	96.5
294.141	76.5
294.372	83.5
294.603	77.5
294.833	85.5
295.064	93.5
295.295	95.5
295.525	88.5
295.756	89.5
295.987	90.5
296.217	93.5
296.448	80.5
296.679	78.5
296.909	89.5
297.14	89.5
297.37	101.5
297.601	92.5
297.831	94.5
298.062	86.5
298.292	107.5
298.523	91.5
298.753	87.5
298.984	101.5
299.214	103.5
299.445	85.5
299.675	86.5
299.905	86.5
300.136	97.5
300.366	92.5
300.597	83.5
300.827	103.5
301.057	98.5
301.288	92.5
301.518	96.5
301.748	100.5
301.979	94.5
302.209	81.5
302.439	80.5
302.669	98.5
302.9	104.5
303.13	98.5
303.36	88.5
303.59	81.5
303.82	98.5
304.051	91.5
304.281	97.5
304.511	90.5
304.741	99.5
304.971	96.5
305.201	95.5
305.431	75.5
305.661	80.5
305.891	81.5
306.121	96.5
306.352	87.5
306.582	96.5
306.812	103.5
307.042	101.5
307.272	95.5
307.502	90.5
307.731	85.5
307.961	94.5
308.191	73.5
308.421	97.5
308.651	90.5
308.881	90.5
309.111	92.5
309.341	96.5
309.571	95.5
309.8	96.5
310.03	88.5
310.26	88.5
310.49	100.5
310.72	84.5
310.949	86.5
311.179	84.5
311.409	92.5
311.639	90.5
311.868	93.5
312.098	95.5
312.328	94.5
312.557	70.5
312.787	77.5
313.017	97.5
313.246	87.5
313.476	88.5
313.706	102.5
313.935	92.5
314.165	85.5
314.394	88.5
314.624	98.5
314.853	86.5
315.083	98.5
315.312	99.5
315.542	90.5
315.771	82.5
316.001	81.5
316.23	92.5
316.46	76.5
316.689	83.5
316.919	88.5
317.148	86.5
317.377	85.5
317.607	84.5
317.836	78.5
318.065	79.5
318.295	82.5
318.524	100.5
318.753	97.5
318.983	102.5
319.212	88.5
319.441	93.5
319.67	84.5
319.9	95.5
320.129	101.5
320.358	92.5
320.587	80.5
320.816	88.5
321.046	96.5
321.275	98.5
321.504	89.5
321.733	79.5
321.962	96.5
322.191	107.5
322.42	116.5
322.649	102.5
322.878	92.5
323.108	84.5
323.337	79.5
323.566	97.5
323.795	97.5
324.024	90.5
324.253	83.5
324.482	82.5
324.71	109.5
324.939	91.5
325.168	100.5
325.397	92.5
325.626	92.5
325.855	78.5
326.084	80.5
326.313	84.5
326.542	92.5
326.77	101.5
326.999	81.5
327.228	85.5
327.457	89.5
327.686	83.5
327.914	95.5
328.143	97.5
328.372	81.5
328.6	98.5
328.829	98.5
329.058	94.5
329.287	104.5
329.515	89.5
329.744	85.5
329.972	98.5
330.201	91.5
330.43	85.5
330.658	83.5
330.887	95.5
331.115	91.5
331.344	102.5
331.572	97.5
331.801	93.5
332.03	104.5
332.258	92.5
332.486	84.5
332.715	77.5
332.943	84.5
333.172	88.5
333.4	95.5
333.629	85.5
333.857	100.5
334.085	101.5
334.314	101.5
334.542	102.5
334.771	96.5
334.999	89.5
335.227	86.5
335.455	87.5
335.684	105.5
335.912	112.5
336.14	94.5
336.369	112.5
336.597	89.5
336.825	88.5
337.053	103.5
337.281	97.5
337.51	90.5
337.738	78.5
337.966	85.5
338.194	85.5
338.422	104.5
338.65	93.5
338.878	101.5
339.106	100.5
339.334	94.5
339.562	93.5
339.79	98.5
340.018	73.5
340.246	100.5
340.474	92.5
340.702	87.5
340.93	88.5
341.158	84.5
341.386	84.5
341.614	97.5
341.842	95.5
342.07	90.5
342.298	85.5
342.526	86.5
342.754	93.5
342.981	93.5
343.209	97.5
343.437	77.5
343.665	89.5
343.893	92.5
344.12	108.5
344.348	86.5
344.576	80.5
344.804	86.5
345.031	80.5
345.259	80.5
345.487	80.5
345.714	94.5
345.942	93.5
346.17	101.5
346.397	98.5
346.625	79.5
346.853	105.5
347.08	97.5
347.308	94.5
347.535	86.5
347.763	95.5
347.99	85.5
348.218	103.5
348.445	89.5
348.673	96.5
348.9	92.5
349.128	98.5
349.355	91.5
349.583	98.5
349.81	93.5
350.037	82.5
350.265	100.5
350.492	108.5
350.72	80.5
350.947	86.5
351.174	85.5
351.402	87.5
351.629	86.5
351.856	94.5
352.083	99.5
352.311	92.5
352.538	99.5
352.765	95.5
352.992	93.5
353.22	116.5
353.447	86.5
353.674	90.5
353.901	93.5
354.128	92.5
354.355	94.5
354.583	88.5
354.81	82.5
355.037	107.5
355.264	95.5
355.491	103.5
355.718	94.5
355.945	95.5
356.172	87.5
356.399	94.5
356.626	90.5
356.853	108.5
357.08	93.5
357.307	91.5
357.534	93.5
357.761	111.5
357.988	99.5
358.215	87.5
358.441	82.5
358.668	96.5
358.895	99.5
359.122	85.5
359.349	103.5
359.576	89.5
359.802	84.5
360.029	87.5
360.256	90.5
360.483	87.5
360.709	103.5
360.936	83.5
361.163	90.5
361.39	78.5
361.616	100.5
361.843	95.5
362.07	101.5
362.296	87.5
362.523	81.5
362.749	88.5
362.976	92.5
363.203	96.5
363.429	87.5
363.656	92.5
363.882	90.5
364.109	93.5
364.335	100.5
364.562	83.5
364.788	98.5
365.015	93.5
365.241	91.5
365.468	87.5
365.694	100.5
365.92	97.5
366.147	88.5
366.373	88.5
366.599	90.5
366.826	88.5
367.052	89.5
367.278	101.5
367.505	96.5
367.731	84.5
367.957	97.5
368.184	87.5
368.41	96.5
368.636	83.5
368.862	108.5
369.089	81.5
369.315	86.5
369.541	84.5
369.767	89.5
369.993	77.5
370.219	104.5
370.445	105.5
370.672	85.5
370.898	82.5
371.124	92.5
371.35	88.5
371.576	99.5
371.802	93.5
372.028	90.5
372.254	96.5
372.48	89.5
372.706	96.5
372.932	104.5
373.158	83.5
373.384	93.5
373.61	93.5
373.835	87.5
374.061	82.5
374.287	93.5
374.513	81.5
374.739	99.5
374.965	108.5
375.191	87.5
375.416	87.5
375.642	96.5
375.868	104.5
376.094	81.5
376.319	91.5
376.545	82.5
376.771	92.5
376.997	103.5
377.222	95.5
377.448	111.5
377.674	82.5
377.899	92.5
378.125	97.5
378.35	94.5
378.576	99.5
378.802	89.5
379.027	96.5
379.253	98.5
379.478	98.5
379.704	98.5
379.929	96.5
380.155	100.5
380.38	89.5
380.606	92.5
380.831	95.5
381.057	96.5
381.282	91.5
381.507	101.5
381.733	93.5
381.958	82.5
382.184	88.5
382.409	93.5
382.634	90.5
382.86	96.5
383.085	98.5
383.31	91.5
383.535	96.5
383.761	76.5
383.986	84.5
384.211	75.5
384.436	100.5
384.662	80.5
384.887	96.5
385.112	92.5
385.337	87.5
385.562	86.5
385.787	81.5
386.013	89.5
386.238	89.5
386.463	103.5
386.688	98.5
386.913	100.5
387.138	98.5
387.363	98.5
387.588	83.5
387.813	88.5
388.038	86.5
388.263	101.5
388.488	99.5
388.713	87.5
388.938	95.5
389.163	86.5
389.387	96.5
389.612	85.5
389.837	103.5
390.062	93.5
390.287	100.5
390.512	105.5
390.736	79.5
390.961	95.5
391.186	92.5
391.411	81.5
391.636	100.5
391.86	102.5
392.085	98.5
392.31	86.5
392.534	84.5
392.759	101.5
392.984	89.5
393.208	104.5
393.433	84.5
393.658	91.5
393.882	87.5
394.107	97.5
394.331	92.5
394.556	96.5
394.78	86.5
395.005	88.5
395.229	90.5
395.454	79.5
395.678	102.5
395.903	93.5
396.127	100.5
396.352	90.5
396.576	88.5
396.801	85.5
397.025	93.5
397.249	98.5
397.474	97.5
397.698	94.5
397.922	92.5
398.147	92.5
398.371	98.5
398.595	109.5
398.82	96.5
399.044	110.5
399.268	94.5
399.492	97.5
399.717	108.5
399.941	99.5
400.165	102.5
400.389	102.5
400.613	115.5
400.837	94.5
401.062	118.5
401.286	100.5
401.51	103.5
401.734	94.5
401.958	96.5
402.182	93.5
402.406	87.5
402.63	81.5
402.854	89.5
403.078	115.5
403.302	94.5
403.526	98.5
403.75	95.5
403.974	98.5
404.198	97.5
404.422	85.5
404.645	110.5
404.869	94.5
405.093	95.5
405.317	89.5
405.541	97.5
405.765	110.5
405.988	108.5
406.212	109.5
406.436	105.5
406.66	111.5
406.883	105.5
407.107	105.5
407.331	104.5
407.555	104.5
407.778	99.5
408.002	111.5
408.226	96.5
408.449	97.5
408.673	99.5
408.896	105.5
409.12	92.5
409.344	84.5
409.567	100.5
409.791	101.5
410.014	98.5
410.238	100.5
410.461	110.5
410.685	101.5
410.908	110.5
411.132	106.5
411.355	92.5
411.578	90.5
411.802	94.5
412.025	93.5
412.249	104.5
412.472	93.5
412.695	92.5
412.919	96.5
413.142	111.5
413.365	82.5
413.589	117.5
413.812	88.5
414.035	92.5
414.258	96.5
414.482	114.5
414.705	112.5
414.928	100.5
415.151	100.5
415.374	105.5
415.597	103.5
415.821	94.5
416.044	87.5
416.267	92.5
416.49	99.5
416.713	92.5
416.936	94.5
417.159	100.5
417.382	104.5
417.605	86.5
417.828	111.5
418.051	101.5
418.274	97.5
418.497	81.5
418.72	97.5
418.943	98.5
419.166	97.5
419.389	111.5
419.611	110.5
419.834	104.5
420.057	101.5
420.28	103.5
420.503	98.5
420.726	95.5
420.948	86.5
421.171	93.5
421.394	96.5
421.617	97.5
421.839	96.5
422.062	91.5
422.285	96.5
422.507	110.5
422.73	108.5
422.953	94.5
423.175	98.5
423.398	91.5
423.621	102.5
423.843	101.5
424.066	97.5
424.288	89.5
424.511	101.5
424.733	93.5
424.956	100.5
425.178	101.5
425.401	97.5
425.623	87.5
425.846	88.5
426.068	85.5
426.291	104.5
426.513	93.5
426.735	100.5
426.958	93.5
427.18	109.5
427.402	86.5
427.625	98.5
427.847	82.5
428.069	102.5
428.292	89.5
428.514	82.5
428.736	105.5
428.958	109.5
429.181	91.5
429.403	98.5
429.625	101.5
429.847	85.5
430.069	92.5
430.292	94.5
430.514	88.5
430.736	91.5
430.958	94.5
431.18	95.5
431.402	94.5
431.624	98.5
431.846	88.5
432.068	89.5
432.29	96.5
432.512	86.5
432.734	97.5
432.956	100.5
433.178	89.5
433.4	109.5
433.622	104.5
433.844	93.5
434.066	100.5
434.287	100.5
434.509	101.5
434.731	119.5
434.953	96.5
435.175	92.5
435.397	92.5
435.618	89.5
435.84	99.5
436.062	91.5
436.284	94.5
436.505	110.5
436.727	104.5
436.949	89.5
437.17	91.5
437.392	97.5
437.614	81.5
437.835	98.5
438.057	103.5
438.278	90.5
438.5	88.5
438.721	102.5
438.943	97.5
439.165	94.5
439.386	101.5
439.608	97.5
439.829	103.5
440.05	108.5
440.272	97.5
440.493	98.5
440.715	103.5
440.936	82.5
441.158	97.5
441.379	101.5
441.6	96.5
441.822	90.5
442.043	112.5
442.264	95.5
442.486	93.5
442.707	100.5
442.928	98.5
443.149	100.5
443.371	93.5
443.592	114.5
443.813	110.5
444.034	103.5
444.255	88.5
444.476	95.5
444.698	96.5
444.919	112.5
445.14	222.5
445.361	148.5
445.582	104.5
445.803	95.5
446.024	99.5
446.245	96.5
446.466	85.5
446.687	88.5
446.908	95.5
447.129	74.5
447.35	95.5
447.571	89.5
447.792	90.5
448.013	86.5
448.234	103.5
448.455	94.5
448.675	79.5
448.896	100.5
449.117	89.5
449.338	107.5
449.559	84.5
449.779	75.5
450	99.5
450.221	103.5
450.442	95.5
450.662	95.5
450.883	76.5
451.104	88.5
451.324	95.5
451.545	95.5
451.766	90.5
451.986	95.5
452.207	86.5
452.428	101.5
452.648	113.5
452.869	102.5
453.089	103.5
453.31	87.5
453.53	95.5
453.751	92.5
453.971	103.5
454.192	90.5
454.412	89.5
454.633	97.5
454.853	97.5
455.073	88.5
455.294	97.5
455.514	83.5
455.734	93.5
455.955	84.5
456.175	94.5
456.395	101.5
456.616	91.5
456.836	85.5
457.056	88.5
457.276	83.5
457.497	88.5
457.717	101.5
457.937	87.5
458.157	99.5
458.377	87.5
458.598	88.5
458.818	83.5
459.038	89.5
459.258	87.5
459.478	95.5
459.698	101.5
459.918	87.5
460.138	112.5
460.358	104.5
460.578	92.5
460.798	97.5
461.018	83.5
461.238	88.5
461.458	108.5
461.678	110.5
461.898	98.5
462.118	116.5
462.338	101.5
462.558	106.5
462.777	100.5
462.997	99.5
463.217	97.5
463.437	103.5
463.657	86.5
463.876	113.5
464.096	88.5
464.316	94.5
464.536	98.5
464.755	116.5
464.975	99.5
465.195	104.5
465.414	102.5
465.634	101.5
465.854	97.5
466.073	90.5
466.293	105.5
466.512	101.5
466.732	96.5
466.951	94.5
467.171	99.5
467.391	104.5
467.61	85.5
467.829	91.5
468.049	98.5
468.268	96.5
468.488	97.5
468.707	94.5
468.927	101.5
469.146	97.5
469.365	98.5
469.585	89.5
469.804	92.5
470.023	99.5
470.243	94.5
470.462	94.5
470.681	101.5
470.901	93.5
471.12	101.5
471.339	111.5
471.558	111.5
471.777	100.5
471.997	98.5
472.216	109.5
472.435	90.5
472.654	86.5
472.873	88.5
473.092	89.5
473.311	86.5
473.53	97.5
473.749	93.5
473.968	110.5
474.187	101.5
474.406	104.5
474.625	100.5
474.844	93.5
475.063	103.5
475.282	106.5
475.501	90.5
475.72	102.5
475.939	88.5
476.158	110.5
476.377	101.5
476.596	99.5
476.814	103.5
477.033	98.5
477.252	104.5
477.471	100.5
477.69	108.5
477.908	96.5
478.127	111.5
478.346	101.5
478.564	109.5
478.783	108.5
479.002	100.5
479.22	104.5
479.439	103.5
479.658	99.5
479.876	97.5
480.095	98.5
480.313	104.5
480.532	101.5
480.751	95.5
480.969	104.5
481.188	90.5
481.406	86.5
481.624	113.5
481.843	106.5
482.061	97.5
482.28	108.5
482.498	102.5
482.717	100.5
482.935	96.5
483.153	102.5
483.372	103.5
483.59	108.5
483.808	96.5
484.027	103.5
484.245	109.5
484.463	108.5
484.681	112.5
484.9	102.5
485.118	97.5
485.336	101.5
485.554	109.5
485.772	87.5
485.99	108.5
486.209	93.5
486.427	94.5
486.645	89.5
486.863	92.5
487.081	118.5
487.299	114.5
487.517	120.5
487.735	94.5
487.953	97.5
488.171	122.5
488.389	114.5
488.607	93.5
488.825	104.5
489.043	94.5
489.261	96.5
489.479	111.5
489.696	100.5
489.914	103.5
490.132	116.5
490.35	105.5
490.568	109.5
490.786	105.5
491.003	104.5
491.221	100.5
491.439	110.5
491.657	124.5
491.874	115.5
492.092	121.5
492.31	113.5
492.527	111.5
492.745	99.5
492.963	122.5
493.18	117.5
493.398	114.5
493.615	118.5
493.833	115.5
494.05	116.5
494.268	105.5
494.485	104.5
494.703	107.5
494.92	118.5
495.138	113.5
495.355	113.5
495.573	115.5
495.79	113.5
496.008	128.5
496.225	109.5
496.442	102.5
496.66	118.5
496.877	109.5
497.094	105.5
497.312	100.5
497.529	106.5
497.746	121.5
497.963	122.5
498.181	121.5
498.398	124.5
498.615	110.5
498.832	111.5
499.049	133.5
499.267	115.5
499.484	137.5
499.701	133.5
499.918	148.5
500.135	148.5
500.352	149.5
500.569	159.5
500.786	164.5
501.003	174.5
501.22	142.5
501.437	124.5
501.654	138.5
501.871	133.5
502.088	132.5
502.305	120.5
502.522	121.5
502.739	110.5
502.956	120.5
503.172	120.5
503.389	111.5
503.606	95.5
503.823	109.5
504.04	107.5
504.256	125.5
504.473	111.5
504.69	115.5
504.907	84.5
505.123	108.5
505.34	114.5
505.557	116.5
505.773	112.5
505.99	110.5
506.207	103.5
506.423	94.5
506.64	121.5
506.856	97.5
507.073	110.5
507.289	98.5
507.506	106.5
507.722	99.5
507.939	103.5
508.155	106.5
508.372	110.5
508.588	99.5
508.805	102.5
509.021	99.5
509.238	105.5
509.454	108.5
509.67	108.5
509.887	95.5
510.103	93.5
510.319	100.5
510.536	109.5
510.752	95.5
510.968	104.5
511.184	93.5
511.401	94.5
511.617	98.5
511.833	90.5
512.049	89.5
512.265	118.5
512.481	105.5
512.698	102.5
512.914	93.5
513.13	95.5
513.346	96.5
513.562	102.5
513.778	106.5
513.994	106.5
514.21	103.5
514.426	121.5
514.642	108.5
514.858	97.5
515.074	101.5
515.29	101.5
515.506	100.5
515.721	100.5
515.937	109.5
516.153	99.5
516.369	105.5
516.585	111.5
516.801	120.5
517.016	95.5
517.232	116.5
517.448	118.5
517.664	106.5
517.879	104.5
518.095	108.5
518.311	117.5
518.527	108.5
518.742	104.5
518.958	105.5
519.173	102.5
519.389	112.5
519.605	109.5
519.82	95.5
520.036	101.5
520.251	99.5
520.467	100.5
520.682	101.5
520.898	94.5
521.113	101.5
521.329	87.5
521.544	90.5
521.76	104.5
521.975	106.5
522.19	104.5
522.406	87.5
522.621	95.5
522.836	96.5
523.052	108.5
523.267	100.5
523.482	102.5
523.698	108.5
523.913	102.5
524.128	103.5
524.343	101.5
524.559	108.5
524.774	128.5
524.989	114.5
525.204	117.5
525.419	100.5
525.634	102.5
525.849	96.5
526.064	102.5
526.28	97.5
526.495	99.5
526.71	111.5
526.925	98.5
527.14	90.5
527.355	84.5
527.57	107.5
527.785	98.5
527.999	103.5
528.214	109.5
528.429	101.5
528.644	104.5
528.859	109.5
529.074	112.5
529.289	108.5
529.503	113.5
529.718	94.5
529.933	88.5
530.148	103.5
530.363	111.5
530.577	106.5
530.792	99.5
531.007	82.5
531.221	100.5
531.436	106.5
531.651	104.5
531.865	90.5
532.08	98.5
532.295	92.5
532.509	100.5
532.724	92.5
532.938	96.5
533.153	93.5
533.367	96.5
533.582	110.5
