Data from Location5.07152019.Energy5.Lamp.07192019.3%Agarose_HRD10591_15-36-19-387.txt Node
Date: Fri Jul 19 15:36:19 EDT 2019
User: cochatt
Spectrometer: HR+D1059
Trigger mode: 1
Integration Time (sec): 1.000000E-1
Scans to average: 1
Electric dark correction enabled: true
Nonlinearity correction enabled: false
Boxcar width: 0
XAxis mode: Wavelengths
Number of Pixels in Spectrum: 2048
>>>>>Begin Spectral Data<<<<<
223.165	-20.88
223.4	-20.88
223.635	-20.88
223.869	-20.88
224.104	-16.88
224.338	-25.88
224.573	-13.88
224.808	-16.88
225.042	-16.88
225.277	-2.88
225.511	2.12
225.746	-1.88
225.98	5.12
226.215	4.12
226.449	22.12
226.683	35.12
226.918	30.12
227.152	38.12
227.387	24.12
227.621	40.12
227.856	49.12
228.09	45.12
228.324	48.12
228.559	54.12
228.793	51.12
229.027	60.12
229.262	58.12
229.496	59.12
229.73	73.12
229.964	67.12
230.199	70.12
230.433	69.12
230.667	70.12
230.901	75.12
231.136	70.12
231.37	79.12
231.604	85.12
231.838	80.12
232.072	85.12
232.306	78.12
232.541	83.12
232.775	82.12
233.009	75.12
233.243	67.12
233.477	87.12
233.711	73.12
233.945	90.12
234.179	88.12
234.413	96.12
234.647	97.12
234.881	90.12
235.115	82.12
235.349	68.12
235.583	65.12
235.817	79.12
236.051	77.12
236.285	90.12
236.519	63.12
236.753	77.12
236.987	74.12
237.221	65.12
237.455	80.12
237.689	74.12
237.922	86.12
238.156	72.12
238.39	61.12
238.624	57.12
238.858	82.12
239.091	81.12
239.325	81.12
239.559	75.12
239.793	76.12
240.027	77.12
240.26	65.12
240.494	85.12
240.728	67.12
240.961	83.12
241.195	80.12
241.429	65.12
241.662	72.12
241.896	72.12
242.13	92.12
242.363	74.12
242.597	65.12
242.83	71.12
243.064	75.12
243.298	78.12
243.531	82.12
243.765	70.12
243.998	77.12
244.232	73.12
244.465	84.12
244.699	85.12
244.932	69.12
245.166	73.12
245.399	66.12
245.633	81.12
245.866	86.12
246.099	86.12
246.333	74.12
246.566	83.12
246.8	67.12
247.033	94.12
247.266	86.12
247.5	80.12
247.733	72.12
247.966	95.12
248.2	81.12
248.433	84.12
248.666	78.12
248.899	81.12
249.133	72.12
249.366	83.12
249.599	70.12
249.832	76.12
250.066	67.12
250.299	80.12
250.532	71.12
250.765	85.12
250.998	77.12
251.231	83.12
251.465	81.12
251.698	75.12
251.931	74.12
252.164	83.12
252.397	79.12
252.63	80.12
252.863	78.12
253.096	79.12
253.329	80.12
253.562	74.12
253.795	71.12
254.028	68.12
254.261	90.12
254.494	77.12
254.727	72.12
254.96	83.12
255.193	80.12
255.426	88.12
255.659	68.12
255.892	87.12
256.124	65.12
256.357	71.12
256.59	74.12
256.823	73.12
257.056	72.12
257.289	78.12
257.521	88.12
257.754	80.12
257.987	82.12
258.22	71.12
258.452	81.12
258.685	74.12
258.918	75.12
259.151	75.12
259.383	80.12
259.616	89.12
259.849	70.12
260.081	84.12
260.314	83.12
260.547	84.12
260.779	83.12
261.012	78.12
261.244	70.12
261.477	71.12
261.71	74.12
261.942	86.12
262.175	68.12
262.407	83.12
262.64	73.12
262.872	85.12
263.105	72.12
263.337	80.12
263.57	90.12
263.802	69.12
264.035	83.12
264.267	80.12
264.499	72.12
264.732	87.12
264.964	77.12
265.197	85.12
265.429	84.12
265.661	76.12
265.894	83.12
266.126	89.12
266.358	87.12
266.591	74.12
266.823	85.12
267.055	73.12
267.287	86.12
267.52	87.12
267.752	61.12
267.984	84.12
268.216	80.12
268.448	80.12
268.681	86.12
268.913	81.12
269.145	70.12
269.377	82.12
269.609	88.12
269.841	74.12
270.073	89.12
270.306	76.12
270.538	65.12
270.77	82.12
271.002	81.12
271.234	80.12
271.466	101.12
271.698	81.12
271.93	73.12
272.162	80.12
272.394	82.12
272.626	82.12
272.858	85.12
273.09	65.12
273.322	81.12
273.553	76.12
273.785	79.12
274.017	73.12
274.249	76.12
274.481	77.12
274.713	84.12
274.945	81.12
275.176	68.12
275.408	90.12
275.64	85.12
275.872	82.12
276.104	82.12
276.335	82.12
276.567	82.12
276.799	85.12
277.031	71.12
277.262	77.12
277.494	60.12
277.726	75.12
277.957	76.12
278.189	93.12
278.421	82.12
278.652	99.12
278.884	70.12
279.115	94.12
279.347	90.12
279.579	82.12
279.81	86.12
280.042	94.12
280.273	88.12
280.505	81.12
280.736	78.12
280.968	78.12
281.199	82.12
281.431	93.12
281.662	90.12
281.894	74.12
282.125	79.12
282.356	75.12
282.588	77.12
282.819	85.12
283.051	82.12
283.282	90.12
283.513	82.12
283.745	89.12
283.976	67.12
284.207	81.12
284.439	79.12
284.67	91.12
284.901	70.12
285.132	85.12
285.364	94.12
285.595	80.12
285.826	69.12
286.057	79.12
286.288	77.12
286.52	87.12
286.751	96.12
286.982	84.12
287.213	79.12
287.444	96.12
287.675	82.12
287.906	98.12
288.138	85.12
288.369	83.12
288.6	85.12
288.831	86.12
289.062	80.12
289.293	87.12
289.524	82.12
289.755	77.12
289.986	85.12
290.217	91.12
290.448	95.12
290.679	88.12
290.91	96.12
291.141	86.12
291.371	93.12
291.602	93.12
291.833	92.12
292.064	74.12
292.295	89.12
292.526	72.12
292.757	73.12
292.987	73.12
293.218	72.12
293.449	71.12
293.68	86.12
293.91	81.12
294.141	84.12
294.372	70.12
294.603	72.12
294.833	87.12
295.064	72.12
295.295	82.12
295.525	79.12
295.756	82.12
295.987	83.12
296.217	87.12
296.448	96.12
296.679	98.12
296.909	68.12
297.14	80.12
297.37	82.12
297.601	94.12
297.831	70.12
298.062	84.12
298.292	84.12
298.523	82.12
298.753	70.12
298.984	65.12
299.214	77.12
299.445	80.12
299.675	78.12
299.905	78.12
300.136	84.12
300.366	81.12
300.597	89.12
300.827	85.12
301.057	80.12
301.288	81.12
301.518	86.12
301.748	72.12
301.979	75.12
302.209	82.12
302.439	80.12
302.669	86.12
302.9	85.12
303.13	66.12
303.36	88.12
303.59	79.12
303.82	80.12
304.051	75.12
304.281	89.12
304.511	92.12
304.741	87.12
304.971	74.12
305.201	86.12
305.431	72.12
305.661	97.12
305.891	96.12
306.121	88.12
306.352	72.12
306.582	86.12
306.812	73.12
307.042	93.12
307.272	80.12
307.502	98.12
307.731	86.12
307.961	99.12
308.191	81.12
308.421	75.12
308.651	78.12
308.881	69.12
309.111	82.12
309.341	88.12
309.571	88.12
309.8	85.12
310.03	80.12
310.26	79.12
310.49	87.12
310.72	96.12
310.949	83.12
311.179	84.12
311.409	70.12
311.639	72.12
311.868	85.12
312.098	84.12
312.328	82.12
312.557	78.12
312.787	87.12
313.017	75.12
313.246	85.12
313.476	77.12
313.706	89.12
313.935	86.12
314.165	78.12
314.394	82.12
314.624	90.12
314.853	99.12
315.083	79.12
315.312	89.12
315.542	66.12
315.771	78.12
316.001	94.12
316.23	81.12
316.46	81.12
316.689	89.12
316.919	72.12
317.148	89.12
317.377	90.12
317.607	84.12
317.836	91.12
318.065	78.12
318.295	98.12
318.524	75.12
318.753	98.12
318.983	74.12
319.212	90.12
319.441	80.12
319.67	90.12
319.9	81.12
320.129	79.12
320.358	85.12
320.587	86.12
320.816	73.12
321.046	83.12
321.275	82.12
321.504	78.12
321.733	85.12
321.962	88.12
322.191	91.12
322.42	84.12
322.649	87.12
322.878	75.12
323.108	86.12
323.337	73.12
323.566	86.12
323.795	82.12
324.024	85.12
324.253	76.12
324.482	94.12
324.71	73.12
324.939	94.12
325.168	76.12
325.397	82.12
325.626	84.12
325.855	84.12
326.084	83.12
326.313	84.12
326.542	81.12
326.77	85.12
326.999	78.12
327.228	81.12
327.457	78.12
327.686	81.12
327.914	66.12
328.143	81.12
328.372	76.12
328.6	84.12
328.829	73.12
329.058	74.12
329.287	83.12
329.515	78.12
329.744	80.12
329.972	98.12
330.201	83.12
330.43	80.12
330.658	78.12
330.887	98.12
331.115	81.12
331.344	81.12
331.572	81.12
331.801	98.12
332.03	70.12
332.258	89.12
332.486	73.12
332.715	89.12
332.943	73.12
333.172	87.12
333.4	91.12
333.629	91.12
333.857	79.12
334.085	89.12
334.314	85.12
334.542	90.12
334.771	76.12
334.999	95.12
335.227	77.12
335.455	75.12
335.684	90.12
335.912	87.12
336.14	82.12
336.369	66.12
336.597	78.12
336.825	82.12
337.053	83.12
337.281	81.12
337.51	85.12
337.738	75.12
337.966	82.12
338.194	83.12
338.422	82.12
338.65	85.12
338.878	88.12
339.106	82.12
339.334	78.12
339.562	93.12
339.79	92.12
340.018	84.12
340.246	87.12
340.474	84.12
340.702	81.12
340.93	75.12
341.158	90.12
341.386	81.12
341.614	97.12
341.842	74.12
342.07	90.12
342.298	85.12
342.526	81.12
342.754	97.12
342.981	91.12
343.209	81.12
343.437	82.12
343.665	85.12
343.893	82.12
344.12	86.12
344.348	88.12
344.576	82.12
344.804	85.12
345.031	74.12
345.259	79.12
345.487	87.12
345.714	62.12
345.942	86.12
346.17	73.12
346.397	92.12
346.625	84.12
346.853	90.12
347.08	85.12
347.308	90.12
347.535	76.12
347.763	81.12
347.99	82.12
348.218	82.12
348.445	83.12
348.673	83.12
348.9	85.12
349.128	98.12
349.355	93.12
349.583	63.12
349.81	72.12
350.037	71.12
350.265	91.12
350.492	91.12
350.72	74.12
350.947	71.12
351.174	90.12
351.402	78.12
351.629	96.12
351.856	80.12
352.083	80.12
352.311	88.12
352.538	91.12
352.765	68.12
352.992	81.12
353.22	69.12
353.447	87.12
353.674	71.12
353.901	75.12
354.128	79.12
354.355	85.12
354.583	85.12
354.81	91.12
355.037	88.12
355.264	81.12
355.491	94.12
355.718	86.12
355.945	79.12
356.172	99.12
356.399	76.12
356.626	76.12
356.853	98.12
357.08	88.12
357.307	88.12
357.534	87.12
357.761	98.12
357.988	93.12
358.215	75.12
358.441	81.12
358.668	86.12
358.895	94.12
359.122	82.12
359.349	83.12
359.576	85.12
359.802	97.12
360.029	81.12
360.256	86.12
360.483	87.12
360.709	81.12
360.936	83.12
361.163	82.12
361.39	62.12
361.616	74.12
361.843	83.12
362.07	77.12
362.296	90.12
362.523	72.12
362.749	85.12
362.976	68.12
363.203	80.12
363.429	89.12
363.656	80.12
363.882	75.12
364.109	80.12
364.335	89.12
364.562	95.12
364.788	81.12
365.015	72.12
365.241	70.12
365.468	74.12
365.694	70.12
365.92	83.12
366.147	81.12
366.373	84.12
366.599	82.12
366.826	81.12
367.052	81.12
367.278	88.12
367.505	71.12
367.731	104.12
367.957	85.12
368.184	80.12
368.41	101.12
368.636	86.12
368.862	85.12
369.089	79.12
369.315	74.12
369.541	96.12
369.767	79.12
369.993	87.12
370.219	80.12
370.445	81.12
370.672	66.12
370.898	80.12
371.124	87.12
371.35	75.12
371.576	85.12
371.802	78.12
372.028	74.12
372.254	78.12
372.48	94.12
372.706	91.12
372.932	77.12
373.158	80.12
373.384	82.12
373.61	82.12
373.835	87.12
374.061	82.12
374.287	74.12
374.513	69.12
374.739	96.12
374.965	96.12
375.191	76.12
375.416	91.12
375.642	73.12
375.868	85.12
376.094	88.12
376.319	79.12
376.545	84.12
376.771	91.12
376.997	86.12
377.222	80.12
377.448	73.12
377.674	101.12
377.899	103.12
378.125	88.12
378.35	82.12
378.576	86.12
378.802	82.12
379.027	78.12
379.253	93.12
379.478	75.12
379.704	84.12
379.929	79.12
380.155	89.12
380.38	89.12
380.606	105.12
380.831	88.12
381.057	82.12
381.282	86.12
381.507	77.12
381.733	95.12
381.958	79.12
382.184	86.12
382.409	83.12
382.634	83.12
382.86	80.12
383.085	80.12
383.31	81.12
383.535	78.12
383.761	88.12
383.986	98.12
384.211	76.12
384.436	94.12
384.662	80.12
384.887	82.12
385.112	80.12
385.337	78.12
385.562	72.12
385.787	84.12
386.013	102.12
386.238	85.12
386.463	94.12
386.688	89.12
386.913	82.12
387.138	78.12
387.363	72.12
387.588	75.12
387.813	93.12
388.038	95.12
388.263	90.12
388.488	95.12
388.713	91.12
388.938	85.12
389.163	66.12
389.387	76.12
389.612	78.12
389.837	77.12
390.062	89.12
390.287	90.12
390.512	87.12
390.736	83.12
390.961	98.12
391.186	73.12
391.411	86.12
391.636	64.12
391.86	64.12
392.085	85.12
392.31	83.12
392.534	69.12
392.759	88.12
392.984	85.12
393.208	110.12
393.433	91.12
393.658	82.12
393.882	79.12
394.107	79.12
394.331	87.12
394.556	88.12
394.78	89.12
395.005	82.12
395.229	78.12
395.454	97.12
395.678	83.12
395.903	83.12
396.127	82.12
396.352	79.12
396.576	86.12
396.801	88.12
397.025	84.12
397.249	87.12
397.474	86.12
397.698	89.12
397.922	95.12
398.147	74.12
398.371	93.12
398.595	77.12
398.82	69.12
399.044	94.12
399.268	82.12
399.492	83.12
399.717	84.12
399.941	83.12
400.165	89.12
400.389	70.12
400.613	83.12
400.837	83.12
401.062	91.12
401.286	94.12
401.51	88.12
401.734	90.12
401.958	100.12
402.182	93.12
402.406	73.12
402.63	99.12
402.854	90.12
403.078	92.12
403.302	64.12
403.526	90.12
403.75	81.12
403.974	94.12
404.198	82.12
404.422	76.12
404.645	79.12
404.869	80.12
405.093	75.12
405.317	88.12
405.541	91.12
405.765	94.12
405.988	81.12
406.212	91.12
406.436	92.12
406.66	81.12
406.883	93.12
407.107	107.12
407.331	91.12
407.555	95.12
407.778	89.12
408.002	78.12
408.226	96.12
408.449	78.12
408.673	87.12
408.896	86.12
409.12	84.12
409.344	92.12
409.567	90.12
409.791	87.12
410.014	91.12
410.238	84.12
410.461	86.12
410.685	83.12
410.908	95.12
411.132	94.12
411.355	85.12
411.578	84.12
411.802	80.12
412.025	87.12
412.249	97.12
412.472	93.12
412.695	97.12
412.919	84.12
413.142	85.12
413.365	89.12
413.589	87.12
413.812	97.12
414.035	82.12
414.258	81.12
414.482	94.12
414.705	80.12
414.928	97.12
415.151	97.12
415.374	88.12
415.597	95.12
415.821	81.12
416.044	100.12
416.267	103.12
416.49	89.12
416.713	79.12
416.936	81.12
417.159	98.12
417.382	82.12
417.605	94.12
417.828	85.12
418.051	88.12
418.274	101.12
418.497	105.12
418.72	91.12
418.943	87.12
419.166	73.12
419.389	96.12
419.611	95.12
419.834	98.12
420.057	87.12
420.28	83.12
420.503	92.12
420.726	93.12
420.948	95.12
421.171	81.12
421.394	91.12
421.617	96.12
421.839	87.12
422.062	82.12
422.285	96.12
422.507	83.12
422.73	94.12
422.953	87.12
423.175	82.12
423.398	89.12
423.621	87.12
423.843	104.12
424.066	95.12
424.288	98.12
424.511	91.12
424.733	92.12
424.956	91.12
425.178	96.12
425.401	88.12
425.623	85.12
425.846	90.12
426.068	85.12
426.291	93.12
426.513	94.12
426.735	92.12
426.958	88.12
427.18	92.12
427.402	93.12
427.625	75.12
427.847	101.12
428.069	85.12
428.292	94.12
428.514	83.12
428.736	92.12
428.958	81.12
429.181	95.12
429.403	93.12
429.625	93.12
429.847	78.12
430.069	88.12
430.292	92.12
430.514	89.12
430.736	87.12
430.958	97.12
431.18	87.12
431.402	91.12
431.624	85.12
431.846	85.12
432.068	97.12
432.29	83.12
432.512	98.12
432.734	88.12
432.956	94.12
433.178	85.12
433.4	95.12
433.622	100.12
433.844	92.12
434.066	94.12
434.287	75.12
434.509	80.12
434.731	100.12
434.953	100.12
435.175	95.12
435.397	83.12
435.618	76.12
435.84	89.12
436.062	65.12
436.284	78.12
436.505	98.12
436.727	97.12
436.949	88.12
437.17	104.12
437.392	86.12
437.614	79.12
437.835	88.12
438.057	74.12
438.278	100.12
438.5	91.12
438.721	92.12
438.943	91.12
439.165	92.12
439.386	74.12
439.608	92.12
439.829	93.12
440.05	89.12
440.272	87.12
440.493	81.12
440.715	113.12
440.936	102.12
441.158	111.12
441.379	106.12
441.6	100.12
441.822	91.12
442.043	97.12
442.264	106.12
442.486	85.12
442.707	93.12
442.928	96.12
443.149	80.12
443.371	116.12
443.592	101.12
443.813	103.12
444.034	90.12
444.255	89.12
444.476	100.12
444.698	96.12
444.919	97.12
445.14	223.12
445.361	141.12
445.582	96.12
445.803	109.12
446.024	96.12
446.245	91.12
446.466	96.12
446.687	99.12
446.908	100.12
447.129	102.12
447.35	89.12
447.571	88.12
447.792	96.12
448.013	98.12
448.234	97.12
448.455	95.12
448.675	98.12
448.896	100.12
449.117	95.12
449.338	88.12
449.559	94.12
449.779	92.12
450	106.12
450.221	90.12
450.442	96.12
450.662	86.12
450.883	85.12
451.104	88.12
451.324	80.12
451.545	96.12
451.766	104.12
451.986	89.12
452.207	90.12
452.428	86.12
452.648	94.12
452.869	86.12
453.089	77.12
453.31	76.12
453.53	86.12
453.751	102.12
453.971	91.12
454.192	79.12
454.412	87.12
454.633	88.12
454.853	87.12
455.073	74.12
455.294	83.12
455.514	95.12
455.734	82.12
455.955	93.12
456.175	69.12
456.395	87.12
456.616	77.12
456.836	93.12
457.056	87.12
457.276	76.12
457.497	93.12
457.717	80.12
457.937	87.12
458.157	91.12
458.377	80.12
458.598	83.12
458.818	91.12
459.038	89.12
459.258	95.12
459.478	84.12
459.698	79.12
459.918	100.12
460.138	89.12
460.358	100.12
460.578	90.12
460.798	75.12
461.018	82.12
461.238	105.12
461.458	79.12
461.678	76.12
461.898	86.12
462.118	90.12
462.338	66.12
462.558	94.12
462.777	87.12
462.997	102.12
463.217	93.12
463.437	84.12
463.657	94.12
463.876	81.12
464.096	87.12
464.316	70.12
464.536	82.12
464.755	100.12
464.975	90.12
465.195	92.12
465.414	79.12
465.634	85.12
465.854	88.12
466.073	96.12
466.293	82.12
466.512	78.12
466.732	73.12
466.951	103.12
467.171	93.12
467.391	98.12
467.61	91.12
467.829	93.12
468.049	86.12
468.268	103.12
468.488	113.12
468.707	106.12
468.927	88.12
469.146	89.12
469.365	97.12
469.585	91.12
469.804	86.12
470.023	98.12
470.243	89.12
470.462	95.12
470.681	97.12
470.901	83.12
471.12	90.12
471.339	103.12
471.558	89.12
471.777	93.12
471.997	101.12
472.216	89.12
472.435	86.12
472.654	81.12
472.873	74.12
473.092	102.12
473.311	92.12
473.53	89.12
473.749	97.12
473.968	90.12
474.187	80.12
474.406	87.12
474.625	101.12
474.844	106.12
475.063	90.12
475.282	99.12
475.501	89.12
475.72	108.12
475.939	84.12
476.158	95.12
476.377	100.12
476.596	91.12
476.814	90.12
477.033	86.12
477.252	88.12
477.471	83.12
477.69	82.12
477.908	96.12
478.127	99.12
478.346	92.12
478.564	96.12
478.783	96.12
479.002	107.12
479.22	98.12
479.439	95.12
479.658	95.12
479.876	84.12
480.095	93.12
480.313	72.12
480.532	87.12
480.751	97.12
480.969	82.12
481.188	81.12
481.406	90.12
481.624	81.12
481.843	89.12
482.061	79.12
482.28	105.12
482.498	84.12
482.717	83.12
482.935	86.12
483.153	94.12
483.372	95.12
483.59	105.12
483.808	91.12
484.027	93.12
484.245	100.12
484.463	94.12
484.681	98.12
484.9	94.12
485.118	77.12
485.336	89.12
485.554	83.12
485.772	80.12
485.99	71.12
486.209	75.12
486.427	93.12
486.645	89.12
486.863	93.12
487.081	89.12
487.299	78.12
487.517	94.12
487.735	113.12
487.953	117.12
488.171	109.12
488.389	105.12
488.607	93.12
488.825	82.12
489.043	98.12
489.261	104.12
489.479	99.12
489.696	105.12
489.914	85.12
490.132	109.12
490.35	81.12
490.568	100.12
490.786	98.12
491.003	95.12
491.221	114.12
491.439	104.12
491.657	110.12
491.874	115.12
492.092	116.12
492.31	118.12
492.527	114.12
492.745	105.12
492.963	104.12
493.18	98.12
493.398	118.12
493.615	118.12
493.833	104.12
494.05	119.12
494.268	115.12
494.485	109.12
494.703	102.12
494.92	96.12
495.138	92.12
495.355	110.12
495.573	84.12
495.79	101.12
496.008	102.12
496.225	102.12
496.442	108.12
496.66	113.12
496.877	87.12
497.094	105.12
497.312	93.12
497.529	107.12
497.746	111.12
497.963	89.12
498.181	95.12
498.398	94.12
498.615	91.12
498.832	97.12
499.049	94.12
499.267	97.12
499.484	97.12
499.701	101.12
499.918	103.12
500.135	88.12
500.352	95.12
500.569	99.12
500.786	115.12
501.003	79.12
501.22	101.12
501.437	89.12
501.654	76.12
501.871	94.12
502.088	101.12
502.305	88.12
502.522	86.12
502.739	95.12
502.956	89.12
503.172	89.12
503.389	79.12
503.606	95.12
503.823	110.12
504.04	91.12
504.256	92.12
504.473	102.12
504.69	98.12
504.907	90.12
505.123	86.12
505.34	75.12
505.557	104.12
505.773	88.12
505.99	98.12
506.207	103.12
506.423	90.12
506.64	85.12
506.856	79.12
507.073	93.12
507.289	89.12
507.506	96.12
507.722	86.12
507.939	76.12
508.155	93.12
508.372	107.12
508.588	97.12
508.805	95.12
509.021	89.12
509.238	94.12
509.454	96.12
509.67	81.12
509.887	83.12
510.103	82.12
510.319	89.12
510.536	76.12
510.752	97.12
510.968	75.12
511.184	86.12
511.401	78.12
511.617	75.12
511.833	85.12
512.049	95.12
512.265	81.12
512.481	82.12
512.698	83.12
512.914	87.12
513.13	82.12
513.346	78.12
513.562	74.12
513.778	72.12
513.994	81.12
514.21	88.12
514.426	81.12
514.642	89.12
514.858	91.12
515.074	78.12
515.29	66.12
515.506	88.12
515.721	72.12
515.937	89.12
516.153	86.12
516.369	86.12
516.585	76.12
516.801	85.12
517.016	84.12
517.232	85.12
517.448	90.12
517.664	78.12
517.879	91.12
518.095	80.12
