Data from Location5.07152019.Energy5.Lamp.07192019.3%Agarose_HRD10591_16-02-48-628.txt Node
Date: Fri Jul 19 16:02:48 EDT 2019
User: cochatt
Spectrometer: HR+D1059
Trigger mode: 1
Integration Time (sec): 1.000000E-1
Scans to average: 1
Electric dark correction enabled: true
Nonlinearity correction enabled: false
Boxcar width: 0
XAxis mode: Wavelengths
Number of Pixels in Spectrum: 2048
>>>>>Begin Spectral Data<<<<<
223.165	-10.25
223.4	-10.25
223.635	-10.25
223.869	-18.25
224.104	-17.25
224.338	-2.25
224.573	-8.25
224.808	-7.25
225.042	-20.25
225.277	-11.25
225.511	-11.25
225.746	13.75
225.98	0.75
226.215	1.75
226.449	2.75
226.683	16.75
226.918	34.75
227.152	35.75
227.387	33.75
227.621	29.75
227.856	41.75
228.09	53.75
228.324	45.75
228.559	62.75
228.793	62.75
229.027	68.75
229.262	85.75
229.496	53.75
229.73	71.75
229.964	85.75
230.199	82.75
230.433	72.75
230.667	72.75
230.901	87.75
231.136	81.75
231.37	76.75
231.604	70.75
231.838	80.75
232.072	84.75
232.306	82.75
232.541	92.75
232.775	87.75
233.009	83.75
233.243	83.75
233.477	100.75
233.711	88.75
233.945	83.75
234.179	96.75
234.413	70.75
234.647	90.75
234.881	87.75
235.115	77.75
235.349	69.75
235.583	91.75
235.817	86.75
236.051	82.75
236.285	78.75
236.519	90.75
236.753	84.75
236.987	91.75
237.221	80.75
237.455	82.75
237.689	86.75
237.922	82.75
238.156	69.75
238.39	80.75
238.624	79.75
238.858	85.75
239.091	81.75
239.325	83.75
239.559	75.75
239.793	65.75
240.027	88.75
240.26	73.75
240.494	85.75
240.728	84.75
240.961	83.75
241.195	81.75
241.429	77.75
241.662	85.75
241.896	70.75
242.13	95.75
242.363	83.75
242.597	75.75
242.83	65.75
243.064	77.75
243.298	86.75
243.531	89.75
243.765	85.75
243.998	73.75
244.232	83.75
244.465	85.75
244.699	82.75
244.932	102.75
245.166	84.75
245.399	86.75
245.633	80.75
245.866	91.75
246.099	89.75
246.333	83.75
246.566	81.75
246.8	75.75
247.033	84.75
247.266	79.75
247.5	86.75
247.733	76.75
247.966	78.75
248.2	84.75
248.433	76.75
248.666	72.75
248.899	82.75
249.133	78.75
249.366	79.75
249.599	82.75
249.832	79.75
250.066	101.75
250.299	85.75
250.532	84.75
250.765	86.75
250.998	74.75
251.231	80.75
251.465	83.75
251.698	85.75
251.931	90.75
252.164	99.75
252.397	86.75
252.63	65.75
252.863	85.75
253.096	79.75
253.329	77.75
253.562	88.75
253.795	78.75
254.028	81.75
254.261	84.75
254.494	92.75
254.727	96.75
254.96	93.75
255.193	78.75
255.426	73.75
255.659	91.75
255.892	71.75
256.124	75.75
256.357	80.75
256.59	73.75
256.823	100.75
257.056	88.75
257.289	78.75
257.521	87.75
257.754	87.75
257.987	90.75
258.22	92.75
258.452	76.75
258.685	89.75
258.918	78.75
259.151	81.75
259.383	93.75
259.616	79.75
259.849	80.75
260.081	93.75
260.314	81.75
260.547	86.75
260.779	93.75
261.012	92.75
261.244	80.75
261.477	91.75
261.71	82.75
261.942	82.75
262.175	92.75
262.407	103.75
262.64	71.75
262.872	87.75
263.105	74.75
263.337	78.75
263.57	88.75
263.802	90.75
264.035	79.75
264.267	93.75
264.499	95.75
264.732	90.75
264.964	83.75
265.197	82.75
265.429	89.75
265.661	83.75
265.894	96.75
266.126	83.75
266.358	96.75
266.591	86.75
266.823	93.75
267.055	69.75
267.287	105.75
267.52	97.75
267.752	76.75
267.984	70.75
268.216	98.75
268.448	88.75
268.681	79.75
268.913	103.75
269.145	84.75
269.377	90.75
269.609	89.75
269.841	91.75
270.073	96.75
270.306	90.75
270.538	86.75
270.77	85.75
271.002	86.75
271.234	109.75
271.466	103.75
271.698	82.75
271.93	80.75
272.162	93.75
272.394	84.75
272.626	96.75
272.858	97.75
273.09	88.75
273.322	92.75
273.553	89.75
273.785	93.75
274.017	96.75
274.249	96.75
274.481	93.75
274.713	98.75
274.945	94.75
275.176	86.75
275.408	92.75
275.64	93.75
275.872	81.75
276.104	89.75
276.335	84.75
276.567	90.75
276.799	85.75
277.031	81.75
277.262	93.75
277.494	86.75
277.726	98.75
277.957	99.75
278.189	91.75
278.421	104.75
278.652	98.75
278.884	102.75
279.115	90.75
279.347	92.75
279.579	77.75
279.81	102.75
280.042	89.75
280.273	91.75
280.505	97.75
280.736	86.75
280.968	89.75
281.199	88.75
281.431	108.75
281.662	86.75
281.894	97.75
282.125	88.75
282.356	95.75
282.588	86.75
282.819	89.75
283.051	103.75
283.282	91.75
283.513	99.75
283.745	92.75
283.976	88.75
284.207	96.75
284.439	101.75
284.67	98.75
284.901	86.75
285.132	84.75
285.364	89.75
285.595	84.75
285.826	104.75
286.057	91.75
286.288	91.75
286.52	77.75
286.751	98.75
286.982	86.75
287.213	96.75
287.444	102.75
287.675	86.75
287.906	92.75
288.138	91.75
288.369	85.75
288.6	86.75
288.831	81.75
289.062	89.75
289.293	90.75
289.524	109.75
289.755	99.75
289.986	87.75
290.217	86.75
290.448	89.75
290.679	84.75
290.91	90.75
291.141	104.75
291.371	86.75
291.602	108.75
291.833	95.75
292.064	104.75
292.295	104.75
292.526	93.75
292.757	98.75
292.987	104.75
293.218	98.75
293.449	111.75
293.68	116.75
293.91	89.75
294.141	96.75
294.372	93.75
294.603	82.75
294.833	96.75
295.064	92.75
295.295	82.75
295.525	98.75
295.756	113.75
295.987	90.75
296.217	92.75
296.448	98.75
296.679	108.75
296.909	103.75
297.14	87.75
297.37	96.75
297.601	102.75
297.831	82.75
298.062	92.75
298.292	88.75
298.523	88.75
298.753	69.75
298.984	97.75
299.214	92.75
299.445	88.75
299.675	84.75
299.905	84.75
300.136	85.75
300.366	79.75
300.597	93.75
300.827	89.75
301.057	94.75
301.288	85.75
301.518	102.75
301.748	103.75
301.979	90.75
302.209	81.75
302.439	83.75
302.669	104.75
302.9	107.75
303.13	98.75
303.36	97.75
303.59	84.75
303.82	98.75
304.051	102.75
304.281	96.75
304.511	97.75
304.741	85.75
304.971	102.75
305.201	109.75
305.431	96.75
305.661	97.75
305.891	85.75
306.121	87.75
306.352	75.75
306.582	80.75
306.812	100.75
307.042	95.75
307.272	81.75
307.502	96.75
307.731	103.75
307.961	85.75
308.191	110.75
308.421	99.75
308.651	91.75
308.881	97.75
309.111	98.75
309.341	99.75
309.571	96.75
309.8	87.75
310.03	90.75
310.26	88.75
310.49	85.75
310.72	97.75
310.949	85.75
311.179	108.75
311.409	91.75
311.639	90.75
311.868	94.75
312.098	78.75
312.328	101.75
312.557	103.75
312.787	98.75
313.017	89.75
313.246	96.75
313.476	97.75
313.706	97.75
313.935	86.75
314.165	93.75
314.394	101.75
314.624	103.75
314.853	95.75
315.083	102.75
315.312	84.75
315.542	84.75
315.771	86.75
316.001	88.75
316.23	106.75
316.46	91.75
316.689	87.75
316.919	91.75
317.148	88.75
317.377	98.75
317.607	103.75
317.836	85.75
318.065	78.75
318.295	87.75
318.524	97.75
318.753	98.75
318.983	79.75
319.212	114.75
319.441	96.75
319.67	101.75
319.9	99.75
320.129	98.75
320.358	90.75
320.587	84.75
320.816	94.75
321.046	94.75
321.275	116.75
321.504	97.75
321.733	97.75
321.962	108.75
322.191	90.75
322.42	95.75
322.649	105.75
322.878	83.75
323.108	103.75
323.337	94.75
323.566	98.75
323.795	101.75
324.024	106.75
324.253	92.75
324.482	105.75
324.71	91.75
324.939	82.75
325.168	102.75
325.397	96.75
325.626	101.75
325.855	97.75
326.084	102.75
326.313	94.75
326.542	100.75
326.77	106.75
326.999	89.75
327.228	98.75
327.457	100.75
327.686	98.75
327.914	100.75
328.143	99.75
328.372	78.75
328.6	88.75
328.829	109.75
329.058	96.75
329.287	91.75
329.515	92.75
329.744	108.75
329.972	95.75
330.201	106.75
330.43	102.75
330.658	96.75
330.887	97.75
331.115	98.75
331.344	86.75
331.572	85.75
331.801	92.75
332.03	91.75
332.258	93.75
332.486	99.75
332.715	90.75
332.943	103.75
333.172	99.75
333.4	90.75
333.629	85.75
333.857	104.75
334.085	97.75
334.314	107.75
334.542	82.75
334.771	97.75
334.999	97.75
335.227	86.75
335.455	96.75
335.684	101.75
335.912	92.75
336.14	98.75
336.369	98.75
336.597	104.75
336.825	85.75
337.053	102.75
337.281	105.75
337.51	109.75
337.738	97.75
337.966	92.75
338.194	101.75
338.422	90.75
338.65	102.75
338.878	101.75
339.106	102.75
339.334	99.75
339.562	105.75
339.79	101.75
340.018	102.75
340.246	98.75
340.474	98.75
340.702	100.75
340.93	97.75
341.158	91.75
341.386	105.75
341.614	104.75
341.842	87.75
342.07	87.75
342.298	96.75
342.526	94.75
342.754	106.75
342.981	97.75
343.209	109.75
343.437	100.75
343.665	97.75
343.893	114.75
344.12	84.75
344.348	109.75
344.576	96.75
344.804	99.75
345.031	82.75
345.259	92.75
345.487	97.75
345.714	100.75
345.942	94.75
346.17	100.75
346.397	101.75
346.625	102.75
346.853	98.75
347.08	84.75
347.308	84.75
347.535	86.75
347.763	109.75
347.99	109.75
348.218	96.75
348.445	91.75
348.673	99.75
348.9	91.75
349.128	91.75
349.355	82.75
349.583	101.75
349.81	99.75
350.037	109.75
350.265	82.75
350.492	82.75
350.72	95.75
350.947	92.75
351.174	85.75
351.402	92.75
351.629	91.75
351.856	102.75
352.083	94.75
352.311	100.75
352.538	97.75
352.765	99.75
352.992	92.75
353.22	103.75
353.447	94.75
353.674	86.75
353.901	90.75
354.128	90.75
354.355	103.75
354.583	92.75
354.81	95.75
355.037	110.75
355.264	96.75
355.491	92.75
355.718	96.75
355.945	97.75
356.172	94.75
356.399	97.75
356.626	97.75
356.853	90.75
357.08	91.75
357.307	98.75
357.534	78.75
357.761	102.75
357.988	97.75
358.215	93.75
358.441	99.75
358.668	89.75
358.895	100.75
359.122	106.75
359.349	108.75
359.576	96.75
359.802	97.75
360.029	74.75
360.256	98.75
360.483	92.75
360.709	96.75
360.936	102.75
361.163	86.75
361.39	97.75
361.616	89.75
361.843	95.75
362.07	97.75
362.296	99.75
362.523	89.75
362.749	83.75
362.976	83.75
363.203	103.75
363.429	95.75
363.656	98.75
363.882	98.75
364.109	93.75
364.335	104.75
364.562	102.75
364.788	94.75
365.015	98.75
365.241	99.75
365.468	100.75
365.694	96.75
365.92	98.75
366.147	92.75
366.373	99.75
366.599	92.75
366.826	97.75
367.052	82.75
367.278	100.75
367.505	99.75
367.731	100.75
367.957	101.75
368.184	98.75
368.41	96.75
368.636	89.75
368.862	101.75
369.089	103.75
369.315	93.75
369.541	97.75
369.767	84.75
369.993	93.75
370.219	97.75
370.445	89.75
370.672	103.75
370.898	101.75
371.124	97.75
371.35	95.75
371.576	108.75
371.802	92.75
372.028	101.75
372.254	98.75
372.48	105.75
372.706	85.75
372.932	82.75
373.158	106.75
373.384	100.75
373.61	103.75
373.835	96.75
374.061	91.75
374.287	83.75
374.513	88.75
374.739	100.75
374.965	98.75
375.191	89.75
375.416	107.75
375.642	88.75
375.868	104.75
376.094	73.75
376.319	102.75
376.545	98.75
376.771	89.75
376.997	84.75
377.222	89.75
377.448	99.75
377.674	97.75
377.899	107.75
378.125	92.75
378.35	85.75
378.576	86.75
378.802	102.75
379.027	99.75
379.253	99.75
379.478	89.75
379.704	84.75
379.929	82.75
380.155	85.75
380.38	96.75
380.606	94.75
380.831	86.75
381.057	86.75
381.282	92.75
381.507	103.75
381.733	91.75
381.958	88.75
382.184	84.75
382.409	93.75
382.634	93.75
382.86	84.75
383.085	106.75
383.31	92.75
383.535	95.75
383.761	119.75
383.986	100.75
384.211	88.75
384.436	110.75
384.662	96.75
384.887	96.75
385.112	87.75
385.337	85.75
385.562	105.75
385.787	88.75
386.013	104.75
386.238	110.75
386.463	99.75
386.688	93.75
386.913	93.75
387.138	104.75
387.363	83.75
387.588	97.75
387.813	93.75
388.038	93.75
388.263	101.75
388.488	88.75
388.713	89.75
388.938	99.75
389.163	82.75
389.387	98.75
389.612	93.75
389.837	94.75
390.062	102.75
390.287	105.75
390.512	88.75
390.736	95.75
390.961	93.75
391.186	98.75
391.411	93.75
391.636	98.75
391.86	109.75
392.085	94.75
392.31	99.75
392.534	112.75
392.759	87.75
392.984	101.75
393.208	99.75
393.433	88.75
393.658	100.75
393.882	109.75
394.107	97.75
394.331	92.75
394.556	92.75
394.78	92.75
395.005	97.75
395.229	102.75
395.454	97.75
395.678	107.75
395.903	96.75
396.127	110.75
396.352	94.75
396.576	100.75
396.801	94.75
397.025	86.75
397.249	85.75
397.474	88.75
397.698	93.75
397.922	93.75
398.147	83.75
398.371	97.75
398.595	99.75
398.82	90.75
399.044	108.75
399.268	104.75
399.492	113.75
399.717	124.75
399.941	101.75
400.165	105.75
400.389	94.75
400.613	97.75
400.837	113.75
401.062	102.75
401.286	101.75
401.51	95.75
401.734	98.75
401.958	119.75
402.182	102.75
402.406	102.75
402.63	97.75
402.854	108.75
403.078	98.75
403.302	103.75
403.526	102.75
403.75	126.75
403.974	106.75
404.198	99.75
404.422	114.75
404.645	105.75
404.869	97.75
405.093	100.75
405.317	113.75
405.541	118.75
405.765	115.75
405.988	116.75
406.212	94.75
406.436	96.75
406.66	106.75
406.883	126.75
407.107	85.75
407.331	101.75
407.555	101.75
407.778	123.75
408.002	109.75
408.226	118.75
408.449	99.75
408.673	103.75
408.896	97.75
409.12	94.75
409.344	85.75
409.567	96.75
409.791	112.75
410.014	118.75
410.238	82.75
410.461	100.75
410.685	101.75
410.908	92.75
411.132	91.75
411.355	92.75
411.578	100.75
411.802	112.75
412.025	105.75
412.249	97.75
412.472	97.75
412.695	105.75
412.919	99.75
413.142	105.75
413.365	103.75
413.589	96.75
413.812	96.75
414.035	105.75
414.258	110.75
414.482	115.75
414.705	113.75
414.928	109.75
415.151	107.75
415.374	109.75
415.597	105.75
415.821	117.75
416.044	95.75
416.267	95.75
416.49	96.75
416.713	96.75
416.936	91.75
417.159	105.75
417.382	93.75
417.605	96.75
417.828	93.75
418.051	109.75
418.274	72.75
418.497	108.75
418.72	96.75
418.943	97.75
419.166	97.75
419.389	106.75
419.611	100.75
419.834	98.75
420.057	104.75
420.28	94.75
420.503	99.75
420.726	98.75
420.948	97.75
421.171	101.75
421.394	113.75
421.617	109.75
421.839	96.75
422.062	106.75
422.285	102.75
422.507	124.75
422.73	98.75
422.953	109.75
423.175	98.75
423.398	109.75
423.621	101.75
423.843	99.75
424.066	94.75
424.288	99.75
424.511	109.75
424.733	97.75
424.956	95.75
425.178	109.75
425.401	103.75
425.623	103.75
425.846	101.75
426.068	92.75
426.291	89.75
426.513	96.75
426.735	91.75
426.958	104.75
427.18	83.75
427.402	87.75
427.625	106.75
427.847	89.75
428.069	88.75
428.292	106.75
428.514	105.75
428.736	103.75
428.958	96.75
429.181	85.75
429.403	95.75
429.625	88.75
429.847	102.75
430.069	108.75
430.292	98.75
430.514	110.75
430.736	101.75
430.958	81.75
431.18	94.75
431.402	98.75
431.624	105.75
431.846	100.75
432.068	105.75
432.29	91.75
432.512	99.75
432.734	97.75
432.956	95.75
433.178	101.75
433.4	100.75
433.622	101.75
433.844	104.75
434.066	101.75
434.287	77.75
434.509	100.75
434.731	102.75
434.953	100.75
435.175	113.75
435.397	111.75
435.618	113.75
435.84	108.75
436.062	95.75
436.284	113.75
436.505	105.75
436.727	101.75
436.949	102.75
437.17	91.75
437.392	82.75
437.614	100.75
437.835	96.75
438.057	98.75
438.278	85.75
438.5	95.75
438.721	102.75
438.943	113.75
439.165	107.75
439.386	107.75
439.608	98.75
439.829	97.75
440.05	101.75
440.272	113.75
440.493	98.75
440.715	97.75
440.936	108.75
441.158	106.75
441.379	89.75
441.6	100.75
441.822	111.75
442.043	112.75
442.264	105.75
442.486	105.75
442.707	85.75
442.928	106.75
443.149	104.75
443.371	101.75
443.592	101.75
443.813	93.75
444.034	103.75
444.255	104.75
444.476	110.75
444.698	101.75
444.919	104.75
445.14	234.75
445.361	168.75
445.582	104.75
445.803	79.75
446.024	99.75
446.245	84.75
446.466	98.75
446.687	89.75
446.908	94.75
447.129	103.75
447.35	108.75
447.571	91.75
447.792	92.75
448.013	109.75
448.234	87.75
448.455	85.75
448.675	98.75
448.896	94.75
449.117	92.75
449.338	98.75
449.559	104.75
449.779	89.75
450	85.75
450.221	89.75
450.442	102.75
450.662	99.75
450.883	104.75
451.104	87.75
451.324	101.75
451.545	109.75
451.766	85.75
451.986	91.75
452.207	94.75
452.428	99.75
452.648	104.75
452.869	90.75
453.089	100.75
453.31	106.75
453.53	98.75
453.751	90.75
453.971	84.75
454.192	99.75
454.412	103.75
454.633	99.75
454.853	102.75
455.073	98.75
455.294	89.75
455.514	86.75
455.734	84.75
455.955	102.75
456.175	103.75
456.395	82.75
456.616	92.75
456.836	92.75
457.056	90.75
457.276	97.75
457.497	100.75
457.717	85.75
457.937	108.75
458.157	97.75
458.377	107.75
458.598	80.75
458.818	105.75
459.038	102.75
459.258	102.75
459.478	98.75
459.698	100.75
459.918	91.75
460.138	102.75
460.358	110.75
460.578	100.75
460.798	118.75
461.018	96.75
461.238	106.75
461.458	100.75
461.678	100.75
461.898	102.75
462.118	89.75
462.338	98.75
462.558	120.75
462.777	103.75
462.997	125.75
463.217	116.75
463.437	100.75
463.657	103.75
463.876	106.75
464.096	114.75
464.316	120.75
464.536	93.75
464.755	105.75
464.975	106.75
465.195	101.75
465.414	109.75
465.634	92.75
465.854	103.75
466.073	98.75
466.293	96.75
466.512	94.75
466.732	92.75
466.951	89.75
467.171	115.75
467.391	100.75
467.61	103.75
467.829	106.75
468.049	109.75
468.268	113.75
468.488	90.75
468.707	102.75
468.927	99.75
469.146	95.75
469.365	96.75
469.585	102.75
469.804	117.75
470.023	113.75
470.243	104.75
470.462	112.75
470.681	102.75
470.901	105.75
471.12	104.75
471.339	107.75
471.558	93.75
471.777	100.75
471.997	109.75
472.216	99.75
472.435	111.75
472.654	101.75
472.873	104.75
473.092	89.75
473.311	107.75
473.53	105.75
473.749	103.75
473.968	97.75
474.187	94.75
474.406	108.75
474.625	113.75
474.844	103.75
475.063	116.75
475.282	111.75
475.501	91.75
475.72	114.75
475.939	102.75
476.158	96.75
476.377	99.75
476.596	107.75
476.814	102.75
477.033	102.75
477.252	104.75
477.471	98.75
477.69	102.75
477.908	90.75
478.127	109.75
478.346	111.75
478.564	97.75
478.783	108.75
479.002	109.75
479.22	94.75
479.439	122.75
479.658	102.75
479.876	113.75
480.095	120.75
480.313	97.75
480.532	104.75
480.751	107.75
480.969	108.75
481.188	103.75
481.406	108.75
481.624	110.75
481.843	96.75
482.061	116.75
482.28	111.75
482.498	113.75
482.717	103.75
482.935	96.75
483.153	117.75
483.372	106.75
483.59	102.75
483.808	93.75
484.027	104.75
484.245	102.75
484.463	116.75
484.681	104.75
484.9	109.75
485.118	100.75
485.336	99.75
485.554	105.75
485.772	91.75
485.99	113.75
486.209	113.75
486.427	109.75
486.645	112.75
486.863	110.75
487.081	103.75
487.299	124.75
487.517	122.75
487.735	126.75
487.953	101.75
488.171	120.75
488.389	122.75
488.607	113.75
488.825	113.75
489.043	99.75
489.261	105.75
489.479	102.75
489.696	106.75
489.914	109.75
490.132	111.75
490.35	116.75
490.568	108.75
490.786	120.75
491.003	107.75
491.221	110.75
491.439	106.75
491.657	115.75
491.874	120.75
492.092	127.75
492.31	122.75
492.527	128.75
492.745	133.75
492.963	124.75
493.18	117.75
493.398	130.75
493.615	121.75
493.833	119.75
494.05	104.75
494.268	115.75
494.485	116.75
494.703	104.75
494.92	112.75
495.138	130.75
495.355	109.75
495.573	112.75
495.79	109.75
496.008	126.75
496.225	124.75
496.442	124.75
496.66	117.75
496.877	117.75
497.094	117.75
497.312	129.75
497.529	112.75
497.746	123.75
497.963	112.75
498.181	121.75
498.398	112.75
498.615	121.75
498.832	128.75
499.049	126.75
499.267	138.75
499.484	142.75
499.701	135.75
499.918	142.75
500.135	149.75
500.352	140.75
500.569	164.75
500.786	176.75
501.003	172.75
501.22	156.75
501.437	142.75
501.654	136.75
501.871	139.75
502.088	137.75
502.305	118.75
502.522	116.75
502.739	110.75
502.956	123.75
503.172	124.75
503.389	108.75
503.606	119.75
503.823	115.75
504.04	117.75
504.256	123.75
504.473	129.75
504.69	108.75
504.907	123.75
505.123	119.75
505.34	85.75
505.557	122.75
505.773	107.75
505.99	128.75
506.207	122.75
506.423	107.75
506.64	108.75
506.856	98.75
507.073	91.75
507.289	103.75
507.506	106.75
507.722	101.75
507.939	109.75
508.155	111.75
508.372	100.75
508.588	113.75
508.805	128.75
509.021	112.75
509.238	108.75
509.454	110.75
509.67	106.75
509.887	114.75
510.103	106.75
510.319	101.75
510.536	104.75
510.752	100.75
510.968	94.75
511.184	101.75
511.401	104.75
511.617	101.75
511.833	98.75
512.049	97.75
512.265	98.75
