Data from Location5.07152019.Energy5.Lamp.07192019.3%Agarose_HRD10591_15-38-03-388.txt Node
Date: Fri Jul 19 15:38:03 EDT 2019
User: cochatt
Spectrometer: HR+D1059
Trigger mode: 1
Integration Time (sec): 1.000000E-1
Scans to average: 1
Electric dark correction enabled: true
Nonlinearity correction enabled: false
Boxcar width: 0
XAxis mode: Wavelengths
Number of Pixels in Spectrum: 2048
>>>>>Begin Spectral Data<<<<<
223.165	-22.31
223.4	-22.31
223.635	-22.31
223.869	-10.31
224.104	-10.31
224.338	-8.31
224.573	-20.31
224.808	0.69
225.042	-9.31
225.277	-10.31
225.511	-14.31
225.746	4.69
225.98	5.69
226.215	14.69
226.449	21.69
226.683	8.69
226.918	22.69
227.152	26.69
227.387	37.69
227.621	29.69
227.856	37.69
228.09	39.69
228.324	38.69
228.559	47.69
228.793	45.69
229.027	61.69
229.262	57.69
229.496	67.69
229.73	73.69
229.964	64.69
230.199	68.69
230.433	65.69
230.667	62.69
230.901	67.69
231.136	75.69
231.37	73.69
231.604	85.69
231.838	80.69
232.072	89.69
232.306	76.69
232.541	68.69
232.775	78.69
233.009	74.69
233.243	89.69
233.477	69.69
233.711	79.69
233.945	77.69
234.179	76.69
234.413	83.69
234.647	72.69
234.881	91.69
235.115	81.69
235.349	84.69
235.583	74.69
235.817	77.69
236.051	70.69
236.285	74.69
236.519	80.69
236.753	74.69
236.987	77.69
237.221	88.69
237.455	80.69
237.689	79.69
237.922	89.69
238.156	68.69
238.39	72.69
238.624	83.69
238.858	72.69
239.091	67.69
239.325	71.69
239.559	75.69
239.793	63.69
240.027	70.69
240.26	74.69
240.494	72.69
240.728	85.69
240.961	69.69
241.195	70.69
241.429	70.69
241.662	72.69
241.896	73.69
242.13	72.69
242.363	63.69
242.597	65.69
242.83	66.69
243.064	78.69
243.298	68.69
243.531	65.69
243.765	69.69
243.998	75.69
244.232	69.69
244.465	88.69
244.699	79.69
244.932	63.69
245.166	74.69
245.399	84.69
245.633	75.69
245.866	72.69
246.099	78.69
246.333	69.69
246.566	81.69
246.8	73.69
247.033	87.69
247.266	72.69
247.5	71.69
247.733	84.69
247.966	80.69
248.2	68.69
248.433	68.69
248.666	71.69
248.899	82.69
249.133	60.69
249.366	78.69
249.599	72.69
249.832	72.69
250.066	72.69
250.299	74.69
250.532	85.69
250.765	85.69
250.998	79.69
251.231	92.69
251.465	74.69
251.698	85.69
251.931	79.69
252.164	80.69
252.397	89.69
252.63	63.69
252.863	81.69
253.096	71.69
253.329	88.69
253.562	70.69
253.795	81.69
254.028	83.69
254.261	73.69
254.494	86.69
254.727	77.69
254.96	79.69
255.193	79.69
255.426	67.69
255.659	90.69
255.892	100.69
256.124	65.69
256.357	80.69
256.59	81.69
256.823	87.69
257.056	74.69
257.289	84.69
257.521	86.69
257.754	84.69
257.987	76.69
258.22	78.69
258.452	80.69
258.685	68.69
258.918	85.69
259.151	64.69
259.383	73.69
259.616	71.69
259.849	90.69
260.081	78.69
260.314	95.69
260.547	76.69
260.779	82.69
261.012	71.69
261.244	70.69
261.477	79.69
261.71	80.69
261.942	65.69
262.175	70.69
262.407	83.69
262.64	77.69
262.872	81.69
263.105	81.69
263.337	90.69
263.57	80.69
263.802	70.69
264.035	64.69
264.267	78.69
264.499	87.69
264.732	78.69
264.964	67.69
265.197	93.69
265.429	69.69
265.661	89.69
265.894	80.69
266.126	91.69
266.358	81.69
266.591	65.69
266.823	84.69
267.055	79.69
267.287	78.69
267.52	85.69
267.752	74.69
267.984	80.69
268.216	89.69
268.448	92.69
268.681	79.69
268.913	82.69
269.145	81.69
269.377	85.69
269.609	86.69
269.841	74.69
270.073	75.69
270.306	73.69
270.538	82.69
270.77	75.69
271.002	65.69
271.234	90.69
271.466	87.69
271.698	84.69
271.93	86.69
272.162	103.69
272.394	84.69
272.626	88.69
272.858	69.69
273.09	92.69
273.322	67.69
273.553	83.69
273.785	78.69
274.017	83.69
274.249	70.69
274.481	79.69
274.713	89.69
274.945	78.69
275.176	70.69
275.408	82.69
275.64	74.69
275.872	76.69
276.104	78.69
276.335	89.69
276.567	67.69
276.799	71.69
277.031	77.69
277.262	80.69
277.494	88.69
277.726	86.69
277.957	73.69
278.189	83.69
278.421	80.69
278.652	92.69
278.884	77.69
279.115	76.69
279.347	72.69
279.579	89.69
279.81	80.69
280.042	79.69
280.273	81.69
280.505	79.69
280.736	66.69
280.968	67.69
281.199	87.69
281.431	80.69
281.662	81.69
281.894	79.69
282.125	73.69
282.356	78.69
282.588	73.69
282.819	85.69
283.051	78.69
283.282	77.69
283.513	79.69
283.745	87.69
283.976	76.69
284.207	81.69
284.439	86.69
284.67	69.69
284.901	69.69
285.132	70.69
285.364	81.69
285.595	88.69
285.826	73.69
286.057	81.69
286.288	89.69
286.52	90.69
286.751	86.69
286.982	86.69
287.213	65.69
287.444	66.69
287.675	89.69
287.906	78.69
288.138	82.69
288.369	71.69
288.6	74.69
288.831	93.69
289.062	83.69
289.293	78.69
289.524	75.69
289.755	67.69
289.986	82.69
290.217	81.69
290.448	83.69
290.679	60.69
290.91	85.69
291.141	80.69
291.371	83.69
291.602	68.69
291.833	80.69
292.064	88.69
292.295	97.69
292.526	74.69
292.757	90.69
292.987	78.69
293.218	81.69
293.449	83.69
293.68	85.69
293.91	87.69
294.141	85.69
294.372	84.69
294.603	86.69
294.833	88.69
295.064	81.69
295.295	84.69
295.525	67.69
295.756	70.69
295.987	81.69
296.217	83.69
296.448	83.69
296.679	72.69
296.909	81.69
297.14	73.69
297.37	80.69
297.601	81.69
297.831	74.69
298.062	89.69
298.292	97.69
298.523	81.69
298.753	82.69
298.984	98.69
299.214	67.69
299.445	85.69
299.675	86.69
299.905	91.69
300.136	72.69
300.366	82.69
300.597	76.69
300.827	67.69
301.057	80.69
301.288	77.69
301.518	85.69
301.748	80.69
301.979	86.69
302.209	92.69
302.439	84.69
302.669	88.69
302.9	84.69
303.13	88.69
303.36	88.69
303.59	72.69
303.82	81.69
304.051	81.69
304.281	94.69
304.511	84.69
304.741	81.69
304.971	87.69
305.201	76.69
305.431	78.69
305.661	82.69
305.891	87.69
306.121	85.69
306.352	86.69
306.582	86.69
306.812	82.69
307.042	90.69
307.272	89.69
307.502	86.69
307.731	84.69
307.961	78.69
308.191	80.69
308.421	89.69
308.651	88.69
308.881	93.69
309.111	89.69
309.341	73.69
309.571	83.69
309.8	88.69
310.03	83.69
310.26	82.69
310.49	81.69
310.72	77.69
310.949	80.69
311.179	81.69
311.409	73.69
311.639	79.69
311.868	80.69
312.098	82.69
312.328	81.69
312.557	72.69
312.787	92.69
313.017	77.69
313.246	88.69
313.476	84.69
313.706	79.69
313.935	86.69
314.165	87.69
314.394	77.69
314.624	69.69
314.853	75.69
315.083	89.69
315.312	79.69
315.542	81.69
315.771	77.69
316.001	77.69
316.23	75.69
316.46	96.69
316.689	78.69
316.919	67.69
317.148	85.69
317.377	98.69
317.607	76.69
317.836	71.69
318.065	87.69
318.295	80.69
318.524	73.69
318.753	72.69
318.983	72.69
319.212	88.69
319.441	90.69
319.67	72.69
319.9	85.69
320.129	90.69
320.358	84.69
320.587	84.69
320.816	88.69
321.046	74.69
321.275	89.69
321.504	73.69
321.733	96.69
321.962	82.69
322.191	84.69
322.42	87.69
322.649	85.69
322.878	64.69
323.108	91.69
323.337	91.69
323.566	84.69
323.795	100.69
324.024	83.69
324.253	82.69
324.482	96.69
324.71	82.69
324.939	83.69
325.168	85.69
325.397	77.69
325.626	60.69
325.855	66.69
326.084	75.69
326.313	72.69
326.542	97.69
326.77	80.69
326.999	86.69
327.228	92.69
327.457	83.69
327.686	80.69
327.914	85.69
328.143	77.69
328.372	81.69
328.6	96.69
328.829	91.69
329.058	80.69
329.287	63.69
329.515	80.69
329.744	74.69
329.972	76.69
330.201	90.69
330.43	77.69
330.658	86.69
330.887	84.69
331.115	93.69
331.344	88.69
331.572	99.69
331.801	93.69
332.03	83.69
332.258	87.69
332.486	76.69
332.715	73.69
332.943	81.69
333.172	77.69
333.4	74.69
333.629	79.69
333.857	92.69
334.085	95.69
334.314	84.69
334.542	79.69
334.771	82.69
334.999	74.69
335.227	75.69
335.455	89.69
335.684	88.69
335.912	86.69
336.14	82.69
336.369	76.69
336.597	73.69
336.825	78.69
337.053	92.69
337.281	84.69
337.51	72.69
337.738	78.69
337.966	86.69
338.194	87.69
338.422	80.69
338.65	77.69
338.878	100.69
339.106	85.69
339.334	73.69
339.562	69.69
339.79	78.69
340.018	80.69
340.246	79.69
340.474	73.69
340.702	85.69
340.93	78.69
341.158	91.69
341.386	82.69
341.614	78.69
341.842	80.69
342.07	76.69
342.298	84.69
342.526	63.69
342.754	81.69
342.981	70.69
343.209	79.69
343.437	82.69
343.665	72.69
343.893	90.69
344.12	75.69
344.348	86.69
344.576	93.69
344.804	83.69
345.031	87.69
345.259	84.69
345.487	80.69
345.714	88.69
345.942	93.69
346.17	89.69
346.397	83.69
346.625	78.69
346.853	78.69
347.08	78.69
347.308	85.69
347.535	79.69
347.763	77.69
347.99	72.69
348.218	82.69
348.445	77.69
348.673	87.69
348.9	82.69
349.128	73.69
349.355	73.69
349.583	86.69
349.81	79.69
350.037	88.69
350.265	89.69
350.492	80.69
350.72	90.69
350.947	75.69
351.174	92.69
351.402	83.69
351.629	92.69
351.856	92.69
352.083	86.69
352.311	77.69
352.538	82.69
352.765	86.69
352.992	78.69
353.22	81.69
353.447	78.69
353.674	81.69
353.901	85.69
354.128	85.69
354.355	80.69
354.583	70.69
354.81	83.69
355.037	70.69
355.264	64.69
355.491	81.69
355.718	75.69
355.945	87.69
356.172	71.69
356.399	91.69
356.626	93.69
356.853	85.69
357.08	87.69
357.307	85.69
357.534	88.69
357.761	88.69
357.988	80.69
358.215	88.69
358.441	77.69
358.668	75.69
358.895	73.69
359.122	85.69
359.349	74.69
359.576	67.69
359.802	65.69
360.029	87.69
360.256	87.69
360.483	80.69
360.709	78.69
360.936	88.69
361.163	87.69
361.39	76.69
361.616	83.69
361.843	83.69
362.07	72.69
362.296	75.69
362.523	78.69
362.749	85.69
362.976	91.69
363.203	75.69
363.429	70.69
363.656	78.69
363.882	74.69
364.109	76.69
364.335	86.69
364.562	83.69
364.788	81.69
365.015	73.69
365.241	90.69
365.468	82.69
365.694	88.69
365.92	72.69
366.147	64.69
366.373	88.69
366.599	65.69
366.826	89.69
367.052	92.69
367.278	80.69
367.505	82.69
367.731	81.69
367.957	81.69
368.184	80.69
368.41	92.69
368.636	72.69
368.862	82.69
369.089	78.69
369.315	80.69
369.541	89.69
369.767	76.69
369.993	83.69
370.219	83.69
370.445	76.69
370.672	91.69
370.898	69.69
371.124	89.69
371.35	72.69
371.576	71.69
371.802	78.69
372.028	88.69
372.254	89.69
372.48	88.69
372.706	94.69
372.932	82.69
373.158	90.69
373.384	75.69
373.61	92.69
373.835	80.69
374.061	73.69
374.287	88.69
374.513	87.69
374.739	82.69
374.965	85.69
375.191	80.69
375.416	74.69
375.642	82.69
375.868	74.69
376.094	89.69
376.319	79.69
376.545	81.69
376.771	84.69
376.997	76.69
377.222	82.69
377.448	80.69
377.674	78.69
377.899	92.69
378.125	86.69
378.35	84.69
378.576	83.69
378.802	79.69
379.027	82.69
379.253	86.69
379.478	98.69
379.704	88.69
379.929	73.69
380.155	70.69
380.38	73.69
380.606	90.69
380.831	91.69
381.057	82.69
381.282	86.69
381.507	92.69
381.733	72.69
381.958	71.69
382.184	78.69
382.409	82.69
382.634	85.69
382.86	80.69
383.085	79.69
383.31	80.69
383.535	85.69
383.761	94.69
383.986	87.69
384.211	75.69
384.436	88.69
384.662	87.69
384.887	87.69
385.112	91.69
385.337	70.69
385.562	79.69
385.787	100.69
386.013	90.69
386.238	85.69
386.463	78.69
386.688	79.69
386.913	93.69
387.138	84.69
387.363	98.69
387.588	78.69
387.813	87.69
388.038	68.69
388.263	97.69
388.488	76.69
388.713	95.69
388.938	86.69
389.163	81.69
389.387	68.69
389.612	97.69
389.837	90.69
390.062	81.69
390.287	86.69
390.512	85.69
390.736	65.69
390.961	71.69
391.186	86.69
391.411	83.69
391.636	84.69
391.86	80.69
392.085	74.69
392.31	95.69
392.534	92.69
392.759	78.69
392.984	80.69
393.208	74.69
393.433	67.69
393.658	84.69
393.882	86.69
394.107	79.69
394.331	79.69
394.556	79.69
394.78	70.69
395.005	75.69
395.229	84.69
395.454	75.69
395.678	73.69
395.903	87.69
396.127	82.69
396.352	73.69
396.576	74.69
396.801	93.69
397.025	78.69
397.249	80.69
397.474	86.69
397.698	83.69
397.922	80.69
398.147	89.69
398.371	70.69
398.595	103.69
398.82	85.69
399.044	82.69
399.268	69.69
399.492	86.69
399.717	73.69
399.941	84.69
400.165	85.69
400.389	80.69
400.613	90.69
400.837	82.69
401.062	81.69
401.286	94.69
401.51	91.69
401.734	99.69
401.958	98.69
402.182	87.69
402.406	85.69
402.63	94.69
402.854	87.69
403.078	84.69
403.302	94.69
403.526	84.69
403.75	95.69
403.974	88.69
404.198	75.69
404.422	84.69
404.645	77.69
404.869	100.69
405.093	87.69
405.317	89.69
405.541	89.69
405.765	79.69
405.988	82.69
406.212	70.69
406.436	94.69
406.66	85.69
406.883	92.69
407.107	89.69
407.331	84.69
407.555	86.69
407.778	75.69
408.002	85.69
408.226	86.69
408.449	94.69
408.673	80.69
408.896	88.69
409.12	93.69
409.344	87.69
409.567	93.69
409.791	80.69
410.014	72.69
410.238	87.69
410.461	87.69
410.685	89.69
410.908	91.69
411.132	98.69
411.355	95.69
411.578	91.69
411.802	86.69
412.025	82.69
412.249	101.69
412.472	85.69
412.695	83.69
412.919	68.69
413.142	90.69
413.365	79.69
413.589	101.69
413.812	97.69
414.035	95.69
414.258	92.69
414.482	92.69
414.705	101.69
414.928	92.69
415.151	95.69
415.374	104.69
415.597	94.69
415.821	86.69
416.044	98.69
416.267	91.69
416.49	95.69
416.713	84.69
416.936	86.69
417.159	67.69
417.382	83.69
417.605	95.69
417.828	71.69
418.051	91.69
418.274	91.69
418.497	100.69
418.72	104.69
418.943	91.69
419.166	92.69
419.389	102.69
419.611	99.69
419.834	97.69
420.057	87.69
420.28	98.69
420.503	92.69
420.726	91.69
420.948	82.69
421.171	86.69
421.394	74.69
421.617	94.69
421.839	99.69
422.062	86.69
422.285	84.69
422.507	91.69
422.73	80.69
422.953	70.69
423.175	61.69
423.398	93.69
423.621	97.69
423.843	80.69
424.066	93.69
424.288	94.69
424.511	99.69
424.733	100.69
424.956	104.69
425.178	98.69
425.401	76.69
425.623	95.69
425.846	101.69
426.068	94.69
426.291	86.69
426.513	98.69
426.735	94.69
426.958	82.69
427.18	96.69
427.402	96.69
427.625	90.69
427.847	83.69
428.069	88.69
428.292	87.69
428.514	69.69
428.736	96.69
428.958	87.69
429.181	80.69
429.403	94.69
429.625	101.69
429.847	85.69
430.069	96.69
430.292	90.69
430.514	85.69
430.736	96.69
430.958	86.69
431.18	88.69
431.402	89.69
431.624	79.69
431.846	81.69
432.068	84.69
432.29	66.69
432.512	70.69
432.734	72.69
432.956	100.69
433.178	86.69
433.4	98.69
433.622	90.69
433.844	87.69
434.066	96.69
434.287	103.69
434.509	78.69
434.731	90.69
434.953	80.69
435.175	81.69
435.397	101.69
435.618	88.69
435.84	86.69
436.062	89.69
436.284	92.69
436.505	90.69
436.727	82.69
436.949	89.69
437.17	84.69
437.392	73.69
437.614	91.69
437.835	82.69
438.057	68.69
438.278	77.69
438.5	94.69
438.721	81.69
438.943	88.69
439.165	80.69
439.386	84.69
439.608	99.69
439.829	98.69
440.05	93.69
440.272	98.69
440.493	82.69
440.715	87.69
440.936	92.69
441.158	92.69
441.379	87.69
441.6	97.69
441.822	93.69
442.043	99.69
442.264	98.69
442.486	85.69
442.707	98.69
442.928	98.69
443.149	84.69
443.371	90.69
443.592	100.69
443.813	88.69
444.034	98.69
444.255	90.69
444.476	96.69
444.698	94.69
444.919	96.69
445.14	219.69
445.361	170.69
445.582	97.69
445.803	86.69
446.024	91.69
446.245	86.69
446.466	91.69
446.687	104.69
446.908	95.69
447.129	102.69
447.35	110.69
447.571	95.69
447.792	93.69
448.013	73.69
448.234	105.69
448.455	100.69
448.675	100.69
448.896	78.69
449.117	77.69
449.338	85.69
449.559	97.69
449.779	86.69
450	88.69
450.221	83.69
450.442	74.69
450.662	91.69
450.883	90.69
451.104	103.69
451.324	98.69
451.545	97.69
451.766	89.69
451.986	80.69
452.207	91.69
452.428	92.69
452.648	81.69
452.869	96.69
453.089	94.69
453.31	73.69
453.53	76.69
453.751	74.69
453.971	84.69
454.192	91.69
454.412	79.69
454.633	106.69
454.853	87.69
455.073	96.69
455.294	87.69
455.514	102.69
455.734	89.69
455.955	85.69
456.175	81.69
456.395	80.69
456.616	79.69
456.836	91.69
457.056	78.69
457.276	87.69
457.497	98.69
457.717	76.69
457.937	81.69
458.157	93.69
458.377	79.69
458.598	81.69
458.818	82.69
459.038	68.69
459.258	68.69
459.478	86.69
459.698	88.69
459.918	81.69
460.138	83.69
460.358	79.69
460.578	100.69
460.798	80.69
461.018	74.69
461.238	86.69
461.458	89.69
461.678	86.69
461.898	86.69
462.118	78.69
462.338	75.69
462.558	86.69
462.777	74.69
462.997	83.69
463.217	88.69
463.437	93.69
463.657	73.69
463.876	67.69
464.096	82.69
464.316	90.69
464.536	93.69
464.755	100.69
464.975	97.69
465.195	84.69
465.414	90.69
465.634	88.69
465.854	89.69
466.073	74.69
466.293	82.69
466.512	84.69
466.732	87.69
466.951	76.69
467.171	100.69
467.391	72.69
467.61	68.69
467.829	86.69
468.049	102.69
468.268	101.69
468.488	93.69
468.707	75.69
468.927	80.69
469.146	84.69
469.365	107.69
469.585	92.69
469.804	99.69
470.023	97.69
470.243	82.69
470.462	83.69
470.681	101.69
470.901	94.69
471.12	85.69
471.339	97.69
471.558	105.69
471.777	100.69
471.997	80.69
472.216	93.69
472.435	85.69
472.654	74.69
472.873	104.69
473.092	87.69
473.311	92.69
473.53	76.69
473.749	95.69
473.968	93.69
474.187	89.69
474.406	85.69
474.625	93.69
474.844	87.69
475.063	96.69
475.282	94.69
475.501	92.69
475.72	90.69
475.939	81.69
476.158	77.69
476.377	96.69
476.596	104.69
476.814	99.69
477.033	89.69
477.252	89.69
477.471	88.69
477.69	95.69
477.908	97.69
478.127	97.69
478.346	101.69
478.564	89.69
478.783	90.69
479.002	110.69
479.22	98.69
479.439	105.69
479.658	86.69
479.876	92.69
480.095	80.69
480.313	75.69
480.532	83.69
480.751	75.69
480.969	88.69
481.188	92.69
481.406	85.69
481.624	68.69
481.843	81.69
482.061	87.69
482.28	80.69
482.498	70.69
482.717	76.69
482.935	93.69
483.153	100.69
483.372	98.69
483.59	98.69
483.808	95.69
484.027	109.69
484.245	81.69
484.463	120.69
484.681	98.69
484.9	95.69
485.118	94.69
485.336	86.69
485.554	90.69
485.772	88.69
485.99	86.69
486.209	89.69
486.427	88.69
486.645	81.69
486.863	90.69
487.081	96.69
487.299	104.69
487.517	95.69
487.735	114.69
487.953	102.69
488.171	112.69
488.389	121.69
488.607	101.69
488.825	86.69
489.043	96.69
489.261	97.69
489.479	100.69
489.696	78.69
489.914	82.69
490.132	102.69
490.35	104.69
490.568	113.69
490.786	103.69
491.003	103.69
491.221	100.69
491.439	98.69
491.657	111.69
491.874	109.69
492.092	116.69
492.31	124.69
492.527	106.69
492.745	118.69
492.963	94.69
493.18	106.69
493.398	114.69
493.615	101.69
493.833	101.69
494.05	112.69
494.268	101.69
494.485	90.69
494.703	116.69
494.92	108.69
495.138	102.69
495.355	112.69
495.573	106.69
495.79	108.69
496.008	100.69
496.225	106.69
496.442	109.69
496.66	118.69
496.877	112.69
497.094	112.69
497.312	93.69
497.529	100.69
497.746	106.69
497.963	85.69
498.181	87.69
498.398	98.69
498.615	100.69
498.832	67.69
499.049	86.69
499.267	97.69
499.484	98.69
499.701	94.69
499.918	90.69
500.135	88.69
500.352	95.69
500.569	104.69
500.786	108.69
501.003	100.69
501.22	102.69
501.437	83.69
501.654	100.69
501.871	94.69
502.088	88.69
502.305	94.69
502.522	88.69
502.739	87.69
502.956	90.69
503.172	97.69
503.389	103.69
503.606	85.69
503.823	80.69
504.04	87.69
504.256	84.69
504.473	97.69
504.69	80.69
504.907	103.69
505.123	92.69
505.34	86.69
505.557	103.69
505.773	89.69
505.99	92.69
506.207	82.69
506.423	88.69
506.64	80.69
506.856	82.69
507.073	104.69
507.289	80.69
507.506	96.69
507.722	79.69
507.939	87.69
508.155	99.69
508.372	101.69
508.588	65.69
508.805	85.69
509.021	74.69
509.238	96.69
509.454	89.69
509.67	81.69
509.887	75.69
510.103	96.69
510.319	80.69
510.536	84.69
510.752	75.69
510.968	84.69
511.184	91.69
511.401	105.69
511.617	81.69
511.833	77.69
512.049	82.69
512.265	88.69
512.481	80.69
512.698	83.69
512.914	81.69
513.13	76.69
513.346	83.69
513.562	84.69
513.778	89.69
513.994	88.69
514.21	87.69
514.426	86.69
514.642	88.69
514.858	86.69
515.074	92.69
515.29	91.69
515.506	87.69
515.721	76.69
515.937	90.69
516.153	96.69
516.369	81.69
516.585	88.69
516.801	92.69
517.016	95.69
517.232	69.69
517.448	82.69
517.664	75.69
517.879	94.69
518.095	81.69
