Data from Location5.07152019.Energy5.Lamp.07192019.3%Agarose_HRD10591_15-38-53-388.txt Node
Date: Fri Jul 19 15:38:53 EDT 2019
User: cochatt
Spectrometer: HR+D1059
Trigger mode: 1
Integration Time (sec): 1.000000E-1
Scans to average: 1
Electric dark correction enabled: true
Nonlinearity correction enabled: false
Boxcar width: 0
XAxis mode: Wavelengths
Number of Pixels in Spectrum: 2048
>>>>>Begin Spectral Data<<<<<
223.165	-29.5
223.4	-29.5
223.635	-29.5
223.869	2.5
224.104	-29.5
224.338	-1.5
224.573	1.5
224.808	-8.5
225.042	0.5
225.277	0.5
225.511	-6.5
225.746	4.5
225.98	2.5
226.215	3.5
226.449	7.5
226.683	4.5
226.918	18.5
227.152	29.5
227.387	36.5
227.621	37.5
227.856	31.5
228.09	42.5
228.324	44.5
228.559	67.5
228.793	55.5
229.027	54.5
229.262	53.5
229.496	56.5
229.73	65.5
229.964	64.5
230.199	63.5
230.433	66.5
230.667	72.5
230.901	76.5
231.136	75.5
231.37	56.5
231.604	81.5
231.838	66.5
232.072	80.5
232.306	92.5
232.541	87.5
232.775	81.5
233.009	72.5
233.243	73.5
233.477	82.5
233.711	73.5
233.945	76.5
234.179	67.5
234.413	85.5
234.647	87.5
234.881	66.5
235.115	74.5
235.349	78.5
235.583	72.5
235.817	77.5
236.051	73.5
236.285	77.5
236.519	70.5
236.753	81.5
236.987	85.5
237.221	75.5
237.455	75.5
237.689	68.5
237.922	76.5
238.156	80.5
238.39	79.5
238.624	66.5
238.858	73.5
239.091	81.5
239.325	75.5
239.559	82.5
239.793	80.5
240.027	83.5
240.26	81.5
240.494	68.5
240.728	93.5
240.961	74.5
241.195	68.5
241.429	95.5
241.662	79.5
241.896	73.5
242.13	68.5
242.363	66.5
242.597	71.5
242.83	92.5
243.064	75.5
243.298	72.5
243.531	74.5
243.765	81.5
243.998	83.5
244.232	59.5
244.465	84.5
244.699	58.5
244.932	79.5
245.166	81.5
245.399	69.5
245.633	72.5
245.866	73.5
246.099	80.5
246.333	95.5
246.566	71.5
246.8	75.5
247.033	66.5
247.266	60.5
247.5	99.5
247.733	78.5
247.966	71.5
248.2	79.5
248.433	80.5
248.666	70.5
248.899	88.5
249.133	82.5
249.366	71.5
249.599	86.5
249.832	70.5
250.066	79.5
250.299	78.5
250.532	73.5
250.765	80.5
250.998	80.5
251.231	82.5
251.465	79.5
251.698	77.5
251.931	82.5
252.164	78.5
252.397	71.5
252.63	75.5
252.863	70.5
253.096	73.5
253.329	75.5
253.562	76.5
253.795	92.5
254.028	85.5
254.261	69.5
254.494	83.5
254.727	81.5
254.96	75.5
255.193	75.5
255.426	76.5
255.659	82.5
255.892	81.5
256.124	80.5
256.357	83.5
256.59	86.5
256.823	86.5
257.056	66.5
257.289	74.5
257.521	83.5
257.754	83.5
257.987	78.5
258.22	81.5
258.452	81.5
258.685	80.5
258.918	77.5
259.151	76.5
259.383	83.5
259.616	63.5
259.849	73.5
260.081	87.5
260.314	72.5
260.547	80.5
260.779	82.5
261.012	87.5
261.244	70.5
261.477	87.5
261.71	76.5
261.942	85.5
262.175	84.5
262.407	71.5
262.64	76.5
262.872	69.5
263.105	73.5
263.337	89.5
263.57	72.5
263.802	77.5
264.035	82.5
264.267	92.5
264.499	102.5
264.732	88.5
264.964	81.5
265.197	84.5
265.429	79.5
265.661	69.5
265.894	82.5
266.126	79.5
266.358	82.5
266.591	72.5
266.823	84.5
267.055	86.5
267.287	77.5
267.52	75.5
267.752	69.5
267.984	88.5
268.216	82.5
268.448	79.5
268.681	91.5
268.913	88.5
269.145	76.5
269.377	88.5
269.609	72.5
269.841	77.5
270.073	82.5
270.306	77.5
270.538	70.5
270.77	87.5
271.002	81.5
271.234	84.5
271.466	83.5
271.698	96.5
271.93	82.5
272.162	83.5
272.394	79.5
272.626	95.5
272.858	85.5
273.09	72.5
273.322	62.5
273.553	84.5
273.785	76.5
274.017	77.5
274.249	81.5
274.481	73.5
274.713	83.5
274.945	74.5
275.176	71.5
275.408	87.5
275.64	95.5
275.872	71.5
276.104	89.5
276.335	81.5
276.567	65.5
276.799	84.5
277.031	92.5
277.262	87.5
277.494	79.5
277.726	91.5
277.957	67.5
278.189	86.5
278.421	76.5
278.652	74.5
278.884	83.5
279.115	84.5
279.347	87.5
279.579	83.5
279.81	84.5
280.042	79.5
280.273	87.5
280.505	72.5
280.736	100.5
280.968	84.5
281.199	94.5
281.431	77.5
281.662	89.5
281.894	80.5
282.125	71.5
282.356	81.5
282.588	85.5
282.819	77.5
283.051	80.5
283.282	88.5
283.513	88.5
283.745	93.5
283.976	92.5
284.207	83.5
284.439	90.5
284.67	80.5
284.901	81.5
285.132	76.5
285.364	68.5
285.595	71.5
285.826	91.5
286.057	71.5
286.288	86.5
286.52	92.5
286.751	90.5
286.982	73.5
287.213	85.5
287.444	87.5
287.675	81.5
287.906	90.5
288.138	75.5
288.369	84.5
288.6	80.5
288.831	90.5
289.062	86.5
289.293	79.5
289.524	85.5
289.755	81.5
289.986	86.5
290.217	82.5
290.448	74.5
290.679	75.5
290.91	84.5
291.141	80.5
291.371	100.5
291.602	96.5
291.833	79.5
292.064	90.5
292.295	91.5
292.526	79.5
292.757	82.5
292.987	92.5
293.218	78.5
293.449	87.5
293.68	75.5
293.91	91.5
294.141	87.5
294.372	82.5
294.603	89.5
294.833	85.5
295.064	84.5
295.295	87.5
295.525	84.5
295.756	92.5
295.987	90.5
296.217	95.5
296.448	84.5
296.679	86.5
296.909	91.5
297.14	89.5
297.37	81.5
297.601	80.5
297.831	83.5
298.062	74.5
298.292	92.5
298.523	82.5
298.753	69.5
298.984	86.5
299.214	68.5
299.445	84.5
299.675	90.5
299.905	78.5
300.136	82.5
300.366	76.5
300.597	83.5
300.827	77.5
301.057	71.5
301.288	77.5
301.518	90.5
301.748	67.5
301.979	100.5
302.209	82.5
302.439	83.5
302.669	90.5
302.9	79.5
303.13	80.5
303.36	77.5
303.59	82.5
303.82	90.5
304.051	85.5
304.281	80.5
304.511	77.5
304.741	71.5
304.971	89.5
305.201	82.5
305.431	90.5
305.661	81.5
305.891	70.5
306.121	79.5
306.352	81.5
306.582	91.5
306.812	76.5
307.042	85.5
307.272	81.5
307.502	92.5
307.731	83.5
307.961	84.5
308.191	82.5
308.421	75.5
308.651	82.5
308.881	88.5
309.111	99.5
309.341	82.5
309.571	86.5
309.8	87.5
310.03	81.5
310.26	83.5
310.49	79.5
310.72	80.5
310.949	85.5
311.179	90.5
311.409	89.5
311.639	79.5
311.868	79.5
312.098	98.5
312.328	104.5
312.557	84.5
312.787	78.5
313.017	81.5
313.246	98.5
313.476	79.5
313.706	96.5
313.935	94.5
314.165	92.5
314.394	84.5
314.624	85.5
314.853	79.5
315.083	81.5
315.312	64.5
315.542	68.5
315.771	89.5
316.001	79.5
316.23	94.5
316.46	86.5
316.689	78.5
316.919	76.5
317.148	77.5
317.377	82.5
317.607	78.5
317.836	79.5
318.065	75.5
318.295	75.5
318.524	69.5
318.753	70.5
318.983	87.5
319.212	86.5
319.441	96.5
319.67	93.5
319.9	80.5
320.129	77.5
320.358	87.5
320.587	83.5
320.816	81.5
321.046	69.5
321.275	75.5
321.504	72.5
321.733	85.5
321.962	85.5
322.191	95.5
322.42	87.5
322.649	77.5
322.878	87.5
323.108	82.5
323.337	75.5
323.566	91.5
323.795	92.5
324.024	68.5
324.253	80.5
324.482	82.5
324.71	67.5
324.939	98.5
325.168	71.5
325.397	79.5
325.626	88.5
325.855	93.5
326.084	74.5
326.313	87.5
326.542	90.5
326.77	74.5
326.999	87.5
327.228	86.5
327.457	80.5
327.686	98.5
327.914	80.5
328.143	85.5
328.372	80.5
328.6	88.5
328.829	92.5
329.058	91.5
329.287	82.5
329.515	86.5
329.744	83.5
329.972	71.5
330.201	80.5
330.43	87.5
330.658	84.5
330.887	90.5
331.115	88.5
331.344	89.5
331.572	78.5
331.801	77.5
332.03	81.5
332.258	83.5
332.486	76.5
332.715	83.5
332.943	70.5
333.172	84.5
333.4	84.5
333.629	87.5
333.857	86.5
334.085	75.5
334.314	91.5
334.542	72.5
334.771	100.5
334.999	86.5
335.227	86.5
335.455	80.5
335.684	80.5
335.912	77.5
336.14	90.5
336.369	83.5
336.597	86.5
336.825	77.5
337.053	83.5
337.281	97.5
337.51	86.5
337.738	82.5
337.966	77.5
338.194	76.5
338.422	98.5
338.65	73.5
338.878	87.5
339.106	94.5
339.334	84.5
339.562	84.5
339.79	74.5
340.018	82.5
340.246	89.5
340.474	69.5
340.702	82.5
340.93	90.5
341.158	92.5
341.386	74.5
341.614	92.5
341.842	67.5
342.07	73.5
342.298	98.5
342.526	75.5
342.754	89.5
342.981	79.5
343.209	93.5
343.437	89.5
343.665	81.5
343.893	84.5
344.12	87.5
344.348	85.5
344.576	86.5
344.804	95.5
345.031	85.5
345.259	88.5
345.487	86.5
345.714	91.5
345.942	90.5
346.17	87.5
346.397	83.5
346.625	94.5
346.853	88.5
347.08	82.5
347.308	90.5
347.535	80.5
347.763	91.5
347.99	91.5
348.218	100.5
348.445	72.5
348.673	95.5
348.9	82.5
349.128	78.5
349.355	91.5
349.583	70.5
349.81	73.5
350.037	84.5
350.265	79.5
350.492	76.5
350.72	78.5
350.947	88.5
351.174	77.5
351.402	76.5
351.629	80.5
351.856	90.5
352.083	85.5
352.311	90.5
352.538	92.5
352.765	99.5
352.992	90.5
353.22	87.5
353.447	98.5
353.674	76.5
353.901	98.5
354.128	85.5
354.355	74.5
354.583	79.5
354.81	78.5
355.037	80.5
355.264	98.5
355.491	75.5
355.718	87.5
355.945	91.5
356.172	71.5
356.399	76.5
356.626	81.5
356.853	90.5
357.08	86.5
357.307	84.5
357.534	83.5
357.761	82.5
357.988	80.5
358.215	76.5
358.441	84.5
358.668	98.5
358.895	82.5
359.122	87.5
359.349	78.5
359.576	76.5
359.802	76.5
360.029	81.5
360.256	75.5
360.483	74.5
360.709	89.5
360.936	87.5
361.163	91.5
361.39	70.5
361.616	80.5
361.843	80.5
362.07	82.5
362.296	77.5
362.523	75.5
362.749	74.5
362.976	81.5
363.203	82.5
363.429	91.5
363.656	84.5
363.882	88.5
364.109	71.5
364.335	84.5
364.562	83.5
364.788	83.5
365.015	83.5
365.241	85.5
365.468	89.5
365.694	89.5
365.92	83.5
366.147	92.5
366.373	83.5
366.599	70.5
366.826	85.5
367.052	92.5
367.278	78.5
367.505	95.5
367.731	101.5
367.957	83.5
368.184	77.5
368.41	80.5
368.636	76.5
368.862	86.5
369.089	76.5
369.315	80.5
369.541	89.5
369.767	85.5
369.993	88.5
370.219	99.5
370.445	84.5
370.672	82.5
370.898	85.5
371.124	89.5
371.35	83.5
371.576	72.5
371.802	69.5
372.028	77.5
372.254	83.5
372.48	86.5
372.706	91.5
372.932	76.5
373.158	86.5
373.384	83.5
373.61	84.5
373.835	85.5
374.061	75.5
374.287	83.5
374.513	75.5
374.739	90.5
374.965	72.5
375.191	79.5
375.416	77.5
375.642	70.5
375.868	72.5
376.094	91.5
376.319	96.5
376.545	83.5
376.771	86.5
376.997	85.5
377.222	86.5
377.448	97.5
377.674	87.5
377.899	81.5
378.125	89.5
378.35	68.5
378.576	98.5
378.802	89.5
379.027	77.5
379.253	97.5
379.478	82.5
379.704	82.5
379.929	80.5
380.155	85.5
380.38	86.5
380.606	89.5
380.831	75.5
381.057	87.5
381.282	79.5
381.507	87.5
381.733	86.5
381.958	71.5
382.184	71.5
382.409	89.5
382.634	88.5
382.86	81.5
383.085	81.5
383.31	94.5
383.535	98.5
383.761	82.5
383.986	83.5
384.211	90.5
384.436	95.5
384.662	79.5
384.887	79.5
385.112	85.5
385.337	75.5
385.562	90.5
385.787	74.5
386.013	83.5
386.238	88.5
386.463	80.5
386.688	75.5
386.913	91.5
387.138	72.5
387.363	80.5
387.588	86.5
387.813	76.5
388.038	83.5
388.263	89.5
388.488	102.5
388.713	83.5
388.938	75.5
389.163	87.5
389.387	77.5
389.612	88.5
389.837	99.5
390.062	98.5
390.287	84.5
390.512	82.5
390.736	86.5
390.961	96.5
391.186	84.5
391.411	91.5
391.636	77.5
391.86	89.5
392.085	89.5
392.31	83.5
392.534	85.5
392.759	83.5
392.984	95.5
393.208	72.5
393.433	85.5
393.658	74.5
393.882	90.5
394.107	84.5
394.331	84.5
394.556	77.5
394.78	82.5
395.005	73.5
395.229	74.5
395.454	88.5
395.678	88.5
395.903	83.5
396.127	86.5
396.352	82.5
396.576	82.5
396.801	86.5
397.025	82.5
397.249	73.5
397.474	95.5
397.698	87.5
397.922	85.5
398.147	85.5
398.371	94.5
398.595	102.5
398.82	85.5
399.044	91.5
399.268	82.5
399.492	82.5
399.717	93.5
399.941	86.5
400.165	93.5
400.389	99.5
400.613	88.5
400.837	88.5
401.062	88.5
401.286	87.5
401.51	90.5
401.734	86.5
401.958	95.5
402.182	91.5
402.406	97.5
402.63	101.5
402.854	101.5
403.078	72.5
403.302	95.5
403.526	102.5
403.75	89.5
403.974	95.5
404.198	95.5
404.422	80.5
404.645	77.5
404.869	76.5
405.093	88.5
405.317	83.5
405.541	86.5
405.765	80.5
405.988	87.5
406.212	95.5
406.436	94.5
406.66	103.5
406.883	90.5
407.107	84.5
407.331	83.5
407.555	100.5
407.778	99.5
408.002	88.5
408.226	95.5
408.449	87.5
408.673	99.5
408.896	95.5
409.12	81.5
409.344	104.5
409.567	65.5
409.791	85.5
410.014	95.5
410.238	88.5
410.461	87.5
410.685	90.5
410.908	81.5
411.132	100.5
411.355	81.5
411.578	89.5
411.802	89.5
412.025	95.5
412.249	86.5
412.472	83.5
412.695	88.5
412.919	80.5
413.142	77.5
413.365	90.5
413.589	106.5
413.812	89.5
414.035	90.5
414.258	90.5
414.482	100.5
414.705	85.5
414.928	90.5
415.151	105.5
415.374	92.5
415.597	86.5
415.821	90.5
416.044	87.5
416.267	92.5
416.49	80.5
416.713	81.5
416.936	97.5
417.159	90.5
417.382	87.5
417.605	88.5
417.828	91.5
418.051	88.5
418.274	76.5
418.497	85.5
418.72	108.5
418.943	101.5
419.166	88.5
419.389	87.5
419.611	94.5
419.834	86.5
420.057	99.5
420.28	91.5
420.503	100.5
420.726	91.5
420.948	101.5
421.171	98.5
421.394	92.5
421.617	95.5
421.839	94.5
422.062	81.5
422.285	103.5
422.507	88.5
422.73	95.5
422.953	74.5
423.175	94.5
423.398	84.5
423.621	98.5
423.843	88.5
424.066	98.5
424.288	92.5
424.511	102.5
424.733	105.5
424.956	89.5
425.178	91.5
425.401	99.5
425.623	79.5
425.846	97.5
426.068	106.5
426.291	95.5
426.513	106.5
426.735	99.5
426.958	89.5
427.18	75.5
427.402	88.5
427.625	75.5
427.847	96.5
428.069	112.5
428.292	78.5
428.514	84.5
428.736	104.5
428.958	99.5
429.181	72.5
429.403	94.5
429.625	101.5
429.847	89.5
430.069	101.5
430.292	84.5
430.514	95.5
430.736	87.5
430.958	78.5
431.18	99.5
431.402	103.5
431.624	96.5
431.846	90.5
432.068	75.5
432.29	79.5
432.512	80.5
432.734	91.5
432.956	110.5
433.178	85.5
433.4	94.5
433.622	95.5
433.844	94.5
434.066	79.5
434.287	80.5
434.509	75.5
434.731	92.5
434.953	82.5
435.175	90.5
435.397	99.5
435.618	104.5
435.84	103.5
436.062	76.5
436.284	79.5
436.505	96.5
436.727	93.5
436.949	79.5
437.17	83.5
437.392	77.5
437.614	92.5
437.835	86.5
438.057	79.5
438.278	86.5
438.5	95.5
438.721	100.5
438.943	92.5
439.165	100.5
439.386	88.5
439.608	85.5
439.829	88.5
440.05	103.5
440.272	101.5
440.493	88.5
440.715	90.5
440.936	95.5
441.158	84.5
441.379	86.5
441.6	104.5
441.822	92.5
442.043	96.5
442.264	75.5
442.486	82.5
442.707	90.5
442.928	103.5
443.149	83.5
443.371	104.5
443.592	72.5
443.813	83.5
444.034	92.5
444.255	93.5
444.476	81.5
444.698	98.5
444.919	88.5
445.14	212.5
445.361	140.5
445.582	124.5
445.803	99.5
446.024	101.5
446.245	94.5
446.466	115.5
446.687	93.5
446.908	112.5
447.129	90.5
447.35	102.5
447.571	111.5
447.792	112.5
448.013	94.5
448.234	98.5
448.455	98.5
448.675	102.5
448.896	100.5
449.117	99.5
449.338	104.5
449.559	97.5
449.779	95.5
450	101.5
450.221	81.5
450.442	90.5
450.662	93.5
450.883	86.5
451.104	102.5
451.324	82.5
451.545	99.5
451.766	66.5
451.986	97.5
452.207	86.5
452.428	77.5
452.648	83.5
452.869	100.5
453.089	94.5
453.31	72.5
453.53	88.5
453.751	85.5
453.971	91.5
454.192	82.5
454.412	96.5
454.633	83.5
454.853	80.5
455.073	91.5
455.294	94.5
455.514	105.5
455.734	100.5
455.955	96.5
456.175	74.5
456.395	76.5
456.616	95.5
456.836	79.5
457.056	102.5
457.276	73.5
457.497	86.5
457.717	75.5
457.937	91.5
458.157	79.5
458.377	83.5
458.598	90.5
458.818	85.5
459.038	77.5
459.258	84.5
459.478	84.5
459.698	74.5
459.918	82.5
460.138	80.5
460.358	70.5
460.578	88.5
460.798	83.5
461.018	94.5
461.238	89.5
461.458	86.5
461.678	88.5
461.898	103.5
462.118	91.5
462.338	73.5
462.558	74.5
462.777	84.5
462.997	95.5
463.217	80.5
463.437	79.5
463.657	90.5
463.876	93.5
464.096	100.5
464.316	97.5
464.536	79.5
464.755	89.5
464.975	83.5
465.195	91.5
465.414	98.5
465.634	84.5
465.854	86.5
466.073	84.5
466.293	87.5
466.512	100.5
466.732	87.5
466.951	87.5
467.171	95.5
467.391	99.5
467.61	82.5
467.829	88.5
468.049	90.5
468.268	90.5
468.488	99.5
468.707	83.5
468.927	82.5
469.146	92.5
469.365	98.5
469.585	90.5
469.804	101.5
470.023	96.5
470.243	97.5
470.462	99.5
470.681	94.5
470.901	89.5
471.12	97.5
471.339	90.5
471.558	105.5
471.777	102.5
471.997	97.5
472.216	72.5
472.435	92.5
472.654	96.5
472.873	70.5
473.092	83.5
473.311	97.5
473.53	84.5
473.749	84.5
473.968	95.5
474.187	85.5
474.406	93.5
474.625	85.5
474.844	100.5
475.063	91.5
475.282	78.5
475.501	101.5
475.72	97.5
475.939	104.5
476.158	87.5
476.377	84.5
476.596	83.5
476.814	88.5
477.033	96.5
477.252	86.5
477.471	96.5
477.69	86.5
477.908	102.5
478.127	93.5
478.346	93.5
478.564	108.5
478.783	90.5
479.002	71.5
479.22	93.5
479.439	107.5
479.658	95.5
479.876	77.5
480.095	92.5
480.313	90.5
480.532	89.5
480.751	82.5
480.969	77.5
481.188	97.5
481.406	73.5
481.624	63.5
481.843	78.5
482.061	80.5
482.28	93.5
482.498	91.5
482.717	76.5
482.935	94.5
483.153	111.5
483.372	101.5
483.59	91.5
483.808	98.5
484.027	88.5
484.245	105.5
484.463	93.5
484.681	96.5
484.9	103.5
485.118	95.5
485.336	97.5
485.554	100.5
485.772	94.5
485.99	83.5
486.209	96.5
486.427	87.5
486.645	64.5
486.863	91.5
487.081	98.5
487.299	97.5
487.517	95.5
487.735	95.5
487.953	101.5
488.171	99.5
488.389	111.5
488.607	102.5
488.825	97.5
489.043	98.5
489.261	85.5
489.479	92.5
489.696	106.5
489.914	97.5
490.132	95.5
490.35	98.5
490.568	95.5
490.786	113.5
491.003	101.5
491.221	91.5
491.439	113.5
491.657	100.5
491.874	122.5
492.092	106.5
492.31	110.5
492.527	118.5
492.745	118.5
492.963	115.5
493.18	106.5
493.398	104.5
493.615	115.5
493.833	98.5
494.05	104.5
494.268	102.5
494.485	87.5
494.703	100.5
494.92	120.5
495.138	87.5
495.355	94.5
495.573	102.5
495.79	91.5
496.008	101.5
496.225	108.5
496.442	99.5
496.66	97.5
496.877	110.5
497.094	86.5
497.312	101.5
497.529	95.5
497.746	103.5
497.963	88.5
498.181	90.5
498.398	87.5
498.615	86.5
498.832	84.5
499.049	89.5
499.267	95.5
499.484	83.5
499.701	91.5
499.918	95.5
500.135	91.5
500.352	98.5
500.569	94.5
500.786	104.5
501.003	96.5
501.22	101.5
501.437	94.5
501.654	100.5
501.871	94.5
502.088	97.5
502.305	85.5
502.522	83.5
502.739	81.5
502.956	84.5
503.172	85.5
503.389	83.5
503.606	88.5
503.823	95.5
504.04	87.5
504.256	86.5
504.473	87.5
504.69	92.5
504.907	90.5
505.123	98.5
505.34	93.5
505.557	86.5
505.773	107.5
505.99	104.5
506.207	84.5
506.423	91.5
506.64	89.5
506.856	105.5
507.073	100.5
507.289	92.5
507.506	91.5
507.722	70.5
507.939	82.5
508.155	97.5
508.372	90.5
508.588	81.5
508.805	95.5
509.021	76.5
509.238	80.5
509.454	87.5
509.67	87.5
509.887	91.5
510.103	83.5
510.319	76.5
510.536	87.5
510.752	95.5
510.968	87.5
511.184	87.5
511.401	97.5
511.617	79.5
511.833	87.5
512.049	61.5
512.265	93.5
512.481	91.5
512.698	83.5
512.914	74.5
513.13	91.5
513.346	93.5
513.562	74.5
513.778	92.5
513.994	80.5
514.21	79.5
514.426	87.5
514.642	86.5
514.858	94.5
515.074	87.5
515.29	91.5
515.506	73.5
515.721	71.5
515.937	79.5
516.153	77.5
516.369	79.5
516.585	83.5
516.801	86.5
517.016	73.5
517.232	76.5
517.448	79.5
517.664	79.5
517.879	79.5
518.095	98.5
518.311	86.5
518.527	96.5
518.742	90.5
518.958	85.5
519.173	80.5
519.389	96.5
519.605	93.5
519.82	83.5
520.036	85.5
520.251	73.5
520.467	99.5
520.682	86.5
520.898	80.5
521.113	90.5
521.329	68.5
521.544	90.5
521.76	81.5
521.975	81.5
522.19	97.5
522.406	94.5
522.621	90.5
522.836	96.5
523.052	94.5
523.267	95.5
523.482	90.5
523.698	79.5
523.913	90.5
524.128	88.5
524.343	89.5
524.559	82.5
524.774	86.5
524.989	79.5
525.204	91.5
525.419	110.5
525.634	80.5
525.849	86.5
526.064	90.5
526.28	84.5
526.495	81.5
526.71	97.5
526.925	81.5
527.14	89.5
527.355	91.5
527.57	86.5
527.785	84.5
527.999	94.5
528.214	99.5
528.429	97.5
528.644	82.5
528.859	87.5
529.074	106.5
529.289	95.5
529.503	99.5
529.718	99.5
529.933	80.5
530.148	95.5
530.363	89.5
530.577	76.5
530.792	76.5
531.007	83.5
531.221	79.5
531.436	83.5
531.651	80.5
531.865	70.5
532.08	88.5
532.295	97.5
532.509	88.5
532.724	87.5
532.938	78.5
533.153	87.5
533.367	86.5
533.582	90.5
533.796	85.5
534.011	91.5
534.225	97.5
534.44	75.5
534.654	95.5
534.868	96.5
535.083	91.5
535.297	87.5
535.511	82.5
535.726	66.5
535.94	91.5
536.154	81.5
536.369	90.5
536.583	81.5
536.797	81.5
537.011	79.5
537.225	77.5
537.44	74.5
537.654	90.5
537.868	86.5
538.082	89.5
538.296	91.5
