Data from Location5.07152019.Energy5.Lamp.07192019.3%Agarose_HRD10591_15-37-43-387.txt Node
Date: Fri Jul 19 15:37:43 EDT 2019
User: cochatt
Spectrometer: HR+D1059
Trigger mode: 1
Integration Time (sec): 1.000000E-1
Scans to average: 1
Electric dark correction enabled: true
Nonlinearity correction enabled: false
Boxcar width: 0
XAxis mode: Wavelengths
Number of Pixels in Spectrum: 2048
>>>>>Begin Spectral Data<<<<<
223.165	-16.38
223.4	-16.38
223.635	-16.38
223.869	2.62
224.104	-33.38
224.338	-23.38
224.573	-16.38
224.808	-5.38
225.042	-12.38
225.277	-10.38
225.511	0.62
225.746	0.62
225.98	12.62
226.215	7.62
226.449	9.62
226.683	29.62
226.918	31.62
227.152	22.62
227.387	24.62
227.621	26.62
227.856	47.62
228.09	30.62
228.324	52.62
228.559	68.62
228.793	56.62
229.027	51.62
229.262	70.62
229.496	53.62
229.73	75.62
229.964	86.62
230.199	64.62
230.433	67.62
230.667	63.62
230.901	72.62
231.136	68.62
231.37	80.62
231.604	78.62
231.838	72.62
232.072	81.62
232.306	78.62
232.541	76.62
232.775	76.62
233.009	82.62
233.243	74.62
233.477	84.62
233.711	82.62
233.945	99.62
234.179	80.62
234.413	65.62
234.647	84.62
234.881	75.62
235.115	78.62
235.349	77.62
235.583	70.62
235.817	71.62
236.051	77.62
236.285	72.62
236.519	71.62
236.753	81.62
236.987	77.62
237.221	73.62
237.455	84.62
237.689	78.62
237.922	68.62
238.156	70.62
238.39	70.62
238.624	80.62
238.858	76.62
239.091	66.62
239.325	67.62
239.559	65.62
239.793	72.62
240.027	73.62
240.26	71.62
240.494	76.62
240.728	79.62
240.961	67.62
241.195	82.62
241.429	69.62
241.662	70.62
241.896	79.62
242.13	71.62
242.363	64.62
242.597	75.62
242.83	73.62
243.064	78.62
243.298	67.62
243.531	71.62
243.765	75.62
243.998	68.62
244.232	62.62
244.465	78.62
244.699	80.62
244.932	77.62
245.166	68.62
245.399	62.62
245.633	78.62
245.866	78.62
246.099	87.62
246.333	69.62
246.566	77.62
246.8	83.62
247.033	60.62
247.266	62.62
247.5	80.62
247.733	54.62
247.966	83.62
248.2	66.62
248.433	75.62
248.666	74.62
248.899	75.62
249.133	67.62
249.366	74.62
249.599	83.62
249.832	71.62
250.066	80.62
250.299	66.62
250.532	80.62
250.765	79.62
250.998	71.62
251.231	60.62
251.465	77.62
251.698	60.62
251.931	79.62
252.164	66.62
252.397	82.62
252.63	84.62
252.863	88.62
253.096	75.62
253.329	90.62
253.562	83.62
253.795	76.62
254.028	80.62
254.261	79.62
254.494	82.62
254.727	87.62
254.96	82.62
255.193	73.62
255.426	73.62
255.659	81.62
255.892	80.62
256.124	71.62
256.357	70.62
256.59	71.62
256.823	81.62
257.056	75.62
257.289	70.62
257.521	60.62
257.754	76.62
257.987	66.62
258.22	77.62
258.452	78.62
258.685	71.62
258.918	82.62
259.151	79.62
259.383	76.62
259.616	83.62
259.849	81.62
260.081	86.62
260.314	95.62
260.547	78.62
260.779	85.62
261.012	69.62
261.244	76.62
261.477	79.62
261.71	63.62
261.942	84.62
262.175	80.62
262.407	68.62
262.64	72.62
262.872	83.62
263.105	68.62
263.337	78.62
263.57	65.62
263.802	52.62
264.035	71.62
264.267	86.62
264.499	79.62
264.732	87.62
264.964	93.62
265.197	75.62
265.429	87.62
265.661	84.62
265.894	68.62
266.126	79.62
266.358	87.62
266.591	74.62
266.823	84.62
267.055	98.62
267.287	74.62
267.52	72.62
267.752	80.62
267.984	81.62
268.216	77.62
268.448	71.62
268.681	70.62
268.913	71.62
269.145	76.62
269.377	76.62
269.609	82.62
269.841	76.62
270.073	81.62
270.306	88.62
270.538	80.62
270.77	86.62
271.002	74.62
271.234	81.62
271.466	60.62
271.698	87.62
271.93	82.62
272.162	91.62
272.394	80.62
272.626	72.62
272.858	87.62
273.09	84.62
273.322	84.62
273.553	69.62
273.785	73.62
274.017	78.62
274.249	78.62
274.481	92.62
274.713	76.62
274.945	67.62
275.176	79.62
275.408	73.62
275.64	82.62
275.872	79.62
276.104	88.62
276.335	62.62
276.567	74.62
276.799	94.62
277.031	75.62
277.262	70.62
277.494	76.62
277.726	82.62
277.957	81.62
278.189	70.62
278.421	90.62
278.652	83.62
278.884	83.62
279.115	82.62
279.347	92.62
279.579	65.62
279.81	80.62
280.042	72.62
280.273	84.62
280.505	70.62
280.736	80.62
280.968	77.62
281.199	78.62
281.431	93.62
281.662	68.62
281.894	81.62
282.125	67.62
282.356	67.62
282.588	68.62
282.819	71.62
283.051	73.62
283.282	67.62
283.513	85.62
283.745	83.62
283.976	77.62
284.207	80.62
284.439	70.62
284.67	77.62
284.901	90.62
285.132	93.62
285.364	86.62
285.595	84.62
285.826	90.62
286.057	91.62
286.288	75.62
286.52	96.62
286.751	81.62
286.982	91.62
287.213	84.62
287.444	98.62
287.675	79.62
287.906	94.62
288.138	91.62
288.369	93.62
288.6	80.62
288.831	79.62
289.062	73.62
289.293	72.62
289.524	72.62
289.755	84.62
289.986	89.62
290.217	86.62
290.448	71.62
290.679	86.62
290.91	72.62
291.141	78.62
291.371	85.62
291.602	91.62
291.833	78.62
292.064	71.62
292.295	86.62
292.526	81.62
292.757	75.62
292.987	70.62
293.218	78.62
293.449	79.62
293.68	88.62
293.91	79.62
294.141	83.62
294.372	77.62
294.603	74.62
294.833	80.62
295.064	82.62
295.295	85.62
295.525	79.62
295.756	68.62
295.987	81.62
296.217	93.62
296.448	91.62
296.679	79.62
296.909	98.62
297.14	80.62
297.37	81.62
297.601	71.62
297.831	75.62
298.062	71.62
298.292	73.62
298.523	84.62
298.753	63.62
298.984	94.62
299.214	88.62
299.445	84.62
299.675	86.62
299.905	91.62
300.136	79.62
300.366	87.62
300.597	78.62
300.827	93.62
301.057	79.62
301.288	72.62
301.518	85.62
301.748	80.62
301.979	78.62
302.209	83.62
302.439	68.62
302.669	82.62
302.9	90.62
303.13	79.62
303.36	82.62
303.59	74.62
303.82	92.62
304.051	80.62
304.281	85.62
304.511	78.62
304.741	78.62
304.971	81.62
305.201	80.62
305.431	78.62
305.661	94.62
305.891	90.62
306.121	84.62
306.352	77.62
306.582	70.62
306.812	90.62
307.042	83.62
307.272	89.62
307.502	86.62
307.731	77.62
307.961	86.62
308.191	77.62
308.421	84.62
308.651	96.62
308.881	81.62
309.111	81.62
309.341	80.62
309.571	79.62
309.8	86.62
310.03	83.62
310.26	72.62
310.49	72.62
310.72	93.62
310.949	83.62
311.179	86.62
311.409	99.62
311.639	80.62
311.868	93.62
312.098	86.62
312.328	82.62
312.557	78.62
312.787	87.62
313.017	79.62
313.246	78.62
313.476	87.62
313.706	66.62
313.935	76.62
314.165	92.62
314.394	75.62
314.624	74.62
314.853	79.62
315.083	81.62
315.312	78.62
315.542	81.62
315.771	81.62
316.001	69.62
316.23	80.62
316.46	90.62
316.689	88.62
316.919	77.62
317.148	92.62
317.377	83.62
317.607	82.62
317.836	77.62
318.065	72.62
318.295	91.62
318.524	85.62
318.753	78.62
318.983	81.62
319.212	69.62
319.441	77.62
319.67	82.62
319.9	87.62
320.129	77.62
320.358	72.62
320.587	96.62
320.816	87.62
321.046	64.62
321.275	89.62
321.504	79.62
321.733	95.62
321.962	91.62
322.191	74.62
322.42	85.62
322.649	68.62
322.878	71.62
323.108	81.62
323.337	82.62
323.566	85.62
323.795	83.62
324.024	80.62
324.253	79.62
324.482	87.62
324.71	79.62
324.939	84.62
325.168	83.62
325.397	72.62
325.626	80.62
325.855	75.62
326.084	66.62
326.313	79.62
326.542	79.62
326.77	76.62
326.999	79.62
327.228	82.62
327.457	61.62
327.686	74.62
327.914	65.62
328.143	79.62
328.372	80.62
328.6	91.62
328.829	88.62
329.058	90.62
329.287	76.62
329.515	86.62
329.744	78.62
329.972	93.62
330.201	87.62
330.43	85.62
330.658	85.62
330.887	78.62
331.115	71.62
331.344	82.62
331.572	84.62
331.801	76.62
332.03	61.62
332.258	72.62
332.486	63.62
332.715	94.62
332.943	88.62
333.172	72.62
333.4	78.62
333.629	86.62
333.857	88.62
334.085	86.62
334.314	87.62
334.542	81.62
334.771	72.62
334.999	85.62
335.227	82.62
335.455	75.62
335.684	79.62
335.912	79.62
336.14	78.62
336.369	65.62
336.597	63.62
336.825	68.62
337.053	84.62
337.281	92.62
337.51	97.62
337.738	84.62
337.966	78.62
338.194	71.62
338.422	78.62
338.65	74.62
338.878	76.62
339.106	83.62
339.334	82.62
339.562	89.62
339.79	79.62
340.018	83.62
340.246	78.62
340.474	69.62
340.702	80.62
340.93	106.62
341.158	90.62
341.386	79.62
341.614	81.62
341.842	84.62
342.07	84.62
342.298	80.62
342.526	52.62
342.754	67.62
342.981	72.62
343.209	80.62
343.437	83.62
343.665	90.62
343.893	81.62
344.12	82.62
344.348	58.62
344.576	82.62
344.804	78.62
345.031	90.62
345.259	84.62
345.487	85.62
345.714	78.62
345.942	76.62
346.17	83.62
346.397	69.62
346.625	80.62
346.853	73.62
347.08	91.62
347.308	80.62
347.535	94.62
347.763	86.62
347.99	70.62
348.218	74.62
348.445	80.62
348.673	70.62
348.9	83.62
349.128	79.62
349.355	85.62
349.583	77.62
349.81	94.62
350.037	80.62
350.265	75.62
350.492	73.62
350.72	85.62
350.947	71.62
351.174	87.62
351.402	71.62
351.629	72.62
351.856	91.62
352.083	69.62
352.311	78.62
352.538	79.62
352.765	71.62
352.992	84.62
353.22	79.62
353.447	81.62
353.674	80.62
353.901	81.62
354.128	72.62
354.355	83.62
354.583	74.62
354.81	81.62
355.037	87.62
355.264	90.62
355.491	81.62
355.718	66.62
355.945	85.62
356.172	84.62
356.399	85.62
356.626	77.62
356.853	83.62
357.08	79.62
357.307	96.62
357.534	71.62
357.761	66.62
357.988	64.62
358.215	81.62
358.441	74.62
358.668	85.62
358.895	84.62
359.122	73.62
359.349	74.62
359.576	76.62
359.802	67.62
360.029	87.62
360.256	86.62
360.483	80.62
360.709	71.62
360.936	70.62
361.163	75.62
361.39	76.62
361.616	80.62
361.843	84.62
362.07	71.62
362.296	79.62
362.523	67.62
362.749	69.62
362.976	77.62
363.203	90.62
363.429	57.62
363.656	86.62
363.882	76.62
364.109	68.62
364.335	82.62
364.562	81.62
364.788	79.62
365.015	72.62
365.241	92.62
365.468	80.62
365.694	77.62
365.92	86.62
366.147	86.62
366.373	83.62
366.599	65.62
366.826	80.62
367.052	81.62
367.278	87.62
367.505	73.62
367.731	80.62
367.957	88.62
368.184	79.62
368.41	79.62
368.636	88.62
368.862	81.62
369.089	91.62
369.315	71.62
369.541	78.62
369.767	90.62
369.993	76.62
370.219	82.62
370.445	68.62
370.672	69.62
370.898	72.62
371.124	93.62
371.35	79.62
371.576	72.62
371.802	84.62
372.028	78.62
372.254	82.62
372.48	73.62
372.706	81.62
372.932	81.62
373.158	78.62
373.384	86.62
373.61	87.62
373.835	83.62
374.061	69.62
374.287	69.62
374.513	70.62
374.739	71.62
374.965	71.62
375.191	89.62
375.416	82.62
375.642	82.62
375.868	83.62
376.094	85.62
376.319	93.62
376.545	78.62
376.771	75.62
376.997	72.62
377.222	66.62
377.448	70.62
377.674	92.62
377.899	79.62
378.125	94.62
378.35	79.62
378.576	79.62
378.802	72.62
379.027	80.62
379.253	81.62
379.478	92.62
379.704	78.62
379.929	91.62
380.155	81.62
380.38	82.62
380.606	79.62
380.831	66.62
381.057	82.62
381.282	80.62
381.507	73.62
381.733	81.62
381.958	78.62
382.184	77.62
382.409	70.62
382.634	76.62
382.86	71.62
383.085	88.62
383.31	78.62
383.535	91.62
383.761	82.62
383.986	91.62
384.211	71.62
384.436	69.62
384.662	73.62
384.887	87.62
385.112	87.62
385.337	83.62
385.562	71.62
385.787	87.62
386.013	77.62
386.238	75.62
386.463	76.62
386.688	84.62
386.913	85.62
387.138	80.62
387.363	62.62
387.588	87.62
387.813	79.62
388.038	83.62
388.263	82.62
388.488	88.62
388.713	77.62
388.938	79.62
389.163	77.62
389.387	81.62
389.612	85.62
389.837	84.62
390.062	80.62
390.287	87.62
390.512	101.62
390.736	86.62
390.961	76.62
391.186	79.62
391.411	70.62
391.636	86.62
391.86	94.62
392.085	86.62
392.31	77.62
392.534	71.62
392.759	77.62
392.984	80.62
393.208	103.62
393.433	76.62
393.658	80.62
393.882	83.62
394.107	82.62
394.331	83.62
394.556	95.62
394.78	77.62
395.005	77.62
395.229	79.62
395.454	86.62
395.678	90.62
395.903	85.62
396.127	82.62
396.352	94.62
396.576	75.62
396.801	83.62
397.025	78.62
397.249	89.62
397.474	93.62
397.698	95.62
397.922	86.62
398.147	75.62
398.371	81.62
398.595	94.62
398.82	79.62
399.044	75.62
399.268	86.62
399.492	73.62
399.717	84.62
399.941	78.62
400.165	86.62
400.389	93.62
400.613	80.62
400.837	71.62
401.062	74.62
401.286	85.62
401.51	79.62
401.734	85.62
401.958	77.62
402.182	97.62
402.406	102.62
402.63	86.62
402.854	83.62
403.078	85.62
403.302	79.62
403.526	87.62
403.75	96.62
403.974	81.62
404.198	89.62
404.422	89.62
404.645	88.62
404.869	86.62
405.093	88.62
405.317	86.62
405.541	85.62
405.765	95.62
405.988	85.62
406.212	91.62
406.436	76.62
406.66	78.62
406.883	85.62
407.107	90.62
407.331	90.62
407.555	70.62
407.778	92.62
408.002	85.62
408.226	76.62
408.449	84.62
408.673	76.62
408.896	85.62
409.12	79.62
409.344	81.62
409.567	80.62
409.791	82.62
410.014	88.62
410.238	90.62
410.461	82.62
410.685	98.62
410.908	86.62
411.132	87.62
411.355	88.62
411.578	99.62
411.802	80.62
412.025	82.62
412.249	70.62
412.472	93.62
412.695	90.62
412.919	87.62
413.142	86.62
413.365	86.62
413.589	82.62
413.812	83.62
414.035	92.62
414.258	91.62
414.482	74.62
414.705	90.62
414.928	84.62
415.151	103.62
415.374	85.62
415.597	96.62
415.821	92.62
416.044	86.62
416.267	85.62
416.49	75.62
416.713	98.62
416.936	97.62
417.159	92.62
417.382	106.62
417.605	85.62
417.828	92.62
418.051	95.62
418.274	88.62
418.497	94.62
418.72	90.62
418.943	95.62
419.166	90.62
419.389	94.62
419.611	91.62
419.834	95.62
420.057	105.62
420.28	96.62
420.503	91.62
420.726	93.62
420.948	83.62
421.171	107.62
421.394	80.62
421.617	94.62
421.839	93.62
422.062	79.62
422.285	72.62
422.507	83.62
422.73	93.62
422.953	70.62
423.175	86.62
423.398	86.62
423.621	87.62
423.843	98.62
424.066	81.62
424.288	75.62
424.511	101.62
424.733	95.62
424.956	93.62
425.178	96.62
425.401	83.62
425.623	90.62
425.846	96.62
426.068	87.62
426.291	89.62
426.513	79.62
426.735	87.62
426.958	88.62
427.18	85.62
427.402	86.62
427.625	90.62
427.847	80.62
428.069	84.62
428.292	83.62
428.514	86.62
428.736	84.62
428.958	102.62
429.181	90.62
429.403	89.62
429.625	87.62
429.847	84.62
430.069	94.62
430.292	98.62
430.514	74.62
430.736	86.62
430.958	84.62
431.18	89.62
431.402	87.62
431.624	91.62
431.846	81.62
432.068	90.62
432.29	93.62
432.512	83.62
432.734	88.62
432.956	96.62
433.178	83.62
433.4	96.62
433.622	80.62
433.844	86.62
434.066	69.62
434.287	85.62
434.509	88.62
434.731	84.62
434.953	96.62
435.175	98.62
435.397	83.62
435.618	85.62
435.84	83.62
436.062	80.62
436.284	99.62
436.505	80.62
436.727	89.62
436.949	91.62
437.17	85.62
437.392	82.62
437.614	99.62
437.835	83.62
438.057	64.62
438.278	92.62
438.5	105.62
438.721	91.62
438.943	91.62
439.165	97.62
439.386	105.62
439.608	101.62
439.829	80.62
440.05	94.62
440.272	96.62
440.493	88.62
440.715	96.62
440.936	86.62
441.158	95.62
441.379	95.62
441.6	87.62
441.822	95.62
442.043	91.62
442.264	96.62
442.486	87.62
442.707	95.62
442.928	91.62
443.149	80.62
443.371	88.62
443.592	72.62
443.813	89.62
444.034	84.62
444.255	80.62
444.476	88.62
444.698	96.62
444.919	94.62
445.14	208.62
445.361	150.62
445.582	106.62
445.803	90.62
446.024	71.62
446.245	90.62
446.466	97.62
446.687	86.62
446.908	85.62
447.129	96.62
447.35	92.62
447.571	91.62
447.792	87.62
448.013	81.62
448.234	86.62
448.455	85.62
448.675	79.62
448.896	73.62
449.117	87.62
449.338	93.62
449.559	94.62
449.779	92.62
450	94.62
450.221	78.62
450.442	98.62
450.662	93.62
450.883	70.62
451.104	95.62
451.324	91.62
451.545	88.62
451.766	92.62
451.986	85.62
452.207	71.62
452.428	72.62
452.648	93.62
452.869	84.62
453.089	89.62
453.31	88.62
453.53	83.62
453.751	81.62
453.971	64.62
454.192	89.62
454.412	86.62
454.633	90.62
454.853	84.62
455.073	77.62
455.294	91.62
455.514	83.62
455.734	83.62
455.955	84.62
456.175	78.62
456.395	82.62
456.616	85.62
456.836	79.62
457.056	91.62
457.276	86.62
457.497	79.62
457.717	66.62
457.937	79.62
458.157	74.62
458.377	83.62
458.598	71.62
458.818	77.62
459.038	81.62
459.258	75.62
459.478	77.62
459.698	79.62
459.918	71.62
460.138	74.62
460.358	75.62
460.578	74.62
460.798	84.62
461.018	83.62
461.238	77.62
461.458	96.62
461.678	79.62
461.898	95.62
462.118	82.62
462.338	77.62
462.558	90.62
462.777	74.62
462.997	83.62
463.217	64.62
463.437	96.62
463.657	92.62
463.876	65.62
464.096	79.62
464.316	81.62
464.536	68.62
464.755	79.62
464.975	83.62
465.195	74.62
465.414	84.62
465.634	92.62
465.854	84.62
466.073	88.62
466.293	99.62
466.512	101.62
466.732	90.62
466.951	90.62
467.171	88.62
467.391	99.62
467.61	86.62
467.829	91.62
468.049	100.62
468.268	95.62
468.488	91.62
468.707	95.62
468.927	95.62
469.146	81.62
469.365	96.62
469.585	97.62
469.804	85.62
470.023	79.62
470.243	92.62
470.462	96.62
470.681	82.62
470.901	86.62
471.12	92.62
471.339	89.62
471.558	94.62
471.777	82.62
471.997	75.62
472.216	92.62
472.435	80.62
472.654	88.62
472.873	86.62
473.092	87.62
473.311	91.62
473.53	106.62
473.749	86.62
473.968	83.62
474.187	86.62
474.406	73.62
474.625	82.62
474.844	91.62
475.063	87.62
475.282	87.62
475.501	90.62
475.72	92.62
475.939	99.62
476.158	88.62
476.377	104.62
476.596	92.62
476.814	82.62
477.033	93.62
477.252	74.62
477.471	82.62
477.69	81.62
477.908	77.62
478.127	107.62
478.346	80.62
478.564	92.62
478.783	77.62
479.002	85.62
479.22	94.62
479.439	73.62
479.658	77.62
479.876	90.62
480.095	86.62
480.313	83.62
480.532	80.62
480.751	94.62
480.969	80.62
481.188	82.62
481.406	81.62
481.624	85.62
481.843	84.62
482.061	81.62
482.28	86.62
482.498	92.62
482.717	86.62
482.935	87.62
483.153	91.62
483.372	92.62
483.59	114.62
483.808	95.62
484.027	84.62
484.245	98.62
484.463	99.62
484.681	99.62
484.9	99.62
485.118	102.62
485.336	90.62
485.554	73.62
485.772	94.62
485.99	90.62
486.209	92.62
486.427	88.62
486.645	79.62
486.863	91.62
487.081	83.62
487.299	98.62
487.517	83.62
487.735	117.62
487.953	112.62
488.171	114.62
488.389	105.62
488.607	118.62
488.825	96.62
489.043	97.62
489.261	110.62
489.479	90.62
489.696	90.62
489.914	94.62
490.132	85.62
490.35	94.62
490.568	103.62
490.786	101.62
491.003	94.62
491.221	112.62
491.439	108.62
491.657	98.62
491.874	103.62
492.092	129.62
492.31	117.62
492.527	110.62
492.745	107.62
492.963	113.62
493.18	106.62
493.398	105.62
493.615	99.62
493.833	108.62
494.05	111.62
494.268	106.62
494.485	100.62
494.703	95.62
494.92	117.62
495.138	103.62
495.355	92.62
495.573	97.62
495.79	99.62
496.008	112.62
496.225	92.62
496.442	90.62
496.66	106.62
496.877	84.62
497.094	88.62
497.312	104.62
497.529	111.62
497.746	110.62
497.963	106.62
498.181	72.62
498.398	87.62
498.615	87.62
498.832	87.62
499.049	84.62
499.267	81.62
499.484	89.62
499.701	92.62
499.918	91.62
500.135	96.62
500.352	91.62
500.569	84.62
500.786	99.62
501.003	102.62
501.22	106.62
501.437	106.62
501.654	93.62
501.871	98.62
502.088	92.62
502.305	95.62
502.522	88.62
502.739	88.62
502.956	84.62
503.172	85.62
503.389	84.62
503.606	88.62
503.823	87.62
504.04	93.62
504.256	89.62
504.473	83.62
504.69	88.62
504.907	95.62
505.123	92.62
505.34	94.62
505.557	89.62
505.773	89.62
505.99	106.62
506.207	99.62
506.423	76.62
506.64	72.62
506.856	76.62
507.073	93.62
507.289	103.62
507.506	83.62
507.722	85.62
507.939	68.62
508.155	87.62
508.372	95.62
508.588	89.62
508.805	93.62
509.021	78.62
509.238	87.62
509.454	87.62
509.67	83.62
509.887	78.62
510.103	91.62
510.319	80.62
510.536	81.62
510.752	72.62
510.968	77.62
511.184	90.62
511.401	87.62
511.617	88.62
511.833	95.62
512.049	77.62
512.265	78.62
512.481	101.62
512.698	83.62
512.914	72.62
513.13	71.62
513.346	86.62
513.562	89.62
513.778	83.62
513.994	84.62
514.21	63.62
514.426	77.62
514.642	76.62
514.858	90.62
515.074	78.62
515.29	82.62
515.506	79.62
515.721	86.62
515.937	87.62
516.153	83.62
516.369	72.62
516.585	75.62
516.801	72.62
517.016	97.62
517.232	91.62
517.448	92.62
517.664	79.62
517.879	67.62
518.095	66.62
518.311	79.62
518.527	66.62
518.742	79.62
