Data from Location5.07152019.Energy5.Lamp.07192019.3%Agarose_HRD10591_15-36-22-386.txt Node
Date: Fri Jul 19 15:36:22 EDT 2019
User: cochatt
Spectrometer: HR+D1059
Trigger mode: 1
Integration Time (sec): 1.000000E-1
Scans to average: 1
Electric dark correction enabled: true
Nonlinearity correction enabled: false
Boxcar width: 0
XAxis mode: Wavelengths
Number of Pixels in Spectrum: 2048
>>>>>Begin Spectral Data<<<<<
223.165	-12.5
223.4	-12.5
223.635	-12.5
223.869	-17.5
224.104	-25.5
224.338	-5.5
224.573	-20.5
224.808	-15.5
225.042	-19.5
225.277	-3.5
225.511	-0.5
225.746	5.5
225.98	3.5
226.215	7.5
226.449	18.5
226.683	18.5
226.918	23.5
227.152	43.5
227.387	45.5
227.621	38.5
227.856	49.5
228.09	32.5
228.324	57.5
228.559	60.5
228.793	53.5
229.027	51.5
229.262	69.5
229.496	52.5
229.73	76.5
229.964	75.5
230.199	71.5
230.433	72.5
230.667	81.5
230.901	84.5
231.136	83.5
231.37	61.5
231.604	75.5
231.838	83.5
232.072	83.5
232.306	80.5
232.541	85.5
232.775	100.5
233.009	86.5
233.243	82.5
233.477	93.5
233.711	72.5
233.945	80.5
234.179	80.5
234.413	68.5
234.647	65.5
234.881	87.5
235.115	74.5
235.349	76.5
235.583	88.5
235.817	83.5
236.051	77.5
236.285	83.5
236.519	85.5
236.753	66.5
236.987	76.5
237.221	76.5
237.455	87.5
237.689	74.5
237.922	68.5
238.156	74.5
238.39	84.5
238.624	84.5
238.858	70.5
239.091	72.5
239.325	56.5
239.559	79.5
239.793	85.5
240.027	83.5
240.26	77.5
240.494	91.5
240.728	74.5
240.961	74.5
241.195	92.5
241.429	77.5
241.662	65.5
241.896	74.5
242.13	76.5
242.363	83.5
242.597	78.5
242.83	80.5
243.064	89.5
243.298	82.5
243.531	72.5
243.765	78.5
243.998	84.5
244.232	79.5
244.465	82.5
244.699	67.5
244.932	90.5
245.166	75.5
245.399	68.5
245.633	92.5
245.866	82.5
246.099	77.5
246.333	91.5
246.566	71.5
246.8	59.5
247.033	79.5
247.266	77.5
247.5	84.5
247.733	80.5
247.966	85.5
248.2	88.5
248.433	80.5
248.666	88.5
248.899	79.5
249.133	80.5
249.366	76.5
249.599	71.5
249.832	75.5
250.066	83.5
250.299	81.5
250.532	104.5
250.765	77.5
250.998	69.5
251.231	84.5
251.465	81.5
251.698	81.5
251.931	77.5
252.164	88.5
252.397	81.5
252.63	85.5
252.863	82.5
253.096	82.5
253.329	74.5
253.562	71.5
253.795	88.5
254.028	86.5
254.261	69.5
254.494	80.5
254.727	77.5
254.96	78.5
255.193	75.5
255.426	67.5
255.659	81.5
255.892	78.5
256.124	80.5
256.357	81.5
256.59	88.5
256.823	90.5
257.056	82.5
257.289	90.5
257.521	88.5
257.754	84.5
257.987	83.5
258.22	82.5
258.452	84.5
258.685	79.5
258.918	84.5
259.151	98.5
259.383	76.5
259.616	90.5
259.849	90.5
260.081	70.5
260.314	75.5
260.547	81.5
260.779	92.5
261.012	71.5
261.244	85.5
261.477	79.5
261.71	88.5
261.942	88.5
262.175	93.5
262.407	71.5
262.64	69.5
262.872	95.5
263.105	90.5
263.337	86.5
263.57	78.5
263.802	84.5
264.035	89.5
264.267	83.5
264.499	75.5
264.732	81.5
264.964	80.5
265.197	83.5
265.429	92.5
265.661	82.5
265.894	97.5
266.126	76.5
266.358	73.5
266.591	73.5
266.823	79.5
267.055	69.5
267.287	87.5
267.52	85.5
267.752	87.5
267.984	86.5
268.216	89.5
268.448	83.5
268.681	78.5
268.913	81.5
269.145	85.5
269.377	81.5
269.609	80.5
269.841	88.5
270.073	73.5
270.306	91.5
270.538	82.5
270.77	83.5
271.002	94.5
271.234	71.5
271.466	88.5
271.698	76.5
271.93	81.5
272.162	84.5
272.394	85.5
272.626	71.5
272.858	88.5
273.09	76.5
273.322	87.5
273.553	77.5
273.785	69.5
274.017	79.5
274.249	87.5
274.481	81.5
274.713	84.5
274.945	82.5
275.176	74.5
275.408	89.5
275.64	76.5
275.872	86.5
276.104	82.5
276.335	92.5
276.567	90.5
276.799	88.5
277.031	68.5
277.262	80.5
277.494	83.5
277.726	84.5
277.957	82.5
278.189	77.5
278.421	78.5
278.652	88.5
278.884	70.5
279.115	97.5
279.347	71.5
279.579	93.5
279.81	92.5
280.042	93.5
280.273	97.5
280.505	88.5
280.736	80.5
280.968	81.5
281.199	82.5
281.431	84.5
281.662	76.5
281.894	95.5
282.125	81.5
282.356	89.5
282.588	83.5
282.819	85.5
283.051	85.5
283.282	67.5
283.513	89.5
283.745	87.5
283.976	86.5
284.207	83.5
284.439	85.5
284.67	71.5
284.901	81.5
285.132	81.5
285.364	70.5
285.595	75.5
285.826	80.5
286.057	88.5
286.288	82.5
286.52	83.5
286.751	75.5
286.982	77.5
287.213	95.5
287.444	81.5
287.675	83.5
287.906	84.5
288.138	94.5
288.369	80.5
288.6	78.5
288.831	81.5
289.062	85.5
289.293	88.5
289.524	88.5
289.755	98.5
289.986	91.5
290.217	91.5
290.448	88.5
290.679	89.5
290.91	82.5
291.141	89.5
291.371	84.5
291.602	82.5
291.833	84.5
292.064	83.5
292.295	83.5
292.526	74.5
292.757	83.5
292.987	94.5
293.218	83.5
293.449	90.5
293.68	92.5
293.91	84.5
294.141	85.5
294.372	99.5
294.603	74.5
294.833	90.5
295.064	95.5
295.295	89.5
295.525	88.5
295.756	85.5
295.987	93.5
296.217	91.5
296.448	76.5
296.679	83.5
296.909	71.5
297.14	81.5
297.37	96.5
297.601	90.5
297.831	77.5
298.062	84.5
298.292	90.5
298.523	78.5
298.753	84.5
298.984	79.5
299.214	83.5
299.445	91.5
299.675	87.5
299.905	96.5
300.136	100.5
300.366	84.5
300.597	84.5
300.827	84.5
301.057	77.5
301.288	80.5
301.518	83.5
301.748	85.5
301.979	77.5
302.209	81.5
302.439	77.5
302.669	95.5
302.9	89.5
303.13	95.5
303.36	92.5
303.59	86.5
303.82	96.5
304.051	83.5
304.281	74.5
304.511	81.5
304.741	85.5
304.971	83.5
305.201	85.5
305.431	77.5
305.661	83.5
305.891	90.5
306.121	86.5
306.352	68.5
306.582	79.5
306.812	72.5
307.042	92.5
307.272	91.5
307.502	87.5
307.731	87.5
307.961	82.5
308.191	75.5
308.421	76.5
308.651	93.5
308.881	86.5
309.111	87.5
309.341	88.5
309.571	95.5
309.8	82.5
310.03	87.5
310.26	95.5
310.49	102.5
310.72	81.5
310.949	75.5
311.179	89.5
311.409	80.5
311.639	81.5
311.868	75.5
312.098	75.5
312.328	87.5
312.557	80.5
312.787	94.5
313.017	87.5
313.246	83.5
313.476	89.5
313.706	72.5
313.935	85.5
314.165	78.5
314.394	81.5
314.624	83.5
314.853	93.5
315.083	85.5
315.312	83.5
315.542	95.5
315.771	88.5
316.001	85.5
316.23	87.5
316.46	76.5
316.689	71.5
316.919	89.5
317.148	96.5
317.377	108.5
317.607	70.5
317.836	84.5
318.065	80.5
318.295	88.5
318.524	83.5
318.753	82.5
318.983	99.5
319.212	63.5
319.441	93.5
319.67	81.5
319.9	84.5
320.129	74.5
320.358	77.5
320.587	78.5
320.816	97.5
321.046	75.5
321.275	83.5
321.504	74.5
321.733	86.5
321.962	94.5
322.191	84.5
322.42	93.5
322.649	82.5
322.878	81.5
323.108	97.5
323.337	82.5
323.566	78.5
323.795	98.5
324.024	86.5
324.253	95.5
324.482	100.5
324.71	90.5
324.939	81.5
325.168	80.5
325.397	82.5
325.626	82.5
325.855	74.5
326.084	92.5
326.313	86.5
326.542	87.5
326.77	96.5
326.999	75.5
327.228	87.5
327.457	81.5
327.686	85.5
327.914	80.5
328.143	83.5
328.372	76.5
328.6	87.5
328.829	93.5
329.058	92.5
329.287	90.5
329.515	88.5
329.744	91.5
329.972	82.5
330.201	82.5
330.43	77.5
330.658	77.5
330.887	90.5
331.115	80.5
331.344	77.5
331.572	86.5
331.801	78.5
332.03	84.5
332.258	84.5
332.486	90.5
332.715	91.5
332.943	82.5
333.172	85.5
333.4	92.5
333.629	92.5
333.857	75.5
334.085	80.5
334.314	93.5
334.542	86.5
334.771	92.5
334.999	91.5
335.227	85.5
335.455	78.5
335.684	96.5
335.912	80.5
336.14	80.5
336.369	70.5
336.597	81.5
336.825	84.5
337.053	78.5
337.281	94.5
337.51	78.5
337.738	80.5
337.966	73.5
338.194	77.5
338.422	83.5
338.65	85.5
338.878	103.5
339.106	93.5
339.334	90.5
339.562	77.5
339.79	90.5
340.018	84.5
340.246	82.5
340.474	86.5
340.702	96.5
340.93	94.5
341.158	89.5
341.386	86.5
341.614	82.5
341.842	86.5
342.07	78.5
342.298	90.5
342.526	71.5
342.754	85.5
342.981	77.5
343.209	77.5
343.437	88.5
343.665	80.5
343.893	87.5
344.12	80.5
344.348	96.5
344.576	81.5
344.804	84.5
345.031	87.5
345.259	78.5
345.487	84.5
345.714	93.5
345.942	92.5
346.17	96.5
346.397	85.5
346.625	97.5
346.853	90.5
347.08	74.5
347.308	81.5
347.535	84.5
347.763	100.5
347.99	76.5
348.218	90.5
348.445	88.5
348.673	82.5
348.9	83.5
349.128	92.5
349.355	91.5
349.583	83.5
349.81	73.5
350.037	85.5
350.265	77.5
350.492	83.5
350.72	82.5
350.947	83.5
351.174	89.5
351.402	93.5
351.629	91.5
351.856	90.5
352.083	86.5
352.311	91.5
352.538	88.5
352.765	91.5
352.992	75.5
353.22	81.5
353.447	88.5
353.674	83.5
353.901	80.5
354.128	84.5
354.355	88.5
354.583	80.5
354.81	74.5
355.037	77.5
355.264	75.5
355.491	94.5
355.718	104.5
355.945	80.5
356.172	98.5
356.399	89.5
356.626	81.5
356.853	76.5
357.08	83.5
357.307	87.5
357.534	78.5
357.761	81.5
357.988	73.5
358.215	79.5
358.441	66.5
358.668	82.5
358.895	102.5
359.122	92.5
359.349	75.5
359.576	77.5
359.802	69.5
360.029	69.5
360.256	79.5
360.483	90.5
360.709	83.5
360.936	76.5
361.163	80.5
361.39	87.5
361.616	81.5
361.843	58.5
362.07	88.5
362.296	88.5
362.523	72.5
362.749	93.5
362.976	67.5
363.203	87.5
363.429	83.5
363.656	78.5
363.882	81.5
364.109	88.5
364.335	74.5
364.562	70.5
364.788	78.5
365.015	90.5
365.241	89.5
365.468	91.5
365.694	82.5
365.92	91.5
366.147	83.5
366.373	77.5
366.599	85.5
366.826	82.5
367.052	88.5
367.278	89.5
367.505	76.5
367.731	69.5
367.957	101.5
368.184	90.5
368.41	77.5
368.636	101.5
368.862	72.5
369.089	77.5
369.315	87.5
369.541	97.5
369.767	86.5
369.993	87.5
370.219	96.5
370.445	80.5
370.672	84.5
370.898	72.5
371.124	98.5
371.35	86.5
371.576	82.5
371.802	88.5
372.028	103.5
372.254	84.5
372.48	96.5
372.706	77.5
372.932	60.5
373.158	83.5
373.384	81.5
373.61	77.5
373.835	81.5
374.061	78.5
374.287	81.5
374.513	92.5
374.739	96.5
374.965	99.5
375.191	79.5
375.416	90.5
375.642	101.5
375.868	89.5
376.094	97.5
376.319	85.5
376.545	85.5
376.771	96.5
376.997	95.5
377.222	90.5
377.448	76.5
377.674	76.5
377.899	92.5
378.125	77.5
378.35	79.5
378.576	75.5
378.802	82.5
379.027	102.5
379.253	83.5
379.478	96.5
379.704	93.5
379.929	80.5
380.155	83.5
380.38	91.5
380.606	88.5
380.831	97.5
381.057	92.5
381.282	79.5
381.507	85.5
381.733	79.5
381.958	83.5
382.184	82.5
382.409	96.5
382.634	91.5
382.86	76.5
383.085	79.5
383.31	82.5
383.535	77.5
383.761	90.5
383.986	102.5
384.211	99.5
384.436	83.5
384.662	92.5
384.887	79.5
385.112	97.5
385.337	90.5
385.562	96.5
385.787	75.5
386.013	81.5
386.238	90.5
386.463	98.5
386.688	97.5
386.913	90.5
387.138	79.5
387.363	74.5
387.588	81.5
387.813	81.5
388.038	87.5
388.263	89.5
388.488	88.5
388.713	95.5
388.938	93.5
389.163	96.5
389.387	87.5
389.612	76.5
389.837	88.5
390.062	80.5
390.287	88.5
390.512	82.5
390.736	90.5
390.961	86.5
391.186	80.5
391.411	71.5
391.636	78.5
391.86	104.5
392.085	86.5
392.31	76.5
392.534	91.5
392.759	94.5
392.984	97.5
393.208	90.5
393.433	94.5
393.658	94.5
393.882	79.5
394.107	87.5
394.331	94.5
394.556	88.5
394.78	91.5
395.005	80.5
395.229	92.5
395.454	87.5
395.678	94.5
395.903	96.5
396.127	89.5
396.352	82.5
396.576	92.5
396.801	100.5
397.025	100.5
397.249	91.5
397.474	90.5
397.698	98.5
397.922	105.5
398.147	90.5
398.371	83.5
398.595	100.5
398.82	82.5
399.044	88.5
399.268	93.5
399.492	95.5
399.717	95.5
399.941	88.5
400.165	91.5
400.389	101.5
400.613	92.5
400.837	90.5
401.062	77.5
401.286	93.5
401.51	89.5
401.734	95.5
401.958	79.5
402.182	102.5
402.406	87.5
402.63	69.5
402.854	88.5
403.078	84.5
403.302	108.5
403.526	96.5
403.75	88.5
403.974	85.5
404.198	88.5
404.422	86.5
404.645	85.5
404.869	89.5
405.093	69.5
405.317	95.5
405.541	105.5
405.765	99.5
405.988	106.5
406.212	90.5
406.436	88.5
406.66	88.5
406.883	83.5
407.107	83.5
407.331	78.5
407.555	87.5
407.778	94.5
408.002	86.5
408.226	90.5
408.449	81.5
408.673	90.5
408.896	100.5
409.12	86.5
409.344	97.5
409.567	99.5
409.791	105.5
410.014	104.5
410.238	88.5
410.461	101.5
410.685	89.5
410.908	89.5
411.132	97.5
411.355	82.5
411.578	82.5
411.802	98.5
412.025	86.5
412.249	104.5
412.472	94.5
412.695	97.5
412.919	100.5
413.142	96.5
413.365	100.5
413.589	97.5
413.812	104.5
414.035	104.5
414.258	105.5
414.482	81.5
414.705	94.5
414.928	93.5
415.151	89.5
415.374	85.5
415.597	78.5
415.821	86.5
416.044	102.5
416.267	98.5
416.49	80.5
416.713	99.5
416.936	88.5
417.159	89.5
417.382	107.5
417.605	79.5
417.828	89.5
418.051	96.5
418.274	91.5
418.497	87.5
418.72	88.5
418.943	106.5
419.166	101.5
419.389	87.5
419.611	96.5
419.834	90.5
420.057	92.5
420.28	104.5
420.503	89.5
420.726	81.5
420.948	88.5
421.171	103.5
421.394	98.5
421.617	100.5
421.839	90.5
422.062	89.5
422.285	85.5
422.507	80.5
422.73	106.5
422.953	91.5
423.175	86.5
423.398	104.5
423.621	88.5
423.843	90.5
424.066	98.5
424.288	90.5
424.511	103.5
424.733	96.5
424.956	99.5
425.178	99.5
425.401	87.5
425.623	102.5
425.846	94.5
426.068	94.5
426.291	93.5
426.513	103.5
426.735	99.5
426.958	84.5
427.18	101.5
427.402	86.5
427.625	102.5
427.847	89.5
428.069	87.5
428.292	101.5
428.514	97.5
428.736	98.5
428.958	76.5
429.181	91.5
429.403	102.5
429.625	87.5
429.847	91.5
430.069	82.5
430.292	92.5
430.514	84.5
430.736	87.5
430.958	77.5
431.18	76.5
431.402	87.5
431.624	74.5
431.846	84.5
432.068	87.5
432.29	87.5
432.512	77.5
432.734	84.5
432.956	89.5
433.178	91.5
433.4	99.5
433.622	94.5
433.844	94.5
434.066	92.5
434.287	93.5
434.509	81.5
434.731	91.5
434.953	87.5
435.175	84.5
435.397	85.5
435.618	98.5
435.84	78.5
436.062	98.5
436.284	98.5
436.505	98.5
436.727	97.5
436.949	96.5
437.17	96.5
437.392	96.5
437.614	80.5
437.835	99.5
438.057	88.5
438.278	79.5
438.5	85.5
438.721	80.5
438.943	105.5
439.165	104.5
439.386	104.5
439.608	102.5
439.829	88.5
440.05	100.5
440.272	118.5
440.493	83.5
440.715	82.5
440.936	100.5
441.158	82.5
441.379	87.5
441.6	103.5
441.822	97.5
442.043	95.5
442.264	80.5
442.486	97.5
442.707	99.5
442.928	102.5
443.149	83.5
443.371	96.5
443.592	84.5
443.813	98.5
444.034	88.5
444.255	87.5
444.476	95.5
444.698	83.5
444.919	107.5
445.14	222.5
445.361	172.5
445.582	101.5
445.803	98.5
446.024	92.5
446.245	105.5
446.466	123.5
446.687	96.5
446.908	106.5
447.129	99.5
447.35	91.5
447.571	104.5
447.792	99.5
448.013	75.5
448.234	96.5
448.455	95.5
448.675	96.5
448.896	82.5
449.117	99.5
449.338	92.5
449.559	100.5
449.779	106.5
450	89.5
450.221	93.5
450.442	107.5
450.662	92.5
450.883	98.5
451.104	80.5
451.324	95.5
451.545	113.5
451.766	99.5
451.986	96.5
452.207	88.5
452.428	92.5
452.648	86.5
452.869	101.5
453.089	102.5
453.31	92.5
453.53	81.5
453.751	87.5
453.971	91.5
454.192	87.5
454.412	76.5
454.633	80.5
454.853	82.5
455.073	91.5
455.294	80.5
455.514	98.5
455.734	97.5
455.955	85.5
456.175	85.5
456.395	92.5
456.616	91.5
456.836	88.5
457.056	87.5
457.276	86.5
457.497	92.5
457.717	84.5
457.937	73.5
458.157	92.5
458.377	108.5
458.598	89.5
458.818	82.5
459.038	79.5
459.258	98.5
459.478	74.5
459.698	93.5
459.918	94.5
460.138	97.5
460.358	98.5
460.578	101.5
460.798	97.5
461.018	83.5
461.238	81.5
461.458	95.5
461.678	80.5
461.898	87.5
462.118	95.5
462.338	85.5
462.558	105.5
462.777	82.5
462.997	90.5
463.217	84.5
463.437	87.5
463.657	86.5
463.876	99.5
464.096	94.5
464.316	88.5
464.536	84.5
464.755	78.5
464.975	90.5
465.195	85.5
465.414	85.5
465.634	76.5
465.854	94.5
466.073	92.5
466.293	95.5
466.512	91.5
466.732	90.5
466.951	90.5
467.171	92.5
467.391	84.5
467.61	96.5
467.829	96.5
468.049	102.5
468.268	91.5
468.488	99.5
468.707	87.5
468.927	76.5
469.146	90.5
469.365	111.5
469.585	106.5
469.804	98.5
470.023	97.5
470.243	107.5
470.462	109.5
470.681	114.5
470.901	99.5
471.12	101.5
471.339	105.5
471.558	91.5
471.777	102.5
471.997	108.5
472.216	114.5
472.435	100.5
472.654	74.5
472.873	88.5
473.092	87.5
473.311	106.5
473.53	95.5
473.749	88.5
473.968	89.5
474.187	96.5
474.406	90.5
474.625	92.5
474.844	85.5
475.063	96.5
475.282	99.5
475.501	87.5
475.72	97.5
475.939	83.5
476.158	96.5
476.377	88.5
476.596	108.5
476.814	106.5
477.033	92.5
477.252	92.5
477.471	87.5
477.69	88.5
477.908	86.5
478.127	90.5
478.346	100.5
478.564	106.5
478.783	100.5
479.002	95.5
479.22	91.5
479.439	101.5
479.658	91.5
479.876	78.5
480.095	84.5
480.313	89.5
480.532	102.5
480.751	83.5
480.969	80.5
481.188	83.5
481.406	92.5
481.624	81.5
481.843	89.5
482.061	88.5
482.28	95.5
482.498	85.5
482.717	86.5
482.935	90.5
483.153	93.5
483.372	92.5
483.59	102.5
483.808	103.5
484.027	113.5
484.245	93.5
484.463	88.5
484.681	123.5
484.9	100.5
485.118	89.5
485.336	88.5
485.554	93.5
485.772	88.5
485.99	85.5
486.209	101.5
486.427	89.5
486.645	93.5
486.863	82.5
487.081	96.5
487.299	87.5
487.517	87.5
487.735	111.5
487.953	121.5
488.171	114.5
488.389	92.5
488.607	111.5
488.825	99.5
489.043	100.5
489.261	114.5
489.479	99.5
489.696	97.5
489.914	91.5
490.132	101.5
490.35	109.5
490.568	105.5
490.786	104.5
491.003	120.5
491.221	121.5
491.439	104.5
491.657	119.5
491.874	122.5
492.092	128.5
492.31	128.5
492.527	126.5
492.745	118.5
492.963	123.5
493.18	129.5
493.398	123.5
493.615	114.5
493.833	106.5
494.05	108.5
494.268	99.5
494.485	113.5
494.703	107.5
494.92	107.5
495.138	110.5
495.355	113.5
495.573	100.5
495.79	98.5
496.008	103.5
496.225	118.5
496.442	102.5
496.66	113.5
496.877	101.5
497.094	109.5
497.312	102.5
497.529	99.5
497.746	88.5
497.963	96.5
498.181	91.5
498.398	113.5
498.615	104.5
498.832	97.5
499.049	81.5
499.267	95.5
499.484	103.5
499.701	97.5
499.918	96.5
500.135	100.5
500.352	105.5
500.569	98.5
500.786	88.5
501.003	113.5
501.22	111.5
501.437	108.5
501.654	106.5
501.871	110.5
502.088	92.5
502.305	93.5
502.522	91.5
502.739	92.5
502.956	95.5
503.172	93.5
503.389	100.5
503.606	102.5
503.823	84.5
504.04	85.5
504.256	104.5
504.473	99.5
504.69	111.5
504.907	93.5
505.123	86.5
505.34	92.5
505.557	94.5
505.773	92.5
505.99	105.5
506.207	84.5
506.423	89.5
506.64	96.5
506.856	101.5
507.073	98.5
507.289	106.5
507.506	107.5
507.722	76.5
507.939	84.5
508.155	87.5
508.372	91.5
508.588	81.5
508.805	92.5
509.021	99.5
509.238	82.5
509.454	96.5
509.67	88.5
509.887	105.5
510.103	92.5
510.319	85.5
510.536	91.5
510.752	85.5
510.968	88.5
511.184	94.5
511.401	81.5
511.617	79.5
511.833	105.5
512.049	107.5
512.265	74.5
512.481	86.5
512.698	100.5
512.914	78.5
513.13	89.5
513.346	94.5
513.562	89.5
513.778	80.5
513.994	89.5
514.21	89.5
514.426	83.5
514.642	89.5
514.858	76.5
515.074	85.5
515.29	86.5
515.506	85.5
515.721	81.5
515.937	85.5
516.153	76.5
516.369	80.5
516.585	97.5
516.801	88.5
517.016	71.5
517.232	84.5
517.448	93.5
517.664	72.5
517.879	89.5
518.095	84.5
518.311	81.5
518.527	85.5
518.742	88.5
518.958	95.5
519.173	91.5
519.389	79.5
519.605	84.5
519.82	91.5
520.036	90.5
520.251	103.5
520.467	91.5
520.682	81.5
520.898	76.5
521.113	87.5
521.329	80.5
521.544	82.5
521.76	74.5
521.975	95.5
522.19	91.5
522.406	89.5
522.621	85.5
522.836	90.5
523.052	86.5
523.267	88.5
523.482	96.5
523.698	87.5
523.913	89.5
524.128	92.5
524.343	86.5
524.559	103.5
524.774	93.5
524.989	86.5
525.204	99.5
525.419	93.5
525.634	88.5
525.849	86.5
526.064	90.5
526.28	93.5
526.495	82.5
526.71	84.5
526.925	77.5
527.14	65.5
527.355	70.5
527.57	92.5
527.785	89.5
527.999	89.5
528.214	84.5
528.429	101.5
528.644	98.5
528.859	97.5
529.074	102.5
529.289	111.5
529.503	96.5
529.718	103.5
529.933	96.5
530.148	105.5
530.363	102.5
530.577	88.5
530.792	78.5
531.007	84.5
531.221	79.5
531.436	89.5
531.651	94.5
531.865	80.5
532.08	88.5
532.295	93.5
532.509	84.5
532.724	100.5
532.938	86.5
533.153	85.5
533.367	87.5
533.582	83.5
533.796	98.5
534.011	98.5
534.225	80.5
534.44	88.5
534.654	98.5
534.868	100.5
535.083	88.5
535.297	86.5
535.511	87.5
535.726	95.5
535.94	94.5
536.154	76.5
536.369	86.5
536.583	75.5
536.797	90.5
537.011	76.5
537.225	95.5
