Data from Location5.07152019.Energy5.Lamp.07192019.3%Agarose_HRD10591_15-39-33-389.txt Node
Date: Fri Jul 19 15:39:33 EDT 2019
User: cochatt
Spectrometer: HR+D1059
Trigger mode: 1
Integration Time (sec): 1.000000E-1
Scans to average: 1
Electric dark correction enabled: true
Nonlinearity correction enabled: false
Boxcar width: 0
XAxis mode: Wavelengths
Number of Pixels in Spectrum: 2048
>>>>>Begin Spectral Data<<<<<
223.165	-2.31
223.4	-2.31
223.635	-2.31
223.869	-17.31
224.104	-13.31
224.338	-18.31
224.573	-13.31
224.808	-15.31
225.042	-5.31
225.277	-15.31
225.511	0.69
225.746	0.69
225.98	7.69
226.215	18.69
226.449	5.69
226.683	1.69
226.918	34.69
227.152	30.69
227.387	30.69
227.621	38.69
227.856	47.69
228.09	35.69
228.324	60.69
228.559	55.69
228.793	70.69
229.027	51.69
229.262	71.69
229.496	66.69
229.73	67.69
229.964	72.69
230.199	59.69
230.433	72.69
230.667	81.69
230.901	82.69
231.136	70.69
231.37	74.69
231.604	73.69
231.838	79.69
232.072	65.69
232.306	77.69
232.541	74.69
232.775	69.69
233.009	75.69
233.243	82.69
233.477	89.69
233.711	71.69
233.945	78.69
234.179	82.69
234.413	89.69
234.647	85.69
234.881	89.69
235.115	65.69
235.349	77.69
235.583	70.69
235.817	71.69
236.051	79.69
236.285	77.69
236.519	82.69
236.753	78.69
236.987	75.69
237.221	94.69
237.455	75.69
237.689	71.69
237.922	67.69
238.156	80.69
238.39	81.69
238.624	83.69
238.858	61.69
239.091	75.69
239.325	66.69
239.559	74.69
239.793	80.69
240.027	81.69
240.26	86.69
240.494	72.69
240.728	78.69
240.961	63.69
241.195	75.69
241.429	84.69
241.662	82.69
241.896	83.69
242.13	75.69
242.363	66.69
242.597	78.69
242.83	94.69
243.064	92.69
243.298	93.69
243.531	64.69
243.765	70.69
243.998	75.69
244.232	83.69
244.465	85.69
244.699	76.69
244.932	70.69
245.166	79.69
245.399	74.69
245.633	67.69
245.866	75.69
246.099	75.69
246.333	73.69
246.566	83.69
246.8	88.69
247.033	71.69
247.266	88.69
247.5	67.69
247.733	82.69
247.966	67.69
248.2	85.69
248.433	84.69
248.666	69.69
248.899	84.69
249.133	72.69
249.366	87.69
249.599	79.69
249.832	90.69
250.066	73.69
250.299	85.69
250.532	77.69
250.765	74.69
250.998	89.69
251.231	77.69
251.465	84.69
251.698	80.69
251.931	89.69
252.164	74.69
252.397	93.69
252.63	93.69
252.863	64.69
253.096	71.69
253.329	85.69
253.562	71.69
253.795	77.69
254.028	84.69
254.261	82.69
254.494	74.69
254.727	83.69
254.96	90.69
255.193	93.69
255.426	81.69
255.659	85.69
255.892	82.69
256.124	68.69
256.357	75.69
256.59	79.69
256.823	79.69
257.056	75.69
257.289	79.69
257.521	68.69
257.754	85.69
257.987	80.69
258.22	95.69
258.452	70.69
258.685	76.69
258.918	70.69
259.151	85.69
259.383	86.69
259.616	72.69
259.849	78.69
260.081	102.69
260.314	85.69
260.547	82.69
260.779	77.69
261.012	75.69
261.244	75.69
261.477	86.69
261.71	94.69
261.942	96.69
262.175	83.69
262.407	85.69
262.64	86.69
262.872	78.69
263.105	91.69
263.337	90.69
263.57	88.69
263.802	69.69
264.035	75.69
264.267	77.69
264.499	85.69
264.732	86.69
264.964	93.69
265.197	87.69
265.429	84.69
265.661	89.69
265.894	89.69
266.126	93.69
266.358	79.69
266.591	85.69
266.823	72.69
267.055	87.69
267.287	67.69
267.52	101.69
267.752	79.69
267.984	105.69
268.216	81.69
268.448	79.69
268.681	72.69
268.913	72.69
269.145	87.69
269.377	84.69
269.609	80.69
269.841	82.69
270.073	78.69
270.306	91.69
270.538	81.69
270.77	94.69
271.002	81.69
271.234	96.69
271.466	77.69
271.698	75.69
271.93	87.69
272.162	76.69
272.394	88.69
272.626	77.69
272.858	85.69
273.09	81.69
273.322	73.69
273.553	75.69
273.785	75.69
274.017	94.69
274.249	93.69
274.481	82.69
274.713	89.69
274.945	84.69
275.176	74.69
275.408	94.69
275.64	86.69
275.872	82.69
276.104	65.69
276.335	72.69
276.567	82.69
276.799	79.69
277.031	73.69
277.262	79.69
277.494	80.69
277.726	79.69
277.957	78.69
278.189	77.69
278.421	65.69
278.652	82.69
278.884	64.69
279.115	87.69
279.347	85.69
279.579	86.69
279.81	79.69
280.042	77.69
280.273	81.69
280.505	83.69
280.736	93.69
280.968	81.69
281.199	92.69
281.431	99.69
281.662	93.69
281.894	80.69
282.125	85.69
282.356	74.69
282.588	86.69
282.819	68.69
283.051	86.69
283.282	74.69
283.513	83.69
283.745	78.69
283.976	84.69
284.207	84.69
284.439	79.69
284.67	98.69
284.901	75.69
285.132	72.69
285.364	85.69
285.595	87.69
285.826	87.69
286.057	76.69
286.288	70.69
286.52	85.69
286.751	74.69
286.982	95.69
287.213	102.69
287.444	74.69
287.675	83.69
287.906	75.69
288.138	73.69
288.369	92.69
288.6	89.69
288.831	73.69
289.062	102.69
289.293	87.69
289.524	80.69
289.755	92.69
289.986	75.69
290.217	89.69
290.448	74.69
290.679	85.69
290.91	92.69
291.141	95.69
291.371	82.69
291.602	89.69
291.833	86.69
292.064	86.69
292.295	88.69
292.526	70.69
292.757	95.69
292.987	81.69
293.218	76.69
293.449	79.69
293.68	87.69
293.91	95.69
294.141	90.69
294.372	87.69
294.603	79.69
294.833	90.69
295.064	82.69
295.295	91.69
295.525	85.69
295.756	85.69
295.987	88.69
296.217	88.69
296.448	80.69
296.679	73.69
296.909	79.69
297.14	88.69
297.37	90.69
297.601	83.69
297.831	88.69
298.062	79.69
298.292	83.69
298.523	98.69
298.753	89.69
298.984	77.69
299.214	84.69
299.445	86.69
299.675	86.69
299.905	85.69
300.136	96.69
300.366	90.69
300.597	69.69
300.827	94.69
301.057	87.69
301.288	82.69
301.518	90.69
301.748	79.69
301.979	90.69
302.209	84.69
302.439	89.69
302.669	80.69
302.9	78.69
303.13	81.69
303.36	81.69
303.59	96.69
303.82	91.69
304.051	80.69
304.281	81.69
304.511	84.69
304.741	99.69
304.971	90.69
305.201	81.69
305.431	79.69
305.661	89.69
305.891	94.69
306.121	98.69
306.352	96.69
306.582	92.69
306.812	73.69
307.042	92.69
307.272	85.69
307.502	63.69
307.731	81.69
307.961	81.69
308.191	88.69
308.421	82.69
308.651	74.69
308.881	74.69
309.111	86.69
309.341	88.69
309.571	87.69
309.8	89.69
310.03	66.69
310.26	74.69
310.49	80.69
310.72	85.69
310.949	69.69
311.179	77.69
311.409	92.69
311.639	86.69
311.868	85.69
312.098	91.69
312.328	72.69
312.557	95.69
312.787	85.69
313.017	99.69
313.246	89.69
313.476	89.69
313.706	92.69
313.935	90.69
314.165	73.69
314.394	97.69
314.624	89.69
314.853	80.69
315.083	85.69
315.312	86.69
315.542	82.69
315.771	99.69
316.001	92.69
316.23	94.69
316.46	69.69
316.689	69.69
316.919	81.69
317.148	86.69
317.377	89.69
317.607	85.69
317.836	78.69
318.065	70.69
318.295	81.69
318.524	77.69
318.753	75.69
318.983	75.69
319.212	85.69
319.441	98.69
319.67	86.69
319.9	87.69
320.129	91.69
320.358	80.69
320.587	87.69
320.816	87.69
321.046	96.69
321.275	85.69
321.504	90.69
321.733	86.69
321.962	93.69
322.191	79.69
322.42	86.69
322.649	76.69
322.878	85.69
323.108	72.69
323.337	78.69
323.566	82.69
323.795	88.69
324.024	95.69
324.253	78.69
324.482	83.69
324.71	86.69
324.939	88.69
325.168	84.69
325.397	71.69
325.626	88.69
325.855	75.69
326.084	81.69
326.313	79.69
326.542	72.69
326.77	87.69
326.999	103.69
327.228	88.69
327.457	83.69
327.686	93.69
327.914	97.69
328.143	81.69
328.372	78.69
328.6	93.69
328.829	82.69
329.058	90.69
329.287	84.69
329.515	70.69
329.744	85.69
329.972	94.69
330.201	88.69
330.43	93.69
330.658	74.69
330.887	96.69
331.115	83.69
331.344	90.69
331.572	77.69
331.801	86.69
332.03	82.69
332.258	68.69
332.486	80.69
332.715	86.69
332.943	97.69
333.172	85.69
333.4	73.69
333.629	87.69
333.857	79.69
334.085	94.69
334.314	79.69
334.542	75.69
334.771	81.69
334.999	86.69
335.227	90.69
335.455	88.69
335.684	87.69
335.912	89.69
336.14	86.69
336.369	71.69
336.597	79.69
336.825	93.69
337.053	84.69
337.281	86.69
337.51	68.69
337.738	90.69
337.966	104.69
338.194	89.69
338.422	76.69
338.65	95.69
338.878	89.69
339.106	79.69
339.334	89.69
339.562	69.69
339.79	90.69
340.018	81.69
340.246	83.69
340.474	92.69
340.702	80.69
340.93	87.69
341.158	81.69
341.386	78.69
341.614	73.69
341.842	88.69
342.07	81.69
342.298	81.69
342.526	92.69
342.754	95.69
342.981	87.69
343.209	75.69
343.437	73.69
343.665	85.69
343.893	99.69
344.12	79.69
344.348	73.69
344.576	74.69
344.804	73.69
345.031	76.69
345.259	90.69
345.487	69.69
345.714	92.69
345.942	101.69
346.17	87.69
346.397	86.69
346.625	88.69
346.853	77.69
347.08	74.69
347.308	88.69
347.535	79.69
347.763	97.69
347.99	74.69
348.218	84.69
348.445	86.69
348.673	75.69
348.9	86.69
349.128	88.69
349.355	90.69
349.583	80.69
349.81	79.69
350.037	98.69
350.265	88.69
350.492	87.69
350.72	81.69
350.947	79.69
351.174	90.69
351.402	79.69
351.629	89.69
351.856	81.69
352.083	93.69
352.311	90.69
352.538	81.69
352.765	65.69
352.992	90.69
353.22	88.69
353.447	74.69
353.674	85.69
353.901	87.69
354.128	88.69
354.355	69.69
354.583	86.69
354.81	93.69
355.037	81.69
355.264	79.69
355.491	78.69
355.718	73.69
355.945	86.69
356.172	89.69
356.399	85.69
356.626	73.69
356.853	82.69
357.08	90.69
357.307	74.69
357.534	86.69
357.761	74.69
357.988	89.69
358.215	93.69
358.441	87.69
358.668	88.69
358.895	72.69
359.122	89.69
359.349	85.69
359.576	85.69
359.802	83.69
360.029	88.69
360.256	82.69
360.483	87.69
360.709	70.69
360.936	84.69
361.163	70.69
361.39	83.69
361.616	92.69
361.843	74.69
362.07	71.69
362.296	73.69
362.523	82.69
362.749	83.69
362.976	81.69
363.203	89.69
363.429	81.69
363.656	93.69
363.882	82.69
364.109	87.69
364.335	82.69
364.562	77.69
364.788	89.69
365.015	80.69
365.241	84.69
365.468	101.69
365.694	85.69
365.92	82.69
366.147	63.69
366.373	79.69
366.599	84.69
366.826	81.69
367.052	79.69
367.278	86.69
367.505	78.69
367.731	81.69
367.957	85.69
368.184	73.69
368.41	79.69
368.636	83.69
368.862	82.69
369.089	82.69
369.315	80.69
369.541	89.69
369.767	93.69
369.993	99.69
370.219	87.69
370.445	84.69
370.672	79.69
370.898	84.69
371.124	81.69
371.35	63.69
371.576	76.69
371.802	79.69
372.028	90.69
372.254	83.69
372.48	75.69
372.706	79.69
372.932	84.69
373.158	85.69
373.384	91.69
373.61	96.69
373.835	81.69
374.061	91.69
374.287	66.69
374.513	89.69
374.739	76.69
374.965	86.69
375.191	91.69
375.416	81.69
375.642	75.69
375.868	88.69
376.094	80.69
376.319	86.69
376.545	92.69
376.771	72.69
376.997	72.69
377.222	81.69
377.448	79.69
377.674	70.69
377.899	79.69
378.125	81.69
378.35	87.69
378.576	89.69
378.802	95.69
379.027	72.69
379.253	83.69
379.478	75.69
379.704	75.69
379.929	78.69
380.155	89.69
380.38	82.69
380.606	78.69
380.831	74.69
381.057	84.69
381.282	97.69
381.507	76.69
381.733	84.69
381.958	63.69
382.184	78.69
382.409	77.69
382.634	71.69
382.86	88.69
383.085	87.69
383.31	84.69
383.535	82.69
383.761	89.69
383.986	70.69
384.211	86.69
384.436	89.69
384.662	75.69
384.887	75.69
385.112	83.69
385.337	96.69
385.562	82.69
385.787	76.69
386.013	93.69
386.238	94.69
386.463	75.69
386.688	91.69
386.913	75.69
387.138	66.69
387.363	92.69
387.588	91.69
387.813	94.69
388.038	82.69
388.263	85.69
388.488	80.69
388.713	97.69
388.938	86.69
389.163	87.69
389.387	85.69
389.612	85.69
389.837	84.69
390.062	75.69
390.287	83.69
390.512	82.69
390.736	92.69
390.961	78.69
391.186	76.69
391.411	85.69
391.636	72.69
391.86	82.69
392.085	95.69
392.31	84.69
392.534	89.69
392.759	81.69
392.984	87.69
393.208	94.69
393.433	96.69
393.658	83.69
393.882	96.69
394.107	87.69
394.331	89.69
394.556	92.69
394.78	73.69
395.005	90.69
395.229	94.69
395.454	80.69
395.678	90.69
395.903	98.69
396.127	82.69
396.352	82.69
396.576	91.69
396.801	82.69
397.025	87.69
397.249	94.69
397.474	83.69
397.698	87.69
397.922	70.69
398.147	86.69
398.371	79.69
398.595	76.69
398.82	77.69
399.044	83.69
399.268	96.69
399.492	75.69
399.717	82.69
399.941	88.69
400.165	80.69
400.389	85.69
400.613	101.69
400.837	97.69
401.062	86.69
401.286	77.69
401.51	84.69
401.734	94.69
401.958	80.69
402.182	95.69
402.406	96.69
402.63	80.69
402.854	95.69
403.078	81.69
403.302	83.69
403.526	86.69
403.75	83.69
403.974	81.69
404.198	90.69
404.422	71.69
404.645	75.69
404.869	100.69
405.093	85.69
405.317	81.69
405.541	98.69
405.765	81.69
405.988	74.69
406.212	69.69
406.436	79.69
406.66	89.69
406.883	95.69
407.107	78.69
407.331	86.69
407.555	74.69
407.778	83.69
408.002	91.69
408.226	76.69
408.449	81.69
408.673	93.69
408.896	94.69
409.12	95.69
409.344	86.69
409.567	98.69
409.791	86.69
410.014	79.69
410.238	81.69
410.461	102.69
410.685	96.69
410.908	98.69
411.132	94.69
411.355	94.69
411.578	85.69
411.802	97.69
412.025	92.69
412.249	95.69
412.472	99.69
412.695	95.69
412.919	86.69
413.142	94.69
413.365	84.69
413.589	95.69
413.812	84.69
414.035	79.69
414.258	86.69
414.482	78.69
414.705	91.69
414.928	97.69
415.151	93.69
415.374	71.69
415.597	80.69
415.821	88.69
416.044	92.69
416.267	89.69
416.49	87.69
416.713	94.69
416.936	93.69
417.159	94.69
417.382	78.69
417.605	79.69
417.828	88.69
418.051	91.69
418.274	89.69
418.497	93.69
418.72	93.69
418.943	93.69
419.166	89.69
419.389	102.69
419.611	97.69
419.834	99.69
420.057	96.69
420.28	98.69
420.503	86.69
420.726	89.69
420.948	104.69
421.171	86.69
421.394	86.69
421.617	91.69
421.839	73.69
422.062	94.69
422.285	89.69
422.507	100.69
422.73	92.69
422.953	91.69
423.175	78.69
423.398	84.69
423.621	87.69
423.843	76.69
424.066	88.69
424.288	83.69
424.511	93.69
424.733	98.69
424.956	101.69
425.178	100.69
425.401	78.69
425.623	91.69
425.846	82.69
426.068	88.69
426.291	86.69
426.513	94.69
426.735	81.69
426.958	83.69
427.18	82.69
427.402	88.69
427.625	99.69
427.847	90.69
428.069	85.69
428.292	83.69
428.514	86.69
428.736	82.69
428.958	100.69
429.181	96.69
429.403	84.69
429.625	107.69
429.847	84.69
430.069	103.69
430.292	92.69
430.514	91.69
430.736	93.69
430.958	83.69
431.18	88.69
431.402	89.69
431.624	96.69
431.846	88.69
432.068	84.69
432.29	88.69
432.512	95.69
432.734	88.69
432.956	96.69
433.178	88.69
433.4	101.69
433.622	117.69
433.844	93.69
434.066	82.69
434.287	81.69
434.509	77.69
434.731	89.69
434.953	83.69
435.175	70.69
435.397	83.69
435.618	89.69
435.84	85.69
436.062	81.69
436.284	89.69
436.505	80.69
436.727	113.69
436.949	83.69
437.17	89.69
437.392	86.69
437.614	94.69
437.835	93.69
438.057	81.69
438.278	88.69
438.5	88.69
438.721	83.69
438.943	92.69
439.165	87.69
439.386	98.69
439.608	82.69
439.829	92.69
440.05	100.69
440.272	99.69
440.493	98.69
440.715	103.69
440.936	91.69
441.158	85.69
441.379	82.69
441.6	94.69
441.822	97.69
442.043	95.69
442.264	98.69
442.486	99.69
442.707	94.69
442.928	82.69
443.149	90.69
443.371	97.69
443.592	84.69
443.813	90.69
444.034	93.69
444.255	98.69
444.476	101.69
444.698	108.69
444.919	92.69
445.14	221.69
445.361	159.69
445.582	105.69
445.803	103.69
446.024	96.69
446.245	94.69
446.466	90.69
446.687	89.69
446.908	94.69
447.129	94.69
447.35	86.69
447.571	106.69
447.792	92.69
448.013	92.69
448.234	83.69
448.455	104.69
448.675	96.69
448.896	111.69
449.117	96.69
449.338	89.69
449.559	90.69
449.779	81.69
450	81.69
450.221	91.69
450.442	90.69
450.662	96.69
450.883	87.69
451.104	89.69
451.324	89.69
451.545	95.69
451.766	99.69
451.986	89.69
452.207	95.69
452.428	85.69
452.648	103.69
452.869	98.69
453.089	83.69
453.31	86.69
453.53	86.69
453.751	93.69
453.971	97.69
454.192	78.69
454.412	84.69
454.633	83.69
454.853	93.69
455.073	88.69
455.294	93.69
455.514	89.69
455.734	82.69
455.955	94.69
456.175	75.69
456.395	91.69
456.616	80.69
456.836	93.69
457.056	71.69
457.276	95.69
457.497	85.69
457.717	97.69
457.937	94.69
458.157	73.69
458.377	87.69
458.598	90.69
458.818	89.69
459.038	87.69
459.258	78.69
459.478	87.69
459.698	74.69
459.918	74.69
460.138	71.69
460.358	97.69
460.578	96.69
460.798	97.69
461.018	102.69
461.238	78.69
461.458	88.69
461.678	79.69
461.898	81.69
462.118	87.69
462.338	89.69
462.558	99.69
462.777	96.69
462.997	94.69
463.217	74.69
463.437	96.69
463.657	96.69
463.876	84.69
464.096	87.69
464.316	99.69
464.536	87.69
464.755	76.69
464.975	90.69
465.195	95.69
465.414	89.69
465.634	81.69
465.854	105.69
466.073	91.69
466.293	97.69
466.512	90.69
466.732	99.69
466.951	100.69
467.171	81.69
467.391	89.69
467.61	89.69
467.829	75.69
468.049	91.69
468.268	102.69
468.488	102.69
468.707	89.69
468.927	99.69
469.146	73.69
469.365	98.69
469.585	85.69
469.804	93.69
470.023	91.69
470.243	96.69
470.462	96.69
470.681	121.69
470.901	95.69
471.12	95.69
471.339	89.69
471.558	73.69
471.777	83.69
471.997	99.69
472.216	91.69
472.435	81.69
472.654	88.69
472.873	97.69
473.092	85.69
473.311	97.69
473.53	90.69
473.749	81.69
473.968	83.69
474.187	92.69
474.406	109.69
474.625	102.69
474.844	100.69
475.063	92.69
475.282	98.69
475.501	81.69
475.72	93.69
475.939	87.69
476.158	85.69
476.377	69.69
476.596	72.69
476.814	93.69
477.033	85.69
477.252	87.69
477.471	85.69
477.69	90.69
477.908	98.69
478.127	96.69
478.346	92.69
478.564	100.69
478.783	89.69
479.002	90.69
479.22	94.69
479.439	101.69
479.658	106.69
479.876	95.69
480.095	95.69
480.313	97.69
480.532	98.69
480.751	93.69
480.969	89.69
481.188	80.69
481.406	75.69
481.624	66.69
481.843	86.69
482.061	90.69
482.28	91.69
482.498	96.69
482.717	72.69
482.935	87.69
483.153	102.69
483.372	102.69
483.59	77.69
483.808	98.69
484.027	89.69
484.245	110.69
484.463	111.69
484.681	104.69
484.9	101.69
485.118	78.69
485.336	86.69
485.554	90.69
485.772	90.69
485.99	81.69
486.209	93.69
486.427	87.69
486.645	90.69
486.863	90.69
487.081	91.69
487.299	75.69
487.517	93.69
487.735	105.69
487.953	114.69
488.171	100.69
488.389	102.69
488.607	92.69
488.825	97.69
489.043	100.69
489.261	96.69
489.479	80.69
489.696	103.69
489.914	91.69
490.132	98.69
490.35	92.69
490.568	96.69
490.786	101.69
491.003	91.69
491.221	106.69
491.439	104.69
491.657	100.69
491.874	102.69
492.092	121.69
492.31	127.69
492.527	115.69
492.745	120.69
492.963	113.69
493.18	119.69
493.398	94.69
493.615	87.69
493.833	103.69
494.05	116.69
494.268	107.69
494.485	100.69
494.703	87.69
494.92	101.69
495.138	104.69
495.355	119.69
495.573	109.69
495.79	104.69
496.008	100.69
496.225	86.69
496.442	98.69
496.66	105.69
496.877	101.69
497.094	106.69
497.312	96.69
497.529	106.69
497.746	84.69
497.963	109.69
498.181	94.69
498.398	86.69
498.615	95.69
498.832	88.69
499.049	84.69
499.267	102.69
499.484	111.69
499.701	102.69
499.918	88.69
500.135	103.69
500.352	99.69
500.569	98.69
500.786	96.69
501.003	83.69
501.22	97.69
501.437	85.69
501.654	95.69
501.871	98.69
502.088	105.69
502.305	90.69
502.522	85.69
502.739	105.69
502.956	83.69
503.172	91.69
503.389	94.69
503.606	92.69
503.823	82.69
504.04	103.69
504.256	96.69
504.473	98.69
504.69	93.69
504.907	91.69
505.123	97.69
505.34	89.69
505.557	95.69
505.773	90.69
505.99	102.69
506.207	85.69
506.423	90.69
506.64	92.69
506.856	79.69
507.073	89.69
507.289	104.69
507.506	92.69
507.722	83.69
507.939	86.69
508.155	93.69
508.372	85.69
508.588	90.69
508.805	99.69
509.021	93.69
509.238	84.69
509.454	88.69
509.67	88.69
509.887	91.69
510.103	82.69
510.319	81.69
510.536	97.69
510.752	88.69
510.968	68.69
511.184	90.69
511.401	84.69
511.617	82.69
511.833	85.69
512.049	74.69
512.265	77.69
512.481	90.69
512.698	82.69
512.914	88.69
513.13	74.69
513.346	91.69
513.562	76.69
513.778	79.69
513.994	93.69
514.21	101.69
514.426	91.69
514.642	80.69
514.858	83.69
515.074	65.69
515.29	95.69
515.506	87.69
515.721	82.69
515.937	97.69
516.153	75.69
516.369	71.69
516.585	69.69
516.801	94.69
517.016	96.69
517.232	83.69
517.448	82.69
517.664	87.69
517.879	79.69
518.095	82.69
518.311	92.69
