Data from Location5.07152019.Energy5.Lamp.07192019.3%Agarose_HRD10591_15-36-24-387.txt Node
Date: Fri Jul 19 15:36:24 EDT 2019
User: cochatt
Spectrometer: HR+D1059
Trigger mode: 1
Integration Time (sec): 1.000000E-1
Scans to average: 1
Electric dark correction enabled: true
Nonlinearity correction enabled: false
Boxcar width: 0
XAxis mode: Wavelengths
Number of Pixels in Spectrum: 2048
>>>>>Begin Spectral Data<<<<<
223.165	-1.06
223.4	-1.06
223.635	-1.06
223.869	-21.06
224.104	-7.06
224.338	-9.06
224.573	-14.06
224.808	-6.06
225.042	-7.06
225.277	-2.06
225.511	-9.06
225.746	-5.06
225.98	-2.06
226.215	-6.06
226.449	22.94
226.683	18.94
226.918	22.94
227.152	24.94
227.387	44.94
227.621	38.94
227.856	47.94
228.09	44.94
228.324	55.94
228.559	52.94
228.793	50.94
229.027	81.94
229.262	64.94
229.496	55.94
229.73	71.94
229.964	71.94
230.199	53.94
230.433	65.94
230.667	80.94
230.901	62.94
231.136	83.94
231.37	92.94
231.604	66.94
231.838	78.94
232.072	62.94
232.306	76.94
232.541	82.94
232.775	65.94
233.009	74.94
233.243	67.94
233.477	73.94
233.711	79.94
233.945	85.94
234.179	88.94
234.413	75.94
234.647	77.94
234.881	82.94
235.115	74.94
235.349	78.94
235.583	84.94
235.817	82.94
236.051	95.94
236.285	70.94
236.519	73.94
236.753	74.94
236.987	70.94
237.221	79.94
237.455	77.94
237.689	84.94
237.922	62.94
238.156	74.94
238.39	79.94
238.624	73.94
238.858	73.94
239.091	63.94
239.325	74.94
239.559	77.94
239.793	76.94
240.027	77.94
240.26	72.94
240.494	80.94
240.728	70.94
240.961	84.94
241.195	88.94
241.429	82.94
241.662	75.94
241.896	68.94
242.13	80.94
242.363	74.94
242.597	74.94
242.83	68.94
243.064	76.94
243.298	77.94
243.531	80.94
243.765	70.94
243.998	81.94
244.232	74.94
244.465	72.94
244.699	79.94
244.932	85.94
245.166	73.94
245.399	81.94
245.633	89.94
245.866	87.94
246.099	81.94
246.333	76.94
246.566	78.94
246.8	77.94
247.033	68.94
247.266	68.94
247.5	70.94
247.733	63.94
247.966	75.94
248.2	71.94
248.433	77.94
248.666	87.94
248.899	80.94
249.133	73.94
249.366	79.94
249.599	85.94
249.832	84.94
250.066	89.94
250.299	82.94
250.532	81.94
250.765	75.94
250.998	75.94
251.231	89.94
251.465	80.94
251.698	75.94
251.931	70.94
252.164	73.94
252.397	64.94
252.63	74.94
252.863	79.94
253.096	77.94
253.329	92.94
253.562	86.94
253.795	77.94
254.028	75.94
254.261	80.94
254.494	76.94
254.727	86.94
254.96	85.94
255.193	74.94
255.426	86.94
255.659	81.94
255.892	81.94
256.124	77.94
256.357	93.94
256.59	85.94
256.823	61.94
257.056	77.94
257.289	86.94
257.521	94.94
257.754	57.94
257.987	76.94
258.22	81.94
258.452	76.94
258.685	91.94
258.918	87.94
259.151	70.94
259.383	75.94
259.616	81.94
259.849	73.94
260.081	87.94
260.314	80.94
260.547	85.94
260.779	82.94
261.012	74.94
261.244	79.94
261.477	75.94
261.71	77.94
261.942	87.94
262.175	86.94
262.407	84.94
262.64	93.94
262.872	71.94
263.105	77.94
263.337	78.94
263.57	85.94
263.802	73.94
264.035	70.94
264.267	74.94
264.499	76.94
264.732	78.94
264.964	83.94
265.197	73.94
265.429	80.94
265.661	78.94
265.894	92.94
266.126	82.94
266.358	64.94
266.591	77.94
266.823	95.94
267.055	66.94
267.287	76.94
267.52	82.94
267.752	81.94
267.984	84.94
268.216	80.94
268.448	73.94
268.681	90.94
268.913	85.94
269.145	91.94
269.377	76.94
269.609	68.94
269.841	74.94
270.073	64.94
270.306	84.94
270.538	79.94
270.77	85.94
271.002	87.94
271.234	97.94
271.466	87.94
271.698	72.94
271.93	95.94
272.162	79.94
272.394	68.94
272.626	87.94
272.858	81.94
273.09	79.94
273.322	100.94
273.553	78.94
273.785	84.94
274.017	68.94
274.249	84.94
274.481	77.94
274.713	80.94
274.945	82.94
275.176	82.94
275.408	82.94
275.64	77.94
275.872	94.94
276.104	87.94
276.335	68.94
276.567	86.94
276.799	74.94
277.031	81.94
277.262	82.94
277.494	63.94
277.726	86.94
277.957	92.94
278.189	89.94
278.421	94.94
278.652	76.94
278.884	78.94
279.115	76.94
279.347	72.94
279.579	88.94
279.81	81.94
280.042	80.94
280.273	80.94
280.505	76.94
280.736	92.94
280.968	86.94
281.199	88.94
281.431	72.94
281.662	86.94
281.894	87.94
282.125	72.94
282.356	80.94
282.588	80.94
282.819	91.94
283.051	85.94
283.282	79.94
283.513	72.94
283.745	90.94
283.976	89.94
284.207	89.94
284.439	69.94
284.67	84.94
284.901	78.94
285.132	90.94
285.364	60.94
285.595	82.94
285.826	64.94
286.057	78.94
286.288	91.94
286.52	90.94
286.751	80.94
286.982	95.94
287.213	83.94
287.444	88.94
287.675	71.94
287.906	84.94
288.138	93.94
288.369	73.94
288.6	83.94
288.831	86.94
289.062	80.94
289.293	86.94
289.524	75.94
289.755	85.94
289.986	80.94
290.217	69.94
290.448	96.94
290.679	94.94
290.91	88.94
291.141	80.94
291.371	91.94
291.602	76.94
291.833	86.94
292.064	74.94
292.295	71.94
292.526	80.94
292.757	93.94
292.987	102.94
293.218	81.94
293.449	98.94
293.68	72.94
293.91	82.94
294.141	85.94
294.372	83.94
294.603	89.94
294.833	84.94
295.064	75.94
295.295	70.94
295.525	79.94
295.756	77.94
295.987	84.94
296.217	93.94
296.448	101.94
296.679	84.94
296.909	75.94
297.14	77.94
297.37	96.94
297.601	91.94
297.831	83.94
298.062	82.94
298.292	84.94
298.523	85.94
298.753	71.94
298.984	82.94
299.214	82.94
299.445	85.94
299.675	89.94
299.905	84.94
300.136	77.94
300.366	77.94
300.597	73.94
300.827	84.94
301.057	80.94
301.288	77.94
301.518	79.94
301.748	98.94
301.979	87.94
302.209	91.94
302.439	87.94
302.669	87.94
302.9	84.94
303.13	77.94
303.36	82.94
303.59	73.94
303.82	78.94
304.051	84.94
304.281	78.94
304.511	87.94
304.741	96.94
304.971	80.94
305.201	85.94
305.431	92.94
305.661	81.94
305.891	82.94
306.121	100.94
306.352	71.94
306.582	76.94
306.812	75.94
307.042	86.94
307.272	85.94
307.502	86.94
307.731	86.94
307.961	80.94
308.191	67.94
308.421	80.94
308.651	77.94
308.881	80.94
309.111	72.94
309.341	93.94
309.571	93.94
309.8	82.94
310.03	86.94
310.26	86.94
310.49	65.94
310.72	98.94
310.949	85.94
311.179	75.94
311.409	90.94
311.639	82.94
311.868	86.94
312.098	78.94
312.328	96.94
312.557	71.94
312.787	88.94
313.017	84.94
313.246	89.94
313.476	76.94
313.706	85.94
313.935	81.94
314.165	82.94
314.394	85.94
314.624	86.94
314.853	79.94
315.083	80.94
315.312	87.94
315.542	100.94
315.771	97.94
316.001	82.94
316.23	75.94
316.46	87.94
316.689	96.94
316.919	75.94
317.148	73.94
317.377	93.94
317.607	78.94
317.836	73.94
318.065	84.94
318.295	94.94
318.524	90.94
318.753	69.94
318.983	78.94
319.212	81.94
319.441	82.94
319.67	84.94
319.9	84.94
320.129	68.94
320.358	80.94
320.587	82.94
320.816	86.94
321.046	88.94
321.275	84.94
321.504	59.94
321.733	94.94
321.962	79.94
322.191	74.94
322.42	88.94
322.649	80.94
322.878	82.94
323.108	80.94
323.337	79.94
323.566	87.94
323.795	96.94
324.024	60.94
324.253	95.94
324.482	89.94
324.71	83.94
324.939	81.94
325.168	81.94
325.397	75.94
325.626	90.94
325.855	77.94
326.084	75.94
326.313	79.94
326.542	94.94
326.77	97.94
326.999	79.94
327.228	91.94
327.457	80.94
327.686	92.94
327.914	74.94
328.143	82.94
328.372	67.94
328.6	82.94
328.829	74.94
329.058	96.94
329.287	85.94
329.515	84.94
329.744	91.94
329.972	81.94
330.201	78.94
330.43	75.94
330.658	81.94
330.887	76.94
331.115	75.94
331.344	85.94
331.572	73.94
331.801	75.94
332.03	94.94
332.258	92.94
332.486	79.94
332.715	81.94
332.943	96.94
333.172	70.94
333.4	73.94
333.629	81.94
333.857	71.94
334.085	84.94
334.314	84.94
334.542	89.94
334.771	86.94
334.999	92.94
335.227	82.94
335.455	86.94
335.684	81.94
335.912	76.94
336.14	85.94
336.369	83.94
336.597	90.94
336.825	99.94
337.053	74.94
337.281	83.94
337.51	87.94
337.738	91.94
337.966	80.94
338.194	98.94
338.422	87.94
338.65	91.94
338.878	85.94
339.106	85.94
339.334	80.94
339.562	83.94
339.79	90.94
340.018	84.94
340.246	82.94
340.474	76.94
340.702	106.94
340.93	90.94
341.158	80.94
341.386	85.94
341.614	84.94
341.842	80.94
342.07	81.94
342.298	73.94
342.526	64.94
342.754	77.94
342.981	84.94
343.209	80.94
343.437	90.94
343.665	87.94
343.893	80.94
344.12	86.94
344.348	88.94
344.576	74.94
344.804	77.94
345.031	76.94
345.259	87.94
345.487	90.94
345.714	80.94
345.942	77.94
346.17	82.94
346.397	78.94
346.625	81.94
346.853	81.94
347.08	80.94
347.308	85.94
347.535	80.94
347.763	78.94
347.99	77.94
348.218	88.94
348.445	80.94
348.673	82.94
348.9	83.94
349.128	74.94
349.355	73.94
349.583	84.94
349.81	82.94
350.037	80.94
350.265	82.94
350.492	92.94
350.72	87.94
350.947	96.94
351.174	74.94
351.402	87.94
351.629	79.94
351.856	64.94
352.083	77.94
352.311	83.94
352.538	88.94
352.765	78.94
352.992	75.94
353.22	62.94
353.447	87.94
353.674	66.94
353.901	86.94
354.128	80.94
354.355	80.94
354.583	80.94
354.81	69.94
355.037	76.94
355.264	86.94
355.491	65.94
355.718	79.94
355.945	89.94
356.172	82.94
356.399	84.94
356.626	94.94
356.853	85.94
357.08	83.94
357.307	83.94
357.534	81.94
357.761	76.94
357.988	88.94
358.215	72.94
358.441	79.94
358.668	85.94
358.895	87.94
359.122	77.94
359.349	78.94
359.576	89.94
359.802	76.94
360.029	88.94
360.256	85.94
360.483	100.94
360.709	74.94
360.936	85.94
361.163	84.94
361.39	73.94
361.616	76.94
361.843	81.94
362.07	85.94
362.296	85.94
362.523	81.94
362.749	78.94
362.976	84.94
363.203	90.94
363.429	80.94
363.656	93.94
363.882	88.94
364.109	92.94
364.335	80.94
364.562	82.94
364.788	81.94
365.015	79.94
365.241	73.94
365.468	73.94
365.694	83.94
365.92	85.94
366.147	88.94
366.373	89.94
366.599	82.94
366.826	84.94
367.052	88.94
367.278	75.94
367.505	73.94
367.731	75.94
367.957	85.94
368.184	71.94
368.41	88.94
368.636	56.94
368.862	83.94
369.089	77.94
369.315	77.94
369.541	78.94
369.767	70.94
369.993	85.94
370.219	87.94
370.445	84.94
370.672	78.94
370.898	93.94
371.124	92.94
371.35	89.94
371.576	96.94
371.802	90.94
372.028	79.94
372.254	80.94
372.48	93.94
372.706	74.94
372.932	83.94
373.158	95.94
373.384	89.94
373.61	80.94
373.835	71.94
374.061	88.94
374.287	95.94
374.513	84.94
374.739	80.94
374.965	63.94
375.191	73.94
375.416	80.94
375.642	82.94
375.868	70.94
376.094	96.94
376.319	73.94
376.545	84.94
376.771	84.94
376.997	79.94
377.222	96.94
377.448	94.94
377.674	91.94
377.899	86.94
378.125	87.94
378.35	84.94
378.576	74.94
378.802	72.94
379.027	87.94
379.253	84.94
379.478	85.94
379.704	92.94
379.929	83.94
380.155	67.94
380.38	82.94
380.606	91.94
380.831	84.94
381.057	89.94
381.282	84.94
381.507	71.94
381.733	92.94
381.958	77.94
382.184	82.94
382.409	77.94
382.634	81.94
382.86	78.94
383.085	79.94
383.31	85.94
383.535	72.94
383.761	86.94
383.986	81.94
384.211	83.94
384.436	78.94
384.662	86.94
384.887	87.94
385.112	73.94
385.337	82.94
385.562	69.94
385.787	79.94
386.013	101.94
386.238	97.94
386.463	89.94
386.688	76.94
386.913	84.94
387.138	80.94
387.363	94.94
387.588	90.94
387.813	92.94
388.038	84.94
388.263	76.94
388.488	83.94
388.713	80.94
388.938	90.94
389.163	86.94
389.387	78.94
389.612	79.94
389.837	88.94
390.062	103.94
390.287	94.94
390.512	85.94
390.736	88.94
390.961	91.94
391.186	79.94
391.411	97.94
391.636	92.94
391.86	79.94
392.085	92.94
392.31	95.94
392.534	84.94
392.759	95.94
392.984	96.94
393.208	80.94
393.433	88.94
393.658	83.94
393.882	95.94
394.107	81.94
394.331	76.94
394.556	77.94
394.78	87.94
395.005	82.94
395.229	86.94
395.454	92.94
395.678	78.94
395.903	75.94
396.127	73.94
396.352	86.94
396.576	73.94
396.801	92.94
397.025	95.94
397.249	99.94
397.474	84.94
397.698	84.94
397.922	69.94
398.147	79.94
398.371	78.94
398.595	86.94
398.82	91.94
399.044	76.94
399.268	93.94
399.492	71.94
399.717	76.94
399.941	100.94
400.165	78.94
400.389	83.94
400.613	85.94
400.837	81.94
401.062	77.94
401.286	86.94
401.51	88.94
401.734	82.94
401.958	89.94
402.182	83.94
402.406	93.94
402.63	78.94
402.854	78.94
403.078	100.94
403.302	89.94
403.526	78.94
403.75	82.94
403.974	100.94
404.198	86.94
404.422	86.94
404.645	82.94
404.869	90.94
405.093	94.94
405.317	92.94
405.541	94.94
405.765	95.94
405.988	90.94
406.212	88.94
406.436	86.94
406.66	87.94
406.883	98.94
407.107	90.94
407.331	89.94
407.555	90.94
407.778	92.94
408.002	88.94
408.226	77.94
408.449	82.94
408.673	79.94
408.896	100.94
409.12	81.94
409.344	92.94
409.567	89.94
409.791	88.94
410.014	70.94
410.238	81.94
410.461	94.94
410.685	88.94
410.908	96.94
411.132	82.94
411.355	84.94
411.578	87.94
411.802	84.94
412.025	82.94
412.249	92.94
412.472	80.94
412.695	82.94
412.919	80.94
413.142	82.94
413.365	93.94
413.589	87.94
413.812	67.94
414.035	89.94
414.258	82.94
414.482	82.94
414.705	96.94
414.928	94.94
415.151	96.94
415.374	79.94
415.597	87.94
415.821	92.94
416.044	105.94
416.267	86.94
416.49	81.94
416.713	86.94
416.936	94.94
417.159	85.94
417.382	84.94
417.605	90.94
417.828	80.94
418.051	85.94
418.274	97.94
418.497	102.94
418.72	94.94
418.943	88.94
419.166	93.94
419.389	85.94
419.611	87.94
419.834	81.94
420.057	86.94
420.28	104.94
420.503	104.94
420.726	91.94
420.948	96.94
421.171	90.94
421.394	93.94
421.617	86.94
421.839	87.94
422.062	83.94
422.285	73.94
422.507	89.94
422.73	88.94
422.953	96.94
423.175	106.94
423.398	87.94
423.621	86.94
423.843	100.94
424.066	109.94
424.288	93.94
424.511	101.94
424.733	97.94
424.956	96.94
425.178	74.94
425.401	97.94
425.623	94.94
425.846	97.94
426.068	94.94
426.291	78.94
426.513	88.94
426.735	99.94
426.958	91.94
427.18	96.94
427.402	93.94
427.625	100.94
427.847	94.94
428.069	94.94
428.292	89.94
428.514	87.94
428.736	74.94
428.958	78.94
429.181	94.94
429.403	83.94
429.625	83.94
429.847	85.94
430.069	89.94
430.292	83.94
430.514	77.94
430.736	88.94
430.958	98.94
431.18	81.94
431.402	88.94
431.624	98.94
431.846	81.94
432.068	71.94
432.29	89.94
432.512	96.94
432.734	81.94
432.956	88.94
433.178	86.94
433.4	91.94
433.622	91.94
433.844	87.94
434.066	87.94
434.287	82.94
434.509	82.94
434.731	89.94
434.953	89.94
435.175	96.94
435.397	88.94
435.618	89.94
435.84	88.94
436.062	80.94
436.284	93.94
436.505	88.94
436.727	85.94
436.949	94.94
437.17	93.94
437.392	89.94
437.614	87.94
437.835	82.94
438.057	78.94
438.278	99.94
438.5	93.94
438.721	86.94
438.943	93.94
439.165	95.94
439.386	103.94
439.608	89.94
439.829	84.94
440.05	88.94
440.272	90.94
440.493	95.94
440.715	94.94
440.936	96.94
441.158	95.94
441.379	93.94
441.6	101.94
441.822	108.94
442.043	116.94
442.264	92.94
442.486	102.94
442.707	100.94
442.928	105.94
443.149	105.94
443.371	104.94
443.592	90.94
443.813	90.94
444.034	110.94
444.255	92.94
444.476	99.94
444.698	84.94
444.919	126.94
445.14	225.94
445.361	146.94
445.582	76.94
445.803	92.94
446.024	88.94
446.245	106.94
446.466	100.94
446.687	106.94
446.908	90.94
447.129	100.94
447.35	85.94
447.571	105.94
447.792	97.94
448.013	94.94
448.234	95.94
448.455	105.94
448.675	97.94
448.896	104.94
449.117	93.94
449.338	112.94
449.559	100.94
449.779	88.94
450	102.94
450.221	93.94
450.442	95.94
450.662	80.94
450.883	86.94
451.104	90.94
451.324	85.94
451.545	93.94
451.766	102.94
451.986	97.94
452.207	84.94
452.428	100.94
452.648	82.94
452.869	89.94
453.089	85.94
453.31	79.94
453.53	77.94
453.751	81.94
453.971	83.94
454.192	87.94
454.412	64.94
454.633	93.94
454.853	103.94
455.073	85.94
455.294	85.94
455.514	94.94
455.734	77.94
455.955	82.94
456.175	93.94
456.395	103.94
456.616	92.94
456.836	98.94
457.056	90.94
457.276	87.94
457.497	86.94
457.717	84.94
457.937	95.94
458.157	80.94
458.377	84.94
458.598	74.94
458.818	74.94
459.038	95.94
459.258	71.94
459.478	79.94
459.698	77.94
459.918	84.94
460.138	99.94
460.358	87.94
460.578	95.94
460.798	82.94
461.018	81.94
461.238	80.94
461.458	87.94
461.678	76.94
461.898	87.94
462.118	89.94
462.338	105.94
462.558	98.94
462.777	94.94
462.997	73.94
463.217	89.94
463.437	79.94
463.657	99.94
463.876	78.94
464.096	92.94
464.316	89.94
464.536	91.94
464.755	84.94
464.975	88.94
465.195	93.94
465.414	84.94
465.634	85.94
465.854	79.94
466.073	83.94
466.293	90.94
466.512	93.94
466.732	98.94
466.951	93.94
467.171	88.94
467.391	108.94
467.61	83.94
467.829	79.94
468.049	88.94
468.268	95.94
468.488	92.94
468.707	92.94
468.927	88.94
469.146	84.94
469.365	93.94
469.585	83.94
469.804	83.94
470.023	89.94
470.243	103.94
470.462	101.94
470.681	105.94
470.901	92.94
471.12	98.94
471.339	93.94
471.558	101.94
471.777	94.94
471.997	92.94
472.216	93.94
472.435	70.94
472.654	82.94
472.873	90.94
473.092	77.94
473.311	82.94
473.53	97.94
473.749	90.94
473.968	112.94
474.187	80.94
474.406	85.94
474.625	74.94
474.844	101.94
475.063	88.94
475.282	93.94
475.501	83.94
475.72	103.94
475.939	84.94
476.158	87.94
476.377	95.94
476.596	88.94
476.814	91.94
477.033	89.94
477.252	92.94
477.471	88.94
477.69	89.94
477.908	104.94
478.127	117.94
478.346	99.94
478.564	89.94
478.783	82.94
479.002	90.94
479.22	115.94
479.439	92.94
479.658	78.94
479.876	77.94
480.095	96.94
480.313	102.94
480.532	89.94
480.751	86.94
480.969	83.94
481.188	72.94
481.406	76.94
481.624	74.94
481.843	76.94
482.061	74.94
482.28	90.94
482.498	86.94
482.717	72.94
482.935	82.94
483.153	90.94
483.372	93.94
483.59	85.94
483.808	86.94
484.027	90.94
484.245	104.94
484.463	102.94
484.681	95.94
484.9	95.94
485.118	79.94
485.336	97.94
485.554	96.94
485.772	79.94
485.99	84.94
486.209	88.94
486.427	80.94
486.645	92.94
486.863	110.94
487.081	111.94
487.299	94.94
487.517	92.94
487.735	92.94
487.953	95.94
488.171	103.94
488.389	110.94
488.607	99.94
488.825	93.94
489.043	87.94
489.261	87.94
489.479	93.94
489.696	78.94
489.914	83.94
490.132	88.94
490.35	98.94
490.568	98.94
490.786	93.94
491.003	100.94
491.221	102.94
491.439	98.94
491.657	91.94
491.874	108.94
492.092	115.94
492.31	113.94
492.527	124.94
492.745	128.94
492.963	103.94
493.18	108.94
493.398	111.94
493.615	104.94
493.833	102.94
494.05	93.94
494.268	101.94
494.485	110.94
494.703	106.94
494.92	103.94
495.138	104.94
495.355	105.94
495.573	106.94
495.79	100.94
496.008	83.94
496.225	94.94
496.442	118.94
496.66	98.94
496.877	102.94
497.094	113.94
497.312	96.94
497.529	105.94
497.746	92.94
497.963	94.94
498.181	94.94
498.398	94.94
498.615	93.94
498.832	89.94
499.049	91.94
499.267	105.94
499.484	93.94
499.701	86.94
499.918	88.94
500.135	113.94
500.352	96.94
500.569	102.94
500.786	102.94
501.003	98.94
501.22	112.94
501.437	90.94
501.654	97.94
501.871	90.94
502.088	104.94
502.305	90.94
502.522	95.94
502.739	90.94
502.956	93.94
503.172	86.94
503.389	86.94
503.606	80.94
503.823	92.94
504.04	96.94
504.256	88.94
504.473	97.94
504.69	84.94
504.907	90.94
505.123	88.94
505.34	84.94
505.557	86.94
505.773	100.94
505.99	78.94
506.207	92.94
506.423	82.94
506.64	84.94
506.856	95.94
507.073	89.94
507.289	89.94
507.506	95.94
507.722	96.94
507.939	86.94
508.155	95.94
508.372	90.94
508.588	84.94
508.805	80.94
509.021	91.94
509.238	90.94
509.454	87.94
509.67	98.94
509.887	78.94
510.103	92.94
510.319	80.94
510.536	95.94
510.752	89.94
510.968	85.94
511.184	72.94
511.401	77.94
511.617	81.94
511.833	74.94
512.049	82.94
512.265	81.94
512.481	93.94
512.698	90.94
512.914	89.94
513.13	78.94
513.346	80.94
513.562	78.94
513.778	92.94
513.994	73.94
514.21	98.94
514.426	89.94
514.642	95.94
514.858	86.94
515.074	76.94
515.29	84.94
515.506	71.94
515.721	84.94
515.937	96.94
516.153	81.94
516.369	80.94
516.585	85.94
516.801	86.94
517.016	79.94
517.232	76.94
517.448	92.94
517.664	69.94
517.879	89.94
518.095	74.94
