Data from Location5.07152019.Energy5.Lamp.07192019.3%Agarose_HRD10591_16-02-47-631.txt Node
Date: Fri Jul 19 16:02:47 EDT 2019
User: cochatt
Spectrometer: HR+D1059
Trigger mode: 1
Integration Time (sec): 1.000000E-1
Scans to average: 1
Electric dark correction enabled: true
Nonlinearity correction enabled: false
Boxcar width: 0
XAxis mode: Wavelengths
Number of Pixels in Spectrum: 2048
>>>>>Begin Spectral Data<<<<<
223.165	-19.5
223.4	-19.5
223.635	-19.5
223.869	-14.5
224.104	-16.5
224.338	-11.5
224.573	-14.5
224.808	-22.5
225.042	-7.5
225.277	-15.5
225.511	4.5
225.746	9.5
225.98	3.5
226.215	4.5
226.449	29.5
226.683	12.5
226.918	37.5
227.152	20.5
227.387	39.5
227.621	47.5
227.856	40.5
228.09	45.5
228.324	59.5
228.559	32.5
228.793	37.5
229.027	52.5
229.262	75.5
229.496	65.5
229.73	85.5
229.964	87.5
230.199	75.5
230.433	78.5
230.667	77.5
230.901	67.5
231.136	76.5
231.37	86.5
231.604	90.5
231.838	96.5
232.072	91.5
232.306	79.5
232.541	93.5
232.775	79.5
233.009	83.5
233.243	87.5
233.477	81.5
233.711	82.5
233.945	97.5
234.179	73.5
234.413	75.5
234.647	90.5
234.881	90.5
235.115	83.5
235.349	66.5
235.583	79.5
235.817	77.5
236.051	78.5
236.285	81.5
236.519	81.5
236.753	83.5
236.987	72.5
237.221	84.5
237.455	80.5
237.689	87.5
237.922	85.5
238.156	74.5
238.39	64.5
238.624	88.5
238.858	94.5
239.091	88.5
239.325	77.5
239.559	75.5
239.793	90.5
240.027	86.5
240.26	79.5
240.494	86.5
240.728	83.5
240.961	74.5
241.195	82.5
241.429	87.5
241.662	56.5
241.896	87.5
242.13	85.5
242.363	73.5
242.597	95.5
242.83	93.5
243.064	66.5
243.298	81.5
243.531	72.5
243.765	70.5
243.998	77.5
244.232	69.5
244.465	75.5
244.699	75.5
244.932	81.5
245.166	76.5
245.399	75.5
245.633	76.5
245.866	89.5
246.099	88.5
246.333	83.5
246.566	79.5
246.8	94.5
247.033	84.5
247.266	79.5
247.5	86.5
247.733	66.5
247.966	76.5
248.2	75.5
248.433	83.5
248.666	72.5
248.899	82.5
249.133	76.5
249.366	80.5
249.599	75.5
249.832	82.5
250.066	80.5
250.299	90.5
250.532	103.5
250.765	96.5
250.998	79.5
251.231	88.5
251.465	84.5
251.698	77.5
251.931	94.5
252.164	86.5
252.397	90.5
252.63	90.5
252.863	71.5
253.096	77.5
253.329	71.5
253.562	84.5
253.795	74.5
254.028	84.5
254.261	78.5
254.494	89.5
254.727	77.5
254.96	92.5
255.193	77.5
255.426	84.5
255.659	78.5
255.892	89.5
256.124	78.5
256.357	77.5
256.59	82.5
256.823	73.5
257.056	77.5
257.289	83.5
257.521	86.5
257.754	87.5
257.987	76.5
258.22	93.5
258.452	92.5
258.685	100.5
258.918	105.5
259.151	79.5
259.383	69.5
259.616	77.5
259.849	69.5
260.081	83.5
260.314	84.5
260.547	88.5
260.779	86.5
261.012	93.5
261.244	91.5
261.477	79.5
261.71	83.5
261.942	81.5
262.175	92.5
262.407	65.5
262.64	94.5
262.872	92.5
263.105	81.5
263.337	90.5
263.57	82.5
263.802	74.5
264.035	107.5
264.267	96.5
264.499	88.5
264.732	96.5
264.964	84.5
265.197	78.5
265.429	90.5
265.661	93.5
265.894	99.5
266.126	93.5
266.358	96.5
266.591	91.5
266.823	86.5
267.055	92.5
267.287	95.5
267.52	90.5
267.752	75.5
267.984	82.5
268.216	105.5
268.448	92.5
268.681	76.5
268.913	75.5
269.145	72.5
269.377	88.5
269.609	92.5
269.841	89.5
270.073	80.5
270.306	87.5
270.538	94.5
270.77	83.5
271.002	86.5
271.234	87.5
271.466	102.5
271.698	82.5
271.93	90.5
272.162	90.5
272.394	93.5
272.626	90.5
272.858	93.5
273.09	86.5
273.322	71.5
273.553	77.5
273.785	89.5
274.017	83.5
274.249	83.5
274.481	87.5
274.713	94.5
274.945	96.5
275.176	86.5
275.408	81.5
275.64	82.5
275.872	84.5
276.104	94.5
276.335	91.5
276.567	88.5
276.799	87.5
277.031	84.5
277.262	86.5
277.494	94.5
277.726	104.5
277.957	94.5
278.189	87.5
278.421	95.5
278.652	85.5
278.884	78.5
279.115	74.5
279.347	91.5
279.579	93.5
279.81	110.5
280.042	93.5
280.273	83.5
280.505	85.5
280.736	82.5
280.968	99.5
281.199	93.5
281.431	92.5
281.662	75.5
281.894	84.5
282.125	90.5
282.356	89.5
282.588	82.5
282.819	89.5
283.051	97.5
283.282	82.5
283.513	89.5
283.745	97.5
283.976	83.5
284.207	95.5
284.439	91.5
284.67	96.5
284.901	106.5
285.132	87.5
285.364	97.5
285.595	104.5
285.826	99.5
286.057	90.5
286.288	93.5
286.52	98.5
286.751	101.5
286.982	100.5
287.213	82.5
287.444	98.5
287.675	87.5
287.906	100.5
288.138	92.5
288.369	93.5
288.6	95.5
288.831	84.5
289.062	87.5
289.293	94.5
289.524	94.5
289.755	92.5
289.986	78.5
290.217	98.5
290.448	86.5
290.679	94.5
290.91	94.5
291.141	92.5
291.371	103.5
291.602	95.5
291.833	89.5
292.064	104.5
292.295	99.5
292.526	87.5
292.757	97.5
292.987	88.5
293.218	80.5
293.449	85.5
293.68	84.5
293.91	91.5
294.141	100.5
294.372	88.5
294.603	84.5
294.833	81.5
295.064	95.5
295.295	93.5
295.525	76.5
295.756	82.5
295.987	85.5
296.217	97.5
296.448	88.5
296.679	87.5
296.909	92.5
297.14	89.5
297.37	93.5
297.601	93.5
297.831	107.5
298.062	86.5
298.292	82.5
298.523	92.5
298.753	100.5
298.984	110.5
299.214	95.5
299.445	97.5
299.675	93.5
299.905	99.5
300.136	83.5
300.366	92.5
300.597	95.5
300.827	92.5
301.057	85.5
301.288	86.5
301.518	98.5
301.748	90.5
301.979	89.5
302.209	89.5
302.439	99.5
302.669	94.5
302.9	99.5
303.13	93.5
303.36	82.5
303.59	90.5
303.82	91.5
304.051	110.5
304.281	87.5
304.511	104.5
304.741	103.5
304.971	96.5
305.201	98.5
305.431	95.5
305.661	109.5
305.891	95.5
306.121	101.5
306.352	88.5
306.582	96.5
306.812	97.5
307.042	98.5
307.272	102.5
307.502	90.5
307.731	96.5
307.961	88.5
308.191	102.5
308.421	97.5
308.651	90.5
308.881	107.5
309.111	94.5
309.341	101.5
309.571	94.5
309.8	89.5
310.03	88.5
310.26	84.5
310.49	108.5
310.72	93.5
310.949	91.5
311.179	100.5
311.409	94.5
311.639	96.5
311.868	90.5
312.098	107.5
312.328	112.5
312.557	89.5
312.787	90.5
313.017	97.5
313.246	93.5
313.476	95.5
313.706	91.5
313.935	99.5
314.165	96.5
314.394	105.5
314.624	87.5
314.853	102.5
315.083	107.5
315.312	106.5
315.542	89.5
315.771	102.5
316.001	88.5
316.23	99.5
316.46	86.5
316.689	88.5
316.919	91.5
317.148	90.5
317.377	104.5
317.607	97.5
317.836	97.5
318.065	106.5
318.295	94.5
318.524	99.5
318.753	90.5
318.983	92.5
319.212	95.5
319.441	106.5
319.67	94.5
319.9	93.5
320.129	85.5
320.358	97.5
320.587	99.5
320.816	87.5
321.046	102.5
321.275	99.5
321.504	92.5
321.733	98.5
321.962	101.5
322.191	101.5
322.42	103.5
322.649	99.5
322.878	107.5
323.108	99.5
323.337	91.5
323.566	96.5
323.795	93.5
324.024	104.5
324.253	106.5
324.482	101.5
324.71	94.5
324.939	105.5
325.168	91.5
325.397	95.5
325.626	96.5
325.855	103.5
326.084	97.5
326.313	92.5
326.542	102.5
326.77	81.5
326.999	94.5
327.228	101.5
327.457	93.5
327.686	107.5
327.914	84.5
328.143	112.5
328.372	96.5
328.6	94.5
328.829	87.5
329.058	91.5
329.287	90.5
329.515	90.5
329.744	90.5
329.972	90.5
330.201	89.5
330.43	96.5
330.658	102.5
330.887	84.5
331.115	104.5
331.344	75.5
331.572	95.5
331.801	94.5
332.03	89.5
332.258	99.5
332.486	101.5
332.715	108.5
332.943	93.5
333.172	98.5
333.4	88.5
333.629	104.5
333.857	99.5
334.085	107.5
334.314	101.5
334.542	99.5
334.771	97.5
334.999	100.5
335.227	101.5
335.455	85.5
335.684	89.5
335.912	93.5
336.14	87.5
336.369	93.5
336.597	100.5
336.825	105.5
337.053	93.5
337.281	114.5
337.51	109.5
337.738	99.5
337.966	90.5
338.194	95.5
338.422	102.5
338.65	111.5
338.878	78.5
339.106	89.5
339.334	111.5
339.562	91.5
339.79	84.5
340.018	99.5
340.246	99.5
340.474	93.5
340.702	97.5
340.93	111.5
341.158	100.5
341.386	90.5
341.614	97.5
341.842	96.5
342.07	94.5
342.298	106.5
342.526	101.5
342.754	103.5
342.981	92.5
343.209	97.5
343.437	101.5
343.665	108.5
343.893	106.5
344.12	85.5
344.348	104.5
344.576	95.5
344.804	93.5
345.031	97.5
345.259	112.5
345.487	84.5
345.714	91.5
345.942	94.5
346.17	112.5
346.397	92.5
346.625	97.5
346.853	91.5
347.08	93.5
347.308	89.5
347.535	96.5
347.763	96.5
347.99	85.5
348.218	90.5
348.445	95.5
348.673	103.5
348.9	103.5
349.128	94.5
349.355	85.5
349.583	89.5
349.81	102.5
350.037	98.5
350.265	97.5
350.492	89.5
350.72	86.5
350.947	96.5
351.174	95.5
351.402	90.5
351.629	84.5
351.856	87.5
352.083	84.5
352.311	97.5
352.538	88.5
352.765	96.5
352.992	84.5
353.22	101.5
353.447	95.5
353.674	97.5
353.901	95.5
354.128	84.5
354.355	90.5
354.583	85.5
354.81	99.5
355.037	99.5
355.264	87.5
355.491	97.5
355.718	96.5
355.945	89.5
356.172	91.5
356.399	99.5
356.626	90.5
356.853	88.5
357.08	95.5
357.307	87.5
357.534	93.5
357.761	99.5
357.988	97.5
358.215	97.5
358.441	98.5
358.668	81.5
358.895	98.5
359.122	103.5
359.349	88.5
359.576	92.5
359.802	89.5
360.029	87.5
360.256	84.5
360.483	94.5
360.709	88.5
360.936	97.5
361.163	104.5
361.39	95.5
361.616	95.5
361.843	74.5
362.07	87.5
362.296	98.5
362.523	90.5
362.749	85.5
362.976	109.5
363.203	90.5
363.429	82.5
363.656	92.5
363.882	74.5
364.109	93.5
364.335	92.5
364.562	90.5
364.788	94.5
365.015	99.5
365.241	94.5
365.468	102.5
365.694	89.5
365.92	86.5
366.147	99.5
366.373	82.5
366.599	78.5
366.826	85.5
367.052	104.5
367.278	96.5
367.505	89.5
367.731	105.5
367.957	101.5
368.184	107.5
368.41	96.5
368.636	105.5
368.862	93.5
369.089	98.5
369.315	104.5
369.541	81.5
369.767	101.5
369.993	105.5
370.219	99.5
370.445	85.5
370.672	95.5
370.898	90.5
371.124	87.5
371.35	91.5
371.576	104.5
371.802	99.5
372.028	93.5
372.254	90.5
372.48	85.5
372.706	111.5
372.932	86.5
373.158	93.5
373.384	87.5
373.61	104.5
373.835	88.5
374.061	99.5
374.287	99.5
374.513	97.5
374.739	90.5
374.965	96.5
375.191	104.5
375.416	110.5
375.642	100.5
375.868	93.5
376.094	86.5
376.319	88.5
376.545	102.5
376.771	89.5
376.997	72.5
377.222	98.5
377.448	99.5
377.674	92.5
377.899	93.5
378.125	98.5
378.35	93.5
378.576	86.5
378.802	108.5
379.027	102.5
379.253	86.5
379.478	98.5
379.704	101.5
379.929	92.5
380.155	90.5
380.38	99.5
380.606	93.5
380.831	92.5
381.057	90.5
381.282	89.5
381.507	95.5
381.733	92.5
381.958	95.5
382.184	98.5
382.409	97.5
382.634	102.5
382.86	92.5
383.085	94.5
383.31	91.5
383.535	104.5
383.761	105.5
383.986	97.5
384.211	98.5
384.436	90.5
384.662	99.5
384.887	103.5
385.112	97.5
385.337	92.5
385.562	100.5
385.787	95.5
386.013	113.5
386.238	105.5
386.463	102.5
386.688	101.5
386.913	105.5
387.138	88.5
387.363	94.5
387.588	94.5
387.813	105.5
388.038	98.5
388.263	103.5
388.488	102.5
388.713	94.5
388.938	84.5
389.163	108.5
389.387	102.5
389.612	84.5
389.837	80.5
390.062	103.5
390.287	92.5
390.512	108.5
390.736	93.5
390.961	92.5
391.186	95.5
391.411	91.5
391.636	99.5
391.86	108.5
392.085	97.5
392.31	92.5
392.534	96.5
392.759	87.5
392.984	103.5
393.208	108.5
393.433	106.5
393.658	109.5
393.882	100.5
394.107	104.5
394.331	101.5
394.556	98.5
394.78	104.5
395.005	95.5
395.229	98.5
395.454	103.5
395.678	114.5
395.903	107.5
396.127	106.5
396.352	102.5
396.576	94.5
396.801	88.5
397.025	97.5
397.249	94.5
397.474	103.5
397.698	91.5
397.922	94.5
398.147	107.5
398.371	89.5
398.595	116.5
398.82	102.5
399.044	97.5
399.268	105.5
399.492	113.5
399.717	112.5
399.941	121.5
400.165	117.5
400.389	123.5
400.613	109.5
400.837	106.5
401.062	96.5
401.286	105.5
401.51	96.5
401.734	89.5
401.958	100.5
402.182	102.5
402.406	91.5
402.63	91.5
402.854	102.5
403.078	112.5
403.302	97.5
403.526	110.5
403.75	116.5
403.974	114.5
404.198	118.5
404.422	101.5
404.645	112.5
404.869	121.5
405.093	103.5
405.317	114.5
405.541	104.5
405.765	104.5
405.988	100.5
406.212	104.5
406.436	103.5
406.66	93.5
406.883	99.5
407.107	116.5
407.331	107.5
407.555	109.5
407.778	97.5
408.002	107.5
408.226	98.5
408.449	96.5
408.673	121.5
408.896	94.5
409.12	101.5
409.344	107.5
409.567	109.5
409.791	96.5
410.014	132.5
410.238	90.5
410.461	98.5
410.685	121.5
410.908	114.5
411.132	105.5
411.355	105.5
411.578	100.5
411.802	81.5
412.025	105.5
412.249	83.5
412.472	101.5
412.695	116.5
412.919	96.5
413.142	106.5
413.365	112.5
413.589	96.5
413.812	104.5
414.035	115.5
414.258	102.5
414.482	108.5
414.705	109.5
414.928	101.5
415.151	105.5
415.374	102.5
415.597	115.5
415.821	112.5
416.044	93.5
416.267	100.5
416.49	88.5
416.713	95.5
416.936	104.5
417.159	98.5
417.382	105.5
417.605	93.5
417.828	102.5
418.051	95.5
418.274	87.5
418.497	120.5
418.72	103.5
418.943	106.5
419.166	98.5
419.389	101.5
419.611	109.5
419.834	102.5
420.057	96.5
420.28	97.5
420.503	106.5
420.726	106.5
420.948	109.5
421.171	106.5
421.394	92.5
421.617	104.5
421.839	90.5
422.062	99.5
422.285	116.5
422.507	109.5
422.73	93.5
422.953	109.5
423.175	98.5
423.398	89.5
423.621	105.5
423.843	92.5
424.066	105.5
424.288	109.5
424.511	107.5
424.733	110.5
424.956	99.5
425.178	105.5
425.401	101.5
425.623	105.5
425.846	90.5
426.068	101.5
426.291	115.5
426.513	101.5
426.735	101.5
426.958	90.5
427.18	110.5
427.402	97.5
427.625	100.5
427.847	92.5
428.069	117.5
428.292	100.5
428.514	104.5
428.736	96.5
428.958	100.5
429.181	111.5
429.403	91.5
429.625	109.5
429.847	101.5
430.069	90.5
430.292	107.5
430.514	109.5
430.736	98.5
430.958	91.5
431.18	104.5
431.402	106.5
431.624	89.5
431.846	96.5
432.068	96.5
432.29	94.5
432.512	101.5
432.734	92.5
432.956	107.5
433.178	110.5
433.4	98.5
433.622	106.5
433.844	76.5
434.066	104.5
434.287	97.5
434.509	95.5
434.731	106.5
434.953	110.5
435.175	108.5
435.397	95.5
435.618	101.5
435.84	98.5
436.062	102.5
436.284	108.5
436.505	88.5
436.727	98.5
436.949	94.5
437.17	90.5
437.392	94.5
437.614	96.5
437.835	92.5
438.057	98.5
438.278	93.5
438.5	94.5
438.721	89.5
438.943	95.5
439.165	82.5
439.386	90.5
439.608	102.5
439.829	103.5
440.05	92.5
440.272	109.5
440.493	105.5
440.715	95.5
440.936	95.5
441.158	90.5
441.379	99.5
441.6	105.5
441.822	118.5
442.043	98.5
442.264	106.5
442.486	91.5
442.707	109.5
442.928	100.5
443.149	106.5
443.371	113.5
443.592	107.5
443.813	104.5
444.034	95.5
444.255	88.5
444.476	110.5
444.698	108.5
444.919	112.5
445.14	237.5
445.361	163.5
445.582	104.5
445.803	99.5
446.024	106.5
446.245	101.5
446.466	89.5
446.687	104.5
446.908	109.5
447.129	112.5
447.35	101.5
447.571	104.5
447.792	89.5
448.013	99.5
448.234	89.5
448.455	82.5
448.675	93.5
448.896	89.5
449.117	89.5
449.338	98.5
449.559	106.5
449.779	103.5
450	99.5
450.221	98.5
450.442	92.5
450.662	103.5
450.883	99.5
451.104	102.5
451.324	106.5
451.545	101.5
451.766	103.5
451.986	96.5
452.207	109.5
452.428	94.5
452.648	94.5
452.869	103.5
453.089	94.5
453.31	98.5
453.53	80.5
453.751	73.5
453.971	93.5
454.192	87.5
454.412	90.5
454.633	99.5
454.853	94.5
455.073	88.5
455.294	107.5
455.514	96.5
455.734	99.5
455.955	94.5
456.175	99.5
456.395	113.5
456.616	99.5
456.836	82.5
457.056	95.5
457.276	96.5
457.497	90.5
457.717	86.5
457.937	93.5
458.157	84.5
458.377	72.5
458.598	107.5
458.818	100.5
459.038	92.5
459.258	103.5
459.478	89.5
459.698	94.5
459.918	97.5
460.138	100.5
460.358	94.5
460.578	108.5
460.798	88.5
461.018	104.5
461.238	88.5
461.458	102.5
461.678	108.5
461.898	99.5
462.118	115.5
462.338	103.5
462.558	115.5
462.777	109.5
462.997	106.5
463.217	114.5
463.437	116.5
463.657	110.5
463.876	100.5
464.096	124.5
464.316	112.5
464.536	104.5
464.755	104.5
464.975	92.5
465.195	121.5
465.414	102.5
465.634	112.5
465.854	95.5
466.073	103.5
466.293	92.5
466.512	105.5
466.732	91.5
466.951	96.5
467.171	101.5
467.391	106.5
467.61	105.5
467.829	89.5
468.049	101.5
468.268	97.5
468.488	102.5
468.707	118.5
468.927	97.5
469.146	111.5
469.365	94.5
469.585	92.5
469.804	108.5
470.023	96.5
470.243	102.5
470.462	112.5
470.681	106.5
470.901	104.5
471.12	104.5
471.339	91.5
471.558	98.5
471.777	103.5
471.997	106.5
472.216	115.5
472.435	109.5
472.654	87.5
472.873	89.5
473.092	102.5
473.311	96.5
473.53	104.5
473.749	88.5
473.968	109.5
474.187	98.5
474.406	102.5
474.625	108.5
474.844	104.5
475.063	89.5
475.282	99.5
475.501	102.5
475.72	114.5
475.939	100.5
476.158	100.5
476.377	94.5
476.596	99.5
476.814	102.5
477.033	107.5
477.252	96.5
477.471	108.5
477.69	88.5
477.908	113.5
478.127	114.5
478.346	106.5
478.564	103.5
478.783	101.5
479.002	92.5
479.22	104.5
479.439	106.5
479.658	113.5
479.876	112.5
480.095	105.5
480.313	121.5
480.532	97.5
480.751	130.5
480.969	106.5
481.188	94.5
481.406	107.5
481.624	122.5
481.843	107.5
482.061	95.5
482.28	118.5
482.498	123.5
482.717	104.5
482.935	115.5
483.153	124.5
483.372	105.5
483.59	117.5
483.808	106.5
484.027	116.5
484.245	113.5
484.463	102.5
484.681	120.5
484.9	100.5
485.118	112.5
485.336	112.5
485.554	102.5
485.772	113.5
485.99	114.5
486.209	121.5
486.427	98.5
486.645	108.5
486.863	112.5
487.081	117.5
487.299	112.5
487.517	115.5
487.735	102.5
487.953	112.5
488.171	124.5
488.389	116.5
488.607	114.5
488.825	110.5
489.043	117.5
489.261	115.5
489.479	106.5
489.696	106.5
489.914	135.5
490.132	124.5
490.35	122.5
490.568	114.5
490.786	134.5
491.003	122.5
491.221	122.5
491.439	124.5
491.657	114.5
491.874	124.5
492.092	105.5
492.31	135.5
492.527	128.5
492.745	112.5
492.963	121.5
493.18	122.5
493.398	129.5
493.615	117.5
493.833	124.5
494.05	132.5
494.268	108.5
494.485	122.5
494.703	121.5
494.92	112.5
495.138	114.5
495.355	120.5
495.573	104.5
495.79	130.5
496.008	109.5
496.225	126.5
496.442	97.5
496.66	132.5
496.877	120.5
497.094	126.5
497.312	123.5
497.529	114.5
497.746	116.5
497.963	131.5
498.181	129.5
498.398	116.5
498.615	132.5
498.832	128.5
499.049	123.5
499.267	122.5
499.484	148.5
499.701	136.5
499.918	162.5
500.135	149.5
500.352	173.5
500.569	173.5
500.786	167.5
501.003	176.5
501.22	168.5
501.437	154.5
501.654	137.5
501.871	120.5
502.088	140.5
502.305	132.5
502.522	134.5
502.739	126.5
502.956	115.5
503.172	115.5
503.389	129.5
503.606	124.5
503.823	114.5
504.04	109.5
504.256	121.5
504.473	116.5
504.69	132.5
504.907	123.5
505.123	116.5
505.34	95.5
505.557	124.5
505.773	114.5
505.99	116.5
506.207	111.5
506.423	112.5
506.64	102.5
506.856	118.5
507.073	126.5
507.289	113.5
507.506	121.5
507.722	122.5
507.939	102.5
508.155	122.5
508.372	116.5
508.588	102.5
508.805	112.5
509.021	109.5
509.238	102.5
509.454	105.5
509.67	104.5
509.887	100.5
510.103	108.5
510.319	107.5
510.536	89.5
510.752	92.5
510.968	102.5
511.184	91.5
511.401	107.5
511.617	119.5
511.833	99.5
512.049	107.5
512.265	96.5
512.481	106.5
512.698	108.5
512.914	115.5
513.13	120.5
513.346	120.5
513.562	104.5
513.778	113.5
513.994	100.5
514.21	125.5
514.426	106.5
514.642	114.5
514.858	108.5
515.074	98.5
515.29	101.5
515.506	101.5
515.721	102.5
515.937	107.5
516.153	116.5
516.369	100.5
516.585	91.5
516.801	107.5
517.016	110.5
517.232	114.5
517.448	98.5
517.664	110.5
517.879	124.5
518.095	124.5
518.311	118.5
518.527	116.5
518.742	102.5
518.958	124.5
519.173	112.5
519.389	113.5
519.605	94.5
519.82	106.5
520.036	109.5
520.251	108.5
520.467	110.5
520.682	101.5
520.898	128.5
521.113	100.5
521.329	109.5
521.544	110.5
521.76	114.5
521.975	104.5
522.19	114.5
522.406	100.5
522.621	127.5
522.836	114.5
523.052	99.5
523.267	118.5
523.482	112.5
523.698	93.5
523.913	104.5
524.128	102.5
524.343	108.5
524.559	112.5
524.774	111.5
524.989	108.5
525.204	118.5
525.419	113.5
525.634	116.5
525.849	112.5
526.064	107.5
526.28	102.5
526.495	111.5
526.71	98.5
526.925	97.5
527.14	108.5
527.355	112.5
527.57	92.5
527.785	99.5
527.999	110.5
528.214	109.5
528.429	98.5
528.644	105.5
528.859	107.5
529.074	110.5
529.289	128.5
529.503	118.5
529.718	116.5
529.933	115.5
530.148	100.5
530.363	97.5
530.577	93.5
530.792	108.5
531.007	106.5
531.221	113.5
