Data from Location5.07152019.Energy5.Lamp.07192019.3%Agarose_HRD10591_15-37-19-387.txt Node
Date: Fri Jul 19 15:37:19 EDT 2019
User: cochatt
Spectrometer: HR+D1059
Trigger mode: 1
Integration Time (sec): 1.000000E-1
Scans to average: 1
Electric dark correction enabled: true
Nonlinearity correction enabled: false
Boxcar width: 0
XAxis mode: Wavelengths
Number of Pixels in Spectrum: 2048
>>>>>Begin Spectral Data<<<<<
223.165	-6.56
223.4	-6.56
223.635	-6.56
223.869	-23.56
224.104	-14.56
224.338	-8.56
224.573	-11.56
224.808	-21.56
225.042	-26.56
225.277	-11.56
225.511	-9.56
225.746	7.44
225.98	8.44
226.215	15.44
226.449	11.44
226.683	21.44
226.918	26.44
227.152	43.44
227.387	23.44
227.621	31.44
227.856	33.44
228.09	57.44
228.324	33.44
228.559	53.44
228.793	69.44
229.027	72.44
229.262	63.44
229.496	62.44
229.73	83.44
229.964	71.44
230.199	81.44
230.433	78.44
230.667	76.44
230.901	72.44
231.136	68.44
231.37	82.44
231.604	75.44
231.838	65.44
232.072	76.44
232.306	96.44
232.541	95.44
232.775	83.44
233.009	88.44
233.243	80.44
233.477	86.44
233.711	78.44
233.945	83.44
234.179	99.44
234.413	71.44
234.647	91.44
234.881	77.44
235.115	82.44
235.349	83.44
235.583	71.44
235.817	80.44
236.051	74.44
236.285	72.44
236.519	84.44
236.753	87.44
236.987	81.44
237.221	86.44
237.455	63.44
237.689	69.44
237.922	75.44
238.156	94.44
238.39	84.44
238.624	84.44
238.858	87.44
239.091	73.44
239.325	85.44
239.559	77.44
239.793	73.44
240.027	70.44
240.26	81.44
240.494	71.44
240.728	63.44
240.961	95.44
241.195	95.44
241.429	85.44
241.662	81.44
241.896	83.44
242.13	85.44
242.363	76.44
242.597	80.44
242.83	74.44
243.064	81.44
243.298	71.44
243.531	70.44
243.765	69.44
243.998	93.44
244.232	82.44
244.465	74.44
244.699	77.44
244.932	75.44
245.166	77.44
245.399	78.44
245.633	79.44
245.866	69.44
246.099	91.44
246.333	71.44
246.566	78.44
246.8	71.44
247.033	80.44
247.266	73.44
247.5	74.44
247.733	75.44
247.966	82.44
248.2	84.44
248.433	81.44
248.666	77.44
248.899	75.44
249.133	77.44
249.366	77.44
249.599	72.44
249.832	86.44
250.066	86.44
250.299	83.44
250.532	82.44
250.765	78.44
250.998	68.44
251.231	73.44
251.465	87.44
251.698	87.44
251.931	70.44
252.164	74.44
252.397	74.44
252.63	86.44
252.863	80.44
253.096	76.44
253.329	83.44
253.562	79.44
253.795	91.44
254.028	72.44
254.261	76.44
254.494	69.44
254.727	100.44
254.96	81.44
255.193	93.44
255.426	89.44
255.659	87.44
255.892	83.44
256.124	83.44
256.357	78.44
256.59	75.44
256.823	86.44
257.056	64.44
257.289	85.44
257.521	85.44
257.754	81.44
257.987	81.44
258.22	93.44
258.452	76.44
258.685	65.44
258.918	71.44
259.151	70.44
259.383	71.44
259.616	83.44
259.849	88.44
260.081	82.44
260.314	88.44
260.547	90.44
260.779	86.44
261.012	84.44
261.244	75.44
261.477	89.44
261.71	76.44
261.942	86.44
262.175	83.44
262.407	86.44
262.64	77.44
262.872	76.44
263.105	83.44
263.337	83.44
263.57	70.44
263.802	92.44
264.035	90.44
264.267	85.44
264.499	80.44
264.732	81.44
264.964	77.44
265.197	82.44
265.429	81.44
265.661	74.44
265.894	76.44
266.126	87.44
266.358	81.44
266.591	77.44
266.823	87.44
267.055	83.44
267.287	93.44
267.52	90.44
267.752	80.44
267.984	83.44
268.216	86.44
268.448	83.44
268.681	95.44
268.913	79.44
269.145	83.44
269.377	81.44
269.609	88.44
269.841	90.44
270.073	82.44
270.306	87.44
270.538	81.44
270.77	88.44
271.002	98.44
271.234	88.44
271.466	85.44
271.698	80.44
271.93	96.44
272.162	75.44
272.394	76.44
272.626	87.44
272.858	83.44
273.09	81.44
273.322	89.44
273.553	85.44
273.785	80.44
274.017	90.44
274.249	88.44
274.481	90.44
274.713	79.44
274.945	72.44
275.176	83.44
275.408	79.44
275.64	81.44
275.872	78.44
276.104	95.44
276.335	87.44
276.567	78.44
276.799	75.44
277.031	87.44
277.262	67.44
277.494	82.44
277.726	80.44
277.957	86.44
278.189	86.44
278.421	79.44
278.652	83.44
278.884	93.44
279.115	74.44
279.347	89.44
279.579	81.44
279.81	105.44
280.042	78.44
280.273	90.44
280.505	92.44
280.736	90.44
280.968	77.44
281.199	82.44
281.431	91.44
281.662	92.44
281.894	87.44
282.125	72.44
282.356	84.44
282.588	77.44
282.819	71.44
283.051	91.44
283.282	69.44
283.513	96.44
283.745	92.44
283.976	98.44
284.207	89.44
284.439	95.44
284.67	88.44
284.901	99.44
285.132	74.44
285.364	76.44
285.595	95.44
285.826	83.44
286.057	87.44
286.288	89.44
286.52	68.44
286.751	101.44
286.982	73.44
287.213	90.44
287.444	82.44
287.675	72.44
287.906	93.44
288.138	84.44
288.369	82.44
288.6	83.44
288.831	97.44
289.062	80.44
289.293	77.44
289.524	84.44
289.755	84.44
289.986	91.44
290.217	77.44
290.448	88.44
290.679	81.44
290.91	91.44
291.141	77.44
291.371	77.44
291.602	101.44
291.833	84.44
292.064	67.44
292.295	61.44
292.526	81.44
292.757	87.44
292.987	100.44
293.218	78.44
293.449	85.44
293.68	72.44
293.91	87.44
294.141	82.44
294.372	81.44
294.603	88.44
294.833	93.44
295.064	97.44
295.295	85.44
295.525	75.44
295.756	84.44
295.987	75.44
296.217	99.44
296.448	84.44
296.679	89.44
296.909	85.44
297.14	93.44
297.37	83.44
297.601	84.44
297.831	77.44
298.062	95.44
298.292	101.44
298.523	93.44
298.753	93.44
298.984	77.44
299.214	90.44
299.445	77.44
299.675	83.44
299.905	76.44
300.136	84.44
300.366	81.44
300.597	80.44
300.827	85.44
301.057	92.44
301.288	79.44
301.518	89.44
301.748	85.44
301.979	96.44
302.209	103.44
302.439	85.44
302.669	91.44
302.9	87.44
303.13	93.44
303.36	84.44
303.59	85.44
303.82	69.44
304.051	95.44
304.281	83.44
304.511	77.44
304.741	81.44
304.971	79.44
305.201	77.44
305.431	83.44
305.661	96.44
305.891	99.44
306.121	90.44
306.352	79.44
306.582	76.44
306.812	95.44
307.042	74.44
307.272	72.44
307.502	74.44
307.731	76.44
307.961	83.44
308.191	99.44
308.421	76.44
308.651	95.44
308.881	91.44
309.111	66.44
309.341	66.44
309.571	77.44
309.8	96.44
310.03	79.44
310.26	90.44
310.49	86.44
310.72	91.44
310.949	93.44
311.179	79.44
311.409	85.44
311.639	77.44
311.868	89.44
312.098	71.44
312.328	90.44
312.557	81.44
312.787	87.44
313.017	81.44
313.246	82.44
313.476	97.44
313.706	88.44
313.935	92.44
314.165	75.44
314.394	89.44
314.624	84.44
314.853	93.44
315.083	94.44
315.312	86.44
315.542	87.44
315.771	70.44
316.001	90.44
316.23	81.44
316.46	90.44
316.689	90.44
316.919	80.44
317.148	67.44
317.377	82.44
317.607	77.44
317.836	81.44
318.065	81.44
318.295	82.44
318.524	84.44
318.753	91.44
318.983	87.44
319.212	83.44
319.441	88.44
319.67	86.44
319.9	81.44
320.129	83.44
320.358	82.44
320.587	92.44
320.816	90.44
321.046	88.44
321.275	91.44
321.504	95.44
321.733	89.44
321.962	100.44
322.191	83.44
322.42	90.44
322.649	77.44
322.878	77.44
323.108	93.44
323.337	80.44
323.566	69.44
323.795	87.44
324.024	78.44
324.253	87.44
324.482	89.44
324.71	84.44
324.939	93.44
325.168	92.44
325.397	71.44
325.626	87.44
325.855	86.44
326.084	83.44
326.313	79.44
326.542	76.44
326.77	85.44
326.999	77.44
327.228	66.44
327.457	84.44
327.686	88.44
327.914	87.44
328.143	94.44
328.372	93.44
328.6	101.44
328.829	84.44
329.058	85.44
329.287	88.44
329.515	76.44
329.744	81.44
329.972	83.44
330.201	70.44
330.43	94.44
330.658	92.44
330.887	84.44
331.115	93.44
331.344	86.44
331.572	85.44
331.801	69.44
332.03	79.44
332.258	87.44
332.486	80.44
332.715	71.44
332.943	88.44
333.172	96.44
333.4	82.44
333.629	83.44
333.857	77.44
334.085	85.44
334.314	83.44
334.542	97.44
334.771	82.44
334.999	99.44
335.227	86.44
335.455	82.44
335.684	95.44
335.912	94.44
336.14	89.44
336.369	99.44
336.597	81.44
336.825	77.44
337.053	85.44
337.281	85.44
337.51	99.44
337.738	85.44
337.966	79.44
338.194	80.44
338.422	80.44
338.65	76.44
338.878	101.44
339.106	96.44
339.334	93.44
339.562	94.44
339.79	85.44
340.018	84.44
340.246	99.44
340.474	101.44
340.702	103.44
340.93	79.44
341.158	82.44
341.386	93.44
341.614	86.44
341.842	83.44
342.07	83.44
342.298	79.44
342.526	76.44
342.754	84.44
342.981	77.44
343.209	66.44
343.437	86.44
343.665	86.44
343.893	91.44
344.12	79.44
344.348	93.44
344.576	78.44
344.804	85.44
345.031	90.44
345.259	77.44
345.487	85.44
345.714	86.44
345.942	79.44
346.17	74.44
346.397	86.44
346.625	91.44
346.853	82.44
347.08	93.44
347.308	77.44
347.535	76.44
347.763	77.44
347.99	88.44
348.218	83.44
348.445	79.44
348.673	72.44
348.9	75.44
349.128	95.44
349.355	75.44
349.583	69.44
349.81	79.44
350.037	73.44
350.265	83.44
350.492	92.44
350.72	83.44
350.947	86.44
351.174	89.44
351.402	88.44
351.629	94.44
351.856	86.44
352.083	82.44
352.311	82.44
352.538	81.44
352.765	89.44
352.992	93.44
353.22	90.44
353.447	90.44
353.674	88.44
353.901	83.44
354.128	75.44
354.355	98.44
354.583	102.44
354.81	90.44
355.037	79.44
355.264	97.44
355.491	81.44
355.718	91.44
355.945	81.44
356.172	95.44
356.399	76.44
356.626	75.44
356.853	77.44
357.08	90.44
357.307	92.44
357.534	80.44
357.761	84.44
357.988	79.44
358.215	100.44
358.441	87.44
358.668	91.44
358.895	83.44
359.122	84.44
359.349	71.44
359.576	83.44
359.802	72.44
360.029	89.44
360.256	85.44
360.483	91.44
360.709	78.44
360.936	73.44
361.163	88.44
361.39	78.44
361.616	89.44
361.843	100.44
362.07	87.44
362.296	79.44
362.523	103.44
362.749	84.44
362.976	77.44
363.203	80.44
363.429	80.44
363.656	97.44
363.882	84.44
364.109	84.44
364.335	83.44
364.562	82.44
364.788	96.44
365.015	87.44
365.241	78.44
365.468	79.44
365.694	90.44
365.92	84.44
366.147	93.44
366.373	92.44
366.599	74.44
366.826	82.44
367.052	68.44
367.278	75.44
367.505	85.44
367.731	88.44
367.957	79.44
368.184	85.44
368.41	90.44
368.636	100.44
368.862	89.44
369.089	81.44
369.315	94.44
369.541	86.44
369.767	74.44
369.993	77.44
370.219	83.44
370.445	82.44
370.672	86.44
370.898	83.44
371.124	80.44
371.35	68.44
371.576	99.44
371.802	97.44
372.028	77.44
372.254	82.44
372.48	76.44
372.706	90.44
372.932	89.44
373.158	87.44
373.384	83.44
373.61	77.44
373.835	89.44
374.061	84.44
374.287	88.44
374.513	87.44
374.739	89.44
374.965	75.44
375.191	92.44
375.416	87.44
375.642	77.44
375.868	85.44
376.094	91.44
376.319	98.44
376.545	84.44
376.771	87.44
376.997	83.44
377.222	79.44
377.448	83.44
377.674	90.44
377.899	81.44
378.125	98.44
378.35	87.44
378.576	104.44
378.802	76.44
379.027	84.44
379.253	84.44
379.478	85.44
379.704	87.44
379.929	86.44
380.155	86.44
380.38	87.44
380.606	90.44
380.831	71.44
381.057	88.44
381.282	102.44
381.507	78.44
381.733	66.44
381.958	80.44
382.184	76.44
382.409	91.44
382.634	92.44
382.86	75.44
383.085	85.44
383.31	93.44
383.535	84.44
383.761	75.44
383.986	68.44
384.211	86.44
384.436	83.44
384.662	93.44
384.887	92.44
385.112	92.44
385.337	69.44
385.562	72.44
385.787	80.44
386.013	91.44
386.238	90.44
386.463	101.44
386.688	98.44
386.913	88.44
387.138	92.44
387.363	83.44
387.588	83.44
387.813	96.44
388.038	98.44
388.263	96.44
388.488	95.44
388.713	69.44
388.938	83.44
389.163	77.44
389.387	81.44
389.612	92.44
389.837	69.44
390.062	72.44
390.287	85.44
390.512	85.44
390.736	81.44
390.961	88.44
391.186	89.44
391.411	90.44
391.636	79.44
391.86	98.44
392.085	86.44
392.31	81.44
392.534	86.44
392.759	82.44
392.984	76.44
393.208	97.44
393.433	88.44
393.658	87.44
393.882	83.44
394.107	77.44
394.331	89.44
394.556	85.44
394.78	96.44
395.005	79.44
395.229	88.44
395.454	97.44
395.678	85.44
395.903	84.44
396.127	95.44
396.352	84.44
396.576	83.44
396.801	81.44
397.025	93.44
397.249	94.44
397.474	91.44
397.698	91.44
397.922	94.44
398.147	83.44
398.371	93.44
398.595	81.44
398.82	88.44
399.044	80.44
399.268	80.44
399.492	88.44
399.717	97.44
399.941	85.44
400.165	96.44
400.389	85.44
400.613	79.44
400.837	92.44
401.062	103.44
401.286	92.44
401.51	90.44
401.734	76.44
401.958	97.44
402.182	103.44
402.406	94.44
402.63	88.44
402.854	94.44
403.078	96.44
403.302	82.44
403.526	94.44
403.75	89.44
403.974	80.44
404.198	77.44
404.422	83.44
404.645	91.44
404.869	80.44
405.093	84.44
405.317	81.44
405.541	83.44
405.765	90.44
405.988	85.44
406.212	78.44
406.436	88.44
406.66	87.44
406.883	77.44
407.107	96.44
407.331	97.44
407.555	74.44
407.778	79.44
408.002	89.44
408.226	86.44
408.449	87.44
408.673	91.44
408.896	93.44
409.12	91.44
409.344	86.44
409.567	79.44
409.791	96.44
410.014	89.44
410.238	83.44
410.461	88.44
410.685	69.44
410.908	83.44
411.132	91.44
411.355	88.44
411.578	79.44
411.802	88.44
412.025	90.44
412.249	84.44
412.472	82.44
412.695	92.44
412.919	89.44
413.142	96.44
413.365	83.44
413.589	88.44
413.812	97.44
414.035	94.44
414.258	94.44
414.482	80.44
414.705	89.44
414.928	81.44
415.151	87.44
415.374	93.44
415.597	95.44
415.821	91.44
416.044	90.44
416.267	84.44
416.49	87.44
416.713	104.44
416.936	88.44
417.159	82.44
417.382	93.44
417.605	91.44
417.828	98.44
418.051	98.44
418.274	102.44
418.497	105.44
418.72	93.44
418.943	95.44
419.166	97.44
419.389	93.44
419.611	105.44
419.834	111.44
420.057	95.44
420.28	101.44
420.503	97.44
420.726	96.44
420.948	100.44
421.171	91.44
421.394	94.44
421.617	104.44
421.839	90.44
422.062	96.44
422.285	93.44
422.507	97.44
422.73	92.44
422.953	85.44
423.175	95.44
423.398	97.44
423.621	81.44
423.843	94.44
424.066	95.44
424.288	101.44
424.511	116.44
424.733	105.44
424.956	89.44
425.178	95.44
425.401	89.44
425.623	96.44
425.846	95.44
426.068	87.44
426.291	94.44
426.513	87.44
426.735	106.44
426.958	88.44
427.18	89.44
427.402	96.44
427.625	98.44
427.847	85.44
428.069	94.44
428.292	81.44
428.514	84.44
428.736	65.44
428.958	80.44
429.181	85.44
429.403	90.44
429.625	97.44
429.847	75.44
430.069	88.44
430.292	97.44
430.514	82.44
430.736	87.44
430.958	102.44
431.18	91.44
431.402	97.44
431.624	90.44
431.846	83.44
432.068	89.44
432.29	91.44
432.512	79.44
432.734	87.44
432.956	96.44
433.178	83.44
433.4	89.44
433.622	100.44
433.844	103.44
434.066	99.44
434.287	81.44
434.509	78.44
434.731	91.44
434.953	84.44
435.175	88.44
435.397	96.44
435.618	88.44
435.84	104.44
436.062	80.44
436.284	84.44
436.505	90.44
436.727	99.44
436.949	99.44
437.17	90.44
437.392	65.44
437.614	89.44
437.835	89.44
438.057	94.44
438.278	77.44
438.5	90.44
438.721	97.44
438.943	100.44
439.165	105.44
439.386	103.44
439.608	93.44
439.829	108.44
440.05	99.44
440.272	91.44
440.493	92.44
440.715	102.44
440.936	95.44
441.158	96.44
441.379	84.44
441.6	98.44
441.822	83.44
442.043	99.44
442.264	101.44
442.486	102.44
442.707	91.44
442.928	100.44
443.149	99.44
443.371	90.44
443.592	93.44
443.813	93.44
444.034	83.44
444.255	105.44
444.476	99.44
444.698	103.44
444.919	110.44
445.14	226.44
445.361	155.44
445.582	99.44
445.803	92.44
446.024	101.44
446.245	101.44
446.466	105.44
446.687	102.44
446.908	110.44
447.129	101.44
447.35	89.44
447.571	105.44
447.792	105.44
448.013	88.44
448.234	88.44
448.455	92.44
448.675	98.44
448.896	99.44
449.117	96.44
449.338	91.44
449.559	101.44
449.779	95.44
450	92.44
450.221	95.44
450.442	102.44
450.662	107.44
450.883	88.44
451.104	91.44
451.324	101.44
451.545	83.44
451.766	95.44
451.986	86.44
452.207	93.44
452.428	99.44
452.648	79.44
452.869	89.44
453.089	92.44
453.31	84.44
453.53	79.44
453.751	76.44
453.971	84.44
454.192	93.44
454.412	88.44
454.633	89.44
454.853	91.44
455.073	80.44
455.294	82.44
455.514	98.44
455.734	86.44
455.955	88.44
456.175	86.44
456.395	95.44
456.616	81.44
456.836	73.44
457.056	88.44
457.276	84.44
457.497	104.44
457.717	87.44
457.937	104.44
458.157	91.44
458.377	86.44
458.598	94.44
458.818	88.44
459.038	77.44
459.258	95.44
459.478	88.44
459.698	80.44
459.918	74.44
460.138	77.44
460.358	89.44
460.578	75.44
460.798	104.44
461.018	88.44
461.238	90.44
461.458	89.44
461.678	83.44
461.898	101.44
462.118	87.44
462.338	91.44
462.558	90.44
462.777	86.44
462.997	87.44
463.217	82.44
463.437	70.44
463.657	91.44
463.876	91.44
464.096	80.44
464.316	85.44
464.536	80.44
464.755	90.44
464.975	99.44
465.195	93.44
465.414	97.44
465.634	89.44
465.854	93.44
466.073	87.44
466.293	103.44
466.512	87.44
466.732	76.44
466.951	106.44
467.171	98.44
467.391	91.44
467.61	100.44
467.829	93.44
468.049	89.44
468.268	90.44
468.488	91.44
468.707	90.44
468.927	89.44
469.146	75.44
469.365	88.44
469.585	84.44
469.804	84.44
470.023	92.44
470.243	93.44
470.462	98.44
470.681	86.44
470.901	96.44
471.12	106.44
471.339	106.44
471.558	84.44
471.777	92.44
471.997	93.44
472.216	106.44
472.435	97.44
472.654	82.44
472.873	83.44
473.092	92.44
473.311	85.44
473.53	95.44
473.749	89.44
473.968	90.44
474.187	89.44
474.406	89.44
474.625	92.44
474.844	92.44
475.063	110.44
475.282	97.44
475.501	97.44
475.72	89.44
475.939	86.44
476.158	90.44
476.377	106.44
476.596	87.44
476.814	83.44
477.033	83.44
477.252	81.44
477.471	92.44
477.69	121.44
477.908	91.44
478.127	91.44
478.346	94.44
478.564	100.44
478.783	100.44
479.002	109.44
479.22	92.44
479.439	96.44
479.658	101.44
479.876	93.44
480.095	98.44
480.313	86.44
480.532	91.44
480.751	85.44
480.969	80.44
481.188	82.44
481.406	89.44
481.624	89.44
481.843	80.44
482.061	92.44
482.28	89.44
482.498	95.44
482.717	90.44
482.935	99.44
483.153	106.44
483.372	92.44
483.59	88.44
483.808	99.44
484.027	102.44
484.245	84.44
484.463	99.44
484.681	113.44
484.9	97.44
485.118	101.44
485.336	98.44
485.554	98.44
485.772	93.44
485.99	96.44
486.209	90.44
486.427	93.44
486.645	96.44
486.863	91.44
487.081	102.44
487.299	107.44
487.517	99.44
487.735	104.44
487.953	116.44
488.171	121.44
488.389	98.44
488.607	96.44
488.825	93.44
489.043	87.44
489.261	90.44
489.479	90.44
489.696	99.44
489.914	85.44
490.132	105.44
490.35	119.44
490.568	108.44
490.786	95.44
491.003	93.44
491.221	111.44
491.439	111.44
491.657	99.44
491.874	108.44
492.092	132.44
492.31	123.44
492.527	122.44
492.745	113.44
492.963	112.44
493.18	118.44
493.398	106.44
493.615	113.44
493.833	111.44
494.05	116.44
494.268	105.44
494.485	111.44
494.703	109.44
494.92	109.44
495.138	127.44
495.355	93.44
495.573	100.44
495.79	108.44
496.008	97.44
496.225	101.44
496.442	130.44
496.66	86.44
496.877	98.44
497.094	112.44
497.312	109.44
497.529	116.44
497.746	91.44
497.963	87.44
498.181	103.44
498.398	108.44
498.615	87.44
498.832	87.44
499.049	92.44
499.267	100.44
499.484	101.44
499.701	97.44
499.918	98.44
500.135	83.44
500.352	104.44
500.569	101.44
500.786	96.44
501.003	105.44
501.22	101.44
501.437	95.44
501.654	85.44
501.871	91.44
502.088	88.44
502.305	92.44
502.522	92.44
502.739	104.44
502.956	90.44
503.172	102.44
503.389	105.44
503.606	99.44
503.823	86.44
504.04	98.44
504.256	97.44
504.473	95.44
504.69	92.44
504.907	100.44
505.123	92.44
505.34	101.44
505.557	97.44
505.773	108.44
505.99	82.44
506.207	88.44
506.423	87.44
506.64	100.44
506.856	91.44
507.073	94.44
507.289	89.44
507.506	102.44
507.722	104.44
507.939	80.44
508.155	89.44
508.372	84.44
508.588	88.44
508.805	101.44
509.021	95.44
509.238	99.44
509.454	79.44
509.67	98.44
509.887	83.44
510.103	108.44
510.319	79.44
510.536	92.44
510.752	85.44
510.968	79.44
511.184	78.44
511.401	84.44
511.617	97.44
511.833	93.44
512.049	93.44
512.265	81.44
512.481	87.44
512.698	86.44
512.914	92.44
513.13	78.44
513.346	99.44
513.562	97.44
513.778	86.44
513.994	95.44
514.21	76.44
514.426	82.44
514.642	87.44
514.858	73.44
515.074	75.44
515.29	85.44
515.506	70.44
515.721	73.44
515.937	87.44
516.153	84.44
516.369	83.44
516.585	76.44
516.801	82.44
517.016	88.44
517.232	104.44
517.448	97.44
517.664	86.44
