Data from Location5.07152019.Energy5.Lamp.07192019.3%Agarose_HRD10591_15-37-37-387.txt Node
Date: Fri Jul 19 15:37:37 EDT 2019
User: cochatt
Spectrometer: HR+D1059
Trigger mode: 1
Integration Time (sec): 1.000000E-1
Scans to average: 1
Electric dark correction enabled: true
Nonlinearity correction enabled: false
Boxcar width: 0
XAxis mode: Wavelengths
Number of Pixels in Spectrum: 2048
>>>>>Begin Spectral Data<<<<<
223.165	-21.56
223.4	-21.56
223.635	-21.56
223.869	-13.56
224.104	-23.56
224.338	-17.56
224.573	-25.56
224.808	-19.56
225.042	7.44
225.277	-1.56
225.511	-6.56
225.746	1.44
225.98	-7.56
226.215	12.44
226.449	19.44
226.683	22.44
226.918	35.44
227.152	38.44
227.387	33.44
227.621	38.44
227.856	48.44
228.09	56.44
228.324	39.44
228.559	53.44
228.793	66.44
229.027	56.44
229.262	56.44
229.496	67.44
229.73	70.44
229.964	70.44
230.199	62.44
230.433	84.44
230.667	75.44
230.901	85.44
231.136	78.44
231.37	78.44
231.604	69.44
231.838	74.44
232.072	88.44
232.306	78.44
232.541	82.44
232.775	71.44
233.009	90.44
233.243	75.44
233.477	88.44
233.711	85.44
233.945	84.44
234.179	88.44
234.413	77.44
234.647	78.44
234.881	71.44
235.115	83.44
235.349	78.44
235.583	83.44
235.817	76.44
236.051	79.44
236.285	77.44
236.519	78.44
236.753	85.44
236.987	72.44
237.221	91.44
237.455	83.44
237.689	65.44
237.922	80.44
238.156	55.44
238.39	65.44
238.624	67.44
238.858	61.44
239.091	72.44
239.325	59.44
239.559	75.44
239.793	73.44
240.027	76.44
240.26	66.44
240.494	83.44
240.728	82.44
240.961	81.44
241.195	86.44
241.429	72.44
241.662	74.44
241.896	63.44
242.13	73.44
242.363	70.44
242.597	76.44
242.83	78.44
243.064	97.44
243.298	72.44
243.531	68.44
243.765	76.44
243.998	79.44
244.232	72.44
244.465	95.44
244.699	74.44
244.932	73.44
245.166	84.44
245.399	83.44
245.633	81.44
245.866	70.44
246.099	74.44
246.333	85.44
246.566	82.44
246.8	77.44
247.033	81.44
247.266	79.44
247.5	84.44
247.733	81.44
247.966	67.44
248.2	72.44
248.433	69.44
248.666	77.44
248.899	56.44
249.133	71.44
249.366	87.44
249.599	82.44
249.832	82.44
250.066	81.44
250.299	82.44
250.532	83.44
250.765	80.44
250.998	67.44
251.231	76.44
251.465	79.44
251.698	71.44
251.931	84.44
252.164	94.44
252.397	79.44
252.63	85.44
252.863	88.44
253.096	78.44
253.329	88.44
253.562	85.44
253.795	84.44
254.028	86.44
254.261	77.44
254.494	76.44
254.727	77.44
254.96	83.44
255.193	80.44
255.426	84.44
255.659	76.44
255.892	96.44
256.124	87.44
256.357	82.44
256.59	82.44
256.823	64.44
257.056	75.44
257.289	74.44
257.521	76.44
257.754	76.44
257.987	87.44
258.22	74.44
258.452	70.44
258.685	81.44
258.918	79.44
259.151	87.44
259.383	87.44
259.616	79.44
259.849	67.44
260.081	76.44
260.314	86.44
260.547	93.44
260.779	88.44
261.012	94.44
261.244	84.44
261.477	93.44
261.71	96.44
261.942	91.44
262.175	93.44
262.407	77.44
262.64	75.44
262.872	77.44
263.105	77.44
263.337	102.44
263.57	88.44
263.802	75.44
264.035	74.44
264.267	81.44
264.499	79.44
264.732	82.44
264.964	66.44
265.197	103.44
265.429	91.44
265.661	89.44
265.894	89.44
266.126	89.44
266.358	88.44
266.591	89.44
266.823	84.44
267.055	71.44
267.287	76.44
267.52	72.44
267.752	83.44
267.984	83.44
268.216	72.44
268.448	89.44
268.681	100.44
268.913	70.44
269.145	80.44
269.377	72.44
269.609	79.44
269.841	84.44
270.073	78.44
270.306	88.44
270.538	85.44
270.77	80.44
271.002	79.44
271.234	81.44
271.466	94.44
271.698	77.44
271.93	82.44
272.162	76.44
272.394	82.44
272.626	90.44
272.858	88.44
273.09	90.44
273.322	89.44
273.553	93.44
273.785	93.44
274.017	81.44
274.249	78.44
274.481	88.44
274.713	76.44
274.945	81.44
275.176	79.44
275.408	91.44
275.64	83.44
275.872	90.44
276.104	97.44
276.335	74.44
276.567	87.44
276.799	82.44
277.031	78.44
277.262	92.44
277.494	68.44
277.726	69.44
277.957	70.44
278.189	82.44
278.421	82.44
278.652	91.44
278.884	74.44
279.115	82.44
279.347	79.44
279.579	73.44
279.81	83.44
280.042	84.44
280.273	84.44
280.505	81.44
280.736	85.44
280.968	64.44
281.199	83.44
281.431	79.44
281.662	87.44
281.894	97.44
282.125	90.44
282.356	77.44
282.588	97.44
282.819	91.44
283.051	77.44
283.282	91.44
283.513	80.44
283.745	80.44
283.976	81.44
284.207	72.44
284.439	68.44
284.67	85.44
284.901	79.44
285.132	86.44
285.364	79.44
285.595	74.44
285.826	85.44
286.057	87.44
286.288	72.44
286.52	87.44
286.751	94.44
286.982	76.44
287.213	72.44
287.444	81.44
287.675	81.44
287.906	80.44
288.138	102.44
288.369	84.44
288.6	81.44
288.831	90.44
289.062	84.44
289.293	77.44
289.524	88.44
289.755	74.44
289.986	78.44
290.217	73.44
290.448	76.44
290.679	82.44
290.91	88.44
291.141	71.44
291.371	75.44
291.602	88.44
291.833	98.44
292.064	80.44
292.295	92.44
292.526	70.44
292.757	82.44
292.987	89.44
293.218	77.44
293.449	74.44
293.68	84.44
293.91	98.44
294.141	88.44
294.372	89.44
294.603	87.44
294.833	90.44
295.064	85.44
295.295	92.44
295.525	93.44
295.756	75.44
295.987	78.44
296.217	87.44
296.448	74.44
296.679	88.44
296.909	85.44
297.14	81.44
297.37	91.44
297.601	73.44
297.831	85.44
298.062	97.44
298.292	69.44
298.523	78.44
298.753	80.44
298.984	84.44
299.214	89.44
299.445	91.44
299.675	84.44
299.905	72.44
300.136	86.44
300.366	85.44
300.597	87.44
300.827	88.44
301.057	85.44
301.288	79.44
301.518	77.44
301.748	88.44
301.979	80.44
302.209	74.44
302.439	90.44
302.669	84.44
302.9	96.44
303.13	81.44
303.36	92.44
303.59	94.44
303.82	82.44
304.051	84.44
304.281	85.44
304.511	106.44
304.741	72.44
304.971	82.44
305.201	85.44
305.431	81.44
305.661	82.44
305.891	66.44
306.121	76.44
306.352	87.44
306.582	76.44
306.812	73.44
307.042	93.44
307.272	86.44
307.502	91.44
307.731	91.44
307.961	99.44
308.191	76.44
308.421	79.44
308.651	83.44
308.881	84.44
309.111	87.44
309.341	76.44
309.571	86.44
309.8	82.44
310.03	76.44
310.26	79.44
310.49	89.44
310.72	96.44
310.949	81.44
311.179	87.44
311.409	80.44
311.639	88.44
311.868	86.44
312.098	86.44
312.328	92.44
312.557	102.44
312.787	76.44
313.017	91.44
313.246	76.44
313.476	82.44
313.706	84.44
313.935	85.44
314.165	93.44
314.394	91.44
314.624	97.44
314.853	72.44
315.083	85.44
315.312	82.44
315.542	91.44
315.771	81.44
316.001	87.44
316.23	78.44
316.46	81.44
316.689	88.44
316.919	88.44
317.148	88.44
317.377	92.44
317.607	85.44
317.836	93.44
318.065	88.44
318.295	87.44
318.524	83.44
318.753	86.44
318.983	85.44
319.212	99.44
319.441	83.44
319.67	86.44
319.9	90.44
320.129	92.44
320.358	74.44
320.587	76.44
320.816	76.44
321.046	81.44
321.275	78.44
321.504	79.44
321.733	90.44
321.962	96.44
322.191	86.44
322.42	75.44
322.649	90.44
322.878	97.44
323.108	85.44
323.337	86.44
323.566	92.44
323.795	78.44
324.024	74.44
324.253	89.44
324.482	80.44
324.71	82.44
324.939	75.44
325.168	77.44
325.397	87.44
325.626	86.44
325.855	80.44
326.084	85.44
326.313	102.44
326.542	82.44
326.77	86.44
326.999	89.44
327.228	83.44
327.457	94.44
327.686	70.44
327.914	88.44
328.143	89.44
328.372	80.44
328.6	74.44
328.829	74.44
329.058	95.44
329.287	73.44
329.515	70.44
329.744	82.44
329.972	92.44
330.201	81.44
330.43	75.44
330.658	74.44
330.887	89.44
331.115	87.44
331.344	82.44
331.572	85.44
331.801	89.44
332.03	92.44
332.258	73.44
332.486	80.44
332.715	82.44
332.943	90.44
333.172	78.44
333.4	82.44
333.629	102.44
333.857	92.44
334.085	77.44
334.314	89.44
334.542	81.44
334.771	89.44
334.999	85.44
335.227	99.44
335.455	78.44
335.684	85.44
335.912	89.44
336.14	90.44
336.369	83.44
336.597	92.44
336.825	84.44
337.053	82.44
337.281	96.44
337.51	83.44
337.738	72.44
337.966	86.44
338.194	81.44
338.422	78.44
338.65	83.44
338.878	97.44
339.106	73.44
339.334	99.44
339.562	90.44
339.79	99.44
340.018	80.44
340.246	81.44
340.474	75.44
340.702	85.44
340.93	70.44
341.158	88.44
341.386	95.44
341.614	84.44
341.842	86.44
342.07	75.44
342.298	69.44
342.526	82.44
342.754	81.44
342.981	84.44
343.209	89.44
343.437	73.44
343.665	93.44
343.893	89.44
344.12	78.44
344.348	88.44
344.576	86.44
344.804	84.44
345.031	100.44
345.259	98.44
345.487	81.44
345.714	81.44
345.942	85.44
346.17	76.44
346.397	83.44
346.625	76.44
346.853	93.44
347.08	85.44
347.308	77.44
347.535	95.44
347.763	79.44
347.99	86.44
348.218	75.44
348.445	80.44
348.673	81.44
348.9	92.44
349.128	89.44
349.355	91.44
349.583	91.44
349.81	78.44
350.037	66.44
350.265	72.44
350.492	83.44
350.72	76.44
350.947	77.44
351.174	90.44
351.402	89.44
351.629	79.44
351.856	101.44
352.083	80.44
352.311	72.44
352.538	72.44
352.765	97.44
352.992	83.44
353.22	75.44
353.447	71.44
353.674	81.44
353.901	76.44
354.128	92.44
354.355	75.44
354.583	75.44
354.81	94.44
355.037	95.44
355.264	83.44
355.491	75.44
355.718	85.44
355.945	84.44
356.172	84.44
356.399	85.44
356.626	94.44
356.853	77.44
357.08	80.44
357.307	78.44
357.534	87.44
357.761	84.44
357.988	78.44
358.215	81.44
358.441	89.44
358.668	83.44
358.895	94.44
359.122	92.44
359.349	89.44
359.576	91.44
359.802	78.44
360.029	83.44
360.256	93.44
360.483	86.44
360.709	84.44
360.936	76.44
361.163	73.44
361.39	90.44
361.616	75.44
361.843	94.44
362.07	80.44
362.296	71.44
362.523	91.44
362.749	79.44
362.976	73.44
363.203	87.44
363.429	88.44
363.656	84.44
363.882	84.44
364.109	82.44
364.335	90.44
364.562	84.44
364.788	72.44
365.015	99.44
365.241	80.44
365.468	78.44
365.694	74.44
365.92	94.44
366.147	74.44
366.373	76.44
366.599	84.44
366.826	78.44
367.052	72.44
367.278	78.44
367.505	87.44
367.731	88.44
367.957	99.44
368.184	94.44
368.41	77.44
368.636	86.44
368.862	82.44
369.089	90.44
369.315	76.44
369.541	86.44
369.767	89.44
369.993	81.44
370.219	87.44
370.445	71.44
370.672	92.44
370.898	81.44
371.124	83.44
371.35	97.44
371.576	68.44
371.802	92.44
372.028	75.44
372.254	91.44
372.48	102.44
372.706	79.44
372.932	70.44
373.158	75.44
373.384	100.44
373.61	82.44
373.835	80.44
374.061	96.44
374.287	82.44
374.513	82.44
374.739	94.44
374.965	95.44
375.191	75.44
375.416	86.44
375.642	81.44
375.868	80.44
376.094	81.44
376.319	95.44
376.545	89.44
376.771	82.44
376.997	83.44
377.222	88.44
377.448	101.44
377.674	82.44
377.899	83.44
378.125	94.44
378.35	96.44
378.576	95.44
378.802	79.44
379.027	84.44
379.253	94.44
379.478	88.44
379.704	94.44
379.929	80.44
380.155	82.44
380.38	92.44
380.606	84.44
380.831	89.44
381.057	83.44
381.282	91.44
381.507	91.44
381.733	98.44
381.958	86.44
382.184	82.44
382.409	82.44
382.634	82.44
382.86	91.44
383.085	92.44
383.31	91.44
383.535	107.44
383.761	82.44
383.986	77.44
384.211	74.44
384.436	76.44
384.662	77.44
384.887	76.44
385.112	94.44
385.337	101.44
385.562	82.44
385.787	86.44
386.013	85.44
386.238	88.44
386.463	92.44
386.688	89.44
386.913	98.44
387.138	80.44
387.363	76.44
387.588	88.44
387.813	88.44
388.038	96.44
388.263	91.44
388.488	74.44
388.713	78.44
388.938	95.44
389.163	77.44
389.387	81.44
389.612	79.44
389.837	87.44
390.062	86.44
390.287	79.44
390.512	85.44
390.736	80.44
390.961	84.44
391.186	85.44
391.411	87.44
391.636	87.44
391.86	93.44
392.085	86.44
392.31	84.44
392.534	86.44
392.759	90.44
392.984	91.44
393.208	79.44
393.433	83.44
393.658	83.44
393.882	87.44
394.107	88.44
394.331	92.44
394.556	91.44
394.78	88.44
395.005	78.44
395.229	75.44
395.454	96.44
395.678	79.44
395.903	96.44
396.127	79.44
396.352	87.44
396.576	79.44
396.801	97.44
397.025	82.44
397.249	80.44
397.474	82.44
397.698	81.44
397.922	95.44
398.147	75.44
398.371	80.44
398.595	100.44
398.82	85.44
399.044	92.44
399.268	90.44
399.492	89.44
399.717	74.44
399.941	88.44
400.165	83.44
400.389	99.44
400.613	110.44
400.837	77.44
401.062	96.44
401.286	85.44
401.51	67.44
401.734	70.44
401.958	90.44
402.182	87.44
402.406	89.44
402.63	82.44
402.854	102.44
403.078	84.44
403.302	81.44
403.526	101.44
403.75	85.44
403.974	90.44
404.198	88.44
404.422	86.44
404.645	83.44
404.869	77.44
405.093	86.44
405.317	84.44
405.541	90.44
405.765	81.44
405.988	93.44
406.212	95.44
406.436	99.44
406.66	103.44
406.883	91.44
407.107	92.44
407.331	88.44
407.555	94.44
407.778	84.44
408.002	90.44
408.226	71.44
408.449	89.44
408.673	87.44
408.896	85.44
409.12	91.44
409.344	83.44
409.567	84.44
409.791	85.44
410.014	94.44
410.238	83.44
410.461	98.44
410.685	82.44
410.908	81.44
411.132	99.44
411.355	89.44
411.578	103.44
411.802	96.44
412.025	101.44
412.249	95.44
412.472	99.44
412.695	93.44
412.919	90.44
413.142	93.44
413.365	76.44
413.589	79.44
413.812	90.44
414.035	99.44
414.258	78.44
414.482	86.44
414.705	97.44
414.928	75.44
415.151	87.44
415.374	93.44
415.597	101.44
415.821	94.44
416.044	74.44
416.267	86.44
416.49	78.44
416.713	104.44
416.936	79.44
417.159	97.44
417.382	98.44
417.605	89.44
417.828	103.44
418.051	98.44
418.274	91.44
418.497	102.44
418.72	79.44
418.943	85.44
419.166	88.44
419.389	104.44
419.611	87.44
419.834	90.44
420.057	98.44
420.28	85.44
420.503	89.44
420.726	86.44
420.948	96.44
421.171	78.44
421.394	91.44
421.617	108.44
421.839	90.44
422.062	92.44
422.285	92.44
422.507	98.44
422.73	101.44
422.953	99.44
423.175	93.44
423.398	112.44
423.621	89.44
423.843	102.44
424.066	100.44
424.288	81.44
424.511	98.44
424.733	89.44
424.956	88.44
425.178	80.44
425.401	104.44
425.623	83.44
425.846	94.44
426.068	88.44
426.291	102.44
426.513	99.44
426.735	105.44
426.958	76.44
427.18	96.44
427.402	89.44
427.625	84.44
427.847	103.44
428.069	94.44
428.292	88.44
428.514	85.44
428.736	98.44
428.958	78.44
429.181	95.44
429.403	97.44
429.625	97.44
429.847	98.44
430.069	90.44
430.292	103.44
430.514	95.44
430.736	99.44
430.958	91.44
431.18	102.44
431.402	89.44
431.624	95.44
431.846	90.44
432.068	89.44
432.29	84.44
432.512	89.44
432.734	75.44
432.956	90.44
433.178	100.44
433.4	101.44
433.622	107.44
433.844	95.44
434.066	91.44
434.287	83.44
434.509	83.44
434.731	82.44
434.953	80.44
435.175	92.44
435.397	98.44
435.618	84.44
435.84	90.44
436.062	92.44
436.284	102.44
436.505	86.44
436.727	87.44
436.949	89.44
437.17	99.44
437.392	86.44
437.614	89.44
437.835	75.44
438.057	89.44
438.278	101.44
438.5	95.44
438.721	97.44
438.943	90.44
439.165	97.44
439.386	99.44
439.608	79.44
439.829	84.44
440.05	97.44
440.272	90.44
440.493	93.44
440.715	89.44
440.936	84.44
441.158	89.44
441.379	118.44
441.6	115.44
441.822	92.44
442.043	88.44
442.264	92.44
442.486	87.44
442.707	82.44
442.928	98.44
443.149	86.44
443.371	102.44
443.592	88.44
443.813	85.44
444.034	89.44
444.255	85.44
444.476	92.44
444.698	95.44
444.919	100.44
445.14	241.44
445.361	162.44
445.582	97.44
445.803	88.44
446.024	90.44
446.245	97.44
446.466	87.44
446.687	105.44
446.908	115.44
447.129	97.44
447.35	91.44
447.571	91.44
447.792	89.44
448.013	89.44
448.234	95.44
448.455	104.44
448.675	83.44
448.896	117.44
449.117	91.44
449.338	96.44
449.559	97.44
449.779	92.44
450	95.44
450.221	91.44
450.442	101.44
450.662	99.44
450.883	88.44
451.104	100.44
451.324	102.44
451.545	103.44
451.766	97.44
451.986	91.44
452.207	81.44
452.428	82.44
452.648	95.44
452.869	99.44
453.089	95.44
453.31	83.44
453.53	99.44
453.751	89.44
453.971	87.44
454.192	105.44
454.412	90.44
454.633	80.44
454.853	98.44
455.073	98.44
455.294	89.44
455.514	87.44
455.734	100.44
455.955	89.44
456.175	98.44
456.395	73.44
456.616	78.44
456.836	85.44
457.056	91.44
457.276	83.44
457.497	86.44
457.717	82.44
457.937	92.44
458.157	90.44
458.377	92.44
458.598	85.44
458.818	86.44
459.038	87.44
459.258	72.44
459.478	103.44
459.698	86.44
459.918	111.44
460.138	88.44
460.358	94.44
460.578	95.44
460.798	103.44
461.018	88.44
461.238	76.44
461.458	85.44
461.678	87.44
461.898	80.44
462.118	93.44
462.338	94.44
462.558	96.44
462.777	100.44
462.997	89.44
463.217	83.44
463.437	99.44
463.657	93.44
463.876	90.44
464.096	95.44
464.316	91.44
464.536	99.44
464.755	97.44
464.975	105.44
465.195	79.44
465.414	85.44
465.634	89.44
465.854	97.44
466.073	90.44
466.293	82.44
466.512	93.44
466.732	103.44
466.951	79.44
467.171	95.44
467.391	103.44
467.61	86.44
467.829	106.44
468.049	82.44
468.268	90.44
468.488	83.44
468.707	73.44
468.927	117.44
469.146	91.44
469.365	107.44
469.585	100.44
469.804	97.44
470.023	88.44
470.243	105.44
470.462	98.44
470.681	96.44
470.901	99.44
471.12	100.44
471.339	102.44
471.558	104.44
471.777	102.44
471.997	93.44
472.216	94.44
472.435	88.44
472.654	101.44
472.873	88.44
473.092	83.44
473.311	91.44
473.53	82.44
473.749	91.44
473.968	89.44
474.187	103.44
474.406	99.44
474.625	105.44
474.844	93.44
475.063	104.44
475.282	92.44
475.501	87.44
475.72	86.44
475.939	108.44
476.158	92.44
476.377	105.44
476.596	92.44
476.814	90.44
477.033	89.44
477.252	95.44
477.471	98.44
477.69	99.44
477.908	89.44
478.127	107.44
478.346	98.44
478.564	97.44
478.783	102.44
479.002	93.44
479.22	102.44
479.439	105.44
479.658	76.44
479.876	97.44
480.095	86.44
480.313	89.44
480.532	93.44
480.751	83.44
480.969	84.44
481.188	84.44
481.406	89.44
481.624	87.44
481.843	72.44
482.061	84.44
482.28	85.44
482.498	86.44
482.717	91.44
482.935	91.44
483.153	94.44
483.372	99.44
483.59	98.44
483.808	100.44
484.027	94.44
484.245	91.44
484.463	94.44
484.681	108.44
484.9	99.44
485.118	107.44
485.336	90.44
485.554	75.44
485.772	90.44
485.99	83.44
486.209	83.44
486.427	94.44
486.645	104.44
486.863	98.44
487.081	105.44
487.299	78.44
487.517	91.44
487.735	90.44
487.953	93.44
488.171	99.44
488.389	93.44
488.607	106.44
488.825	97.44
489.043	101.44
489.261	90.44
489.479	86.44
489.696	93.44
489.914	89.44
490.132	94.44
490.35	102.44
490.568	105.44
490.786	107.44
491.003	99.44
491.221	103.44
491.439	115.44
491.657	106.44
491.874	117.44
492.092	110.44
492.31	117.44
492.527	116.44
492.745	121.44
492.963	101.44
493.18	98.44
493.398	106.44
493.615	103.44
493.833	109.44
494.05	88.44
494.268	100.44
494.485	108.44
494.703	110.44
494.92	94.44
495.138	108.44
495.355	110.44
495.573	92.44
495.79	106.44
496.008	114.44
496.225	99.44
496.442	104.44
496.66	118.44
496.877	96.44
497.094	106.44
497.312	105.44
497.529	100.44
497.746	103.44
497.963	105.44
498.181	100.44
498.398	99.44
498.615	91.44
498.832	83.44
499.049	87.44
499.267	101.44
499.484	108.44
499.701	105.44
499.918	101.44
500.135	91.44
500.352	95.44
500.569	92.44
500.786	104.44
501.003	96.44
501.22	86.44
501.437	95.44
501.654	104.44
501.871	116.44
502.088	90.44
502.305	90.44
502.522	82.44
502.739	101.44
502.956	107.44
503.172	100.44
503.389	85.44
503.606	96.44
503.823	88.44
504.04	80.44
504.256	95.44
504.473	85.44
504.69	89.44
504.907	98.44
505.123	90.44
505.34	96.44
505.557	80.44
505.773	87.44
505.99	96.44
506.207	95.44
506.423	88.44
506.64	99.44
506.856	89.44
507.073	80.44
507.289	99.44
507.506	92.44
507.722	82.44
507.939	95.44
508.155	91.44
508.372	97.44
508.588	96.44
508.805	92.44
509.021	113.44
509.238	80.44
509.454	83.44
509.67	81.44
509.887	80.44
510.103	95.44
510.319	82.44
510.536	81.44
510.752	87.44
510.968	84.44
511.184	86.44
511.401	70.44
511.617	85.44
511.833	85.44
512.049	94.44
512.265	89.44
512.481	85.44
512.698	92.44
512.914	85.44
513.13	95.44
513.346	74.44
513.562	92.44
513.778	80.44
513.994	87.44
514.21	85.44
514.426	84.44
514.642	91.44
514.858	94.44
515.074	101.44
515.29	77.44
515.506	83.44
515.721	75.44
515.937	86.44
516.153	82.44
516.369	95.44
516.585	96.44
516.801	75.44
517.016	83.44
517.232	76.44
517.448	83.44
517.664	98.44
