Data from Location5.07152019.Energy5.Lamp.07192019.3%Agarose_HRD10591_16-03-07-630.txt Node
Date: Fri Jul 19 16:03:07 EDT 2019
User: cochatt
Spectrometer: HR+D1059
Trigger mode: 1
Integration Time (sec): 1.000000E-1
Scans to average: 1
Electric dark correction enabled: true
Nonlinearity correction enabled: false
Boxcar width: 0
XAxis mode: Wavelengths
Number of Pixels in Spectrum: 2048
>>>>>Begin Spectral Data<<<<<
223.165	-10.25
223.4	-10.25
223.635	-10.25
223.869	-20.25
224.104	-19.25
224.338	-20.25
224.573	-11.25
224.808	-13.25
225.042	-11.25
225.277	-1.25
225.511	-4.25
225.746	2.75
225.98	12.75
226.215	-1.25
226.449	22.75
226.683	18.75
226.918	15.75
227.152	39.75
227.387	35.75
227.621	43.75
227.856	41.75
228.09	36.75
228.324	43.75
228.559	54.75
228.793	61.75
229.027	52.75
229.262	73.75
229.496	61.75
229.73	66.75
229.964	80.75
230.199	62.75
230.433	76.75
230.667	84.75
230.901	73.75
231.136	82.75
231.37	78.75
231.604	75.75
231.838	84.75
232.072	81.75
232.306	79.75
232.541	79.75
232.775	82.75
233.009	71.75
233.243	77.75
233.477	83.75
233.711	84.75
233.945	79.75
234.179	75.75
234.413	86.75
234.647	95.75
234.881	66.75
235.115	89.75
235.349	81.75
235.583	70.75
235.817	87.75
236.051	72.75
236.285	79.75
236.519	80.75
236.753	86.75
236.987	83.75
237.221	98.75
237.455	80.75
237.689	75.75
237.922	88.75
238.156	67.75
238.39	66.75
238.624	74.75
238.858	72.75
239.091	75.75
239.325	75.75
239.559	72.75
239.793	72.75
240.027	85.75
240.26	91.75
240.494	63.75
240.728	68.75
240.961	71.75
241.195	76.75
241.429	83.75
241.662	83.75
241.896	80.75
242.13	94.75
242.363	91.75
242.597	70.75
242.83	66.75
243.064	81.75
243.298	79.75
243.531	72.75
243.765	82.75
243.998	82.75
244.232	76.75
244.465	76.75
244.699	75.75
244.932	79.75
245.166	57.75
245.399	71.75
245.633	95.75
245.866	77.75
246.099	90.75
246.333	87.75
246.566	73.75
246.8	84.75
247.033	80.75
247.266	73.75
247.5	77.75
247.733	65.75
247.966	86.75
248.2	76.75
248.433	70.75
248.666	74.75
248.899	76.75
249.133	70.75
249.366	78.75
249.599	93.75
249.832	92.75
250.066	81.75
250.299	78.75
250.532	77.75
250.765	83.75
250.998	92.75
251.231	75.75
251.465	94.75
251.698	87.75
251.931	73.75
252.164	81.75
252.397	88.75
252.63	89.75
252.863	81.75
253.096	90.75
253.329	88.75
253.562	88.75
253.795	70.75
254.028	82.75
254.261	79.75
254.494	71.75
254.727	90.75
254.96	86.75
255.193	78.75
255.426	84.75
255.659	82.75
255.892	90.75
256.124	83.75
256.357	71.75
256.59	84.75
256.823	69.75
257.056	91.75
257.289	77.75
257.521	84.75
257.754	93.75
257.987	80.75
258.22	88.75
258.452	83.75
258.685	81.75
258.918	76.75
259.151	79.75
259.383	70.75
259.616	95.75
259.849	85.75
260.081	94.75
260.314	82.75
260.547	100.75
260.779	81.75
261.012	78.75
261.244	91.75
261.477	91.75
261.71	81.75
261.942	97.75
262.175	90.75
262.407	96.75
262.64	85.75
262.872	74.75
263.105	90.75
263.337	85.75
263.57	94.75
263.802	88.75
264.035	84.75
264.267	82.75
264.499	89.75
264.732	87.75
264.964	90.75
265.197	86.75
265.429	82.75
265.661	74.75
265.894	73.75
266.126	72.75
266.358	79.75
266.591	95.75
266.823	90.75
267.055	75.75
267.287	93.75
267.52	81.75
267.752	83.75
267.984	85.75
268.216	87.75
268.448	87.75
268.681	96.75
268.913	90.75
269.145	103.75
269.377	88.75
269.609	88.75
269.841	100.75
270.073	84.75
270.306	84.75
270.538	72.75
270.77	93.75
271.002	95.75
271.234	101.75
271.466	91.75
271.698	86.75
271.93	78.75
272.162	82.75
272.394	96.75
272.626	91.75
272.858	88.75
273.09	87.75
273.322	97.75
273.553	81.75
273.785	79.75
274.017	87.75
274.249	90.75
274.481	81.75
274.713	100.75
274.945	84.75
275.176	73.75
275.408	72.75
275.64	70.75
275.872	97.75
276.104	86.75
276.335	96.75
276.567	87.75
276.799	94.75
277.031	82.75
277.262	92.75
277.494	98.75
277.726	88.75
277.957	84.75
278.189	80.75
278.421	86.75
278.652	99.75
278.884	89.75
279.115	87.75
279.347	91.75
279.579	97.75
279.81	86.75
280.042	86.75
280.273	95.75
280.505	80.75
280.736	72.75
280.968	85.75
281.199	91.75
281.431	89.75
281.662	88.75
281.894	84.75
282.125	90.75
282.356	83.75
282.588	102.75
282.819	91.75
283.051	86.75
283.282	91.75
283.513	79.75
283.745	105.75
283.976	92.75
284.207	83.75
284.439	97.75
284.67	85.75
284.901	83.75
285.132	96.75
285.364	99.75
285.595	88.75
285.826	94.75
286.057	100.75
286.288	83.75
286.52	94.75
286.751	88.75
286.982	97.75
287.213	86.75
287.444	97.75
287.675	96.75
287.906	91.75
288.138	90.75
288.369	91.75
288.6	86.75
288.831	74.75
289.062	95.75
289.293	87.75
289.524	96.75
289.755	94.75
289.986	85.75
290.217	82.75
290.448	82.75
290.679	100.75
290.91	102.75
291.141	75.75
291.371	83.75
291.602	91.75
291.833	81.75
292.064	88.75
292.295	92.75
292.526	94.75
292.757	88.75
292.987	98.75
293.218	77.75
293.449	99.75
293.68	83.75
293.91	79.75
294.141	92.75
294.372	95.75
294.603	95.75
294.833	97.75
295.064	92.75
295.295	85.75
295.525	92.75
295.756	89.75
295.987	101.75
296.217	98.75
296.448	100.75
296.679	85.75
296.909	88.75
297.14	103.75
297.37	96.75
297.601	94.75
297.831	90.75
298.062	107.75
298.292	89.75
298.523	95.75
298.753	108.75
298.984	82.75
299.214	76.75
299.445	100.75
299.675	86.75
299.905	90.75
300.136	93.75
300.366	80.75
300.597	84.75
300.827	96.75
301.057	82.75
301.288	106.75
301.518	84.75
301.748	99.75
301.979	82.75
302.209	89.75
302.439	78.75
302.669	69.75
302.9	90.75
303.13	99.75
303.36	112.75
303.59	94.75
303.82	95.75
304.051	102.75
304.281	95.75
304.511	91.75
304.741	93.75
304.971	98.75
305.201	84.75
305.431	89.75
305.661	85.75
305.891	92.75
306.121	96.75
306.352	87.75
306.582	107.75
306.812	96.75
307.042	82.75
307.272	91.75
307.502	90.75
307.731	103.75
307.961	89.75
308.191	103.75
308.421	99.75
308.651	87.75
308.881	94.75
309.111	98.75
309.341	79.75
309.571	80.75
309.8	97.75
310.03	87.75
310.26	81.75
310.49	87.75
310.72	101.75
310.949	100.75
311.179	105.75
311.409	96.75
311.639	94.75
311.868	104.75
312.098	95.75
312.328	76.75
312.557	103.75
312.787	95.75
313.017	99.75
313.246	86.75
313.476	95.75
313.706	85.75
313.935	80.75
314.165	110.75
314.394	98.75
314.624	85.75
314.853	93.75
315.083	105.75
315.312	86.75
315.542	100.75
315.771	87.75
316.001	102.75
316.23	91.75
316.46	84.75
316.689	86.75
316.919	103.75
317.148	103.75
317.377	88.75
317.607	80.75
317.836	101.75
318.065	99.75
318.295	109.75
318.524	90.75
318.753	90.75
318.983	83.75
319.212	108.75
319.441	82.75
319.67	78.75
319.9	107.75
320.129	97.75
320.358	99.75
320.587	97.75
320.816	87.75
321.046	95.75
321.275	90.75
321.504	94.75
321.733	88.75
321.962	95.75
322.191	97.75
322.42	84.75
322.649	94.75
322.878	103.75
323.108	94.75
323.337	111.75
323.566	72.75
323.795	90.75
324.024	90.75
324.253	100.75
324.482	94.75
324.71	87.75
324.939	103.75
325.168	92.75
325.397	81.75
325.626	92.75
325.855	87.75
326.084	106.75
326.313	104.75
326.542	100.75
326.77	95.75
326.999	96.75
327.228	93.75
327.457	100.75
327.686	101.75
327.914	107.75
328.143	108.75
328.372	92.75
328.6	91.75
328.829	91.75
329.058	95.75
329.287	84.75
329.515	91.75
329.744	92.75
329.972	96.75
330.201	103.75
330.43	99.75
330.658	98.75
330.887	83.75
331.115	100.75
331.344	94.75
331.572	92.75
331.801	96.75
332.03	86.75
332.258	97.75
332.486	98.75
332.715	111.75
332.943	90.75
333.172	86.75
333.4	96.75
333.629	104.75
333.857	100.75
334.085	96.75
334.314	95.75
334.542	82.75
334.771	98.75
334.999	79.75
335.227	101.75
335.455	95.75
335.684	90.75
335.912	91.75
336.14	89.75
336.369	91.75
336.597	101.75
336.825	103.75
337.053	101.75
337.281	88.75
337.51	100.75
337.738	98.75
337.966	96.75
338.194	106.75
338.422	96.75
338.65	100.75
338.878	91.75
339.106	91.75
339.334	94.75
339.562	97.75
339.79	95.75
340.018	98.75
340.246	99.75
340.474	91.75
340.702	97.75
340.93	97.75
341.158	96.75
341.386	91.75
341.614	84.75
341.842	100.75
342.07	87.75
342.298	91.75
342.526	103.75
342.754	96.75
342.981	98.75
343.209	101.75
343.437	103.75
343.665	106.75
343.893	95.75
344.12	98.75
344.348	99.75
344.576	103.75
344.804	90.75
345.031	100.75
345.259	100.75
345.487	97.75
345.714	80.75
345.942	80.75
346.17	90.75
346.397	103.75
346.625	95.75
346.853	88.75
347.08	97.75
347.308	106.75
347.535	91.75
347.763	76.75
347.99	94.75
348.218	93.75
348.445	85.75
348.673	103.75
348.9	91.75
349.128	91.75
349.355	99.75
349.583	84.75
349.81	89.75
350.037	102.75
350.265	90.75
350.492	93.75
350.72	103.75
350.947	92.75
351.174	105.75
351.402	98.75
351.629	83.75
351.856	87.75
352.083	97.75
352.311	104.75
352.538	88.75
352.765	90.75
352.992	83.75
353.22	87.75
353.447	85.75
353.674	94.75
353.901	95.75
354.128	90.75
354.355	81.75
354.583	83.75
354.81	112.75
355.037	88.75
355.264	94.75
355.491	89.75
355.718	79.75
355.945	107.75
356.172	82.75
356.399	86.75
356.626	98.75
356.853	90.75
357.08	96.75
357.307	85.75
357.534	87.75
357.761	88.75
357.988	88.75
358.215	104.75
358.441	92.75
358.668	81.75
358.895	94.75
359.122	90.75
359.349	88.75
359.576	89.75
359.802	99.75
360.029	100.75
360.256	81.75
360.483	90.75
360.709	78.75
360.936	78.75
361.163	93.75
361.39	83.75
361.616	96.75
361.843	86.75
362.07	101.75
362.296	83.75
362.523	84.75
362.749	94.75
362.976	91.75
363.203	90.75
363.429	80.75
363.656	91.75
363.882	92.75
364.109	105.75
364.335	96.75
364.562	83.75
364.788	89.75
365.015	96.75
365.241	93.75
365.468	76.75
365.694	88.75
365.92	94.75
366.147	92.75
366.373	90.75
366.599	84.75
366.826	81.75
367.052	87.75
367.278	82.75
367.505	88.75
367.731	89.75
367.957	85.75
368.184	92.75
368.41	94.75
368.636	90.75
368.862	98.75
369.089	90.75
369.315	92.75
369.541	97.75
369.767	75.75
369.993	105.75
370.219	95.75
370.445	96.75
370.672	94.75
370.898	91.75
371.124	91.75
371.35	86.75
371.576	95.75
371.802	95.75
372.028	96.75
372.254	100.75
372.48	96.75
372.706	94.75
372.932	93.75
373.158	111.75
373.384	107.75
373.61	98.75
373.835	112.75
374.061	83.75
374.287	92.75
374.513	92.75
374.739	87.75
374.965	100.75
375.191	107.75
375.416	95.75
375.642	96.75
375.868	100.75
376.094	101.75
376.319	91.75
376.545	94.75
376.771	83.75
376.997	90.75
377.222	86.75
377.448	103.75
377.674	88.75
377.899	99.75
378.125	88.75
378.35	93.75
378.576	81.75
378.802	89.75
379.027	81.75
379.253	92.75
379.478	89.75
379.704	97.75
379.929	97.75
380.155	97.75
380.38	91.75
380.606	96.75
380.831	102.75
381.057	89.75
381.282	99.75
381.507	81.75
381.733	95.75
381.958	95.75
382.184	99.75
382.409	100.75
382.634	85.75
382.86	110.75
383.085	103.75
383.31	94.75
383.535	98.75
383.761	95.75
383.986	101.75
384.211	96.75
384.436	94.75
384.662	91.75
384.887	96.75
385.112	86.75
385.337	92.75
385.562	90.75
385.787	101.75
386.013	94.75
386.238	94.75
386.463	100.75
386.688	93.75
386.913	91.75
387.138	103.75
387.363	101.75
387.588	107.75
387.813	107.75
388.038	80.75
388.263	99.75
388.488	89.75
388.713	93.75
388.938	90.75
389.163	85.75
389.387	100.75
389.612	84.75
389.837	86.75
390.062	97.75
390.287	98.75
390.512	92.75
390.736	87.75
390.961	90.75
391.186	95.75
391.411	86.75
391.636	100.75
391.86	90.75
392.085	94.75
392.31	102.75
392.534	91.75
392.759	104.75
392.984	88.75
393.208	108.75
393.433	91.75
393.658	96.75
393.882	98.75
394.107	87.75
394.331	98.75
394.556	101.75
394.78	98.75
395.005	100.75
395.229	98.75
395.454	107.75
395.678	107.75
395.903	84.75
396.127	90.75
396.352	82.75
396.576	95.75
396.801	96.75
397.025	100.75
397.249	94.75
397.474	90.75
397.698	94.75
397.922	81.75
398.147	90.75
398.371	84.75
398.595	103.75
398.82	99.75
399.044	91.75
399.268	105.75
399.492	105.75
399.717	103.75
399.941	118.75
400.165	87.75
400.389	98.75
400.613	98.75
400.837	106.75
401.062	91.75
401.286	110.75
401.51	103.75
401.734	108.75
401.958	97.75
402.182	91.75
402.406	88.75
402.63	101.75
402.854	116.75
403.078	95.75
403.302	99.75
403.526	94.75
403.75	104.75
403.974	106.75
404.198	103.75
404.422	96.75
404.645	105.75
404.869	108.75
405.093	97.75
405.317	112.75
405.541	99.75
405.765	101.75
405.988	99.75
406.212	97.75
406.436	90.75
406.66	102.75
406.883	105.75
407.107	114.75
407.331	97.75
407.555	108.75
407.778	96.75
408.002	100.75
408.226	90.75
408.449	96.75
408.673	104.75
408.896	108.75
409.12	105.75
409.344	93.75
409.567	99.75
409.791	96.75
410.014	84.75
410.238	99.75
410.461	91.75
410.685	99.75
410.908	105.75
411.132	98.75
411.355	104.75
411.578	102.75
411.802	87.75
412.025	87.75
412.249	94.75
412.472	78.75
412.695	97.75
412.919	99.75
413.142	96.75
413.365	111.75
413.589	94.75
413.812	99.75
414.035	100.75
414.258	94.75
414.482	88.75
414.705	94.75
414.928	81.75
415.151	94.75
415.374	88.75
415.597	109.75
415.821	103.75
416.044	81.75
416.267	108.75
416.49	91.75
416.713	101.75
416.936	90.75
417.159	106.75
417.382	91.75
417.605	104.75
417.828	107.75
418.051	87.75
418.274	110.75
418.497	97.75
418.72	98.75
418.943	102.75
419.166	100.75
419.389	106.75
419.611	100.75
419.834	106.75
420.057	103.75
420.28	86.75
420.503	112.75
420.726	96.75
420.948	103.75
421.171	100.75
421.394	97.75
421.617	96.75
421.839	94.75
422.062	123.75
422.285	124.75
422.507	92.75
422.73	94.75
422.953	83.75
423.175	91.75
423.398	104.75
423.621	102.75
423.843	108.75
424.066	102.75
424.288	89.75
424.511	101.75
424.733	103.75
424.956	95.75
425.178	115.75
425.401	97.75
425.623	108.75
425.846	103.75
426.068	95.75
426.291	104.75
426.513	111.75
426.735	98.75
426.958	101.75
427.18	104.75
427.402	94.75
427.625	91.75
427.847	86.75
428.069	90.75
428.292	105.75
428.514	105.75
428.736	94.75
428.958	103.75
429.181	95.75
429.403	92.75
429.625	81.75
429.847	94.75
430.069	91.75
430.292	97.75
430.514	95.75
430.736	88.75
430.958	100.75
431.18	97.75
431.402	104.75
431.624	91.75
431.846	92.75
432.068	95.75
432.29	94.75
432.512	94.75
432.734	99.75
432.956	111.75
433.178	106.75
433.4	103.75
433.622	112.75
433.844	108.75
434.066	94.75
434.287	106.75
434.509	95.75
434.731	91.75
434.953	99.75
435.175	89.75
435.397	99.75
435.618	84.75
435.84	98.75
436.062	95.75
436.284	86.75
436.505	90.75
436.727	79.75
436.949	84.75
437.17	90.75
437.392	86.75
437.614	102.75
437.835	80.75
438.057	80.75
438.278	86.75
438.5	81.75
438.721	89.75
438.943	102.75
439.165	93.75
439.386	88.75
439.608	100.75
439.829	102.75
440.05	96.75
440.272	102.75
440.493	81.75
440.715	89.75
440.936	99.75
441.158	85.75
441.379	89.75
441.6	86.75
441.822	104.75
442.043	103.75
442.264	79.75
442.486	97.75
442.707	92.75
442.928	97.75
443.149	95.75
443.371	85.75
443.592	81.75
443.813	103.75
444.034	97.75
444.255	104.75
444.476	95.75
444.698	87.75
444.919	100.75
445.14	210.75
445.361	148.75
445.582	95.75
445.803	83.75
446.024	85.75
446.245	84.75
446.466	90.75
446.687	95.75
446.908	89.75
447.129	90.75
447.35	89.75
447.571	94.75
447.792	94.75
448.013	86.75
448.234	94.75
448.455	105.75
448.675	86.75
448.896	95.75
449.117	82.75
449.338	98.75
449.559	88.75
449.779	94.75
450	105.75
450.221	96.75
450.442	80.75
450.662	95.75
450.883	75.75
451.104	96.75
451.324	106.75
451.545	107.75
451.766	105.75
451.986	78.75
452.207	96.75
452.428	83.75
452.648	113.75
452.869	98.75
453.089	98.75
453.31	104.75
453.53	89.75
453.751	83.75
453.971	84.75
454.192	92.75
454.412	86.75
454.633	97.75
454.853	99.75
455.073	85.75
455.294	98.75
455.514	103.75
455.734	90.75
455.955	85.75
456.175	95.75
456.395	91.75
456.616	93.75
456.836	94.75
457.056	100.75
457.276	89.75
457.497	112.75
457.717	110.75
457.937	105.75
458.157	81.75
458.377	75.75
458.598	94.75
458.818	87.75
459.038	94.75
459.258	102.75
459.478	83.75
459.698	88.75
459.918	110.75
460.138	88.75
460.358	112.75
460.578	98.75
460.798	93.75
461.018	99.75
461.238	95.75
461.458	98.75
461.678	97.75
461.898	104.75
462.118	89.75
462.338	104.75
462.558	98.75
462.777	86.75
462.997	112.75
463.217	104.75
463.437	106.75
463.657	117.75
463.876	107.75
464.096	108.75
464.316	88.75
464.536	99.75
464.755	93.75
464.975	104.75
465.195	95.75
465.414	97.75
465.634	87.75
465.854	95.75
466.073	93.75
466.293	114.75
466.512	92.75
466.732	102.75
466.951	85.75
467.171	83.75
467.391	108.75
467.61	90.75
467.829	90.75
468.049	97.75
468.268	95.75
468.488	99.75
468.707	92.75
468.927	97.75
469.146	97.75
469.365	99.75
469.585	98.75
469.804	79.75
470.023	90.75
470.243	97.75
470.462	107.75
470.681	103.75
470.901	97.75
471.12	104.75
471.339	103.75
471.558	104.75
471.777	86.75
471.997	90.75
472.216	118.75
472.435	115.75
472.654	84.75
472.873	112.75
473.092	89.75
473.311	92.75
473.53	89.75
473.749	95.75
473.968	101.75
474.187	103.75
474.406	104.75
474.625	93.75
474.844	113.75
475.063	100.75
475.282	102.75
475.501	87.75
475.72	98.75
475.939	77.75
476.158	105.75
476.377	98.75
476.596	103.75
476.814	108.75
477.033	101.75
477.252	100.75
477.471	99.75
477.69	96.75
477.908	97.75
478.127	92.75
478.346	95.75
478.564	93.75
478.783	114.75
479.002	94.75
479.22	106.75
479.439	114.75
479.658	88.75
479.876	105.75
480.095	107.75
480.313	103.75
480.532	122.75
480.751	117.75
480.969	98.75
481.188	98.75
481.406	92.75
481.624	73.75
481.843	97.75
482.061	93.75
482.28	89.75
482.498	96.75
482.717	94.75
482.935	96.75
483.153	98.75
483.372	105.75
483.59	107.75
483.808	105.75
484.027	114.75
484.245	108.75
484.463	111.75
484.681	103.75
484.9	97.75
485.118	124.75
485.336	100.75
485.554	95.75
485.772	107.75
485.99	99.75
486.209	107.75
486.427	104.75
486.645	81.75
486.863	102.75
487.081	94.75
487.299	101.75
487.517	100.75
487.735	105.75
487.953	102.75
488.171	107.75
488.389	102.75
488.607	109.75
488.825	101.75
489.043	114.75
489.261	108.75
489.479	86.75
489.696	98.75
489.914	99.75
490.132	122.75
490.35	106.75
490.568	107.75
490.786	120.75
491.003	90.75
491.221	107.75
491.439	111.75
491.657	106.75
491.874	98.75
492.092	108.75
492.31	115.75
492.527	106.75
492.745	95.75
492.963	116.75
493.18	103.75
493.398	110.75
493.615	104.75
493.833	122.75
494.05	103.75
494.268	108.75
494.485	117.75
494.703	100.75
494.92	116.75
495.138	118.75
495.355	103.75
495.573	117.75
495.79	120.75
496.008	121.75
496.225	131.75
496.442	110.75
496.66	100.75
496.877	120.75
497.094	116.75
497.312	118.75
497.529	122.75
497.746	112.75
497.963	130.75
498.181	114.75
498.398	112.75
498.615	106.75
498.832	126.75
499.049	98.75
499.267	122.75
499.484	124.75
499.701	122.75
499.918	126.75
500.135	148.75
500.352	167.75
500.569	166.75
500.786	168.75
501.003	168.75
501.22	166.75
501.437	133.75
501.654	138.75
501.871	120.75
502.088	116.75
502.305	123.75
502.522	104.75
502.739	122.75
502.956	114.75
503.172	114.75
503.389	112.75
503.606	113.75
503.823	122.75
504.04	112.75
504.256	116.75
504.473	124.75
504.69	128.75
504.907	118.75
505.123	103.75
505.34	92.75
505.557	102.75
505.773	99.75
505.99	95.75
506.207	105.75
506.423	107.75
506.64	83.75
506.856	103.75
507.073	106.75
507.289	103.75
507.506	114.75
507.722	104.75
507.939	108.75
508.155	116.75
508.372	99.75
508.588	100.75
508.805	112.75
509.021	113.75
509.238	98.75
509.454	111.75
509.67	101.75
509.887	95.75
510.103	84.75
510.319	102.75
510.536	91.75
510.752	103.75
510.968	96.75
511.184	93.75
511.401	97.75
511.617	106.75
511.833	116.75
512.049	104.75
512.265	94.75
512.481	102.75
512.698	108.75
512.914	96.75
513.13	99.75
513.346	102.75
513.562	97.75
513.778	106.75
513.994	107.75
514.21	105.75
