Data from Location5.07152019.Energy5.Lamp.07192019.3%Agarose_HRD10591_15-38-42-387.txt Node
Date: Fri Jul 19 15:38:42 EDT 2019
User: cochatt
Spectrometer: HR+D1059
Trigger mode: 1
Integration Time (sec): 1.000000E-1
Scans to average: 1
Electric dark correction enabled: true
Nonlinearity correction enabled: false
Boxcar width: 0
XAxis mode: Wavelengths
Number of Pixels in Spectrum: 2048
>>>>>Begin Spectral Data<<<<<
223.165	-12.88
223.4	-12.88
223.635	-12.88
223.869	-21.88
224.104	-30.88
224.338	2.12
224.573	-14.88
224.808	-17.88
225.042	-1.88
225.277	-10.88
225.511	10.12
225.746	-0.88
225.98	6.12
226.215	-0.88
226.449	15.12
226.683	27.12
226.918	30.12
227.152	22.12
227.387	33.12
227.621	27.12
227.856	42.12
228.09	46.12
228.324	60.12
228.559	56.12
228.793	67.12
229.027	63.12
229.262	61.12
229.496	61.12
229.73	63.12
229.964	78.12
230.199	82.12
230.433	70.12
230.667	60.12
230.901	75.12
231.136	76.12
231.37	83.12
231.604	74.12
231.838	75.12
232.072	74.12
232.306	86.12
232.541	76.12
232.775	76.12
233.009	83.12
233.243	82.12
233.477	70.12
233.711	81.12
233.945	82.12
234.179	77.12
234.413	78.12
234.647	79.12
234.881	80.12
235.115	95.12
235.349	87.12
235.583	100.12
235.817	72.12
236.051	74.12
236.285	78.12
236.519	83.12
236.753	88.12
236.987	71.12
237.221	84.12
237.455	76.12
237.689	87.12
237.922	66.12
238.156	76.12
238.39	79.12
238.624	71.12
238.858	71.12
239.091	71.12
239.325	91.12
239.559	86.12
239.793	60.12
240.027	82.12
240.26	73.12
240.494	78.12
240.728	79.12
240.961	77.12
241.195	83.12
241.429	77.12
241.662	84.12
241.896	78.12
242.13	84.12
242.363	60.12
242.597	60.12
242.83	69.12
243.064	89.12
243.298	73.12
243.531	64.12
243.765	65.12
243.998	65.12
244.232	66.12
244.465	78.12
244.699	82.12
244.932	83.12
245.166	82.12
245.399	78.12
245.633	87.12
245.866	76.12
246.099	73.12
246.333	89.12
246.566	76.12
246.8	75.12
247.033	80.12
247.266	82.12
247.5	86.12
247.733	78.12
247.966	81.12
248.2	74.12
248.433	87.12
248.666	75.12
248.899	83.12
249.133	74.12
249.366	77.12
249.599	90.12
249.832	67.12
250.066	65.12
250.299	79.12
250.532	88.12
250.765	68.12
250.998	74.12
251.231	55.12
251.465	73.12
251.698	85.12
251.931	89.12
252.164	75.12
252.397	75.12
252.63	79.12
252.863	81.12
253.096	83.12
253.329	83.12
253.562	84.12
253.795	79.12
254.028	81.12
254.261	84.12
254.494	76.12
254.727	75.12
254.96	84.12
255.193	89.12
255.426	84.12
255.659	70.12
255.892	89.12
256.124	85.12
256.357	70.12
256.59	79.12
256.823	72.12
257.056	86.12
257.289	80.12
257.521	90.12
257.754	93.12
257.987	85.12
258.22	80.12
258.452	89.12
258.685	81.12
258.918	77.12
259.151	92.12
259.383	75.12
259.616	82.12
259.849	78.12
260.081	89.12
260.314	74.12
260.547	74.12
260.779	73.12
261.012	74.12
261.244	75.12
261.477	83.12
261.71	75.12
261.942	68.12
262.175	90.12
262.407	84.12
262.64	78.12
262.872	83.12
263.105	85.12
263.337	79.12
263.57	85.12
263.802	90.12
264.035	87.12
264.267	86.12
264.499	73.12
264.732	97.12
264.964	89.12
265.197	91.12
265.429	50.12
265.661	82.12
265.894	79.12
266.126	83.12
266.358	86.12
266.591	68.12
266.823	82.12
267.055	77.12
267.287	78.12
267.52	71.12
267.752	87.12
267.984	89.12
268.216	83.12
268.448	93.12
268.681	97.12
268.913	83.12
269.145	82.12
269.377	80.12
269.609	95.12
269.841	77.12
270.073	87.12
270.306	80.12
270.538	75.12
270.77	88.12
271.002	89.12
271.234	82.12
271.466	92.12
271.698	84.12
271.93	85.12
272.162	76.12
272.394	87.12
272.626	75.12
272.858	78.12
273.09	87.12
273.322	88.12
273.553	84.12
273.785	74.12
274.017	89.12
274.249	83.12
274.481	78.12
274.713	78.12
274.945	70.12
275.176	81.12
275.408	81.12
275.64	83.12
275.872	78.12
276.104	81.12
276.335	89.12
276.567	78.12
276.799	75.12
277.031	82.12
277.262	82.12
277.494	86.12
277.726	79.12
277.957	78.12
278.189	87.12
278.421	73.12
278.652	80.12
278.884	86.12
279.115	83.12
279.347	90.12
279.579	80.12
279.81	88.12
280.042	80.12
280.273	82.12
280.505	86.12
280.736	89.12
280.968	86.12
281.199	90.12
281.431	80.12
281.662	99.12
281.894	79.12
282.125	92.12
282.356	80.12
282.588	82.12
282.819	81.12
283.051	75.12
283.282	83.12
283.513	80.12
283.745	79.12
283.976	74.12
284.207	95.12
284.439	84.12
284.67	96.12
284.901	90.12
285.132	87.12
285.364	92.12
285.595	83.12
285.826	75.12
286.057	86.12
286.288	77.12
286.52	103.12
286.751	75.12
286.982	96.12
287.213	96.12
287.444	85.12
287.675	79.12
287.906	89.12
288.138	82.12
288.369	76.12
288.6	94.12
288.831	83.12
289.062	94.12
289.293	88.12
289.524	83.12
289.755	87.12
289.986	75.12
290.217	88.12
290.448	80.12
290.679	78.12
290.91	86.12
291.141	101.12
291.371	91.12
291.602	92.12
291.833	84.12
292.064	99.12
292.295	90.12
292.526	86.12
292.757	75.12
292.987	98.12
293.218	96.12
293.449	84.12
293.68	91.12
293.91	107.12
294.141	86.12
294.372	96.12
294.603	87.12
294.833	91.12
295.064	88.12
295.295	77.12
295.525	80.12
295.756	76.12
295.987	87.12
296.217	94.12
296.448	94.12
296.679	84.12
296.909	86.12
297.14	85.12
297.37	84.12
297.601	78.12
297.831	82.12
298.062	86.12
298.292	76.12
298.523	84.12
298.753	84.12
298.984	76.12
299.214	90.12
299.445	81.12
299.675	75.12
299.905	89.12
300.136	87.12
300.366	94.12
300.597	97.12
300.827	92.12
301.057	85.12
301.288	85.12
301.518	92.12
301.748	87.12
301.979	95.12
302.209	84.12
302.439	103.12
302.669	81.12
302.9	94.12
303.13	87.12
303.36	94.12
303.59	92.12
303.82	76.12
304.051	87.12
304.281	89.12
304.511	80.12
304.741	95.12
304.971	89.12
305.201	85.12
305.431	67.12
305.661	88.12
305.891	73.12
306.121	75.12
306.352	73.12
306.582	80.12
306.812	78.12
307.042	92.12
307.272	78.12
307.502	87.12
307.731	100.12
307.961	82.12
308.191	80.12
308.421	74.12
308.651	77.12
308.881	92.12
309.111	84.12
309.341	97.12
309.571	66.12
309.8	95.12
310.03	93.12
310.26	83.12
310.49	101.12
310.72	74.12
310.949	86.12
311.179	89.12
311.409	87.12
311.639	102.12
311.868	91.12
312.098	87.12
312.328	77.12
312.557	89.12
312.787	96.12
313.017	80.12
313.246	85.12
313.476	88.12
313.706	84.12
313.935	92.12
314.165	83.12
314.394	66.12
314.624	91.12
314.853	89.12
315.083	83.12
315.312	101.12
315.542	99.12
315.771	88.12
316.001	84.12
316.23	77.12
316.46	82.12
316.689	82.12
316.919	78.12
317.148	78.12
317.377	87.12
317.607	86.12
317.836	94.12
318.065	81.12
318.295	80.12
318.524	91.12
318.753	78.12
318.983	89.12
319.212	94.12
319.441	86.12
319.67	74.12
319.9	87.12
320.129	89.12
320.358	82.12
320.587	80.12
320.816	79.12
321.046	79.12
321.275	94.12
321.504	87.12
321.733	96.12
321.962	90.12
322.191	80.12
322.42	98.12
322.649	98.12
322.878	90.12
323.108	82.12
323.337	86.12
323.566	68.12
323.795	77.12
324.024	81.12
324.253	86.12
324.482	89.12
324.71	86.12
324.939	95.12
325.168	86.12
325.397	104.12
325.626	89.12
325.855	81.12
326.084	80.12
326.313	85.12
326.542	81.12
326.77	81.12
326.999	75.12
327.228	80.12
327.457	82.12
327.686	100.12
327.914	84.12
328.143	87.12
328.372	79.12
328.6	96.12
328.829	80.12
329.058	85.12
329.287	92.12
329.515	88.12
329.744	70.12
329.972	97.12
330.201	94.12
330.43	78.12
330.658	96.12
330.887	73.12
331.115	86.12
331.344	82.12
331.572	89.12
331.801	71.12
332.03	83.12
332.258	81.12
332.486	76.12
332.715	90.12
332.943	84.12
333.172	91.12
333.4	79.12
333.629	76.12
333.857	97.12
334.085	88.12
334.314	82.12
334.542	89.12
334.771	81.12
334.999	82.12
335.227	93.12
335.455	79.12
335.684	82.12
335.912	74.12
336.14	78.12
336.369	86.12
336.597	84.12
336.825	87.12
337.053	74.12
337.281	78.12
337.51	88.12
337.738	89.12
337.966	80.12
338.194	71.12
338.422	76.12
338.65	84.12
338.878	82.12
339.106	84.12
339.334	81.12
339.562	86.12
339.79	97.12
340.018	85.12
340.246	86.12
340.474	95.12
340.702	78.12
340.93	82.12
341.158	70.12
341.386	85.12
341.614	91.12
341.842	83.12
342.07	102.12
342.298	82.12
342.526	89.12
342.754	82.12
342.981	86.12
343.209	87.12
343.437	79.12
343.665	96.12
343.893	101.12
344.12	74.12
344.348	85.12
344.576	88.12
344.804	94.12
345.031	96.12
345.259	81.12
345.487	85.12
345.714	86.12
345.942	90.12
346.17	88.12
346.397	97.12
346.625	86.12
346.853	82.12
347.08	70.12
347.308	74.12
347.535	76.12
347.763	90.12
347.99	82.12
348.218	84.12
348.445	82.12
348.673	71.12
348.9	80.12
349.128	84.12
349.355	89.12
349.583	84.12
349.81	92.12
350.037	97.12
350.265	87.12
350.492	82.12
350.72	67.12
350.947	77.12
351.174	91.12
351.402	81.12
351.629	81.12
351.856	73.12
352.083	78.12
352.311	84.12
352.538	80.12
352.765	99.12
352.992	83.12
353.22	82.12
353.447	86.12
353.674	87.12
353.901	83.12
354.128	85.12
354.355	81.12
354.583	80.12
354.81	83.12
355.037	90.12
355.264	77.12
355.491	79.12
355.718	88.12
355.945	85.12
356.172	88.12
356.399	84.12
356.626	90.12
356.853	89.12
357.08	96.12
357.307	97.12
357.534	101.12
357.761	91.12
357.988	84.12
358.215	70.12
358.441	72.12
358.668	85.12
358.895	91.12
359.122	76.12
359.349	76.12
359.576	80.12
359.802	70.12
360.029	85.12
360.256	63.12
360.483	84.12
360.709	80.12
360.936	84.12
361.163	84.12
361.39	84.12
361.616	75.12
361.843	93.12
362.07	95.12
362.296	84.12
362.523	84.12
362.749	87.12
362.976	76.12
363.203	97.12
363.429	98.12
363.656	79.12
363.882	84.12
364.109	76.12
364.335	94.12
364.562	78.12
364.788	89.12
365.015	77.12
365.241	76.12
365.468	92.12
365.694	91.12
365.92	88.12
366.147	88.12
366.373	92.12
366.599	81.12
366.826	81.12
367.052	88.12
367.278	74.12
367.505	80.12
367.731	74.12
367.957	86.12
368.184	79.12
368.41	87.12
368.636	104.12
368.862	77.12
369.089	74.12
369.315	80.12
369.541	81.12
369.767	78.12
369.993	81.12
370.219	84.12
370.445	81.12
370.672	79.12
370.898	95.12
371.124	69.12
371.35	83.12
371.576	86.12
371.802	80.12
372.028	70.12
372.254	76.12
372.48	75.12
372.706	86.12
372.932	80.12
373.158	93.12
373.384	79.12
373.61	87.12
373.835	84.12
374.061	96.12
374.287	80.12
374.513	101.12
374.739	74.12
374.965	90.12
375.191	81.12
375.416	79.12
375.642	88.12
375.868	79.12
376.094	84.12
376.319	85.12
376.545	92.12
376.771	81.12
376.997	84.12
377.222	72.12
377.448	85.12
377.674	71.12
377.899	84.12
378.125	79.12
378.35	75.12
378.576	88.12
378.802	92.12
379.027	85.12
379.253	88.12
379.478	93.12
379.704	84.12
379.929	71.12
380.155	87.12
380.38	103.12
380.606	73.12
380.831	84.12
381.057	82.12
381.282	83.12
381.507	86.12
381.733	82.12
381.958	79.12
382.184	85.12
382.409	80.12
382.634	84.12
382.86	82.12
383.085	76.12
383.31	84.12
383.535	86.12
383.761	92.12
383.986	84.12
384.211	105.12
384.436	91.12
384.662	86.12
384.887	90.12
385.112	76.12
385.337	86.12
385.562	77.12
385.787	96.12
386.013	91.12
386.238	79.12
386.463	82.12
386.688	89.12
386.913	82.12
387.138	96.12
387.363	102.12
387.588	78.12
387.813	87.12
388.038	74.12
388.263	92.12
388.488	88.12
388.713	79.12
388.938	81.12
389.163	86.12
389.387	95.12
389.612	79.12
389.837	86.12
390.062	78.12
390.287	76.12
390.512	91.12
390.736	86.12
390.961	81.12
391.186	78.12
391.411	73.12
391.636	75.12
391.86	72.12
392.085	96.12
392.31	91.12
392.534	81.12
392.759	78.12
392.984	83.12
393.208	71.12
393.433	88.12
393.658	83.12
393.882	97.12
394.107	94.12
394.331	78.12
394.556	96.12
394.78	100.12
395.005	83.12
395.229	97.12
395.454	92.12
395.678	77.12
395.903	90.12
396.127	93.12
396.352	86.12
396.576	79.12
396.801	92.12
397.025	84.12
397.249	89.12
397.474	76.12
397.698	81.12
397.922	98.12
398.147	97.12
398.371	88.12
398.595	98.12
398.82	79.12
399.044	98.12
399.268	92.12
399.492	106.12
399.717	89.12
399.941	95.12
400.165	77.12
400.389	94.12
400.613	70.12
400.837	87.12
401.062	92.12
401.286	75.12
401.51	74.12
401.734	84.12
401.958	80.12
402.182	99.12
402.406	93.12
402.63	86.12
402.854	80.12
403.078	71.12
403.302	88.12
403.526	96.12
403.75	100.12
403.974	77.12
404.198	82.12
404.422	95.12
404.645	85.12
404.869	78.12
405.093	87.12
405.317	84.12
405.541	91.12
405.765	91.12
405.988	89.12
406.212	94.12
406.436	93.12
406.66	102.12
406.883	88.12
407.107	94.12
407.331	74.12
407.555	94.12
407.778	102.12
408.002	97.12
408.226	83.12
408.449	86.12
408.673	67.12
408.896	92.12
409.12	80.12
409.344	82.12
409.567	101.12
409.791	98.12
410.014	96.12
410.238	71.12
410.461	92.12
410.685	91.12
410.908	91.12
411.132	91.12
411.355	86.12
411.578	89.12
411.802	88.12
412.025	91.12
412.249	93.12
412.472	85.12
412.695	105.12
412.919	95.12
413.142	105.12
413.365	98.12
413.589	89.12
413.812	89.12
414.035	74.12
414.258	89.12
414.482	97.12
414.705	106.12
414.928	101.12
415.151	94.12
415.374	93.12
415.597	89.12
415.821	95.12
416.044	70.12
416.267	95.12
416.49	93.12
416.713	84.12
416.936	98.12
417.159	85.12
417.382	82.12
417.605	94.12
417.828	84.12
418.051	103.12
418.274	103.12
418.497	83.12
418.72	91.12
418.943	108.12
419.166	97.12
419.389	104.12
419.611	96.12
419.834	93.12
420.057	102.12
420.28	98.12
420.503	92.12
420.726	101.12
420.948	102.12
421.171	91.12
421.394	99.12
421.617	94.12
421.839	95.12
422.062	104.12
422.285	73.12
422.507	90.12
422.73	91.12
422.953	87.12
423.175	91.12
423.398	98.12
423.621	105.12
423.843	86.12
424.066	91.12
424.288	79.12
424.511	77.12
424.733	90.12
424.956	90.12
425.178	89.12
425.401	91.12
425.623	87.12
425.846	84.12
426.068	96.12
426.291	89.12
426.513	106.12
426.735	88.12
426.958	85.12
427.18	96.12
427.402	86.12
427.625	98.12
427.847	82.12
428.069	96.12
428.292	95.12
428.514	95.12
428.736	95.12
428.958	82.12
429.181	94.12
429.403	97.12
429.625	89.12
429.847	98.12
430.069	88.12
430.292	94.12
430.514	96.12
430.736	82.12
430.958	94.12
431.18	100.12
431.402	80.12
431.624	88.12
431.846	88.12
432.068	107.12
432.29	74.12
432.512	85.12
432.734	90.12
432.956	89.12
433.178	90.12
433.4	85.12
433.622	95.12
433.844	82.12
434.066	86.12
434.287	78.12
434.509	86.12
434.731	83.12
434.953	86.12
435.175	93.12
435.397	89.12
435.618	91.12
435.84	90.12
436.062	88.12
436.284	100.12
436.505	90.12
436.727	88.12
436.949	102.12
437.17	99.12
437.392	90.12
437.614	82.12
437.835	76.12
438.057	91.12
438.278	91.12
438.5	92.12
438.721	102.12
438.943	86.12
439.165	108.12
439.386	82.12
439.608	105.12
439.829	98.12
440.05	98.12
440.272	99.12
440.493	98.12
440.715	97.12
440.936	93.12
441.158	83.12
441.379	95.12
441.6	103.12
441.822	99.12
442.043	99.12
442.264	84.12
442.486	97.12
442.707	82.12
442.928	76.12
443.149	91.12
443.371	93.12
443.592	87.12
443.813	97.12
444.034	97.12
444.255	99.12
444.476	89.12
444.698	84.12
444.919	103.12
445.14	199.12
445.361	138.12
445.582	113.12
445.803	93.12
446.024	93.12
446.245	108.12
446.466	88.12
446.687	90.12
446.908	93.12
447.129	85.12
447.35	104.12
447.571	96.12
447.792	99.12
448.013	100.12
448.234	91.12
448.455	99.12
448.675	88.12
448.896	96.12
449.117	82.12
449.338	84.12
449.559	86.12
449.779	110.12
450	87.12
450.221	74.12
450.442	96.12
450.662	97.12
450.883	89.12
451.104	83.12
451.324	93.12
451.545	85.12
451.766	84.12
451.986	85.12
452.207	84.12
452.428	111.12
452.648	88.12
452.869	97.12
453.089	91.12
453.31	73.12
453.53	94.12
453.751	101.12
453.971	77.12
454.192	75.12
454.412	75.12
454.633	83.12
454.853	97.12
455.073	89.12
455.294	90.12
455.514	97.12
455.734	87.12
455.955	87.12
456.175	86.12
456.395	92.12
456.616	95.12
456.836	79.12
457.056	79.12
457.276	61.12
457.497	90.12
457.717	90.12
457.937	81.12
458.157	90.12
458.377	96.12
458.598	77.12
458.818	81.12
459.038	88.12
459.258	95.12
459.478	79.12
459.698	82.12
459.918	91.12
460.138	93.12
460.358	75.12
460.578	90.12
460.798	100.12
461.018	88.12
461.238	73.12
461.458	84.12
461.678	91.12
461.898	89.12
462.118	84.12
462.338	80.12
462.558	86.12
462.777	96.12
462.997	88.12
463.217	79.12
463.437	84.12
463.657	75.12
463.876	92.12
464.096	85.12
464.316	88.12
464.536	84.12
464.755	92.12
464.975	96.12
465.195	86.12
465.414	89.12
465.634	87.12
465.854	100.12
466.073	94.12
466.293	82.12
466.512	95.12
466.732	87.12
466.951	103.12
467.171	95.12
467.391	87.12
467.61	102.12
467.829	87.12
468.049	91.12
468.268	95.12
468.488	101.12
468.707	98.12
468.927	96.12
469.146	92.12
469.365	92.12
469.585	93.12
469.804	95.12
470.023	94.12
470.243	98.12
470.462	86.12
470.681	96.12
470.901	100.12
471.12	100.12
471.339	100.12
471.558	98.12
471.777	88.12
471.997	91.12
472.216	86.12
472.435	80.12
472.654	90.12
472.873	96.12
473.092	76.12
473.311	105.12
473.53	83.12
473.749	107.12
473.968	99.12
474.187	88.12
474.406	84.12
474.625	102.12
474.844	80.12
475.063	80.12
475.282	87.12
475.501	83.12
475.72	79.12
475.939	99.12
476.158	96.12
476.377	107.12
476.596	91.12
476.814	76.12
477.033	90.12
477.252	81.12
477.471	96.12
477.69	103.12
477.908	88.12
478.127	97.12
478.346	90.12
478.564	80.12
478.783	97.12
479.002	103.12
479.22	98.12
479.439	81.12
479.658	83.12
479.876	79.12
480.095	95.12
480.313	94.12
480.532	79.12
480.751	92.12
480.969	90.12
481.188	80.12
481.406	76.12
481.624	80.12
481.843	93.12
482.061	100.12
482.28	100.12
482.498	81.12
482.717	84.12
482.935	88.12
483.153	89.12
483.372	110.12
483.59	99.12
483.808	103.12
484.027	83.12
484.245	95.12
484.463	100.12
484.681	97.12
484.9	92.12
485.118	98.12
485.336	97.12
485.554	90.12
485.772	84.12
485.99	81.12
486.209	83.12
486.427	86.12
486.645	87.12
486.863	80.12
487.081	89.12
487.299	103.12
487.517	94.12
487.735	100.12
487.953	114.12
488.171	114.12
488.389	99.12
488.607	95.12
488.825	95.12
489.043	102.12
489.261	97.12
489.479	81.12
489.696	99.12
489.914	88.12
490.132	90.12
490.35	102.12
490.568	104.12
490.786	93.12
491.003	101.12
491.221	110.12
491.439	114.12
491.657	110.12
491.874	118.12
492.092	111.12
492.31	128.12
492.527	132.12
492.745	95.12
492.963	102.12
493.18	110.12
493.398	99.12
493.615	104.12
493.833	106.12
494.05	108.12
494.268	100.12
494.485	89.12
494.703	110.12
494.92	105.12
495.138	108.12
495.355	105.12
495.573	106.12
495.79	101.12
496.008	94.12
496.225	106.12
496.442	103.12
496.66	98.12
496.877	99.12
497.094	99.12
497.312	107.12
497.529	110.12
497.746	104.12
497.963	105.12
498.181	101.12
498.398	79.12
498.615	104.12
498.832	87.12
499.049	95.12
499.267	89.12
499.484	97.12
499.701	100.12
499.918	104.12
500.135	86.12
500.352	86.12
500.569	84.12
500.786	95.12
501.003	99.12
501.22	98.12
501.437	94.12
501.654	89.12
501.871	96.12
502.088	101.12
502.305	102.12
502.522	94.12
502.739	88.12
502.956	99.12
503.172	82.12
503.389	83.12
503.606	97.12
503.823	102.12
504.04	90.12
504.256	92.12
504.473	73.12
504.69	98.12
504.907	95.12
505.123	81.12
505.34	94.12
505.557	99.12
505.773	85.12
505.99	86.12
506.207	92.12
506.423	77.12
506.64	95.12
506.856	95.12
507.073	99.12
507.289	82.12
507.506	86.12
507.722	84.12
507.939	96.12
508.155	86.12
508.372	94.12
508.588	80.12
508.805	91.12
509.021	89.12
509.238	83.12
509.454	94.12
509.67	94.12
509.887	74.12
510.103	78.12
510.319	103.12
510.536	87.12
510.752	73.12
510.968	91.12
511.184	86.12
511.401	89.12
511.617	83.12
511.833	88.12
512.049	95.12
512.265	83.12
512.481	88.12
512.698	91.12
512.914	74.12
513.13	81.12
513.346	98.12
513.562	77.12
513.778	87.12
513.994	91.12
514.21	95.12
514.426	93.12
514.642	88.12
514.858	85.12
515.074	86.12
515.29	89.12
515.506	73.12
515.721	91.12
515.937	96.12
516.153	83.12
516.369	69.12
516.585	86.12
516.801	78.12
517.016	84.12
517.232	80.12
517.448	83.12
517.664	87.12
517.879	81.12
