Data from Location5.07152019.Energy5.Lamp.07192019.3%Agarose_HRD10591_15-37-56-387.txt Node
Date: Fri Jul 19 15:37:56 EDT 2019
User: cochatt
Spectrometer: HR+D1059
Trigger mode: 1
Integration Time (sec): 1.000000E-1
Scans to average: 1
Electric dark correction enabled: true
Nonlinearity correction enabled: false
Boxcar width: 0
XAxis mode: Wavelengths
Number of Pixels in Spectrum: 2048
>>>>>Begin Spectral Data<<<<<
223.165	-12.44
223.4	-12.44
223.635	-12.44
223.869	-7.44
224.104	-13.44
224.338	-26.44
224.573	-36.44
224.808	-6.44
225.042	-12.44
225.277	7.56
225.511	0.56
225.746	5.56
225.98	21.56
226.215	7.56
226.449	-7.44
226.683	29.56
226.918	24.56
227.152	25.56
227.387	40.56
227.621	40.56
227.856	54.56
228.09	52.56
228.324	41.56
228.559	75.56
228.793	65.56
229.027	62.56
229.262	66.56
229.496	59.56
229.73	73.56
229.964	74.56
230.199	83.56
230.433	90.56
230.667	84.56
230.901	80.56
231.136	81.56
231.37	85.56
231.604	83.56
231.838	77.56
232.072	77.56
232.306	74.56
232.541	94.56
232.775	84.56
233.009	83.56
233.243	77.56
233.477	86.56
233.711	90.56
233.945	86.56
234.179	84.56
234.413	85.56
234.647	80.56
234.881	79.56
235.115	94.56
235.349	82.56
235.583	87.56
235.817	81.56
236.051	65.56
236.285	73.56
236.519	84.56
236.753	76.56
236.987	77.56
237.221	93.56
237.455	87.56
237.689	75.56
237.922	74.56
238.156	78.56
238.39	86.56
238.624	80.56
238.858	73.56
239.091	81.56
239.325	85.56
239.559	80.56
239.793	69.56
240.027	87.56
240.26	86.56
240.494	77.56
240.728	75.56
240.961	75.56
241.195	81.56
241.429	81.56
241.662	88.56
241.896	81.56
242.13	77.56
242.363	70.56
242.597	80.56
242.83	78.56
243.064	82.56
243.298	68.56
243.531	75.56
243.765	77.56
243.998	87.56
244.232	63.56
244.465	92.56
244.699	89.56
244.932	88.56
245.166	69.56
245.399	68.56
245.633	87.56
245.866	86.56
246.099	94.56
246.333	83.56
246.566	64.56
246.8	69.56
247.033	74.56
247.266	65.56
247.5	96.56
247.733	92.56
247.966	77.56
248.2	77.56
248.433	93.56
248.666	79.56
248.899	83.56
249.133	98.56
249.366	78.56
249.599	71.56
249.832	77.56
250.066	90.56
250.299	89.56
250.532	80.56
250.765	85.56
250.998	72.56
251.231	84.56
251.465	81.56
251.698	72.56
251.931	77.56
252.164	70.56
252.397	83.56
252.63	81.56
252.863	68.56
253.096	72.56
253.329	88.56
253.562	86.56
253.795	86.56
254.028	97.56
254.261	92.56
254.494	84.56
254.727	80.56
254.96	92.56
255.193	80.56
255.426	90.56
255.659	79.56
255.892	81.56
256.124	85.56
256.357	87.56
256.59	81.56
256.823	77.56
257.056	95.56
257.289	91.56
257.521	87.56
257.754	86.56
257.987	92.56
258.22	91.56
258.452	99.56
258.685	93.56
258.918	93.56
259.151	74.56
259.383	96.56
259.616	95.56
259.849	95.56
260.081	85.56
260.314	69.56
260.547	72.56
260.779	92.56
261.012	89.56
261.244	77.56
261.477	74.56
261.71	86.56
261.942	84.56
262.175	101.56
262.407	83.56
262.64	79.56
262.872	71.56
263.105	83.56
263.337	98.56
263.57	100.56
263.802	81.56
264.035	86.56
264.267	84.56
264.499	86.56
264.732	91.56
264.964	84.56
265.197	88.56
265.429	90.56
265.661	74.56
265.894	78.56
266.126	81.56
266.358	88.56
266.591	64.56
266.823	77.56
267.055	88.56
267.287	80.56
267.52	92.56
267.752	90.56
267.984	73.56
268.216	87.56
268.448	88.56
268.681	87.56
268.913	90.56
269.145	94.56
269.377	91.56
269.609	89.56
269.841	92.56
270.073	88.56
270.306	76.56
270.538	67.56
270.77	90.56
271.002	84.56
271.234	80.56
271.466	98.56
271.698	80.56
271.93	85.56
272.162	86.56
272.394	90.56
272.626	94.56
272.858	85.56
273.09	98.56
273.322	82.56
273.553	78.56
273.785	90.56
274.017	92.56
274.249	85.56
274.481	79.56
274.713	84.56
274.945	89.56
275.176	93.56
275.408	83.56
275.64	77.56
275.872	96.56
276.104	98.56
276.335	91.56
276.567	84.56
276.799	76.56
277.031	75.56
277.262	94.56
277.494	85.56
277.726	85.56
277.957	88.56
278.189	83.56
278.421	85.56
278.652	83.56
278.884	85.56
279.115	77.56
279.347	87.56
279.579	76.56
279.81	82.56
280.042	104.56
280.273	85.56
280.505	80.56
280.736	90.56
280.968	70.56
281.199	87.56
281.431	93.56
281.662	79.56
281.894	96.56
282.125	87.56
282.356	73.56
282.588	87.56
282.819	93.56
283.051	79.56
283.282	89.56
283.513	98.56
283.745	89.56
283.976	88.56
284.207	82.56
284.439	91.56
284.67	93.56
284.901	92.56
285.132	84.56
285.364	87.56
285.595	84.56
285.826	83.56
286.057	81.56
286.288	78.56
286.52	93.56
286.751	92.56
286.982	81.56
287.213	73.56
287.444	86.56
287.675	83.56
287.906	73.56
288.138	87.56
288.369	78.56
288.6	100.56
288.831	89.56
289.062	88.56
289.293	89.56
289.524	76.56
289.755	84.56
289.986	89.56
290.217	88.56
290.448	90.56
290.679	90.56
290.91	96.56
291.141	86.56
291.371	92.56
291.602	89.56
291.833	91.56
292.064	96.56
292.295	82.56
292.526	90.56
292.757	93.56
292.987	91.56
293.218	86.56
293.449	70.56
293.68	69.56
293.91	90.56
294.141	82.56
294.372	86.56
294.603	101.56
294.833	90.56
295.064	88.56
295.295	103.56
295.525	73.56
295.756	83.56
295.987	77.56
296.217	92.56
296.448	90.56
296.679	77.56
296.909	85.56
297.14	104.56
297.37	85.56
297.601	82.56
297.831	89.56
298.062	77.56
298.292	86.56
298.523	91.56
298.753	88.56
298.984	96.56
299.214	73.56
299.445	84.56
299.675	86.56
299.905	81.56
300.136	79.56
300.366	77.56
300.597	93.56
300.827	98.56
301.057	92.56
301.288	92.56
301.518	97.56
301.748	85.56
301.979	88.56
302.209	88.56
302.439	91.56
302.669	86.56
302.9	87.56
303.13	107.56
303.36	97.56
303.59	86.56
303.82	87.56
304.051	94.56
304.281	91.56
304.511	90.56
304.741	97.56
304.971	82.56
305.201	90.56
305.431	87.56
305.661	92.56
305.891	95.56
306.121	107.56
306.352	86.56
306.582	80.56
306.812	83.56
307.042	85.56
307.272	88.56
307.502	94.56
307.731	85.56
307.961	87.56
308.191	79.56
308.421	89.56
308.651	72.56
308.881	83.56
309.111	82.56
309.341	85.56
309.571	91.56
309.8	88.56
310.03	90.56
310.26	75.56
310.49	84.56
310.72	87.56
310.949	83.56
311.179	93.56
311.409	88.56
311.639	77.56
311.868	81.56
312.098	93.56
312.328	82.56
312.557	89.56
312.787	92.56
313.017	76.56
313.246	74.56
313.476	80.56
313.706	84.56
313.935	86.56
314.165	87.56
314.394	82.56
314.624	87.56
314.853	75.56
315.083	81.56
315.312	79.56
315.542	84.56
315.771	88.56
316.001	94.56
316.23	89.56
316.46	80.56
316.689	94.56
316.919	73.56
317.148	88.56
317.377	89.56
317.607	83.56
317.836	93.56
318.065	79.56
318.295	85.56
318.524	80.56
318.753	98.56
318.983	83.56
319.212	69.56
319.441	69.56
319.67	91.56
319.9	77.56
320.129	77.56
320.358	92.56
320.587	89.56
320.816	95.56
321.046	94.56
321.275	79.56
321.504	100.56
321.733	88.56
321.962	97.56
322.191	99.56
322.42	75.56
322.649	94.56
322.878	97.56
323.108	88.56
323.337	80.56
323.566	81.56
323.795	84.56
324.024	76.56
324.253	90.56
324.482	80.56
324.71	96.56
324.939	83.56
325.168	93.56
325.397	81.56
325.626	82.56
325.855	76.56
326.084	78.56
326.313	84.56
326.542	89.56
326.77	92.56
326.999	84.56
327.228	94.56
327.457	91.56
327.686	87.56
327.914	93.56
328.143	86.56
328.372	101.56
328.6	89.56
328.829	84.56
329.058	84.56
329.287	77.56
329.515	92.56
329.744	88.56
329.972	93.56
330.201	85.56
330.43	96.56
330.658	85.56
330.887	83.56
331.115	96.56
331.344	95.56
331.572	83.56
331.801	93.56
332.03	71.56
332.258	80.56
332.486	69.56
332.715	91.56
332.943	75.56
333.172	85.56
333.4	88.56
333.629	104.56
333.857	88.56
334.085	89.56
334.314	85.56
334.542	92.56
334.771	78.56
334.999	99.56
335.227	91.56
335.455	73.56
335.684	94.56
335.912	98.56
336.14	83.56
336.369	82.56
336.597	84.56
336.825	91.56
337.053	83.56
337.281	82.56
337.51	82.56
337.738	75.56
337.966	75.56
338.194	86.56
338.422	87.56
338.65	83.56
338.878	101.56
339.106	79.56
339.334	86.56
339.562	92.56
339.79	75.56
340.018	75.56
340.246	74.56
340.474	56.56
340.702	93.56
340.93	92.56
341.158	94.56
341.386	77.56
341.614	89.56
341.842	93.56
342.07	88.56
342.298	84.56
342.526	86.56
342.754	100.56
342.981	88.56
343.209	78.56
343.437	80.56
343.665	64.56
343.893	86.56
344.12	89.56
344.348	87.56
344.576	80.56
344.804	90.56
345.031	88.56
345.259	80.56
345.487	78.56
345.714	87.56
345.942	84.56
346.17	88.56
346.397	75.56
346.625	83.56
346.853	92.56
347.08	72.56
347.308	82.56
347.535	85.56
347.763	84.56
347.99	85.56
348.218	74.56
348.445	84.56
348.673	79.56
348.9	94.56
349.128	87.56
349.355	76.56
349.583	86.56
349.81	93.56
350.037	75.56
350.265	95.56
350.492	87.56
350.72	81.56
350.947	69.56
351.174	89.56
351.402	78.56
351.629	83.56
351.856	87.56
352.083	72.56
352.311	85.56
352.538	82.56
352.765	79.56
352.992	83.56
353.22	97.56
353.447	80.56
353.674	93.56
353.901	90.56
354.128	86.56
354.355	100.56
354.583	96.56
354.81	74.56
355.037	84.56
355.264	95.56
355.491	86.56
355.718	81.56
355.945	88.56
356.172	61.56
356.399	75.56
356.626	84.56
356.853	97.56
357.08	94.56
357.307	96.56
357.534	84.56
357.761	88.56
357.988	86.56
358.215	80.56
358.441	78.56
358.668	92.56
358.895	88.56
359.122	86.56
359.349	75.56
359.576	78.56
359.802	77.56
360.029	85.56
360.256	90.56
360.483	79.56
360.709	85.56
360.936	99.56
361.163	93.56
361.39	85.56
361.616	92.56
361.843	88.56
362.07	89.56
362.296	87.56
362.523	88.56
362.749	73.56
362.976	78.56
363.203	81.56
363.429	78.56
363.656	98.56
363.882	85.56
364.109	69.56
364.335	74.56
364.562	97.56
364.788	78.56
365.015	89.56
365.241	89.56
365.468	85.56
365.694	87.56
365.92	82.56
366.147	85.56
366.373	84.56
366.599	90.56
366.826	95.56
367.052	89.56
367.278	82.56
367.505	89.56
367.731	88.56
367.957	88.56
368.184	80.56
368.41	96.56
368.636	87.56
368.862	76.56
369.089	80.56
369.315	75.56
369.541	83.56
369.767	92.56
369.993	97.56
370.219	89.56
370.445	87.56
370.672	93.56
370.898	90.56
371.124	77.56
371.35	73.56
371.576	85.56
371.802	83.56
372.028	82.56
372.254	93.56
372.48	92.56
372.706	107.56
372.932	73.56
373.158	79.56
373.384	85.56
373.61	76.56
373.835	80.56
374.061	91.56
374.287	99.56
374.513	78.56
374.739	85.56
374.965	88.56
375.191	86.56
375.416	87.56
375.642	81.56
375.868	87.56
376.094	91.56
376.319	82.56
376.545	80.56
376.771	85.56
376.997	68.56
377.222	88.56
377.448	86.56
377.674	88.56
377.899	87.56
378.125	86.56
378.35	88.56
378.576	84.56
378.802	77.56
379.027	84.56
379.253	93.56
379.478	85.56
379.704	82.56
379.929	84.56
380.155	84.56
380.38	92.56
380.606	78.56
380.831	91.56
381.057	80.56
381.282	80.56
381.507	91.56
381.733	95.56
381.958	80.56
382.184	83.56
382.409	105.56
382.634	94.56
382.86	89.56
383.085	101.56
383.31	78.56
383.535	85.56
383.761	94.56
383.986	84.56
384.211	98.56
384.436	82.56
384.662	70.56
384.887	83.56
385.112	90.56
385.337	95.56
385.562	86.56
385.787	85.56
386.013	88.56
386.238	89.56
386.463	91.56
386.688	84.56
386.913	75.56
387.138	82.56
387.363	78.56
387.588	94.56
387.813	83.56
388.038	97.56
388.263	79.56
388.488	90.56
388.713	93.56
388.938	77.56
389.163	77.56
389.387	78.56
389.612	101.56
389.837	96.56
390.062	79.56
390.287	88.56
390.512	81.56
390.736	81.56
390.961	91.56
391.186	85.56
391.411	80.56
391.636	92.56
391.86	98.56
392.085	88.56
392.31	94.56
392.534	85.56
392.759	89.56
392.984	82.56
393.208	79.56
393.433	90.56
393.658	86.56
393.882	84.56
394.107	84.56
394.331	91.56
394.556	94.56
394.78	72.56
395.005	95.56
395.229	73.56
395.454	86.56
395.678	90.56
395.903	93.56
396.127	99.56
396.352	77.56
396.576	88.56
396.801	91.56
397.025	88.56
397.249	98.56
397.474	95.56
397.698	85.56
397.922	85.56
398.147	88.56
398.371	85.56
398.595	97.56
398.82	93.56
399.044	106.56
399.268	93.56
399.492	96.56
399.717	106.56
399.941	91.56
400.165	79.56
400.389	86.56
400.613	85.56
400.837	83.56
401.062	93.56
401.286	106.56
401.51	80.56
401.734	95.56
401.958	86.56
402.182	91.56
402.406	87.56
402.63	86.56
402.854	87.56
403.078	78.56
403.302	100.56
403.526	96.56
403.75	89.56
403.974	96.56
404.198	99.56
404.422	78.56
404.645	92.56
404.869	76.56
405.093	74.56
405.317	100.56
405.541	91.56
405.765	81.56
405.988	89.56
406.212	89.56
406.436	94.56
406.66	85.56
406.883	102.56
407.107	88.56
407.331	71.56
407.555	77.56
407.778	89.56
408.002	96.56
408.226	89.56
408.449	91.56
408.673	104.56
408.896	94.56
409.12	85.56
409.344	72.56
409.567	86.56
409.791	86.56
410.014	98.56
410.238	95.56
410.461	103.56
410.685	77.56
410.908	82.56
411.132	86.56
411.355	91.56
411.578	92.56
411.802	89.56
412.025	96.56
412.249	86.56
412.472	90.56
412.695	92.56
412.919	86.56
413.142	104.56
413.365	90.56
413.589	81.56
413.812	86.56
414.035	90.56
414.258	92.56
414.482	76.56
414.705	85.56
414.928	76.56
415.151	86.56
415.374	96.56
415.597	80.56
415.821	91.56
416.044	82.56
416.267	88.56
416.49	85.56
416.713	86.56
416.936	81.56
417.159	84.56
417.382	93.56
417.605	92.56
417.828	82.56
418.051	95.56
418.274	90.56
418.497	99.56
418.72	93.56
418.943	94.56
419.166	93.56
419.389	96.56
419.611	101.56
419.834	86.56
420.057	98.56
420.28	74.56
420.503	97.56
420.726	99.56
420.948	98.56
421.171	95.56
421.394	94.56
421.617	100.56
421.839	105.56
422.062	92.56
422.285	90.56
422.507	99.56
422.73	84.56
422.953	86.56
423.175	94.56
423.398	93.56
423.621	91.56
423.843	94.56
424.066	97.56
424.288	90.56
424.511	92.56
424.733	88.56
424.956	101.56
425.178	80.56
425.401	112.56
425.623	94.56
425.846	103.56
426.068	104.56
426.291	81.56
426.513	86.56
426.735	93.56
426.958	95.56
427.18	84.56
427.402	84.56
427.625	86.56
427.847	90.56
428.069	84.56
428.292	96.56
428.514	82.56
428.736	94.56
428.958	104.56
429.181	90.56
429.403	94.56
429.625	86.56
429.847	107.56
430.069	107.56
430.292	90.56
430.514	83.56
430.736	89.56
430.958	89.56
431.18	89.56
431.402	90.56
431.624	77.56
431.846	95.56
432.068	86.56
432.29	88.56
432.512	64.56
432.734	90.56
432.956	98.56
433.178	100.56
433.4	108.56
433.622	103.56
433.844	96.56
434.066	74.56
434.287	91.56
434.509	73.56
434.731	91.56
434.953	83.56
435.175	98.56
435.397	87.56
435.618	82.56
435.84	85.56
436.062	107.56
436.284	96.56
436.505	86.56
436.727	91.56
436.949	93.56
437.17	98.56
437.392	89.56
437.614	106.56
437.835	86.56
438.057	82.56
438.278	79.56
438.5	90.56
438.721	102.56
438.943	86.56
439.165	92.56
439.386	94.56
439.608	108.56
439.829	89.56
440.05	98.56
440.272	97.56
440.493	94.56
440.715	103.56
440.936	86.56
441.158	93.56
441.379	85.56
441.6	90.56
441.822	106.56
442.043	92.56
442.264	96.56
442.486	86.56
442.707	110.56
442.928	93.56
443.149	106.56
443.371	88.56
443.592	92.56
443.813	103.56
444.034	117.56
444.255	107.56
444.476	105.56
444.698	89.56
444.919	90.56
445.14	175.56
445.361	142.56
445.582	92.56
445.803	103.56
446.024	101.56
446.245	90.56
446.466	91.56
446.687	104.56
446.908	88.56
447.129	102.56
447.35	106.56
447.571	96.56
447.792	104.56
448.013	109.56
448.234	109.56
448.455	103.56
448.675	97.56
448.896	81.56
449.117	93.56
449.338	100.56
449.559	104.56
449.779	96.56
450	94.56
450.221	85.56
450.442	86.56
450.662	94.56
450.883	89.56
451.104	100.56
451.324	105.56
451.545	92.56
451.766	99.56
451.986	108.56
452.207	100.56
452.428	97.56
452.648	87.56
452.869	88.56
453.089	88.56
453.31	77.56
453.53	102.56
453.751	93.56
453.971	87.56
454.192	90.56
454.412	96.56
454.633	97.56
454.853	91.56
455.073	85.56
455.294	92.56
455.514	94.56
455.734	89.56
455.955	101.56
456.175	90.56
456.395	93.56
456.616	80.56
456.836	72.56
457.056	100.56
457.276	84.56
457.497	89.56
457.717	86.56
457.937	88.56
458.157	81.56
458.377	100.56
458.598	98.56
458.818	85.56
459.038	74.56
459.258	81.56
459.478	86.56
459.698	85.56
459.918	88.56
460.138	98.56
460.358	96.56
460.578	102.56
460.798	83.56
461.018	100.56
461.238	77.56
461.458	97.56
461.678	86.56
461.898	82.56
462.118	84.56
462.338	98.56
462.558	89.56
462.777	91.56
462.997	86.56
463.217	92.56
463.437	88.56
463.657	93.56
463.876	93.56
464.096	82.56
464.316	96.56
464.536	96.56
464.755	94.56
464.975	74.56
465.195	91.56
465.414	92.56
465.634	88.56
465.854	101.56
466.073	96.56
466.293	98.56
466.512	91.56
466.732	93.56
466.951	82.56
467.171	84.56
467.391	109.56
467.61	100.56
467.829	94.56
468.049	101.56
468.268	94.56
468.488	99.56
468.707	109.56
468.927	100.56
469.146	114.56
469.365	109.56
469.585	90.56
469.804	92.56
470.023	109.56
470.243	79.56
470.462	92.56
470.681	89.56
470.901	82.56
471.12	107.56
471.339	93.56
471.558	89.56
471.777	89.56
471.997	88.56
472.216	93.56
472.435	95.56
472.654	83.56
472.873	71.56
473.092	99.56
473.311	105.56
473.53	105.56
473.749	81.56
473.968	93.56
474.187	85.56
474.406	91.56
474.625	100.56
474.844	104.56
475.063	109.56
475.282	112.56
475.501	82.56
475.72	75.56
475.939	105.56
476.158	92.56
476.377	85.56
476.596	92.56
476.814	93.56
477.033	94.56
477.252	94.56
477.471	83.56
477.69	90.56
477.908	108.56
478.127	105.56
478.346	86.56
478.564	112.56
478.783	113.56
479.002	91.56
479.22	91.56
479.439	99.56
479.658	85.56
479.876	100.56
480.095	92.56
480.313	95.56
480.532	82.56
480.751	77.56
480.969	91.56
481.188	78.56
481.406	86.56
481.624	84.56
481.843	91.56
482.061	82.56
482.28	94.56
482.498	89.56
482.717	90.56
482.935	90.56
483.153	98.56
483.372	89.56
483.59	91.56
483.808	94.56
484.027	100.56
484.245	98.56
484.463	103.56
484.681	103.56
484.9	113.56
485.118	112.56
485.336	97.56
485.554	102.56
485.772	78.56
485.99	89.56
486.209	104.56
486.427	95.56
486.645	91.56
486.863	96.56
487.081	103.56
487.299	108.56
487.517	102.56
487.735	96.56
487.953	97.56
488.171	111.56
488.389	98.56
488.607	104.56
488.825	103.56
489.043	101.56
489.261	92.56
489.479	113.56
489.696	92.56
489.914	90.56
490.132	98.56
490.35	103.56
490.568	113.56
490.786	107.56
491.003	116.56
491.221	114.56
491.439	101.56
491.657	105.56
491.874	103.56
492.092	132.56
492.31	128.56
492.527	133.56
492.745	104.56
492.963	101.56
493.18	94.56
493.398	112.56
493.615	112.56
493.833	106.56
494.05	102.56
494.268	85.56
494.485	108.56
494.703	103.56
494.92	92.56
495.138	94.56
495.355	109.56
495.573	105.56
495.79	99.56
496.008	117.56
496.225	103.56
496.442	103.56
496.66	105.56
496.877	107.56
497.094	103.56
497.312	110.56
497.529	104.56
497.746	105.56
497.963	86.56
498.181	92.56
498.398	102.56
498.615	99.56
498.832	90.56
499.049	107.56
499.267	92.56
499.484	95.56
499.701	103.56
499.918	97.56
500.135	95.56
500.352	82.56
500.569	89.56
500.786	101.56
501.003	97.56
501.22	92.56
501.437	110.56
501.654	97.56
501.871	100.56
502.088	89.56
502.305	93.56
502.522	106.56
502.739	99.56
502.956	94.56
503.172	90.56
503.389	96.56
503.606	96.56
503.823	105.56
504.04	97.56
504.256	107.56
504.473	87.56
504.69	86.56
504.907	104.56
505.123	94.56
505.34	89.56
505.557	97.56
505.773	84.56
505.99	90.56
506.207	88.56
506.423	120.56
506.64	95.56
506.856	97.56
507.073	112.56
507.289	98.56
507.506	86.56
507.722	99.56
507.939	100.56
508.155	91.56
508.372	92.56
508.588	90.56
508.805	88.56
509.021	86.56
509.238	86.56
509.454	88.56
509.67	78.56
509.887	91.56
510.103	91.56
510.319	98.56
510.536	77.56
510.752	78.56
510.968	97.56
511.184	87.56
511.401	78.56
511.617	93.56
511.833	99.56
512.049	100.56
512.265	76.56
512.481	77.56
512.698	83.56
512.914	86.56
513.13	87.56
513.346	93.56
513.562	95.56
513.778	80.56
513.994	88.56
514.21	74.56
514.426	93.56
514.642	88.56
514.858	87.56
515.074	89.56
515.29	88.56
515.506	81.56
515.721	85.56
515.937	85.56
516.153	94.56
516.369	84.56
516.585	80.56
516.801	78.56
517.016	89.56
517.232	86.56
