Data from Location5.07152019.Energy5.Lamp.07192019.3%Agarose_HRD10591_16-03-26-628.txt Node
Date: Fri Jul 19 16:03:26 EDT 2019
User: cochatt
Spectrometer: HR+D1059
Trigger mode: 1
Integration Time (sec): 1.000000E-1
Scans to average: 1
Electric dark correction enabled: true
Nonlinearity correction enabled: false
Boxcar width: 0
XAxis mode: Wavelengths
Number of Pixels in Spectrum: 2048
>>>>>Begin Spectral Data<<<<<
223.165	-23.62
223.4	-23.62
223.635	-23.62
223.869	-14.62
224.104	-18.62
224.338	-12.62
224.573	-25.62
224.808	-4.62
225.042	-11.62
225.277	0.38
225.511	-10.62
225.746	10.38
225.98	16.38
226.215	11.38
226.449	7.38
226.683	33.38
226.918	21.38
227.152	21.38
227.387	37.38
227.621	26.38
227.856	47.38
228.09	53.38
228.324	44.38
228.559	47.38
228.793	53.38
229.027	48.38
229.262	63.38
229.496	82.38
229.73	62.38
229.964	81.38
230.199	87.38
230.433	60.38
230.667	80.38
230.901	74.38
231.136	75.38
231.37	74.38
231.604	74.38
231.838	77.38
232.072	74.38
232.306	84.38
232.541	90.38
232.775	81.38
233.009	77.38
233.243	86.38
233.477	79.38
233.711	72.38
233.945	96.38
234.179	83.38
234.413	81.38
234.647	66.38
234.881	77.38
235.115	66.38
235.349	95.38
235.583	83.38
235.817	72.38
236.051	80.38
236.285	89.38
236.519	68.38
236.753	91.38
236.987	75.38
237.221	73.38
237.455	64.38
237.689	76.38
237.922	75.38
238.156	82.38
238.39	74.38
238.624	68.38
238.858	95.38
239.091	72.38
239.325	80.38
239.559	84.38
239.793	84.38
240.027	65.38
240.26	80.38
240.494	67.38
240.728	69.38
240.961	79.38
241.195	78.38
241.429	88.38
241.662	74.38
241.896	72.38
242.13	73.38
242.363	75.38
242.597	91.38
242.83	87.38
243.064	74.38
243.298	81.38
243.531	81.38
243.765	73.38
243.998	74.38
244.232	81.38
244.465	77.38
244.699	84.38
244.932	91.38
245.166	84.38
245.399	71.38
245.633	77.38
245.866	95.38
246.099	88.38
246.333	90.38
246.566	76.38
246.8	77.38
247.033	91.38
247.266	76.38
247.5	72.38
247.733	83.38
247.966	66.38
248.2	71.38
248.433	85.38
248.666	78.38
248.899	76.38
249.133	78.38
249.366	85.38
249.599	91.38
249.832	78.38
250.066	94.38
250.299	77.38
250.532	81.38
250.765	68.38
250.998	83.38
251.231	83.38
251.465	88.38
251.698	72.38
251.931	85.38
252.164	87.38
252.397	75.38
252.63	88.38
252.863	76.38
253.096	76.38
253.329	84.38
253.562	81.38
253.795	83.38
254.028	76.38
254.261	88.38
254.494	75.38
254.727	73.38
254.96	75.38
255.193	66.38
255.426	68.38
255.659	82.38
255.892	93.38
256.124	93.38
256.357	75.38
256.59	72.38
256.823	66.38
257.056	90.38
257.289	84.38
257.521	80.38
257.754	81.38
257.987	87.38
258.22	85.38
258.452	83.38
258.685	91.38
258.918	75.38
259.151	77.38
259.383	83.38
259.616	88.38
259.849	91.38
260.081	83.38
260.314	72.38
260.547	83.38
260.779	77.38
261.012	91.38
261.244	76.38
261.477	89.38
261.71	81.38
261.942	84.38
262.175	88.38
262.407	85.38
262.64	72.38
262.872	77.38
263.105	84.38
263.337	85.38
263.57	83.38
263.802	74.38
264.035	72.38
264.267	79.38
264.499	75.38
264.732	89.38
264.964	74.38
265.197	74.38
265.429	87.38
265.661	93.38
265.894	83.38
266.126	92.38
266.358	101.38
266.591	82.38
266.823	87.38
267.055	85.38
267.287	87.38
267.52	84.38
267.752	84.38
267.984	84.38
268.216	83.38
268.448	73.38
268.681	95.38
268.913	73.38
269.145	83.38
269.377	86.38
269.609	86.38
269.841	90.38
270.073	88.38
270.306	98.38
270.538	90.38
270.77	98.38
271.002	83.38
271.234	72.38
271.466	83.38
271.698	88.38
271.93	78.38
272.162	89.38
272.394	86.38
272.626	74.38
272.858	94.38
273.09	92.38
273.322	87.38
273.553	75.38
273.785	97.38
274.017	93.38
274.249	83.38
274.481	83.38
274.713	94.38
274.945	79.38
275.176	70.38
275.408	92.38
275.64	88.38
275.872	76.38
276.104	88.38
276.335	96.38
276.567	86.38
276.799	81.38
277.031	92.38
277.262	90.38
277.494	91.38
277.726	81.38
277.957	87.38
278.189	77.38
278.421	89.38
278.652	84.38
278.884	85.38
279.115	76.38
279.347	92.38
279.579	77.38
279.81	84.38
280.042	81.38
280.273	79.38
280.505	86.38
280.736	92.38
280.968	93.38
281.199	88.38
281.431	74.38
281.662	87.38
281.894	103.38
282.125	95.38
282.356	84.38
282.588	80.38
282.819	90.38
283.051	89.38
283.282	88.38
283.513	88.38
283.745	85.38
283.976	89.38
284.207	83.38
284.439	95.38
284.67	86.38
284.901	93.38
285.132	88.38
285.364	95.38
285.595	83.38
285.826	81.38
286.057	85.38
286.288	86.38
286.52	102.38
286.751	95.38
286.982	96.38
287.213	78.38
287.444	97.38
287.675	88.38
287.906	77.38
288.138	95.38
288.369	73.38
288.6	89.38
288.831	89.38
289.062	98.38
289.293	85.38
289.524	96.38
289.755	88.38
289.986	89.38
290.217	96.38
290.448	98.38
290.679	83.38
290.91	89.38
291.141	85.38
291.371	92.38
291.602	87.38
291.833	88.38
292.064	97.38
292.295	87.38
292.526	103.38
292.757	90.38
292.987	95.38
293.218	96.38
293.449	90.38
293.68	91.38
293.91	92.38
294.141	102.38
294.372	77.38
294.603	90.38
294.833	87.38
295.064	84.38
295.295	94.38
295.525	103.38
295.756	90.38
295.987	93.38
296.217	100.38
296.448	92.38
296.679	84.38
296.909	105.38
297.14	88.38
297.37	88.38
297.601	91.38
297.831	86.38
298.062	85.38
298.292	104.38
298.523	90.38
298.753	86.38
298.984	101.38
299.214	95.38
299.445	84.38
299.675	102.38
299.905	111.38
300.136	87.38
300.366	89.38
300.597	103.38
300.827	87.38
301.057	88.38
301.288	93.38
301.518	90.38
301.748	98.38
301.979	86.38
302.209	98.38
302.439	99.38
302.669	103.38
302.9	79.38
303.13	92.38
303.36	83.38
303.59	105.38
303.82	88.38
304.051	94.38
304.281	89.38
304.511	98.38
304.741	99.38
304.971	88.38
305.201	96.38
305.431	96.38
305.661	80.38
305.891	84.38
306.121	94.38
306.352	100.38
306.582	99.38
306.812	103.38
307.042	89.38
307.272	97.38
307.502	82.38
307.731	91.38
307.961	86.38
308.191	81.38
308.421	99.38
308.651	72.38
308.881	87.38
309.111	99.38
309.341	91.38
309.571	96.38
309.8	84.38
310.03	90.38
310.26	86.38
310.49	83.38
310.72	109.38
310.949	94.38
311.179	85.38
311.409	88.38
311.639	85.38
311.868	98.38
312.098	88.38
312.328	111.38
312.557	92.38
312.787	93.38
313.017	96.38
313.246	91.38
313.476	103.38
313.706	78.38
313.935	114.38
314.165	107.38
314.394	100.38
314.624	93.38
314.853	98.38
315.083	98.38
315.312	95.38
315.542	99.38
315.771	99.38
316.001	92.38
316.23	94.38
316.46	92.38
316.689	88.38
316.919	95.38
317.148	85.38
317.377	107.38
317.607	90.38
317.836	97.38
318.065	98.38
318.295	87.38
318.524	103.38
318.753	97.38
318.983	106.38
319.212	99.38
319.441	103.38
319.67	90.38
319.9	96.38
320.129	89.38
320.358	98.38
320.587	88.38
320.816	90.38
321.046	98.38
321.275	103.38
321.504	102.38
321.733	100.38
321.962	91.38
322.191	81.38
322.42	98.38
322.649	106.38
322.878	87.38
323.108	95.38
323.337	97.38
323.566	103.38
323.795	96.38
324.024	89.38
324.253	98.38
324.482	91.38
324.71	89.38
324.939	96.38
325.168	98.38
325.397	96.38
325.626	89.38
325.855	90.38
326.084	88.38
326.313	87.38
326.542	96.38
326.77	83.38
326.999	85.38
327.228	97.38
327.457	101.38
327.686	93.38
327.914	89.38
328.143	86.38
328.372	98.38
328.6	105.38
328.829	95.38
329.058	92.38
329.287	92.38
329.515	95.38
329.744	87.38
329.972	101.38
330.201	95.38
330.43	90.38
330.658	81.38
330.887	98.38
331.115	85.38
331.344	99.38
331.572	104.38
331.801	91.38
332.03	107.38
332.258	99.38
332.486	101.38
332.715	99.38
332.943	82.38
333.172	82.38
333.4	80.38
333.629	91.38
333.857	96.38
334.085	107.38
334.314	105.38
334.542	79.38
334.771	92.38
334.999	96.38
335.227	101.38
335.455	85.38
335.684	99.38
335.912	101.38
336.14	87.38
336.369	108.38
336.597	105.38
336.825	95.38
337.053	85.38
337.281	80.38
337.51	93.38
337.738	103.38
337.966	100.38
338.194	87.38
338.422	93.38
338.65	91.38
338.878	89.38
339.106	89.38
339.334	103.38
339.562	103.38
339.79	100.38
340.018	90.38
340.246	86.38
340.474	90.38
340.702	91.38
340.93	87.38
341.158	94.38
341.386	91.38
341.614	91.38
341.842	107.38
342.07	89.38
342.298	107.38
342.526	88.38
342.754	103.38
342.981	99.38
343.209	92.38
343.437	101.38
343.665	97.38
343.893	101.38
344.12	108.38
344.348	103.38
344.576	98.38
344.804	92.38
345.031	92.38
345.259	92.38
345.487	116.38
345.714	99.38
345.942	83.38
346.17	81.38
346.397	87.38
346.625	94.38
346.853	93.38
347.08	98.38
347.308	86.38
347.535	86.38
347.763	85.38
347.99	95.38
348.218	107.38
348.445	92.38
348.673	90.38
348.9	86.38
349.128	96.38
349.355	87.38
349.583	93.38
349.81	98.38
350.037	103.38
350.265	96.38
350.492	78.38
350.72	103.38
350.947	82.38
351.174	98.38
351.402	96.38
351.629	73.38
351.856	99.38
352.083	91.38
352.311	82.38
352.538	87.38
352.765	81.38
352.992	96.38
353.22	97.38
353.447	88.38
353.674	84.38
353.901	101.38
354.128	91.38
354.355	87.38
354.583	93.38
354.81	99.38
355.037	99.38
355.264	89.38
355.491	104.38
355.718	96.38
355.945	92.38
356.172	103.38
356.399	84.38
356.626	85.38
356.853	82.38
357.08	93.38
357.307	101.38
357.534	88.38
357.761	109.38
357.988	103.38
358.215	91.38
358.441	105.38
358.668	100.38
358.895	102.38
359.122	91.38
359.349	87.38
359.576	102.38
359.802	87.38
360.029	86.38
360.256	99.38
360.483	88.38
360.709	83.38
360.936	95.38
361.163	95.38
361.39	90.38
361.616	97.38
361.843	92.38
362.07	70.38
362.296	81.38
362.523	103.38
362.749	101.38
362.976	89.38
363.203	95.38
363.429	89.38
363.656	114.38
363.882	94.38
364.109	99.38
364.335	97.38
364.562	94.38
364.788	95.38
365.015	89.38
365.241	90.38
365.468	102.38
365.694	99.38
365.92	84.38
366.147	95.38
366.373	92.38
366.599	95.38
366.826	97.38
367.052	96.38
367.278	93.38
367.505	109.38
367.731	77.38
367.957	85.38
368.184	113.38
368.41	105.38
368.636	85.38
368.862	102.38
369.089	85.38
369.315	101.38
369.541	104.38
369.767	95.38
369.993	85.38
370.219	96.38
370.445	96.38
370.672	87.38
370.898	90.38
371.124	97.38
371.35	101.38
371.576	104.38
371.802	84.38
372.028	88.38
372.254	93.38
372.48	90.38
372.706	97.38
372.932	100.38
373.158	95.38
373.384	95.38
373.61	97.38
373.835	86.38
374.061	92.38
374.287	104.38
374.513	95.38
374.739	77.38
374.965	106.38
375.191	94.38
375.416	90.38
375.642	98.38
375.868	89.38
376.094	93.38
376.319	81.38
376.545	88.38
376.771	103.38
376.997	91.38
377.222	95.38
377.448	102.38
377.674	97.38
377.899	93.38
378.125	88.38
378.35	102.38
378.576	92.38
378.802	99.38
379.027	100.38
379.253	97.38
379.478	84.38
379.704	85.38
379.929	96.38
380.155	84.38
380.38	95.38
380.606	83.38
380.831	82.38
381.057	100.38
381.282	95.38
381.507	90.38
381.733	90.38
381.958	87.38
382.184	84.38
382.409	92.38
382.634	93.38
382.86	93.38
383.085	102.38
383.31	97.38
383.535	111.38
383.761	88.38
383.986	93.38
384.211	104.38
384.436	92.38
384.662	93.38
384.887	98.38
385.112	104.38
385.337	91.38
385.562	95.38
385.787	104.38
386.013	100.38
386.238	98.38
386.463	105.38
386.688	103.38
386.913	101.38
387.138	86.38
387.363	81.38
387.588	91.38
387.813	96.38
388.038	79.38
388.263	89.38
388.488	91.38
388.713	93.38
388.938	92.38
389.163	99.38
389.387	91.38
389.612	90.38
389.837	92.38
390.062	97.38
390.287	103.38
390.512	91.38
390.736	93.38
390.961	83.38
391.186	102.38
391.411	107.38
391.636	106.38
391.86	98.38
392.085	101.38
392.31	104.38
392.534	98.38
392.759	95.38
392.984	88.38
393.208	114.38
393.433	106.38
393.658	99.38
393.882	89.38
394.107	101.38
394.331	108.38
394.556	101.38
394.78	96.38
395.005	99.38
395.229	93.38
395.454	101.38
395.678	90.38
395.903	94.38
396.127	105.38
396.352	93.38
396.576	98.38
396.801	85.38
397.025	103.38
397.249	100.38
397.474	105.38
397.698	100.38
397.922	97.38
398.147	99.38
398.371	112.38
398.595	97.38
398.82	95.38
399.044	90.38
399.268	104.38
399.492	115.38
399.717	112.38
399.941	109.38
400.165	103.38
400.389	115.38
400.613	102.38
400.837	105.38
401.062	103.38
401.286	98.38
401.51	105.38
401.734	98.38
401.958	105.38
402.182	105.38
402.406	90.38
402.63	100.38
402.854	104.38
403.078	105.38
403.302	101.38
403.526	101.38
403.75	100.38
403.974	114.38
404.198	104.38
404.422	111.38
404.645	104.38
404.869	118.38
405.093	100.38
405.317	94.38
405.541	88.38
405.765	101.38
405.988	104.38
406.212	109.38
406.436	91.38
406.66	99.38
406.883	112.38
407.107	91.38
407.331	100.38
407.555	112.38
407.778	109.38
408.002	107.38
408.226	113.38
408.449	111.38
408.673	92.38
408.896	91.38
409.12	84.38
409.344	113.38
409.567	100.38
409.791	105.38
410.014	98.38
410.238	104.38
410.461	103.38
410.685	89.38
410.908	106.38
411.132	97.38
411.355	116.38
411.578	103.38
411.802	84.38
412.025	106.38
412.249	104.38
412.472	103.38
412.695	101.38
412.919	106.38
413.142	89.38
413.365	103.38
413.589	104.38
413.812	85.38
414.035	96.38
414.258	82.38
414.482	102.38
414.705	100.38
414.928	96.38
415.151	113.38
415.374	89.38
415.597	106.38
415.821	97.38
416.044	115.38
416.267	108.38
416.49	93.38
416.713	90.38
416.936	107.38
417.159	88.38
417.382	101.38
417.605	90.38
417.828	105.38
418.051	85.38
418.274	93.38
418.497	113.38
418.72	102.38
418.943	97.38
419.166	112.38
419.389	111.38
419.611	101.38
419.834	97.38
420.057	91.38
420.28	100.38
420.503	91.38
420.726	95.38
420.948	106.38
421.171	99.38
421.394	92.38
421.617	110.38
421.839	103.38
422.062	96.38
422.285	92.38
422.507	93.38
422.73	105.38
422.953	100.38
423.175	95.38
423.398	87.38
423.621	104.38
423.843	100.38
424.066	101.38
424.288	91.38
424.511	91.38
424.733	89.38
424.956	92.38
425.178	98.38
425.401	112.38
425.623	107.38
425.846	94.38
426.068	85.38
426.291	104.38
426.513	77.38
426.735	108.38
426.958	102.38
427.18	94.38
427.402	98.38
427.625	100.38
427.847	103.38
428.069	100.38
428.292	94.38
428.514	77.38
428.736	97.38
428.958	86.38
429.181	98.38
429.403	102.38
429.625	93.38
429.847	100.38
430.069	91.38
430.292	101.38
430.514	91.38
430.736	94.38
430.958	87.38
431.18	90.38
431.402	96.38
431.624	92.38
431.846	103.38
432.068	100.38
432.29	97.38
432.512	103.38
432.734	92.38
432.956	93.38
433.178	91.38
433.4	100.38
433.622	86.38
433.844	97.38
434.066	96.38
434.287	87.38
434.509	96.38
434.731	92.38
434.953	95.38
435.175	110.38
435.397	92.38
435.618	108.38
435.84	97.38
436.062	104.38
436.284	88.38
436.505	83.38
436.727	91.38
436.949	104.38
437.17	99.38
437.392	96.38
437.614	94.38
437.835	102.38
438.057	101.38
438.278	86.38
438.5	92.38
438.721	105.38
438.943	98.38
439.165	96.38
439.386	85.38
439.608	89.38
439.829	93.38
440.05	93.38
440.272	103.38
440.493	91.38
440.715	108.38
440.936	96.38
441.158	88.38
441.379	105.38
441.6	104.38
441.822	94.38
442.043	96.38
442.264	85.38
442.486	97.38
442.707	93.38
442.928	102.38
443.149	101.38
443.371	98.38
443.592	98.38
443.813	95.38
444.034	100.38
444.255	91.38
444.476	98.38
444.698	104.38
444.919	98.38
445.14	220.38
445.361	149.38
445.582	97.38
445.803	104.38
446.024	98.38
446.245	97.38
446.466	97.38
446.687	97.38
446.908	92.38
447.129	101.38
447.35	89.38
447.571	83.38
447.792	94.38
448.013	91.38
448.234	93.38
448.455	91.38
448.675	88.38
448.896	76.38
449.117	101.38
449.338	90.38
449.559	86.38
449.779	102.38
450	107.38
450.221	89.38
450.442	100.38
450.662	98.38
450.883	91.38
451.104	100.38
451.324	104.38
451.545	110.38
451.766	99.38
451.986	93.38
452.207	101.38
452.428	91.38
452.648	95.38
452.869	106.38
453.089	86.38
453.31	86.38
453.53	91.38
453.751	92.38
453.971	88.38
454.192	82.38
454.412	93.38
454.633	91.38
454.853	86.38
455.073	91.38
455.294	95.38
455.514	94.38
455.734	103.38
455.955	100.38
456.175	92.38
456.395	107.38
456.616	89.38
456.836	107.38
457.056	85.38
457.276	79.38
457.497	83.38
457.717	93.38
457.937	102.38
458.157	89.38
458.377	91.38
458.598	98.38
458.818	87.38
459.038	104.38
459.258	110.38
459.478	81.38
459.698	86.38
459.918	95.38
460.138	99.38
460.358	98.38
460.578	106.38
460.798	81.38
461.018	108.38
461.238	104.38
461.458	117.38
461.678	90.38
461.898	106.38
462.118	88.38
462.338	89.38
462.558	111.38
462.777	99.38
462.997	101.38
463.217	106.38
463.437	98.38
463.657	111.38
463.876	96.38
464.096	111.38
464.316	108.38
464.536	88.38
464.755	113.38
464.975	97.38
465.195	105.38
465.414	108.38
465.634	100.38
465.854	83.38
466.073	92.38
466.293	105.38
466.512	114.38
466.732	110.38
466.951	107.38
467.171	118.38
467.391	109.38
467.61	95.38
467.829	98.38
468.049	93.38
468.268	111.38
468.488	82.38
468.707	83.38
468.927	90.38
469.146	93.38
469.365	112.38
469.585	95.38
469.804	117.38
470.023	101.38
470.243	88.38
470.462	106.38
470.681	106.38
470.901	103.38
471.12	111.38
471.339	94.38
471.558	110.38
471.777	92.38
471.997	101.38
472.216	96.38
472.435	100.38
472.654	88.38
472.873	104.38
473.092	106.38
473.311	105.38
473.53	98.38
473.749	85.38
473.968	99.38
474.187	88.38
474.406	89.38
474.625	85.38
474.844	103.38
475.063	96.38
475.282	103.38
475.501	93.38
475.72	100.38
475.939	118.38
476.158	109.38
476.377	102.38
476.596	84.38
476.814	109.38
477.033	111.38
477.252	96.38
477.471	103.38
477.69	107.38
477.908	108.38
478.127	112.38
478.346	109.38
478.564	115.38
478.783	91.38
479.002	97.38
479.22	101.38
479.439	106.38
479.658	122.38
479.876	98.38
480.095	104.38
480.313	113.38
480.532	111.38
480.751	115.38
480.969	103.38
481.188	105.38
481.406	99.38
481.624	100.38
481.843	99.38
482.061	100.38
482.28	100.38
482.498	96.38
482.717	122.38
482.935	95.38
483.153	114.38
483.372	96.38
483.59	109.38
483.808	101.38
484.027	98.38
484.245	114.38
484.463	106.38
484.681	115.38
484.9	103.38
485.118	112.38
485.336	121.38
485.554	112.38
485.772	108.38
485.99	101.38
486.209	105.38
486.427	96.38
486.645	96.38
486.863	114.38
487.081	106.38
487.299	111.38
487.517	112.38
487.735	107.38
487.953	101.38
488.171	118.38
488.389	104.38
488.607	107.38
488.825	94.38
489.043	92.38
489.261	116.38
489.479	104.38
489.696	93.38
489.914	117.38
490.132	115.38
490.35	105.38
490.568	126.38
490.786	115.38
491.003	115.38
491.221	104.38
491.439	115.38
491.657	105.38
491.874	111.38
492.092	111.38
492.31	116.38
492.527	131.38
492.745	126.38
492.963	116.38
493.18	123.38
493.398	127.38
493.615	105.38
493.833	111.38
494.05	113.38
494.268	109.38
494.485	115.38
494.703	132.38
494.92	115.38
495.138	105.38
495.355	112.38
495.573	128.38
495.79	114.38
496.008	105.38
496.225	115.38
496.442	112.38
496.66	125.38
496.877	123.38
497.094	128.38
497.312	117.38
497.529	119.38
497.746	119.38
497.963	101.38
498.181	117.38
498.398	117.38
498.615	136.38
498.832	131.38
499.049	113.38
499.267	125.38
499.484	123.38
499.701	148.38
499.918	139.38
500.135	161.38
500.352	155.38
500.569	157.38
500.786	171.38
501.003	161.38
501.22	137.38
501.437	138.38
501.654	139.38
501.871	122.38
502.088	129.38
502.305	115.38
502.522	117.38
502.739	113.38
502.956	122.38
503.172	111.38
503.389	127.38
503.606	106.38
503.823	117.38
504.04	121.38
504.256	112.38
504.473	109.38
504.69	113.38
504.907	127.38
505.123	97.38
505.34	98.38
505.557	117.38
505.773	128.38
505.99	100.38
506.207	102.38
506.423	98.38
506.64	100.38
506.856	106.38
507.073	108.38
507.289	108.38
507.506	111.38
507.722	97.38
507.939	104.38
508.155	111.38
508.372	100.38
508.588	113.38
508.805	110.38
509.021	103.38
509.238	103.38
509.454	111.38
509.67	108.38
509.887	91.38
510.103	111.38
510.319	103.38
510.536	99.38
510.752	98.38
510.968	106.38
511.184	98.38
511.401	98.38
511.617	109.38
511.833	112.38
512.049	117.38
512.265	97.38
512.481	105.38
512.698	109.38
512.914	96.38
513.13	108.38
513.346	85.38
