Data from Location5.07152019.Energy5.Lamp.07192019.3%Agarose_HRD10591_16-03-21-628.txt Node
Date: Fri Jul 19 16:03:21 EDT 2019
User: cochatt
Spectrometer: HR+D1059
Trigger mode: 1
Integration Time (sec): 1.000000E-1
Scans to average: 1
Electric dark correction enabled: true
Nonlinearity correction enabled: false
Boxcar width: 0
XAxis mode: Wavelengths
Number of Pixels in Spectrum: 2048
>>>>>Begin Spectral Data<<<<<
223.165	-25.44
223.4	-25.44
223.635	-25.44
223.869	-8.44
224.104	-17.44
224.338	-5.44
224.573	-18.44
224.808	-8.44
225.042	-12.44
225.277	-4.44
225.511	-2.44
225.746	5.56
225.98	-2.44
226.215	9.56
226.449	8.56
226.683	25.56
226.918	19.56
227.152	36.56
227.387	23.56
227.621	33.56
227.856	36.56
228.09	53.56
228.324	31.56
228.559	61.56
228.793	55.56
229.027	56.56
229.262	63.56
229.496	55.56
229.73	73.56
229.964	58.56
230.199	63.56
230.433	58.56
230.667	76.56
230.901	69.56
231.136	82.56
231.37	87.56
231.604	78.56
231.838	81.56
232.072	72.56
232.306	81.56
232.541	76.56
232.775	80.56
233.009	77.56
233.243	79.56
233.477	81.56
233.711	72.56
233.945	83.56
234.179	80.56
234.413	73.56
234.647	88.56
234.881	90.56
235.115	73.56
235.349	75.56
235.583	63.56
235.817	80.56
236.051	86.56
236.285	48.56
236.519	97.56
236.753	82.56
236.987	71.56
237.221	83.56
237.455	84.56
237.689	88.56
237.922	81.56
238.156	69.56
238.39	62.56
238.624	93.56
238.858	62.56
239.091	73.56
239.325	69.56
239.559	65.56
239.793	78.56
240.027	69.56
240.26	78.56
240.494	68.56
240.728	85.56
240.961	75.56
241.195	80.56
241.429	70.56
241.662	82.56
241.896	64.56
242.13	79.56
242.363	67.56
242.597	74.56
242.83	91.56
243.064	72.56
243.298	85.56
243.531	76.56
243.765	83.56
243.998	86.56
244.232	82.56
244.465	84.56
244.699	81.56
244.932	76.56
245.166	78.56
245.399	72.56
245.633	65.56
245.866	84.56
246.099	71.56
246.333	71.56
246.566	89.56
246.8	88.56
247.033	62.56
247.266	66.56
247.5	72.56
247.733	61.56
247.966	74.56
248.2	85.56
248.433	79.56
248.666	77.56
248.899	70.56
249.133	89.56
249.366	71.56
249.599	70.56
249.832	85.56
250.066	69.56
250.299	76.56
250.532	93.56
250.765	83.56
250.998	76.56
251.231	83.56
251.465	90.56
251.698	82.56
251.931	80.56
252.164	74.56
252.397	77.56
252.63	83.56
252.863	80.56
253.096	71.56
253.329	78.56
253.562	73.56
253.795	81.56
254.028	76.56
254.261	66.56
254.494	79.56
254.727	85.56
254.96	81.56
255.193	74.56
255.426	70.56
255.659	83.56
255.892	96.56
256.124	72.56
256.357	76.56
256.59	71.56
256.823	71.56
257.056	66.56
257.289	81.56
257.521	80.56
257.754	80.56
257.987	75.56
258.22	71.56
258.452	81.56
258.685	92.56
258.918	82.56
259.151	80.56
259.383	78.56
259.616	67.56
259.849	84.56
260.081	90.56
260.314	81.56
260.547	70.56
260.779	79.56
261.012	82.56
261.244	88.56
261.477	84.56
261.71	79.56
261.942	79.56
262.175	80.56
262.407	71.56
262.64	82.56
262.872	82.56
263.105	85.56
263.337	88.56
263.57	89.56
263.802	90.56
264.035	87.56
264.267	77.56
264.499	84.56
264.732	87.56
264.964	86.56
265.197	84.56
265.429	68.56
265.661	78.56
265.894	65.56
266.126	81.56
266.358	94.56
266.591	91.56
266.823	83.56
267.055	79.56
267.287	78.56
267.52	89.56
267.752	84.56
267.984	83.56
268.216	85.56
268.448	84.56
268.681	92.56
268.913	82.56
269.145	72.56
269.377	101.56
269.609	77.56
269.841	73.56
270.073	82.56
270.306	67.56
270.538	77.56
270.77	76.56
271.002	88.56
271.234	81.56
271.466	82.56
271.698	73.56
271.93	80.56
272.162	81.56
272.394	81.56
272.626	73.56
272.858	86.56
273.09	80.56
273.322	69.56
273.553	90.56
273.785	90.56
274.017	83.56
274.249	89.56
274.481	79.56
274.713	95.56
274.945	91.56
275.176	88.56
275.408	85.56
275.64	74.56
275.872	94.56
276.104	91.56
276.335	87.56
276.567	82.56
276.799	75.56
277.031	86.56
277.262	82.56
277.494	88.56
277.726	92.56
277.957	87.56
278.189	86.56
278.421	80.56
278.652	93.56
278.884	99.56
279.115	83.56
279.347	94.56
279.579	81.56
279.81	92.56
280.042	94.56
280.273	77.56
280.505	86.56
280.736	89.56
280.968	85.56
281.199	81.56
281.431	79.56
281.662	87.56
281.894	85.56
282.125	98.56
282.356	90.56
282.588	99.56
282.819	91.56
283.051	83.56
283.282	95.56
283.513	95.56
283.745	89.56
283.976	93.56
284.207	108.56
284.439	95.56
284.67	79.56
284.901	88.56
285.132	94.56
285.364	90.56
285.595	98.56
285.826	82.56
286.057	95.56
286.288	78.56
286.52	88.56
286.751	90.56
286.982	91.56
287.213	88.56
287.444	80.56
287.675	82.56
287.906	88.56
288.138	100.56
288.369	80.56
288.6	87.56
288.831	71.56
289.062	66.56
289.293	81.56
289.524	105.56
289.755	88.56
289.986	102.56
290.217	73.56
290.448	90.56
290.679	100.56
290.91	83.56
291.141	88.56
291.371	99.56
291.602	80.56
291.833	76.56
292.064	88.56
292.295	91.56
292.526	88.56
292.757	91.56
292.987	85.56
293.218	95.56
293.449	93.56
293.68	77.56
293.91	94.56
294.141	100.56
294.372	89.56
294.603	78.56
294.833	97.56
295.064	99.56
295.295	97.56
295.525	92.56
295.756	78.56
295.987	86.56
296.217	92.56
296.448	88.56
296.679	89.56
296.909	99.56
297.14	100.56
297.37	78.56
297.601	96.56
297.831	81.56
298.062	104.56
298.292	64.56
298.523	96.56
298.753	99.56
298.984	92.56
299.214	80.56
299.445	90.56
299.675	93.56
299.905	94.56
300.136	89.56
300.366	73.56
300.597	84.56
300.827	92.56
301.057	90.56
301.288	103.56
301.518	91.56
301.748	75.56
301.979	104.56
302.209	95.56
302.439	90.56
302.669	90.56
302.9	83.56
303.13	89.56
303.36	89.56
303.59	89.56
303.82	88.56
304.051	82.56
304.281	84.56
304.511	85.56
304.741	95.56
304.971	86.56
305.201	101.56
305.431	89.56
305.661	98.56
305.891	97.56
306.121	89.56
306.352	83.56
306.582	82.56
306.812	94.56
307.042	98.56
307.272	92.56
307.502	77.56
307.731	84.56
307.961	95.56
308.191	83.56
308.421	89.56
308.651	88.56
308.881	91.56
309.111	88.56
309.341	75.56
309.571	91.56
309.8	88.56
310.03	101.56
310.26	89.56
310.49	91.56
310.72	94.56
310.949	100.56
311.179	103.56
311.409	101.56
311.639	97.56
311.868	83.56
312.098	81.56
312.328	76.56
312.557	98.56
312.787	90.56
313.017	104.56
313.246	103.56
313.476	88.56
313.706	97.56
313.935	92.56
314.165	80.56
314.394	97.56
314.624	95.56
314.853	88.56
315.083	81.56
315.312	90.56
315.542	78.56
315.771	88.56
316.001	80.56
316.23	89.56
316.46	85.56
316.689	109.56
316.919	85.56
317.148	83.56
317.377	85.56
317.607	81.56
317.836	97.56
318.065	90.56
318.295	87.56
318.524	94.56
318.753	90.56
318.983	91.56
319.212	87.56
319.441	86.56
319.67	88.56
319.9	102.56
320.129	80.56
320.358	86.56
320.587	104.56
320.816	73.56
321.046	85.56
321.275	72.56
321.504	79.56
321.733	87.56
321.962	81.56
322.191	100.56
322.42	86.56
322.649	96.56
322.878	95.56
323.108	92.56
323.337	89.56
323.566	99.56
323.795	93.56
324.024	90.56
324.253	93.56
324.482	96.56
324.71	98.56
324.939	99.56
325.168	93.56
325.397	95.56
325.626	92.56
325.855	86.56
326.084	94.56
326.313	86.56
326.542	99.56
326.77	93.56
326.999	96.56
327.228	91.56
327.457	103.56
327.686	99.56
327.914	87.56
328.143	100.56
328.372	85.56
328.6	81.56
328.829	91.56
329.058	87.56
329.287	88.56
329.515	88.56
329.744	100.56
329.972	77.56
330.201	94.56
330.43	96.56
330.658	97.56
330.887	80.56
331.115	88.56
331.344	93.56
331.572	109.56
331.801	86.56
332.03	89.56
332.258	97.56
332.486	89.56
332.715	95.56
332.943	98.56
333.172	90.56
333.4	93.56
333.629	105.56
333.857	94.56
334.085	111.56
334.314	75.56
334.542	100.56
334.771	97.56
334.999	100.56
335.227	82.56
335.455	89.56
335.684	93.56
335.912	88.56
336.14	92.56
336.369	103.56
336.597	79.56
336.825	100.56
337.053	93.56
337.281	90.56
337.51	107.56
337.738	97.56
337.966	97.56
338.194	104.56
338.422	89.56
338.65	85.56
338.878	105.56
339.106	94.56
339.334	93.56
339.562	81.56
339.79	78.56
340.018	93.56
340.246	83.56
340.474	91.56
340.702	109.56
340.93	90.56
341.158	90.56
341.386	85.56
341.614	85.56
341.842	89.56
342.07	96.56
342.298	91.56
342.526	109.56
342.754	91.56
342.981	89.56
343.209	78.56
343.437	87.56
343.665	89.56
343.893	90.56
344.12	97.56
344.348	98.56
344.576	93.56
344.804	95.56
345.031	111.56
345.259	94.56
345.487	96.56
345.714	92.56
345.942	88.56
346.17	99.56
346.397	93.56
346.625	74.56
346.853	92.56
347.08	77.56
347.308	80.56
347.535	94.56
347.763	90.56
347.99	80.56
348.218	90.56
348.445	91.56
348.673	99.56
348.9	80.56
349.128	103.56
349.355	96.56
349.583	83.56
349.81	81.56
350.037	104.56
350.265	104.56
350.492	88.56
350.72	96.56
350.947	89.56
351.174	90.56
351.402	84.56
351.629	79.56
351.856	93.56
352.083	74.56
352.311	89.56
352.538	94.56
352.765	87.56
352.992	79.56
353.22	96.56
353.447	87.56
353.674	92.56
353.901	83.56
354.128	87.56
354.355	83.56
354.583	88.56
354.81	101.56
355.037	91.56
355.264	94.56
355.491	92.56
355.718	72.56
355.945	84.56
356.172	86.56
356.399	80.56
356.626	95.56
356.853	93.56
357.08	78.56
357.307	96.56
357.534	94.56
357.761	91.56
357.988	95.56
358.215	97.56
358.441	98.56
358.668	90.56
358.895	83.56
359.122	86.56
359.349	87.56
359.576	92.56
359.802	94.56
360.029	81.56
360.256	77.56
360.483	91.56
360.709	97.56
360.936	98.56
361.163	100.56
361.39	85.56
361.616	89.56
361.843	88.56
362.07	88.56
362.296	97.56
362.523	109.56
362.749	96.56
362.976	88.56
363.203	95.56
363.429	98.56
363.656	91.56
363.882	80.56
364.109	86.56
364.335	96.56
364.562	84.56
364.788	87.56
365.015	98.56
365.241	95.56
365.468	82.56
365.694	90.56
365.92	92.56
366.147	88.56
366.373	100.56
366.599	82.56
366.826	90.56
367.052	83.56
367.278	80.56
367.505	85.56
367.731	83.56
367.957	88.56
368.184	78.56
368.41	95.56
368.636	99.56
368.862	86.56
369.089	85.56
369.315	97.56
369.541	95.56
369.767	94.56
369.993	76.56
370.219	89.56
370.445	80.56
370.672	89.56
370.898	92.56
371.124	89.56
371.35	93.56
371.576	91.56
371.802	89.56
372.028	97.56
372.254	93.56
372.48	90.56
372.706	83.56
372.932	83.56
373.158	92.56
373.384	87.56
373.61	89.56
373.835	86.56
374.061	92.56
374.287	92.56
374.513	93.56
374.739	79.56
374.965	77.56
375.191	90.56
375.416	96.56
375.642	93.56
375.868	83.56
376.094	104.56
376.319	88.56
376.545	97.56
376.771	87.56
376.997	97.56
377.222	95.56
377.448	85.56
377.674	99.56
377.899	89.56
378.125	91.56
378.35	87.56
378.576	95.56
378.802	93.56
379.027	90.56
379.253	95.56
379.478	92.56
379.704	94.56
379.929	87.56
380.155	93.56
380.38	103.56
380.606	94.56
380.831	94.56
381.057	95.56
381.282	94.56
381.507	89.56
381.733	95.56
381.958	97.56
382.184	96.56
382.409	98.56
382.634	94.56
382.86	92.56
383.085	111.56
383.31	85.56
383.535	93.56
383.761	99.56
383.986	94.56
384.211	72.56
384.436	85.56
384.662	85.56
384.887	73.56
385.112	89.56
385.337	90.56
385.562	88.56
385.787	89.56
386.013	84.56
386.238	83.56
386.463	97.56
386.688	81.56
386.913	86.56
387.138	83.56
387.363	94.56
387.588	97.56
387.813	86.56
388.038	79.56
388.263	100.56
388.488	79.56
388.713	91.56
388.938	98.56
389.163	105.56
389.387	97.56
389.612	113.56
389.837	86.56
390.062	105.56
390.287	90.56
390.512	99.56
390.736	87.56
390.961	99.56
391.186	90.56
391.411	90.56
391.636	82.56
391.86	97.56
392.085	84.56
392.31	83.56
392.534	90.56
392.759	87.56
392.984	86.56
393.208	93.56
393.433	86.56
393.658	86.56
393.882	98.56
394.107	96.56
394.331	83.56
394.556	72.56
394.78	79.56
395.005	85.56
395.229	81.56
395.454	93.56
395.678	83.56
395.903	102.56
396.127	103.56
396.352	89.56
396.576	97.56
396.801	82.56
397.025	93.56
397.249	88.56
397.474	96.56
397.698	79.56
397.922	105.56
398.147	101.56
398.371	90.56
398.595	103.56
398.82	91.56
399.044	96.56
399.268	104.56
399.492	95.56
399.717	100.56
399.941	102.56
400.165	90.56
400.389	92.56
400.613	97.56
400.837	96.56
401.062	96.56
401.286	100.56
401.51	88.56
401.734	74.56
401.958	96.56
402.182	116.56
402.406	88.56
402.63	89.56
402.854	102.56
403.078	96.56
403.302	103.56
403.526	100.56
403.75	105.56
403.974	106.56
404.198	96.56
404.422	96.56
404.645	108.56
404.869	98.56
405.093	91.56
405.317	98.56
405.541	87.56
405.765	111.56
405.988	94.56
406.212	119.56
406.436	101.56
406.66	99.56
406.883	99.56
407.107	94.56
407.331	116.56
407.555	101.56
407.778	100.56
408.002	96.56
408.226	88.56
408.449	96.56
408.673	102.56
408.896	96.56
409.12	103.56
409.344	81.56
409.567	87.56
409.791	92.56
410.014	97.56
410.238	94.56
410.461	94.56
410.685	98.56
410.908	95.56
411.132	97.56
411.355	98.56
411.578	110.56
411.802	83.56
412.025	69.56
412.249	102.56
412.472	84.56
412.695	106.56
412.919	90.56
413.142	114.56
413.365	101.56
413.589	107.56
413.812	90.56
414.035	105.56
414.258	89.56
414.482	91.56
414.705	85.56
414.928	94.56
415.151	93.56
415.374	81.56
415.597	89.56
415.821	89.56
416.044	99.56
416.267	104.56
416.49	97.56
416.713	85.56
416.936	90.56
417.159	92.56
417.382	98.56
417.605	90.56
417.828	90.56
418.051	106.56
418.274	97.56
418.497	93.56
418.72	94.56
418.943	85.56
419.166	99.56
419.389	95.56
419.611	97.56
419.834	98.56
420.057	96.56
420.28	87.56
420.503	73.56
420.726	99.56
420.948	88.56
421.171	94.56
421.394	88.56
421.617	77.56
421.839	93.56
422.062	82.56
422.285	87.56
422.507	101.56
422.73	95.56
422.953	96.56
423.175	88.56
423.398	100.56
423.621	86.56
423.843	91.56
424.066	92.56
424.288	109.56
424.511	119.56
424.733	115.56
424.956	107.56
425.178	93.56
425.401	96.56
425.623	95.56
425.846	85.56
426.068	95.56
426.291	107.56
426.513	73.56
426.735	96.56
426.958	107.56
427.18	85.56
427.402	82.56
427.625	88.56
427.847	84.56
428.069	96.56
428.292	120.56
428.514	99.56
428.736	98.56
428.958	98.56
429.181	90.56
429.403	90.56
429.625	98.56
429.847	79.56
430.069	92.56
430.292	102.56
430.514	102.56
430.736	93.56
430.958	110.56
431.18	94.56
431.402	96.56
431.624	97.56
431.846	96.56
432.068	97.56
432.29	93.56
432.512	104.56
432.734	98.56
432.956	110.56
433.178	95.56
433.4	88.56
433.622	104.56
433.844	103.56
434.066	94.56
434.287	91.56
434.509	106.56
434.731	91.56
434.953	99.56
435.175	97.56
435.397	99.56
435.618	101.56
435.84	97.56
436.062	96.56
436.284	98.56
436.505	106.56
436.727	93.56
436.949	81.56
437.17	92.56
437.392	82.56
437.614	112.56
437.835	86.56
438.057	93.56
438.278	95.56
438.5	101.56
438.721	92.56
438.943	99.56
439.165	96.56
439.386	97.56
439.608	93.56
439.829	98.56
440.05	102.56
440.272	88.56
440.493	91.56
440.715	81.56
440.936	96.56
441.158	91.56
441.379	98.56
441.6	95.56
441.822	103.56
442.043	78.56
442.264	93.56
442.486	97.56
442.707	103.56
442.928	109.56
443.149	101.56
443.371	95.56
443.592	104.56
443.813	87.56
444.034	98.56
444.255	89.56
444.476	103.56
444.698	91.56
444.919	103.56
445.14	203.56
445.361	159.56
445.582	114.56
445.803	104.56
446.024	98.56
446.245	106.56
446.466	97.56
446.687	95.56
446.908	86.56
447.129	103.56
447.35	95.56
447.571	72.56
447.792	86.56
448.013	94.56
448.234	84.56
448.455	102.56
448.675	102.56
448.896	80.56
449.117	93.56
449.338	87.56
449.559	94.56
449.779	101.56
450	99.56
450.221	91.56
450.442	105.56
450.662	102.56
450.883	99.56
451.104	85.56
451.324	97.56
451.545	98.56
451.766	88.56
451.986	88.56
452.207	90.56
452.428	94.56
452.648	79.56
452.869	93.56
453.089	101.56
453.31	109.56
453.53	85.56
453.751	99.56
453.971	95.56
454.192	101.56
454.412	87.56
454.633	88.56
454.853	99.56
455.073	97.56
455.294	87.56
455.514	88.56
455.734	87.56
455.955	90.56
456.175	89.56
456.395	65.56
456.616	88.56
456.836	90.56
457.056	90.56
457.276	90.56
457.497	91.56
457.717	87.56
457.937	93.56
458.157	89.56
458.377	98.56
458.598	94.56
458.818	92.56
459.038	92.56
459.258	98.56
459.478	113.56
459.698	91.56
459.918	91.56
460.138	100.56
460.358	98.56
460.578	105.56
460.798	106.56
461.018	96.56
461.238	96.56
461.458	95.56
461.678	92.56
461.898	104.56
462.118	96.56
462.338	99.56
462.558	95.56
462.777	97.56
462.997	104.56
463.217	122.56
463.437	111.56
463.657	97.56
463.876	104.56
464.096	89.56
464.316	116.56
464.536	104.56
464.755	125.56
464.975	116.56
465.195	103.56
465.414	93.56
465.634	101.56
465.854	93.56
466.073	106.56
466.293	101.56
466.512	100.56
466.732	109.56
466.951	94.56
467.171	73.56
467.391	85.56
467.61	102.56
467.829	100.56
468.049	109.56
468.268	90.56
468.488	91.56
468.707	91.56
468.927	86.56
469.146	94.56
469.365	83.56
469.585	95.56
469.804	99.56
470.023	99.56
470.243	93.56
470.462	103.56
470.681	95.56
470.901	102.56
471.12	103.56
471.339	101.56
471.558	81.56
471.777	91.56
471.997	88.56
472.216	99.56
472.435	91.56
472.654	87.56
472.873	102.56
473.092	100.56
473.311	102.56
473.53	89.56
473.749	97.56
473.968	94.56
474.187	87.56
474.406	86.56
474.625	115.56
474.844	103.56
475.063	102.56
475.282	94.56
475.501	99.56
475.72	93.56
475.939	88.56
476.158	111.56
476.377	93.56
476.596	87.56
476.814	94.56
477.033	107.56
477.252	97.56
477.471	98.56
477.69	89.56
477.908	91.56
478.127	100.56
478.346	95.56
478.564	121.56
478.783	108.56
479.002	97.56
479.22	95.56
479.439	107.56
479.658	105.56
479.876	98.56
480.095	103.56
480.313	103.56
480.532	101.56
480.751	94.56
480.969	86.56
481.188	94.56
481.406	100.56
481.624	114.56
481.843	91.56
482.061	105.56
482.28	97.56
482.498	104.56
482.717	89.56
482.935	101.56
483.153	114.56
483.372	89.56
483.59	99.56
483.808	104.56
484.027	103.56
484.245	105.56
484.463	109.56
484.681	102.56
484.9	111.56
485.118	117.56
485.336	109.56
485.554	94.56
485.772	97.56
485.99	94.56
486.209	93.56
486.427	101.56
486.645	109.56
486.863	121.56
487.081	105.56
487.299	99.56
487.517	116.56
487.735	90.56
487.953	106.56
488.171	112.56
488.389	102.56
488.607	99.56
488.825	105.56
489.043	94.56
489.261	103.56
489.479	125.56
489.696	105.56
489.914	95.56
490.132	95.56
490.35	121.56
490.568	109.56
490.786	95.56
491.003	97.56
491.221	118.56
491.439	119.56
491.657	104.56
491.874	107.56
492.092	109.56
492.31	123.56
492.527	127.56
492.745	99.56
492.963	119.56
493.18	99.56
493.398	113.56
493.615	118.56
493.833	111.56
494.05	113.56
494.268	125.56
494.485	120.56
494.703	117.56
494.92	111.56
495.138	104.56
495.355	99.56
495.573	103.56
495.79	90.56
496.008	112.56
496.225	102.56
496.442	123.56
496.66	111.56
496.877	111.56
497.094	107.56
497.312	119.56
497.529	116.56
497.746	106.56
497.963	103.56
498.181	115.56
498.398	107.56
498.615	119.56
498.832	127.56
499.049	124.56
499.267	138.56
499.484	127.56
499.701	127.56
499.918	133.56
500.135	151.56
500.352	146.56
500.569	158.56
500.786	165.56
501.003	165.56
501.22	140.56
501.437	136.56
501.654	123.56
501.871	124.56
502.088	115.56
502.305	130.56
502.522	117.56
502.739	113.56
502.956	118.56
503.172	103.56
503.389	108.56
503.606	98.56
503.823	111.56
504.04	113.56
504.256	122.56
504.473	99.56
504.69	104.56
504.907	117.56
505.123	109.56
505.34	120.56
505.557	111.56
505.773	116.56
505.99	93.56
506.207	106.56
506.423	104.56
506.64	98.56
506.856	99.56
507.073	99.56
507.289	116.56
507.506	101.56
507.722	103.56
507.939	86.56
508.155	114.56
508.372	92.56
508.588	96.56
508.805	107.56
509.021	107.56
509.238	106.56
509.454	112.56
509.67	96.56
509.887	99.56
510.103	96.56
510.319	77.56
510.536	106.56
510.752	101.56
510.968	105.56
511.184	105.56
511.401	105.56
511.617	98.56
511.833	98.56
512.049	96.56
512.265	103.56
512.481	105.56
512.698	98.56
512.914	109.56
513.13	83.56
513.346	103.56
513.562	107.56
513.778	105.56
513.994	111.56
514.21	105.56
514.426	99.56
514.642	117.56
514.858	109.56
515.074	98.56
515.29	102.56
515.506	99.56
