Data from Location5.07152019.Energy5.Lamp.07192019.3%Agarose_HRD10591_16-03-33-628.txt Node
Date: Fri Jul 19 16:03:33 EDT 2019
User: cochatt
Spectrometer: HR+D1059
Trigger mode: 1
Integration Time (sec): 1.000000E-1
Scans to average: 1
Electric dark correction enabled: true
Nonlinearity correction enabled: false
Boxcar width: 0
XAxis mode: Wavelengths
Number of Pixels in Spectrum: 2048
>>>>>Begin Spectral Data<<<<<
223.165	-13.69
223.4	-13.69
223.635	-13.69
223.869	-18.69
224.104	-21.69
224.338	-7.69
224.573	0.31
224.808	-9.69
225.042	-10.69
225.277	-1.69
225.511	7.31
225.746	-2.69
225.98	2.31
226.215	5.31
226.449	15.31
226.683	16.31
226.918	15.31
227.152	24.31
227.387	26.31
227.621	38.31
227.856	55.31
228.09	40.31
228.324	75.31
228.559	56.31
228.793	63.31
229.027	59.31
229.262	70.31
229.496	66.31
229.73	56.31
229.964	78.31
230.199	78.31
230.433	80.31
230.667	86.31
230.901	93.31
231.136	60.31
231.37	81.31
231.604	80.31
231.838	86.31
232.072	70.31
232.306	79.31
232.541	89.31
232.775	68.31
233.009	96.31
233.243	76.31
233.477	79.31
233.711	74.31
233.945	74.31
234.179	73.31
234.413	90.31
234.647	82.31
234.881	91.31
235.115	77.31
235.349	81.31
235.583	67.31
235.817	88.31
236.051	80.31
236.285	80.31
236.519	88.31
236.753	76.31
236.987	89.31
237.221	75.31
237.455	77.31
237.689	76.31
237.922	79.31
238.156	80.31
238.39	68.31
238.624	65.31
238.858	91.31
239.091	64.31
239.325	77.31
239.559	81.31
239.793	79.31
240.027	88.31
240.26	69.31
240.494	88.31
240.728	60.31
240.961	84.31
241.195	84.31
241.429	80.31
241.662	70.31
241.896	77.31
242.13	83.31
242.363	75.31
242.597	93.31
242.83	69.31
243.064	76.31
243.298	89.31
243.531	87.31
243.765	79.31
243.998	71.31
244.232	75.31
244.465	83.31
244.699	75.31
244.932	80.31
245.166	85.31
245.399	75.31
245.633	90.31
245.866	69.31
246.099	85.31
246.333	73.31
246.566	70.31
246.8	94.31
247.033	88.31
247.266	83.31
247.5	80.31
247.733	89.31
247.966	90.31
248.2	85.31
248.433	71.31
248.666	77.31
248.899	72.31
249.133	87.31
249.366	81.31
249.599	72.31
249.832	68.31
250.066	74.31
250.299	86.31
250.532	82.31
250.765	88.31
250.998	78.31
251.231	70.31
251.465	91.31
251.698	79.31
251.931	91.31
252.164	88.31
252.397	73.31
252.63	78.31
252.863	79.31
253.096	84.31
253.329	94.31
253.562	87.31
253.795	88.31
254.028	96.31
254.261	83.31
254.494	88.31
254.727	93.31
254.96	89.31
255.193	92.31
255.426	81.31
255.659	84.31
255.892	88.31
256.124	92.31
256.357	83.31
256.59	83.31
256.823	85.31
257.056	80.31
257.289	91.31
257.521	101.31
257.754	88.31
257.987	82.31
258.22	82.31
258.452	85.31
258.685	90.31
258.918	108.31
259.151	71.31
259.383	76.31
259.616	80.31
259.849	78.31
260.081	93.31
260.314	88.31
260.547	85.31
260.779	86.31
261.012	80.31
261.244	92.31
261.477	103.31
261.71	81.31
261.942	87.31
262.175	83.31
262.407	82.31
262.64	86.31
262.872	95.31
263.105	84.31
263.337	76.31
263.57	81.31
263.802	96.31
264.035	93.31
264.267	82.31
264.499	83.31
264.732	83.31
264.964	98.31
265.197	108.31
265.429	86.31
265.661	75.31
265.894	89.31
266.126	88.31
266.358	77.31
266.591	91.31
266.823	106.31
267.055	87.31
267.287	80.31
267.52	80.31
267.752	85.31
267.984	79.31
268.216	84.31
268.448	76.31
268.681	93.31
268.913	84.31
269.145	81.31
269.377	91.31
269.609	95.31
269.841	77.31
270.073	84.31
270.306	82.31
270.538	95.31
270.77	80.31
271.002	82.31
271.234	92.31
271.466	87.31
271.698	91.31
271.93	82.31
272.162	88.31
272.394	100.31
272.626	87.31
272.858	76.31
273.09	87.31
273.322	99.31
273.553	83.31
273.785	81.31
274.017	96.31
274.249	94.31
274.481	95.31
274.713	92.31
274.945	79.31
275.176	90.31
275.408	87.31
275.64	91.31
275.872	84.31
276.104	84.31
276.335	88.31
276.567	91.31
276.799	95.31
277.031	80.31
277.262	98.31
277.494	93.31
277.726	97.31
277.957	87.31
278.189	98.31
278.421	98.31
278.652	80.31
278.884	86.31
279.115	86.31
279.347	82.31
279.579	83.31
279.81	96.31
280.042	88.31
280.273	94.31
280.505	86.31
280.736	85.31
280.968	76.31
281.199	93.31
281.431	95.31
281.662	95.31
281.894	88.31
282.125	107.31
282.356	99.31
282.588	99.31
282.819	116.31
283.051	95.31
283.282	102.31
283.513	99.31
283.745	98.31
283.976	95.31
284.207	87.31
284.439	76.31
284.67	92.31
284.901	89.31
285.132	96.31
285.364	105.31
285.595	92.31
285.826	85.31
286.057	93.31
286.288	102.31
286.52	78.31
286.751	93.31
286.982	94.31
287.213	80.31
287.444	88.31
287.675	95.31
287.906	88.31
288.138	91.31
288.369	92.31
288.6	68.31
288.831	93.31
289.062	88.31
289.293	84.31
289.524	105.31
289.755	85.31
289.986	90.31
290.217	103.31
290.448	85.31
290.679	95.31
290.91	87.31
291.141	77.31
291.371	84.31
291.602	104.31
291.833	106.31
292.064	79.31
292.295	88.31
292.526	87.31
292.757	99.31
292.987	96.31
293.218	92.31
293.449	102.31
293.68	78.31
293.91	86.31
294.141	85.31
294.372	86.31
294.603	99.31
294.833	103.31
295.064	92.31
295.295	105.31
295.525	97.31
295.756	90.31
295.987	88.31
296.217	78.31
296.448	92.31
296.679	86.31
296.909	105.31
297.14	90.31
297.37	90.31
297.601	101.31
297.831	96.31
298.062	83.31
298.292	99.31
298.523	104.31
298.753	96.31
298.984	102.31
299.214	97.31
299.445	111.31
299.675	95.31
299.905	89.31
300.136	112.31
300.366	91.31
300.597	85.31
300.827	94.31
301.057	95.31
301.288	90.31
301.518	89.31
301.748	91.31
301.979	105.31
302.209	98.31
302.439	93.31
302.669	97.31
302.9	94.31
303.13	101.31
303.36	92.31
303.59	97.31
303.82	108.31
304.051	104.31
304.281	100.31
304.511	107.31
304.741	102.31
304.971	102.31
305.201	86.31
305.431	99.31
305.661	79.31
305.891	101.31
306.121	86.31
306.352	98.31
306.582	94.31
306.812	90.31
307.042	101.31
307.272	85.31
307.502	88.31
307.731	94.31
307.961	89.31
308.191	99.31
308.421	98.31
308.651	100.31
308.881	102.31
309.111	96.31
309.341	91.31
309.571	92.31
309.8	99.31
310.03	100.31
310.26	101.31
310.49	90.31
310.72	95.31
310.949	93.31
311.179	85.31
311.409	100.31
311.639	103.31
311.868	93.31
312.098	88.31
312.328	97.31
312.557	91.31
312.787	92.31
313.017	99.31
313.246	91.31
313.476	109.31
313.706	100.31
313.935	108.31
314.165	91.31
314.394	104.31
314.624	107.31
314.853	88.31
315.083	109.31
315.312	101.31
315.542	96.31
315.771	99.31
316.001	83.31
316.23	91.31
316.46	104.31
316.689	92.31
316.919	99.31
317.148	98.31
317.377	94.31
317.607	87.31
317.836	109.31
318.065	102.31
318.295	96.31
318.524	95.31
318.753	85.31
318.983	89.31
319.212	95.31
319.441	100.31
319.67	101.31
319.9	94.31
320.129	96.31
320.358	90.31
320.587	101.31
320.816	98.31
321.046	95.31
321.275	91.31
321.504	85.31
321.733	86.31
321.962	90.31
322.191	86.31
322.42	98.31
322.649	103.31
322.878	95.31
323.108	85.31
323.337	107.31
323.566	76.31
323.795	95.31
324.024	84.31
324.253	93.31
324.482	79.31
324.71	110.31
324.939	101.31
325.168	99.31
325.397	95.31
325.626	83.31
325.855	104.31
326.084	112.31
326.313	111.31
326.542	99.31
326.77	89.31
326.999	100.31
327.228	98.31
327.457	101.31
327.686	118.31
327.914	99.31
328.143	88.31
328.372	74.31
328.6	79.31
328.829	99.31
329.058	105.31
329.287	104.31
329.515	87.31
329.744	93.31
329.972	91.31
330.201	106.31
330.43	95.31
330.658	103.31
330.887	103.31
331.115	88.31
331.344	89.31
331.572	92.31
331.801	93.31
332.03	91.31
332.258	104.31
332.486	87.31
332.715	93.31
332.943	93.31
333.172	95.31
333.4	99.31
333.629	103.31
333.857	102.31
334.085	97.31
334.314	94.31
334.542	99.31
334.771	106.31
334.999	97.31
335.227	104.31
335.455	102.31
335.684	99.31
335.912	91.31
336.14	85.31
336.369	95.31
336.597	107.31
336.825	95.31
337.053	102.31
337.281	87.31
337.51	95.31
337.738	92.31
337.966	96.31
338.194	115.31
338.422	103.31
338.65	107.31
338.878	99.31
339.106	96.31
339.334	94.31
339.562	99.31
339.79	94.31
340.018	96.31
340.246	109.31
340.474	98.31
340.702	103.31
340.93	102.31
341.158	89.31
341.386	87.31
341.614	90.31
341.842	104.31
342.07	111.31
342.298	89.31
342.526	95.31
342.754	94.31
342.981	92.31
343.209	96.31
343.437	80.31
343.665	95.31
343.893	101.31
344.12	101.31
344.348	87.31
344.576	93.31
344.804	94.31
345.031	104.31
345.259	99.31
345.487	87.31
345.714	81.31
345.942	99.31
346.17	103.31
346.397	95.31
346.625	102.31
346.853	101.31
347.08	98.31
347.308	109.31
347.535	89.31
347.763	104.31
347.99	91.31
348.218	95.31
348.445	86.31
348.673	72.31
348.9	96.31
349.128	95.31
349.355	89.31
349.583	88.31
349.81	77.31
350.037	80.31
350.265	102.31
350.492	90.31
350.72	109.31
350.947	100.31
351.174	108.31
351.402	91.31
351.629	97.31
351.856	91.31
352.083	96.31
352.311	85.31
352.538	93.31
352.765	89.31
352.992	96.31
353.22	113.31
353.447	106.31
353.674	95.31
353.901	92.31
354.128	85.31
354.355	98.31
354.583	90.31
354.81	94.31
355.037	106.31
355.264	108.31
355.491	103.31
355.718	89.31
355.945	96.31
356.172	96.31
356.399	100.31
356.626	94.31
356.853	85.31
357.08	103.31
357.307	78.31
357.534	95.31
357.761	98.31
357.988	93.31
358.215	93.31
358.441	112.31
358.668	100.31
358.895	98.31
359.122	87.31
359.349	82.31
359.576	90.31
359.802	100.31
360.029	103.31
360.256	102.31
360.483	101.31
360.709	82.31
360.936	106.31
361.163	99.31
361.39	94.31
361.616	91.31
361.843	84.31
362.07	105.31
362.296	87.31
362.523	95.31
362.749	108.31
362.976	93.31
363.203	100.31
363.429	89.31
363.656	101.31
363.882	95.31
364.109	101.31
364.335	87.31
364.562	93.31
364.788	87.31
365.015	92.31
365.241	92.31
365.468	94.31
365.694	86.31
365.92	82.31
366.147	94.31
366.373	96.31
366.599	94.31
366.826	77.31
367.052	97.31
367.278	87.31
367.505	104.31
367.731	92.31
367.957	99.31
368.184	96.31
368.41	88.31
368.636	87.31
368.862	74.31
369.089	93.31
369.315	102.31
369.541	87.31
369.767	87.31
369.993	95.31
370.219	88.31
370.445	83.31
370.672	101.31
370.898	105.31
371.124	104.31
371.35	111.31
371.576	102.31
371.802	77.31
372.028	93.31
372.254	96.31
372.48	96.31
372.706	97.31
372.932	110.31
373.158	106.31
373.384	96.31
373.61	101.31
373.835	100.31
374.061	107.31
374.287	96.31
374.513	100.31
374.739	95.31
374.965	90.31
375.191	101.31
375.416	101.31
375.642	104.31
375.868	103.31
376.094	85.31
376.319	99.31
376.545	99.31
376.771	102.31
376.997	91.31
377.222	95.31
377.448	92.31
377.674	87.31
377.899	101.31
378.125	84.31
378.35	95.31
378.576	85.31
378.802	87.31
379.027	88.31
379.253	92.31
379.478	82.31
379.704	89.31
379.929	87.31
380.155	84.31
380.38	100.31
380.606	99.31
380.831	91.31
381.057	101.31
381.282	89.31
381.507	98.31
381.733	89.31
381.958	99.31
382.184	94.31
382.409	102.31
382.634	81.31
382.86	101.31
383.085	100.31
383.31	107.31
383.535	98.31
383.761	92.31
383.986	89.31
384.211	107.31
384.436	102.31
384.662	96.31
384.887	95.31
385.112	105.31
385.337	99.31
385.562	102.31
385.787	99.31
386.013	101.31
386.238	92.31
386.463	92.31
386.688	93.31
386.913	85.31
387.138	98.31
387.363	91.31
387.588	100.31
387.813	89.31
388.038	102.31
388.263	94.31
388.488	108.31
388.713	95.31
388.938	79.31
389.163	93.31
389.387	82.31
389.612	102.31
389.837	99.31
390.062	99.31
390.287	87.31
390.512	92.31
390.736	109.31
390.961	92.31
391.186	102.31
391.411	98.31
391.636	87.31
391.86	98.31
392.085	112.31
392.31	98.31
392.534	102.31
392.759	94.31
392.984	104.31
393.208	105.31
393.433	108.31
393.658	112.31
393.882	95.31
394.107	94.31
394.331	105.31
394.556	88.31
394.78	86.31
395.005	90.31
395.229	106.31
395.454	121.31
395.678	111.31
395.903	101.31
396.127	103.31
396.352	107.31
396.576	101.31
396.801	92.31
397.025	108.31
397.249	86.31
397.474	108.31
397.698	106.31
397.922	102.31
398.147	107.31
398.371	91.31
398.595	114.31
398.82	96.31
399.044	104.31
399.268	96.31
399.492	114.31
399.717	122.31
399.941	119.31
400.165	116.31
400.389	109.31
400.613	105.31
400.837	85.31
401.062	95.31
401.286	109.31
401.51	107.31
401.734	101.31
401.958	100.31
402.182	103.31
402.406	96.31
402.63	104.31
402.854	112.31
403.078	104.31
403.302	106.31
403.526	93.31
403.75	96.31
403.974	92.31
404.198	106.31
404.422	94.31
404.645	100.31
404.869	94.31
405.093	104.31
405.317	106.31
405.541	108.31
405.765	99.31
405.988	107.31
406.212	101.31
406.436	102.31
406.66	92.31
406.883	101.31
407.107	94.31
407.331	101.31
407.555	106.31
407.778	110.31
408.002	110.31
408.226	94.31
408.449	106.31
408.673	96.31
408.896	113.31
409.12	101.31
409.344	113.31
409.567	119.31
409.791	105.31
410.014	112.31
410.238	104.31
410.461	92.31
410.685	118.31
410.908	105.31
411.132	94.31
411.355	112.31
411.578	91.31
411.802	106.31
412.025	109.31
412.249	105.31
412.472	102.31
412.695	121.31
412.919	88.31
413.142	99.31
413.365	106.31
413.589	99.31
413.812	87.31
414.035	110.31
414.258	107.31
414.482	105.31
414.705	104.31
414.928	98.31
415.151	102.31
415.374	101.31
415.597	97.31
415.821	104.31
416.044	97.31
416.267	86.31
416.49	94.31
416.713	101.31
416.936	118.31
417.159	98.31
417.382	93.31
417.605	96.31
417.828	115.31
418.051	104.31
418.274	107.31
418.497	103.31
418.72	118.31
418.943	102.31
419.166	95.31
419.389	104.31
419.611	104.31
419.834	100.31
420.057	119.31
420.28	90.31
420.503	102.31
420.726	101.31
420.948	119.31
421.171	100.31
421.394	94.31
421.617	99.31
421.839	88.31
422.062	100.31
422.285	117.31
422.507	107.31
422.73	103.31
422.953	96.31
423.175	105.31
423.398	119.31
423.621	98.31
423.843	104.31
424.066	112.31
424.288	94.31
424.511	99.31
424.733	96.31
424.956	104.31
425.178	84.31
425.401	99.31
425.623	95.31
425.846	100.31
426.068	98.31
426.291	98.31
426.513	94.31
426.735	111.31
426.958	106.31
427.18	93.31
427.402	115.31
427.625	96.31
427.847	96.31
428.069	88.31
428.292	104.31
428.514	93.31
428.736	114.31
428.958	90.31
429.181	90.31
429.403	95.31
429.625	94.31
429.847	94.31
430.069	89.31
430.292	89.31
430.514	96.31
430.736	94.31
430.958	84.31
431.18	94.31
431.402	91.31
431.624	89.31
431.846	108.31
432.068	94.31
432.29	114.31
432.512	102.31
432.734	91.31
432.956	90.31
433.178	101.31
433.4	97.31
433.622	102.31
433.844	123.31
434.066	100.31
434.287	119.31
434.509	96.31
434.731	102.31
434.953	103.31
435.175	101.31
435.397	104.31
435.618	104.31
435.84	95.31
436.062	95.31
436.284	122.31
436.505	101.31
436.727	88.31
436.949	94.31
437.17	93.31
437.392	89.31
437.614	102.31
437.835	93.31
438.057	95.31
438.278	95.31
438.5	87.31
438.721	103.31
438.943	96.31
439.165	93.31
439.386	90.31
439.608	94.31
439.829	102.31
440.05	102.31
440.272	91.31
440.493	104.31
440.715	107.31
440.936	101.31
441.158	91.31
441.379	92.31
441.6	96.31
441.822	91.31
442.043	88.31
442.264	90.31
442.486	100.31
442.707	97.31
442.928	89.31
443.149	104.31
443.371	97.31
443.592	88.31
443.813	98.31
444.034	88.31
444.255	101.31
444.476	101.31
444.698	96.31
444.919	103.31
445.14	198.31
445.361	159.31
445.582	114.31
445.803	104.31
446.024	95.31
446.245	95.31
446.466	93.31
446.687	95.31
446.908	87.31
447.129	102.31
447.35	101.31
447.571	88.31
447.792	96.31
448.013	87.31
448.234	95.31
448.455	100.31
448.675	85.31
448.896	95.31
449.117	86.31
449.338	96.31
449.559	104.31
449.779	104.31
450	97.31
450.221	92.31
450.442	107.31
450.662	88.31
450.883	92.31
451.104	96.31
451.324	99.31
451.545	95.31
451.766	96.31
451.986	94.31
452.207	105.31
452.428	95.31
452.648	116.31
452.869	104.31
453.089	108.31
453.31	95.31
453.53	109.31
453.751	106.31
453.971	101.31
454.192	101.31
454.412	82.31
454.633	88.31
454.853	98.31
455.073	95.31
455.294	83.31
455.514	86.31
455.734	82.31
455.955	102.31
456.175	95.31
456.395	98.31
456.616	82.31
456.836	113.31
457.056	94.31
457.276	88.31
457.497	95.31
457.717	102.31
457.937	97.31
458.157	99.31
458.377	86.31
458.598	92.31
458.818	106.31
459.038	90.31
459.258	96.31
459.478	95.31
459.698	113.31
459.918	92.31
460.138	104.31
460.358	98.31
460.578	104.31
460.798	91.31
461.018	96.31
461.238	93.31
461.458	106.31
461.678	90.31
461.898	97.31
462.118	102.31
462.338	110.31
462.558	104.31
462.777	103.31
462.997	114.31
463.217	101.31
463.437	97.31
463.657	95.31
463.876	96.31
464.096	94.31
464.316	93.31
464.536	101.31
464.755	106.31
464.975	118.31
465.195	114.31
465.414	104.31
465.634	106.31
465.854	98.31
466.073	121.31
466.293	105.31
466.512	103.31
466.732	107.31
466.951	105.31
467.171	101.31
467.391	98.31
467.61	116.31
467.829	106.31
468.049	98.31
468.268	103.31
468.488	94.31
468.707	91.31
468.927	96.31
469.146	111.31
469.365	104.31
469.585	100.31
469.804	96.31
470.023	94.31
470.243	91.31
470.462	92.31
470.681	91.31
470.901	111.31
471.12	101.31
471.339	105.31
471.558	105.31
471.777	107.31
471.997	91.31
472.216	94.31
472.435	103.31
472.654	94.31
472.873	87.31
473.092	98.31
473.311	86.31
473.53	105.31
473.749	106.31
473.968	107.31
474.187	79.31
474.406	98.31
474.625	102.31
474.844	109.31
475.063	96.31
475.282	100.31
475.501	94.31
475.72	109.31
475.939	105.31
476.158	99.31
476.377	100.31
476.596	93.31
476.814	95.31
477.033	87.31
477.252	96.31
477.471	99.31
477.69	107.31
477.908	98.31
478.127	104.31
478.346	96.31
478.564	103.31
478.783	94.31
479.002	131.31
479.22	106.31
479.439	117.31
479.658	107.31
479.876	108.31
480.095	115.31
480.313	118.31
480.532	106.31
480.751	91.31
480.969	110.31
481.188	120.31
481.406	97.31
481.624	101.31
481.843	111.31
482.061	104.31
482.28	103.31
482.498	104.31
482.717	96.31
482.935	100.31
483.153	106.31
483.372	99.31
483.59	95.31
483.808	115.31
484.027	102.31
484.245	105.31
484.463	103.31
484.681	108.31
484.9	106.31
485.118	103.31
485.336	112.31
485.554	109.31
485.772	119.31
485.99	115.31
486.209	109.31
486.427	104.31
486.645	96.31
486.863	103.31
487.081	100.31
487.299	111.31
487.517	115.31
487.735	103.31
487.953	114.31
488.171	113.31
488.389	104.31
488.607	109.31
488.825	111.31
489.043	108.31
489.261	95.31
489.479	101.31
489.696	103.31
489.914	112.31
490.132	118.31
490.35	114.31
490.568	104.31
490.786	123.31
491.003	100.31
491.221	122.31
491.439	103.31
491.657	111.31
491.874	99.31
492.092	123.31
492.31	123.31
492.527	117.31
492.745	124.31
492.963	101.31
493.18	106.31
493.398	114.31
493.615	108.31
493.833	94.31
494.05	108.31
494.268	110.31
494.485	126.31
494.703	122.31
494.92	126.31
495.138	115.31
495.355	127.31
495.573	111.31
495.79	124.31
496.008	122.31
496.225	125.31
496.442	131.31
496.66	128.31
496.877	116.31
497.094	124.31
497.312	128.31
497.529	121.31
497.746	122.31
497.963	101.31
498.181	109.31
498.398	110.31
498.615	114.31
498.832	122.31
499.049	124.31
499.267	134.31
499.484	139.31
499.701	136.31
499.918	144.31
500.135	140.31
500.352	160.31
500.569	169.31
500.786	158.31
501.003	158.31
501.22	156.31
501.437	146.31
501.654	136.31
501.871	125.31
502.088	120.31
502.305	107.31
502.522	129.31
502.739	128.31
502.956	128.31
503.172	114.31
503.389	127.31
503.606	106.31
503.823	116.31
504.04	104.31
504.256	127.31
504.473	115.31
504.69	100.31
504.907	120.31
505.123	118.31
505.34	107.31
505.557	109.31
505.773	100.31
505.99	92.31
506.207	102.31
506.423	118.31
506.64	105.31
506.856	100.31
507.073	100.31
507.289	100.31
507.506	110.31
507.722	105.31
507.939	101.31
508.155	101.31
508.372	94.31
508.588	111.31
508.805	120.31
509.021	115.31
509.238	127.31
509.454	109.31
509.67	104.31
509.887	101.31
510.103	97.31
510.319	102.31
510.536	96.31
510.752	109.31
510.968	101.31
511.184	125.31
511.401	100.31
511.617	118.31
511.833	112.31
512.049	97.31
512.265	117.31
512.481	94.31
