Data from Location5.07152019.Energy5.Lamp.07192019.3%Agarose_HRD10591_15-36-44-390.txt Node
Date: Fri Jul 19 15:36:44 EDT 2019
User: cochatt
Spectrometer: HR+D1059
Trigger mode: 1
Integration Time (sec): 1.000000E-1
Scans to average: 1
Electric dark correction enabled: true
Nonlinearity correction enabled: false
Boxcar width: 0
XAxis mode: Wavelengths
Number of Pixels in Spectrum: 2048
>>>>>Begin Spectral Data<<<<<
223.165	-7.81
223.4	-7.81
223.635	-7.81
223.869	-7.81
224.104	-10.81
224.338	-10.81
224.573	-18.81
224.808	-11.81
225.042	-15.81
225.277	-10.81
225.511	-7.81
225.746	-6.81
225.98	-0.81
226.215	34.19
226.449	17.19
226.683	18.19
226.918	8.19
227.152	32.19
227.387	35.19
227.621	50.19
227.856	49.19
228.09	42.19
228.324	38.19
228.559	58.19
228.793	54.19
229.027	69.19
229.262	52.19
229.496	45.19
229.73	64.19
229.964	76.19
230.199	84.19
230.433	82.19
230.667	80.19
230.901	69.19
231.136	74.19
231.37	67.19
231.604	80.19
231.838	93.19
232.072	99.19
232.306	70.19
232.541	90.19
232.775	102.19
233.009	85.19
233.243	77.19
233.477	80.19
233.711	97.19
233.945	85.19
234.179	89.19
234.413	93.19
234.647	84.19
234.881	83.19
235.115	87.19
235.349	90.19
235.583	81.19
235.817	80.19
236.051	84.19
236.285	69.19
236.519	84.19
236.753	81.19
236.987	87.19
237.221	89.19
237.455	80.19
237.689	83.19
237.922	66.19
238.156	82.19
238.39	82.19
238.624	85.19
238.858	88.19
239.091	70.19
239.325	72.19
239.559	84.19
239.793	76.19
240.027	79.19
240.26	70.19
240.494	75.19
240.728	88.19
240.961	77.19
241.195	90.19
241.429	72.19
241.662	70.19
241.896	66.19
242.13	84.19
242.363	65.19
242.597	72.19
242.83	73.19
243.064	81.19
243.298	76.19
243.531	76.19
243.765	80.19
243.998	79.19
244.232	76.19
244.465	72.19
244.699	78.19
244.932	80.19
245.166	74.19
245.399	79.19
245.633	82.19
245.866	72.19
246.099	82.19
246.333	70.19
246.566	77.19
246.8	95.19
247.033	71.19
247.266	91.19
247.5	79.19
247.733	90.19
247.966	83.19
248.2	82.19
248.433	78.19
248.666	74.19
248.899	70.19
249.133	81.19
249.366	90.19
249.599	64.19
249.832	70.19
250.066	84.19
250.299	85.19
250.532	73.19
250.765	83.19
250.998	75.19
251.231	80.19
251.465	85.19
251.698	85.19
251.931	87.19
252.164	77.19
252.397	80.19
252.63	79.19
252.863	93.19
253.096	73.19
253.329	86.19
253.562	76.19
253.795	72.19
254.028	89.19
254.261	81.19
254.494	82.19
254.727	80.19
254.96	83.19
255.193	90.19
255.426	88.19
255.659	74.19
255.892	78.19
256.124	76.19
256.357	76.19
256.59	81.19
256.823	96.19
257.056	80.19
257.289	77.19
257.521	88.19
257.754	76.19
257.987	70.19
258.22	85.19
258.452	76.19
258.685	78.19
258.918	78.19
259.151	72.19
259.383	97.19
259.616	85.19
259.849	80.19
260.081	88.19
260.314	89.19
260.547	86.19
260.779	83.19
261.012	72.19
261.244	90.19
261.477	85.19
261.71	74.19
261.942	78.19
262.175	82.19
262.407	79.19
262.64	84.19
262.872	74.19
263.105	70.19
263.337	96.19
263.57	79.19
263.802	92.19
264.035	80.19
264.267	88.19
264.499	76.19
264.732	73.19
264.964	86.19
265.197	78.19
265.429	88.19
265.661	93.19
265.894	89.19
266.126	75.19
266.358	74.19
266.591	75.19
266.823	95.19
267.055	73.19
267.287	91.19
267.52	72.19
267.752	83.19
267.984	96.19
268.216	77.19
268.448	84.19
268.681	94.19
268.913	64.19
269.145	77.19
269.377	81.19
269.609	72.19
269.841	83.19
270.073	78.19
270.306	76.19
270.538	83.19
270.77	84.19
271.002	84.19
271.234	94.19
271.466	79.19
271.698	86.19
271.93	77.19
272.162	85.19
272.394	90.19
272.626	80.19
272.858	79.19
273.09	88.19
273.322	80.19
273.553	81.19
273.785	88.19
274.017	90.19
274.249	91.19
274.481	75.19
274.713	90.19
274.945	78.19
275.176	90.19
275.408	81.19
275.64	86.19
275.872	83.19
276.104	89.19
276.335	86.19
276.567	88.19
276.799	83.19
277.031	84.19
277.262	87.19
277.494	91.19
277.726	91.19
277.957	100.19
278.189	78.19
278.421	87.19
278.652	84.19
278.884	89.19
279.115	98.19
279.347	108.19
279.579	94.19
279.81	79.19
280.042	98.19
280.273	90.19
280.505	69.19
280.736	82.19
280.968	91.19
281.199	91.19
281.431	85.19
281.662	78.19
281.894	81.19
282.125	86.19
282.356	100.19
282.588	92.19
282.819	81.19
283.051	91.19
283.282	89.19
283.513	84.19
283.745	83.19
283.976	78.19
284.207	91.19
284.439	82.19
284.67	98.19
284.901	85.19
285.132	83.19
285.364	85.19
285.595	90.19
285.826	87.19
286.057	92.19
286.288	93.19
286.52	75.19
286.751	80.19
286.982	75.19
287.213	90.19
287.444	95.19
287.675	96.19
287.906	105.19
288.138	82.19
288.369	78.19
288.6	87.19
288.831	90.19
289.062	92.19
289.293	77.19
289.524	75.19
289.755	73.19
289.986	87.19
290.217	85.19
290.448	78.19
290.679	86.19
290.91	85.19
291.141	90.19
291.371	86.19
291.602	88.19
291.833	77.19
292.064	81.19
292.295	88.19
292.526	87.19
292.757	94.19
292.987	83.19
293.218	78.19
293.449	77.19
293.68	93.19
293.91	92.19
294.141	101.19
294.372	84.19
294.603	99.19
294.833	86.19
295.064	78.19
295.295	84.19
295.525	87.19
295.756	86.19
295.987	94.19
296.217	85.19
296.448	86.19
296.679	94.19
296.909	107.19
297.14	96.19
297.37	91.19
297.601	86.19
297.831	98.19
298.062	81.19
298.292	93.19
298.523	84.19
298.753	92.19
298.984	88.19
299.214	85.19
299.445	86.19
299.675	90.19
299.905	74.19
300.136	83.19
300.366	68.19
300.597	87.19
300.827	85.19
301.057	91.19
301.288	86.19
301.518	88.19
301.748	83.19
301.979	99.19
302.209	77.19
302.439	77.19
302.669	89.19
302.9	87.19
303.13	78.19
303.36	85.19
303.59	90.19
303.82	84.19
304.051	85.19
304.281	100.19
304.511	96.19
304.741	89.19
304.971	98.19
305.201	96.19
305.431	98.19
305.661	91.19
305.891	88.19
306.121	85.19
306.352	81.19
306.582	82.19
306.812	93.19
307.042	94.19
307.272	82.19
307.502	87.19
307.731	92.19
307.961	99.19
308.191	83.19
308.421	85.19
308.651	81.19
308.881	92.19
309.111	99.19
309.341	92.19
309.571	74.19
309.8	97.19
310.03	99.19
310.26	82.19
310.49	93.19
310.72	101.19
310.949	87.19
311.179	80.19
311.409	89.19
311.639	84.19
311.868	81.19
312.098	89.19
312.328	84.19
312.557	88.19
312.787	73.19
313.017	79.19
313.246	85.19
313.476	91.19
313.706	88.19
313.935	78.19
314.165	86.19
314.394	98.19
314.624	89.19
314.853	87.19
315.083	88.19
315.312	82.19
315.542	89.19
315.771	82.19
316.001	88.19
316.23	78.19
316.46	100.19
316.689	87.19
316.919	83.19
317.148	88.19
317.377	74.19
317.607	81.19
317.836	89.19
318.065	79.19
318.295	85.19
318.524	94.19
318.753	83.19
318.983	78.19
319.212	92.19
319.441	102.19
319.67	93.19
319.9	75.19
320.129	86.19
320.358	81.19
320.587	84.19
320.816	90.19
321.046	79.19
321.275	107.19
321.504	87.19
321.733	85.19
321.962	77.19
322.191	92.19
322.42	82.19
322.649	83.19
322.878	97.19
323.108	92.19
323.337	93.19
323.566	91.19
323.795	88.19
324.024	89.19
324.253	84.19
324.482	99.19
324.71	89.19
324.939	90.19
325.168	94.19
325.397	81.19
325.626	94.19
325.855	84.19
326.084	81.19
326.313	88.19
326.542	80.19
326.77	89.19
326.999	89.19
327.228	82.19
327.457	95.19
327.686	110.19
327.914	86.19
328.143	90.19
328.372	87.19
328.6	88.19
328.829	84.19
329.058	88.19
329.287	82.19
329.515	79.19
329.744	86.19
329.972	80.19
330.201	94.19
330.43	76.19
330.658	77.19
330.887	79.19
331.115	91.19
331.344	87.19
331.572	91.19
331.801	89.19
332.03	89.19
332.258	83.19
332.486	90.19
332.715	84.19
332.943	80.19
333.172	81.19
333.4	94.19
333.629	84.19
333.857	86.19
334.085	91.19
334.314	92.19
334.542	87.19
334.771	82.19
334.999	97.19
335.227	89.19
335.455	96.19
335.684	93.19
335.912	84.19
336.14	97.19
336.369	82.19
336.597	93.19
336.825	98.19
337.053	92.19
337.281	87.19
337.51	85.19
337.738	85.19
337.966	86.19
338.194	86.19
338.422	97.19
338.65	100.19
338.878	92.19
339.106	93.19
339.334	92.19
339.562	77.19
339.79	105.19
340.018	105.19
340.246	88.19
340.474	85.19
340.702	90.19
340.93	106.19
341.158	77.19
341.386	95.19
341.614	84.19
341.842	80.19
342.07	84.19
342.298	95.19
342.526	68.19
342.754	77.19
342.981	93.19
343.209	96.19
343.437	82.19
343.665	85.19
343.893	94.19
344.12	80.19
344.348	86.19
344.576	81.19
344.804	101.19
345.031	76.19
345.259	88.19
345.487	91.19
345.714	89.19
345.942	75.19
346.17	94.19
346.397	79.19
346.625	85.19
346.853	77.19
347.08	76.19
347.308	79.19
347.535	75.19
347.763	88.19
347.99	104.19
348.218	85.19
348.445	88.19
348.673	82.19
348.9	87.19
349.128	86.19
349.355	80.19
349.583	97.19
349.81	91.19
350.037	89.19
350.265	80.19
350.492	96.19
350.72	90.19
350.947	91.19
351.174	85.19
351.402	74.19
351.629	87.19
351.856	82.19
352.083	83.19
352.311	81.19
352.538	90.19
352.765	71.19
352.992	85.19
353.22	86.19
353.447	104.19
353.674	78.19
353.901	87.19
354.128	77.19
354.355	85.19
354.583	92.19
354.81	87.19
355.037	97.19
355.264	88.19
355.491	88.19
355.718	81.19
355.945	79.19
356.172	74.19
356.399	82.19
356.626	80.19
356.853	71.19
357.08	88.19
357.307	82.19
357.534	82.19
357.761	84.19
357.988	82.19
358.215	64.19
358.441	88.19
358.668	75.19
358.895	79.19
359.122	90.19
359.349	97.19
359.576	71.19
359.802	87.19
360.029	82.19
360.256	81.19
360.483	84.19
360.709	79.19
360.936	102.19
361.163	85.19
361.39	89.19
361.616	83.19
361.843	98.19
362.07	88.19
362.296	88.19
362.523	84.19
362.749	95.19
362.976	81.19
363.203	89.19
363.429	86.19
363.656	73.19
363.882	87.19
364.109	93.19
364.335	93.19
364.562	86.19
364.788	85.19
365.015	84.19
365.241	84.19
365.468	84.19
365.694	71.19
365.92	77.19
366.147	71.19
366.373	74.19
366.599	84.19
366.826	76.19
367.052	77.19
367.278	95.19
367.505	71.19
367.731	78.19
367.957	76.19
368.184	86.19
368.41	84.19
368.636	76.19
368.862	68.19
369.089	66.19
369.315	82.19
369.541	86.19
369.767	88.19
369.993	86.19
370.219	83.19
370.445	93.19
370.672	104.19
370.898	76.19
371.124	90.19
371.35	77.19
371.576	83.19
371.802	77.19
372.028	86.19
372.254	81.19
372.48	89.19
372.706	88.19
372.932	91.19
373.158	84.19
373.384	84.19
373.61	82.19
373.835	91.19
374.061	100.19
374.287	87.19
374.513	80.19
374.739	88.19
374.965	91.19
375.191	108.19
375.416	95.19
375.642	103.19
375.868	90.19
376.094	80.19
376.319	85.19
376.545	85.19
376.771	79.19
376.997	90.19
377.222	85.19
377.448	93.19
377.674	90.19
377.899	98.19
378.125	99.19
378.35	86.19
378.576	82.19
378.802	82.19
379.027	91.19
379.253	78.19
379.478	92.19
379.704	79.19
379.929	92.19
380.155	84.19
380.38	81.19
380.606	80.19
380.831	67.19
381.057	91.19
381.282	96.19
381.507	74.19
381.733	74.19
381.958	104.19
382.184	85.19
382.409	94.19
382.634	82.19
382.86	81.19
383.085	90.19
383.31	76.19
383.535	74.19
383.761	85.19
383.986	87.19
384.211	88.19
384.436	89.19
384.662	84.19
384.887	84.19
385.112	90.19
385.337	83.19
385.562	81.19
385.787	86.19
386.013	78.19
386.238	89.19
386.463	82.19
386.688	78.19
386.913	88.19
387.138	93.19
387.363	85.19
387.588	94.19
387.813	90.19
388.038	87.19
388.263	92.19
388.488	78.19
388.713	85.19
388.938	91.19
389.163	86.19
389.387	91.19
389.612	91.19
389.837	82.19
390.062	99.19
390.287	84.19
390.512	84.19
390.736	93.19
390.961	93.19
391.186	82.19
391.411	89.19
391.636	78.19
391.86	68.19
392.085	84.19
392.31	77.19
392.534	91.19
392.759	90.19
392.984	93.19
393.208	84.19
393.433	96.19
393.658	77.19
393.882	85.19
394.107	92.19
394.331	89.19
394.556	83.19
394.78	91.19
395.005	86.19
395.229	92.19
395.454	94.19
395.678	79.19
395.903	92.19
396.127	87.19
396.352	84.19
396.576	89.19
396.801	90.19
397.025	105.19
397.249	94.19
397.474	88.19
397.698	97.19
397.922	86.19
398.147	94.19
398.371	94.19
398.595	91.19
398.82	91.19
399.044	97.19
399.268	79.19
399.492	100.19
399.717	83.19
399.941	87.19
400.165	89.19
400.389	99.19
400.613	93.19
400.837	74.19
401.062	87.19
401.286	95.19
401.51	92.19
401.734	88.19
401.958	85.19
402.182	82.19
402.406	88.19
402.63	94.19
402.854	90.19
403.078	93.19
403.302	90.19
403.526	89.19
403.75	83.19
403.974	96.19
404.198	86.19
404.422	85.19
404.645	82.19
404.869	92.19
405.093	92.19
405.317	89.19
405.541	95.19
405.765	86.19
405.988	80.19
406.212	86.19
406.436	112.19
406.66	99.19
406.883	88.19
407.107	89.19
407.331	85.19
407.555	94.19
407.778	81.19
408.002	89.19
408.226	99.19
408.449	92.19
408.673	79.19
408.896	91.19
409.12	101.19
409.344	88.19
409.567	82.19
409.791	82.19
410.014	92.19
410.238	83.19
410.461	79.19
410.685	95.19
410.908	97.19
411.132	79.19
411.355	102.19
411.578	89.19
411.802	102.19
412.025	102.19
412.249	93.19
412.472	81.19
412.695	94.19
412.919	92.19
413.142	101.19
413.365	87.19
413.589	97.19
413.812	107.19
414.035	95.19
414.258	103.19
414.482	100.19
414.705	86.19
414.928	94.19
415.151	86.19
415.374	99.19
415.597	92.19
415.821	91.19
416.044	114.19
416.267	85.19
416.49	96.19
416.713	97.19
416.936	91.19
417.159	91.19
417.382	78.19
417.605	88.19
417.828	91.19
418.051	94.19
418.274	115.19
418.497	90.19
418.72	90.19
418.943	94.19
419.166	93.19
419.389	87.19
419.611	94.19
419.834	81.19
420.057	102.19
420.28	91.19
420.503	76.19
420.726	76.19
420.948	88.19
421.171	87.19
421.394	94.19
421.617	102.19
421.839	90.19
422.062	85.19
422.285	105.19
422.507	90.19
422.73	101.19
422.953	90.19
423.175	99.19
423.398	90.19
423.621	93.19
423.843	92.19
424.066	97.19
424.288	99.19
424.511	89.19
424.733	78.19
424.956	97.19
425.178	91.19
425.401	96.19
425.623	100.19
425.846	98.19
426.068	106.19
426.291	84.19
426.513	92.19
426.735	99.19
426.958	91.19
427.18	82.19
427.402	92.19
427.625	93.19
427.847	90.19
428.069	105.19
428.292	106.19
428.514	91.19
428.736	84.19
428.958	88.19
429.181	97.19
429.403	94.19
429.625	103.19
429.847	111.19
430.069	84.19
430.292	92.19
430.514	85.19
430.736	85.19
430.958	92.19
431.18	104.19
431.402	99.19
431.624	84.19
431.846	90.19
432.068	84.19
432.29	84.19
432.512	82.19
432.734	93.19
432.956	94.19
433.178	88.19
433.4	101.19
433.622	105.19
433.844	89.19
434.066	105.19
434.287	81.19
434.509	91.19
434.731	89.19
434.953	83.19
435.175	85.19
435.397	92.19
435.618	82.19
435.84	87.19
436.062	90.19
436.284	105.19
436.505	100.19
436.727	96.19
436.949	89.19
437.17	89.19
437.392	94.19
437.614	92.19
437.835	93.19
438.057	91.19
438.278	94.19
438.5	97.19
438.721	109.19
438.943	117.19
439.165	82.19
439.386	93.19
439.608	99.19
439.829	101.19
440.05	107.19
440.272	107.19
440.493	88.19
440.715	93.19
440.936	105.19
441.158	103.19
441.379	107.19
441.6	93.19
441.822	85.19
442.043	86.19
442.264	102.19
442.486	110.19
442.707	104.19
442.928	100.19
443.149	101.19
443.371	119.19
443.592	87.19
443.813	96.19
444.034	104.19
444.255	96.19
444.476	105.19
444.698	96.19
444.919	89.19
445.14	245.19
445.361	156.19
445.582	92.19
445.803	92.19
446.024	99.19
446.245	99.19
446.466	95.19
446.687	97.19
446.908	80.19
447.129	90.19
447.35	98.19
447.571	101.19
447.792	100.19
448.013	92.19
448.234	103.19
448.455	98.19
448.675	85.19
448.896	99.19
449.117	92.19
449.338	104.19
449.559	96.19
449.779	105.19
450	100.19
450.221	96.19
450.442	115.19
450.662	96.19
450.883	109.19
451.104	97.19
451.324	90.19
451.545	97.19
451.766	102.19
451.986	99.19
452.207	91.19
452.428	84.19
452.648	104.19
452.869	93.19
453.089	93.19
453.31	100.19
453.53	96.19
453.751	87.19
453.971	85.19
454.192	89.19
454.412	93.19
454.633	100.19
454.853	86.19
455.073	90.19
455.294	82.19
455.514	87.19
455.734	96.19
455.955	79.19
456.175	96.19
456.395	89.19
456.616	93.19
456.836	92.19
457.056	88.19
457.276	99.19
457.497	87.19
457.717	85.19
457.937	89.19
458.157	94.19
458.377	85.19
458.598	85.19
458.818	75.19
459.038	78.19
459.258	83.19
459.478	89.19
459.698	95.19
459.918	85.19
460.138	97.19
460.358	83.19
460.578	84.19
460.798	78.19
461.018	82.19
461.238	101.19
461.458	88.19
461.678	98.19
461.898	95.19
462.118	106.19
462.338	91.19
462.558	98.19
462.777	91.19
462.997	93.19
463.217	97.19
463.437	89.19
463.657	95.19
463.876	84.19
464.096	89.19
464.316	89.19
464.536	88.19
464.755	88.19
464.975	88.19
465.195	98.19
465.414	92.19
465.634	93.19
465.854	85.19
466.073	88.19
466.293	83.19
466.512	96.19
466.732	107.19
466.951	88.19
467.171	113.19
467.391	92.19
467.61	104.19
467.829	99.19
468.049	88.19
468.268	118.19
468.488	95.19
468.707	101.19
468.927	73.19
469.146	92.19
469.365	108.19
469.585	105.19
469.804	91.19
470.023	100.19
470.243	90.19
470.462	100.19
470.681	100.19
470.901	80.19
471.12	90.19
471.339	87.19
471.558	96.19
471.777	97.19
471.997	95.19
472.216	105.19
472.435	92.19
472.654	92.19
472.873	96.19
473.092	88.19
473.311	91.19
473.53	101.19
473.749	77.19
473.968	96.19
474.187	79.19
474.406	85.19
474.625	96.19
474.844	95.19
475.063	93.19
475.282	84.19
475.501	96.19
475.72	105.19
475.939	88.19
476.158	92.19
476.377	96.19
476.596	100.19
476.814	81.19
477.033	93.19
477.252	89.19
477.471	101.19
477.69	96.19
477.908	80.19
478.127	110.19
478.346	105.19
478.564	89.19
478.783	91.19
479.002	104.19
479.22	90.19
479.439	71.19
479.658	69.19
479.876	90.19
480.095	72.19
480.313	99.19
480.532	79.19
480.751	94.19
480.969	97.19
481.188	115.19
481.406	87.19
481.624	95.19
481.843	71.19
482.061	84.19
482.28	84.19
482.498	86.19
482.717	90.19
482.935	91.19
483.153	91.19
483.372	97.19
483.59	98.19
483.808	96.19
484.027	90.19
484.245	99.19
484.463	112.19
484.681	110.19
484.9	118.19
485.118	90.19
485.336	91.19
485.554	100.19
485.772	96.19
485.99	91.19
486.209	81.19
486.427	89.19
486.645	93.19
486.863	106.19
487.081	100.19
487.299	99.19
487.517	99.19
487.735	115.19
487.953	116.19
488.171	123.19
488.389	87.19
488.607	94.19
488.825	108.19
489.043	99.19
489.261	92.19
489.479	98.19
489.696	95.19
489.914	91.19
490.132	92.19
490.35	90.19
490.568	104.19
490.786	106.19
491.003	112.19
491.221	114.19
491.439	122.19
491.657	105.19
491.874	108.19
492.092	115.19
492.31	107.19
492.527	123.19
492.745	122.19
492.963	112.19
493.18	101.19
493.398	115.19
493.615	115.19
493.833	123.19
494.05	103.19
494.268	114.19
494.485	114.19
494.703	110.19
494.92	102.19
495.138	111.19
495.355	108.19
495.573	103.19
495.79	94.19
496.008	105.19
496.225	105.19
496.442	109.19
496.66	100.19
496.877	118.19
497.094	128.19
497.312	108.19
497.529	86.19
497.746	120.19
497.963	104.19
498.181	89.19
498.398	87.19
498.615	95.19
498.832	91.19
499.049	104.19
499.267	96.19
499.484	91.19
499.701	89.19
499.918	102.19
500.135	104.19
500.352	90.19
500.569	93.19
500.786	97.19
501.003	94.19
501.22	92.19
501.437	99.19
501.654	84.19
501.871	98.19
502.088	107.19
502.305	93.19
502.522	90.19
502.739	99.19
502.956	102.19
503.172	93.19
503.389	88.19
503.606	96.19
503.823	99.19
504.04	100.19
504.256	101.19
504.473	93.19
504.69	80.19
504.907	100.19
505.123	94.19
505.34	93.19
505.557	103.19
505.773	106.19
505.99	92.19
506.207	98.19
506.423	77.19
506.64	111.19
506.856	92.19
507.073	94.19
507.289	98.19
507.506	79.19
507.722	91.19
507.939	89.19
508.155	102.19
508.372	102.19
508.588	104.19
508.805	84.19
509.021	92.19
509.238	92.19
509.454	91.19
509.67	91.19
509.887	87.19
510.103	92.19
510.319	93.19
510.536	85.19
510.752	89.19
510.968	84.19
511.184	94.19
511.401	95.19
511.617	88.19
511.833	94.19
512.049	88.19
512.265	83.19
512.481	86.19
512.698	91.19
512.914	99.19
513.13	78.19
513.346	83.19
513.562	90.19
513.778	67.19
513.994	87.19
514.21	75.19
514.426	77.19
514.642	78.19
514.858	88.19
515.074	94.19
515.29	100.19
515.506	88.19
515.721	82.19
515.937	93.19
516.153	95.19
516.369	91.19
516.585	78.19
516.801	77.19
517.016	82.19
517.232	84.19
