Data from Location5.07152019.Energy5.Lamp.07192019.3%Agarose_HRD10591_16-02-45-628.txt Node
Date: Fri Jul 19 16:02:45 EDT 2019
User: cochatt
Spectrometer: HR+D1059
Trigger mode: 1
Integration Time (sec): 1.000000E-1
Scans to average: 1
Electric dark correction enabled: true
Nonlinearity correction enabled: false
Boxcar width: 0
XAxis mode: Wavelengths
Number of Pixels in Spectrum: 2048
>>>>>Begin Spectral Data<<<<<
223.165	3.94
223.4	3.94
223.635	3.94
223.869	-18.06
224.104	-17.06
224.338	-16.06
224.573	-16.06
224.808	-6.06
225.042	-9.06
225.277	-1.06
225.511	-11.06
225.746	-3.06
225.98	2.94
226.215	11.94
226.449	10.94
226.683	27.94
226.918	20.94
227.152	18.94
227.387	26.94
227.621	32.94
227.856	36.94
228.09	37.94
228.324	65.94
228.559	57.94
228.793	51.94
229.027	56.94
229.262	70.94
229.496	57.94
229.73	79.94
229.964	73.94
230.199	71.94
230.433	63.94
230.667	81.94
230.901	60.94
231.136	78.94
231.37	79.94
231.604	78.94
231.838	81.94
232.072	82.94
232.306	74.94
232.541	76.94
232.775	77.94
233.009	88.94
233.243	89.94
233.477	82.94
233.711	82.94
233.945	60.94
234.179	79.94
234.413	79.94
234.647	77.94
234.881	71.94
235.115	81.94
235.349	74.94
235.583	72.94
235.817	87.94
236.051	82.94
236.285	70.94
236.519	58.94
236.753	78.94
236.987	65.94
237.221	88.94
237.455	80.94
237.689	80.94
237.922	85.94
238.156	84.94
238.39	79.94
238.624	62.94
238.858	75.94
239.091	70.94
239.325	61.94
239.559	75.94
239.793	68.94
240.027	81.94
240.26	68.94
240.494	72.94
240.728	58.94
240.961	73.94
241.195	75.94
241.429	75.94
241.662	71.94
241.896	72.94
242.13	64.94
242.363	83.94
242.597	73.94
242.83	84.94
243.064	84.94
243.298	62.94
243.531	81.94
243.765	71.94
243.998	66.94
244.232	69.94
244.465	84.94
244.699	74.94
244.932	83.94
245.166	77.94
245.399	76.94
245.633	72.94
245.866	86.94
246.099	77.94
246.333	69.94
246.566	77.94
246.8	80.94
247.033	79.94
247.266	71.94
247.5	69.94
247.733	89.94
247.966	79.94
248.2	85.94
248.433	71.94
248.666	84.94
248.899	78.94
249.133	81.94
249.366	80.94
249.599	75.94
249.832	83.94
250.066	73.94
250.299	77.94
250.532	71.94
250.765	76.94
250.998	69.94
251.231	82.94
251.465	76.94
251.698	83.94
251.931	77.94
252.164	77.94
252.397	100.94
252.63	82.94
252.863	84.94
253.096	84.94
253.329	72.94
253.562	73.94
253.795	77.94
254.028	84.94
254.261	78.94
254.494	74.94
254.727	85.94
254.96	81.94
255.193	93.94
255.426	76.94
255.659	85.94
255.892	73.94
256.124	87.94
256.357	84.94
256.59	77.94
256.823	58.94
257.056	82.94
257.289	69.94
257.521	95.94
257.754	74.94
257.987	84.94
258.22	80.94
258.452	74.94
258.685	74.94
258.918	88.94
259.151	74.94
259.383	72.94
259.616	82.94
259.849	79.94
260.081	77.94
260.314	72.94
260.547	81.94
260.779	73.94
261.012	79.94
261.244	82.94
261.477	102.94
261.71	82.94
261.942	85.94
262.175	92.94
262.407	84.94
262.64	94.94
262.872	72.94
263.105	83.94
263.337	76.94
263.57	80.94
263.802	84.94
264.035	79.94
264.267	87.94
264.499	80.94
264.732	72.94
264.964	63.94
265.197	83.94
265.429	81.94
265.661	79.94
265.894	76.94
266.126	80.94
266.358	72.94
266.591	83.94
266.823	61.94
267.055	83.94
267.287	70.94
267.52	76.94
267.752	75.94
267.984	81.94
268.216	82.94
268.448	76.94
268.681	95.94
268.913	83.94
269.145	69.94
269.377	90.94
269.609	93.94
269.841	80.94
270.073	81.94
270.306	89.94
270.538	81.94
270.77	79.94
271.002	89.94
271.234	85.94
271.466	83.94
271.698	95.94
271.93	87.94
272.162	93.94
272.394	89.94
272.626	87.94
272.858	82.94
273.09	79.94
273.322	85.94
273.553	72.94
273.785	94.94
274.017	96.94
274.249	70.94
274.481	73.94
274.713	73.94
274.945	89.94
275.176	73.94
275.408	62.94
275.64	81.94
275.872	88.94
276.104	86.94
276.335	87.94
276.567	92.94
276.799	85.94
277.031	94.94
277.262	77.94
277.494	88.94
277.726	84.94
277.957	86.94
278.189	86.94
278.421	89.94
278.652	86.94
278.884	92.94
279.115	96.94
279.347	88.94
279.579	88.94
279.81	98.94
280.042	77.94
280.273	99.94
280.505	92.94
280.736	76.94
280.968	93.94
281.199	94.94
281.431	78.94
281.662	83.94
281.894	101.94
282.125	89.94
282.356	91.94
282.588	80.94
282.819	83.94
283.051	85.94
283.282	81.94
283.513	87.94
283.745	101.94
283.976	80.94
284.207	86.94
284.439	92.94
284.67	89.94
284.901	78.94
285.132	87.94
285.364	82.94
285.595	89.94
285.826	77.94
286.057	86.94
286.288	89.94
286.52	80.94
286.751	84.94
286.982	91.94
287.213	79.94
287.444	92.94
287.675	96.94
287.906	86.94
288.138	81.94
288.369	85.94
288.6	90.94
288.831	82.94
289.062	88.94
289.293	76.94
289.524	95.94
289.755	89.94
289.986	77.94
290.217	76.94
290.448	84.94
290.679	89.94
290.91	80.94
291.141	75.94
291.371	66.94
291.602	86.94
291.833	97.94
292.064	93.94
292.295	92.94
292.526	86.94
292.757	85.94
292.987	99.94
293.218	93.94
293.449	73.94
293.68	91.94
293.91	84.94
294.141	75.94
294.372	95.94
294.603	85.94
294.833	106.94
295.064	85.94
295.295	77.94
295.525	92.94
295.756	68.94
295.987	83.94
296.217	95.94
296.448	92.94
296.679	79.94
296.909	89.94
297.14	103.94
297.37	103.94
297.601	83.94
297.831	82.94
298.062	92.94
298.292	78.94
298.523	84.94
298.753	96.94
298.984	75.94
299.214	89.94
299.445	84.94
299.675	84.94
299.905	82.94
300.136	89.94
300.366	90.94
300.597	77.94
300.827	84.94
301.057	86.94
301.288	84.94
301.518	92.94
301.748	82.94
301.979	99.94
302.209	87.94
302.439	80.94
302.669	65.94
302.9	89.94
303.13	86.94
303.36	106.94
303.59	105.94
303.82	100.94
304.051	97.94
304.281	89.94
304.511	90.94
304.741	88.94
304.971	95.94
305.201	92.94
305.431	94.94
305.661	95.94
305.891	112.94
306.121	92.94
306.352	90.94
306.582	85.94
306.812	110.94
307.042	93.94
307.272	71.94
307.502	90.94
307.731	96.94
307.961	98.94
308.191	93.94
308.421	99.94
308.651	98.94
308.881	86.94
309.111	100.94
309.341	76.94
309.571	93.94
309.8	96.94
310.03	91.94
310.26	98.94
310.49	98.94
310.72	84.94
310.949	84.94
311.179	93.94
311.409	82.94
311.639	94.94
311.868	88.94
312.098	84.94
312.328	105.94
312.557	96.94
312.787	89.94
313.017	98.94
313.246	102.94
313.476	96.94
313.706	88.94
313.935	84.94
314.165	93.94
314.394	97.94
314.624	89.94
314.853	85.94
315.083	94.94
315.312	90.94
315.542	84.94
315.771	77.94
316.001	89.94
316.23	89.94
316.46	84.94
316.689	89.94
316.919	78.94
317.148	96.94
317.377	88.94
317.607	94.94
317.836	89.94
318.065	81.94
318.295	84.94
318.524	75.94
318.753	102.94
318.983	110.94
319.212	97.94
319.441	88.94
319.67	92.94
319.9	80.94
320.129	89.94
320.358	92.94
320.587	91.94
320.816	97.94
321.046	84.94
321.275	94.94
321.504	82.94
321.733	89.94
321.962	79.94
322.191	74.94
322.42	86.94
322.649	94.94
322.878	103.94
323.108	78.94
323.337	90.94
323.566	90.94
323.795	89.94
324.024	97.94
324.253	89.94
324.482	84.94
324.71	74.94
324.939	82.94
325.168	77.94
325.397	94.94
325.626	91.94
325.855	77.94
326.084	84.94
326.313	96.94
326.542	98.94
326.77	99.94
326.999	89.94
327.228	91.94
327.457	103.94
327.686	95.94
327.914	79.94
328.143	98.94
328.372	88.94
328.6	91.94
328.829	97.94
329.058	102.94
329.287	74.94
329.515	83.94
329.744	83.94
329.972	98.94
330.201	89.94
330.43	88.94
330.658	93.94
330.887	90.94
331.115	81.94
331.344	89.94
331.572	104.94
331.801	100.94
332.03	83.94
332.258	101.94
332.486	89.94
332.715	92.94
332.943	80.94
333.172	96.94
333.4	106.94
333.629	94.94
333.857	110.94
334.085	95.94
334.314	96.94
334.542	92.94
334.771	94.94
334.999	86.94
335.227	113.94
335.455	88.94
335.684	83.94
335.912	87.94
336.14	97.94
336.369	89.94
336.597	93.94
336.825	90.94
337.053	100.94
337.281	97.94
337.51	94.94
337.738	84.94
337.966	93.94
338.194	96.94
338.422	103.94
338.65	88.94
338.878	76.94
339.106	89.94
339.334	87.94
339.562	100.94
339.79	96.94
340.018	99.94
340.246	91.94
340.474	92.94
340.702	84.94
340.93	80.94
341.158	80.94
341.386	81.94
341.614	85.94
341.842	87.94
342.07	94.94
342.298	72.94
342.526	90.94
342.754	81.94
342.981	89.94
343.209	97.94
343.437	77.94
343.665	81.94
343.893	84.94
344.12	118.94
344.348	100.94
344.576	103.94
344.804	93.94
345.031	86.94
345.259	84.94
345.487	81.94
345.714	88.94
345.942	88.94
346.17	78.94
346.397	89.94
346.625	97.94
346.853	89.94
347.08	85.94
347.308	77.94
347.535	83.94
347.763	77.94
347.99	89.94
348.218	92.94
348.445	82.94
348.673	97.94
348.9	79.94
349.128	88.94
349.355	82.94
349.583	99.94
349.81	71.94
350.037	74.94
350.265	81.94
350.492	102.94
350.72	93.94
350.947	90.94
351.174	94.94
351.402	91.94
351.629	95.94
351.856	86.94
352.083	92.94
352.311	114.94
352.538	79.94
352.765	77.94
352.992	89.94
353.22	78.94
353.447	101.94
353.674	79.94
353.901	89.94
354.128	96.94
354.355	81.94
354.583	91.94
354.81	98.94
355.037	86.94
355.264	97.94
355.491	94.94
355.718	102.94
355.945	91.94
356.172	86.94
356.399	90.94
356.626	88.94
356.853	85.94
357.08	95.94
357.307	84.94
357.534	84.94
357.761	84.94
357.988	87.94
358.215	97.94
358.441	76.94
358.668	81.94
358.895	87.94
359.122	76.94
359.349	84.94
359.576	89.94
359.802	87.94
360.029	97.94
360.256	85.94
360.483	81.94
360.709	88.94
360.936	102.94
361.163	91.94
361.39	90.94
361.616	88.94
361.843	92.94
362.07	91.94
362.296	86.94
362.523	82.94
362.749	98.94
362.976	89.94
363.203	81.94
363.429	83.94
363.656	101.94
363.882	85.94
364.109	80.94
364.335	100.94
364.562	92.94
364.788	94.94
365.015	89.94
365.241	102.94
365.468	86.94
365.694	88.94
365.92	109.94
366.147	102.94
366.373	90.94
366.599	86.94
366.826	84.94
367.052	97.94
367.278	96.94
367.505	90.94
367.731	82.94
367.957	94.94
368.184	101.94
368.41	76.94
368.636	80.94
368.862	103.94
369.089	83.94
369.315	92.94
369.541	87.94
369.767	89.94
369.993	84.94
370.219	96.94
370.445	73.94
370.672	96.94
370.898	89.94
371.124	90.94
371.35	85.94
371.576	81.94
371.802	91.94
372.028	90.94
372.254	94.94
372.48	81.94
372.706	93.94
372.932	90.94
373.158	102.94
373.384	104.94
373.61	104.94
373.835	91.94
374.061	93.94
374.287	79.94
374.513	85.94
374.739	95.94
374.965	100.94
375.191	97.94
375.416	87.94
375.642	97.94
375.868	89.94
376.094	74.94
376.319	82.94
376.545	91.94
376.771	103.94
376.997	89.94
377.222	88.94
377.448	92.94
377.674	89.94
377.899	80.94
378.125	93.94
378.35	94.94
378.576	87.94
378.802	95.94
379.027	93.94
379.253	89.94
379.478	85.94
379.704	75.94
379.929	79.94
380.155	90.94
380.38	81.94
380.606	90.94
380.831	96.94
381.057	105.94
381.282	82.94
381.507	91.94
381.733	96.94
381.958	83.94
382.184	92.94
382.409	89.94
382.634	92.94
382.86	92.94
383.085	95.94
383.31	78.94
383.535	92.94
383.761	98.94
383.986	85.94
384.211	94.94
384.436	87.94
384.662	81.94
384.887	94.94
385.112	87.94
385.337	90.94
385.562	94.94
385.787	104.94
386.013	96.94
386.238	101.94
386.463	99.94
386.688	101.94
386.913	82.94
387.138	96.94
387.363	95.94
387.588	97.94
387.813	85.94
388.038	85.94
388.263	91.94
388.488	92.94
388.713	94.94
388.938	99.94
389.163	97.94
389.387	87.94
389.612	81.94
389.837	88.94
390.062	90.94
390.287	86.94
390.512	90.94
390.736	88.94
390.961	81.94
391.186	101.94
391.411	110.94
391.636	98.94
391.86	98.94
392.085	88.94
392.31	82.94
392.534	109.94
392.759	98.94
392.984	106.94
393.208	86.94
393.433	90.94
393.658	85.94
393.882	95.94
394.107	96.94
394.331	84.94
394.556	88.94
394.78	78.94
395.005	88.94
395.229	94.94
395.454	102.94
395.678	90.94
395.903	84.94
396.127	85.94
396.352	88.94
396.576	100.94
396.801	89.94
397.025	84.94
397.249	89.94
397.474	97.94
397.698	91.94
397.922	91.94
398.147	100.94
398.371	84.94
398.595	93.94
398.82	86.94
399.044	107.94
399.268	107.94
399.492	103.94
399.717	110.94
399.941	102.94
400.165	120.94
400.389	95.94
400.613	100.94
400.837	109.94
401.062	102.94
401.286	97.94
401.51	93.94
401.734	82.94
401.958	111.94
402.182	82.94
402.406	92.94
402.63	100.94
402.854	104.94
403.078	104.94
403.302	100.94
403.526	100.94
403.75	103.94
403.974	105.94
404.198	104.94
404.422	108.94
404.645	98.94
404.869	107.94
405.093	99.94
405.317	103.94
405.541	87.94
405.765	92.94
405.988	83.94
406.212	105.94
406.436	113.94
406.66	94.94
406.883	92.94
407.107	95.94
407.331	98.94
407.555	101.94
407.778	112.94
408.002	105.94
408.226	104.94
408.449	111.94
408.673	84.94
408.896	95.94
409.12	92.94
409.344	93.94
409.567	100.94
409.791	106.94
410.014	105.94
410.238	82.94
410.461	87.94
410.685	98.94
410.908	114.94
411.132	94.94
411.355	109.94
411.578	86.94
411.802	108.94
412.025	99.94
412.249	90.94
412.472	82.94
412.695	101.94
412.919	90.94
413.142	101.94
413.365	111.94
413.589	90.94
413.812	102.94
414.035	87.94
414.258	91.94
414.482	82.94
414.705	98.94
414.928	109.94
415.151	97.94
415.374	92.94
415.597	91.94
415.821	98.94
416.044	99.94
416.267	95.94
416.49	90.94
416.713	79.94
416.936	87.94
417.159	88.94
417.382	92.94
417.605	99.94
417.828	98.94
418.051	94.94
418.274	80.94
418.497	91.94
418.72	98.94
418.943	90.94
419.166	94.94
419.389	93.94
419.611	86.94
419.834	100.94
420.057	86.94
420.28	83.94
420.503	85.94
420.726	95.94
420.948	113.94
421.171	100.94
421.394	101.94
421.617	90.94
421.839	103.94
422.062	95.94
422.285	90.94
422.507	96.94
422.73	93.94
422.953	94.94
423.175	95.94
423.398	112.94
423.621	95.94
423.843	91.94
424.066	90.94
424.288	109.94
424.511	108.94
424.733	88.94
424.956	96.94
425.178	95.94
425.401	100.94
425.623	93.94
425.846	91.94
426.068	88.94
426.291	101.94
426.513	98.94
426.735	87.94
426.958	92.94
427.18	97.94
427.402	88.94
427.625	83.94
427.847	93.94
428.069	90.94
428.292	102.94
428.514	88.94
428.736	95.94
428.958	94.94
429.181	95.94
429.403	93.94
429.625	85.94
429.847	95.94
430.069	83.94
430.292	105.94
430.514	80.94
430.736	91.94
430.958	103.94
431.18	88.94
431.402	92.94
431.624	84.94
431.846	89.94
432.068	97.94
432.29	91.94
432.512	94.94
432.734	99.94
432.956	88.94
433.178	98.94
433.4	89.94
433.622	109.94
433.844	84.94
434.066	99.94
434.287	100.94
434.509	81.94
434.731	80.94
434.953	98.94
435.175	101.94
435.397	102.94
435.618	87.94
435.84	90.94
436.062	102.94
436.284	94.94
436.505	88.94
436.727	90.94
436.949	85.94
437.17	106.94
437.392	89.94
437.614	92.94
437.835	90.94
438.057	100.94
438.278	98.94
438.5	90.94
438.721	92.94
438.943	79.94
439.165	96.94
439.386	98.94
439.608	84.94
439.829	97.94
440.05	103.94
440.272	102.94
440.493	84.94
440.715	87.94
440.936	91.94
441.158	99.94
441.379	84.94
441.6	110.94
441.822	112.94
442.043	88.94
442.264	79.94
442.486	90.94
442.707	84.94
442.928	83.94
443.149	89.94
443.371	98.94
443.592	91.94
443.813	91.94
444.034	99.94
444.255	91.94
444.476	83.94
444.698	98.94
444.919	105.94
445.14	222.94
445.361	172.94
445.582	96.94
445.803	102.94
446.024	85.94
446.245	101.94
446.466	89.94
446.687	86.94
446.908	92.94
447.129	82.94
447.35	108.94
447.571	88.94
447.792	93.94
448.013	92.94
448.234	105.94
448.455	92.94
448.675	96.94
448.896	100.94
449.117	88.94
449.338	95.94
449.559	94.94
449.779	92.94
450	90.94
450.221	92.94
450.442	86.94
450.662	96.94
450.883	91.94
451.104	81.94
451.324	83.94
451.545	98.94
451.766	93.94
451.986	94.94
452.207	94.94
452.428	84.94
452.648	93.94
452.869	99.94
453.089	86.94
453.31	82.94
453.53	80.94
453.751	87.94
453.971	102.94
454.192	90.94
454.412	107.94
454.633	98.94
454.853	98.94
455.073	102.94
455.294	94.94
455.514	100.94
455.734	88.94
455.955	92.94
456.175	99.94
456.395	104.94
456.616	84.94
456.836	95.94
457.056	96.94
457.276	92.94
457.497	102.94
457.717	86.94
457.937	105.94
458.157	83.94
458.377	104.94
458.598	89.94
458.818	75.94
459.038	90.94
459.258	95.94
459.478	79.94
459.698	93.94
459.918	94.94
460.138	101.94
460.358	100.94
460.578	108.94
460.798	95.94
461.018	105.94
461.238	95.94
461.458	102.94
461.678	108.94
461.898	87.94
462.118	96.94
462.338	89.94
462.558	88.94
462.777	101.94
462.997	89.94
463.217	102.94
463.437	104.94
463.657	106.94
463.876	97.94
464.096	82.94
464.316	102.94
464.536	102.94
464.755	105.94
464.975	91.94
465.195	104.94
465.414	92.94
465.634	94.94
465.854	110.94
466.073	91.94
466.293	95.94
466.512	103.94
466.732	104.94
466.951	92.94
467.171	97.94
467.391	102.94
467.61	94.94
467.829	104.94
468.049	102.94
468.268	97.94
468.488	102.94
468.707	100.94
468.927	92.94
469.146	72.94
469.365	87.94
469.585	99.94
469.804	111.94
470.023	88.94
470.243	96.94
470.462	101.94
470.681	86.94
470.901	89.94
471.12	88.94
471.339	94.94
471.558	95.94
471.777	99.94
471.997	100.94
472.216	100.94
472.435	77.94
472.654	101.94
472.873	93.94
473.092	100.94
473.311	95.94
473.53	95.94
473.749	100.94
473.968	104.94
474.187	88.94
474.406	100.94
474.625	95.94
474.844	105.94
475.063	84.94
475.282	93.94
475.501	80.94
475.72	101.94
475.939	98.94
476.158	99.94
476.377	102.94
476.596	111.94
476.814	105.94
477.033	109.94
477.252	100.94
477.471	100.94
477.69	96.94
477.908	98.94
478.127	97.94
478.346	109.94
478.564	93.94
478.783	101.94
479.002	93.94
479.22	105.94
479.439	93.94
479.658	111.94
479.876	108.94
480.095	93.94
480.313	96.94
480.532	105.94
480.751	103.94
480.969	99.94
481.188	93.94
481.406	89.94
481.624	97.94
481.843	105.94
482.061	92.94
482.28	94.94
482.498	108.94
482.717	103.94
482.935	95.94
483.153	118.94
483.372	99.94
483.59	94.94
483.808	112.94
484.027	98.94
484.245	101.94
484.463	116.94
484.681	110.94
484.9	100.94
485.118	104.94
485.336	85.94
485.554	103.94
485.772	105.94
485.99	116.94
486.209	95.94
486.427	107.94
486.645	117.94
486.863	114.94
487.081	113.94
487.299	118.94
487.517	104.94
487.735	108.94
487.953	105.94
488.171	104.94
488.389	118.94
488.607	103.94
488.825	100.94
489.043	88.94
489.261	103.94
489.479	119.94
489.696	106.94
489.914	102.94
490.132	105.94
490.35	110.94
490.568	99.94
490.786	108.94
491.003	92.94
491.221	114.94
491.439	118.94
491.657	113.94
491.874	112.94
492.092	121.94
492.31	124.94
492.527	114.94
492.745	117.94
492.963	110.94
493.18	106.94
493.398	96.94
493.615	120.94
493.833	95.94
494.05	118.94
494.268	114.94
494.485	101.94
494.703	112.94
494.92	114.94
495.138	99.94
495.355	110.94
495.573	102.94
495.79	113.94
496.008	122.94
496.225	98.94
496.442	105.94
496.66	115.94
496.877	102.94
497.094	111.94
497.312	113.94
497.529	96.94
497.746	124.94
497.963	120.94
498.181	116.94
498.398	119.94
498.615	116.94
498.832	85.94
499.049	105.94
499.267	123.94
499.484	126.94
499.701	139.94
499.918	144.94
500.135	135.94
500.352	141.94
500.569	155.94
500.786	155.94
501.003	150.94
501.22	140.94
501.437	135.94
501.654	112.94
501.871	128.94
502.088	99.94
502.305	113.94
502.522	120.94
502.739	116.94
502.956	120.94
503.172	113.94
503.389	111.94
503.606	104.94
503.823	100.94
504.04	108.94
504.256	112.94
504.473	120.94
504.69	120.94
504.907	112.94
505.123	97.94
505.34	94.94
505.557	104.94
505.773	98.94
505.99	108.94
506.207	110.94
506.423	84.94
506.64	116.94
506.856	102.94
507.073	89.94
507.289	98.94
507.506	99.94
507.722	92.94
507.939	114.94
508.155	106.94
508.372	115.94
508.588	109.94
508.805	118.94
509.021	87.94
509.238	89.94
509.454	96.94
509.67	99.94
509.887	87.94
510.103	81.94
510.319	97.94
510.536	113.94
510.752	90.94
510.968	97.94
511.184	109.94
511.401	101.94
511.617	82.94
511.833	98.94
512.049	102.94
512.265	117.94
512.481	108.94
512.698	114.94
512.914	94.94
513.13	98.94
513.346	98.94
513.562	101.94
513.778	89.94
513.994	96.94
514.21	96.94
514.426	109.94
514.642	107.94
514.858	110.94
515.074	105.94
515.29	87.94
