Data from Location5.07152019.Energy5.Lamp.07192019.3%Agarose_HRD10591_16-05-29-630.txt Node
Date: Fri Jul 19 16:05:29 EDT 2019
User: cochatt
Spectrometer: HR+D1059
Trigger mode: 1
Integration Time (sec): 1.000000E-1
Scans to average: 1
Electric dark correction enabled: true
Nonlinearity correction enabled: false
Boxcar width: 0
XAxis mode: Wavelengths
Number of Pixels in Spectrum: 2048
>>>>>Begin Spectral Data<<<<<
223.165	-8.31
223.4	-8.31
223.635	-8.31
223.869	-24.31
224.104	-26.31
224.338	-5.31
224.573	-11.31
224.808	-15.31
225.042	-10.31
225.277	-3.31
225.511	-7.31
225.746	1.69
225.98	4.69
226.215	-3.31
226.449	14.69
226.683	38.69
226.918	29.69
227.152	25.69
227.387	36.69
227.621	39.69
227.856	46.69
228.09	40.69
228.324	48.69
228.559	50.69
228.793	68.69
229.027	66.69
229.262	55.69
229.496	59.69
229.73	47.69
229.964	64.69
230.199	72.69
230.433	59.69
230.667	67.69
230.901	75.69
231.136	70.69
231.37	78.69
231.604	89.69
231.838	96.69
232.072	82.69
232.306	84.69
232.541	84.69
232.775	84.69
233.009	85.69
233.243	83.69
233.477	85.69
233.711	82.69
233.945	78.69
234.179	91.69
234.413	84.69
234.647	86.69
234.881	81.69
235.115	81.69
235.349	95.69
235.583	69.69
235.817	72.69
236.051	76.69
236.285	65.69
236.519	71.69
236.753	82.69
236.987	69.69
237.221	64.69
237.455	73.69
237.689	80.69
237.922	80.69
238.156	81.69
238.39	81.69
238.624	79.69
238.858	63.69
239.091	65.69
239.325	72.69
239.559	86.69
239.793	67.69
240.027	76.69
240.26	74.69
240.494	77.69
240.728	79.69
240.961	89.69
241.195	76.69
241.429	81.69
241.662	83.69
241.896	87.69
242.13	73.69
242.363	61.69
242.597	58.69
242.83	61.69
243.064	77.69
243.298	77.69
243.531	80.69
243.765	69.69
243.998	80.69
244.232	76.69
244.465	76.69
244.699	82.69
244.932	71.69
245.166	71.69
245.399	84.69
245.633	77.69
245.866	87.69
246.099	66.69
246.333	84.69
246.566	68.69
246.8	72.69
247.033	75.69
247.266	85.69
247.5	87.69
247.733	89.69
247.966	78.69
248.2	72.69
248.433	75.69
248.666	79.69
248.899	78.69
249.133	70.69
249.366	81.69
249.599	86.69
249.832	82.69
250.066	88.69
250.299	84.69
250.532	74.69
250.765	80.69
250.998	75.69
251.231	65.69
251.465	74.69
251.698	75.69
251.931	69.69
252.164	82.69
252.397	81.69
252.63	80.69
252.863	93.69
253.096	74.69
253.329	78.69
253.562	73.69
253.795	80.69
254.028	74.69
254.261	83.69
254.494	75.69
254.727	77.69
254.96	87.69
255.193	89.69
255.426	89.69
255.659	79.69
255.892	57.69
256.124	84.69
256.357	78.69
256.59	83.69
256.823	80.69
257.056	78.69
257.289	77.69
257.521	76.69
257.754	85.69
257.987	79.69
258.22	73.69
258.452	84.69
258.685	73.69
258.918	81.69
259.151	89.69
259.383	89.69
259.616	100.69
259.849	91.69
260.081	77.69
260.314	81.69
260.547	82.69
260.779	95.69
261.012	92.69
261.244	78.69
261.477	85.69
261.71	90.69
261.942	81.69
262.175	88.69
262.407	85.69
262.64	88.69
262.872	82.69
263.105	75.69
263.337	83.69
263.57	72.69
263.802	72.69
264.035	69.69
264.267	88.69
264.499	89.69
264.732	87.69
264.964	75.69
265.197	74.69
265.429	78.69
265.661	84.69
265.894	76.69
266.126	91.69
266.358	88.69
266.591	92.69
266.823	80.69
267.055	85.69
267.287	75.69
267.52	92.69
267.752	88.69
267.984	90.69
268.216	84.69
268.448	97.69
268.681	88.69
268.913	87.69
269.145	69.69
269.377	83.69
269.609	80.69
269.841	88.69
270.073	85.69
270.306	75.69
270.538	78.69
270.77	71.69
271.002	82.69
271.234	93.69
271.466	83.69
271.698	80.69
271.93	70.69
272.162	100.69
272.394	70.69
272.626	90.69
272.858	83.69
273.09	71.69
273.322	89.69
273.553	72.69
273.785	92.69
274.017	80.69
274.249	74.69
274.481	80.69
274.713	73.69
274.945	69.69
275.176	77.69
275.408	84.69
275.64	94.69
275.872	77.69
276.104	90.69
276.335	78.69
276.567	83.69
276.799	85.69
277.031	77.69
277.262	74.69
277.494	100.69
277.726	91.69
277.957	82.69
278.189	81.69
278.421	96.69
278.652	89.69
278.884	76.69
279.115	71.69
279.347	89.69
279.579	81.69
279.81	79.69
280.042	73.69
280.273	94.69
280.505	68.69
280.736	80.69
280.968	90.69
281.199	80.69
281.431	77.69
281.662	87.69
281.894	82.69
282.125	78.69
282.356	95.69
282.588	89.69
282.819	72.69
283.051	79.69
283.282	69.69
283.513	85.69
283.745	72.69
283.976	90.69
284.207	79.69
284.439	87.69
284.67	94.69
284.901	90.69
285.132	77.69
285.364	87.69
285.595	91.69
285.826	94.69
286.057	89.69
286.288	100.69
286.52	72.69
286.751	75.69
286.982	88.69
287.213	74.69
287.444	84.69
287.675	90.69
287.906	86.69
288.138	95.69
288.369	82.69
288.6	87.69
288.831	85.69
289.062	87.69
289.293	76.69
289.524	82.69
289.755	77.69
289.986	88.69
290.217	82.69
290.448	86.69
290.679	74.69
290.91	84.69
291.141	84.69
291.371	79.69
291.602	78.69
291.833	72.69
292.064	96.69
292.295	86.69
292.526	93.69
292.757	76.69
292.987	100.69
293.218	85.69
293.449	106.69
293.68	94.69
293.91	95.69
294.141	94.69
294.372	86.69
294.603	85.69
294.833	89.69
295.064	81.69
295.295	86.69
295.525	74.69
295.756	85.69
295.987	90.69
296.217	88.69
296.448	87.69
296.679	84.69
296.909	86.69
297.14	70.69
297.37	80.69
297.601	79.69
297.831	66.69
298.062	89.69
298.292	85.69
298.523	77.69
298.753	90.69
298.984	88.69
299.214	75.69
299.445	100.69
299.675	98.69
299.905	86.69
300.136	78.69
300.366	81.69
300.597	93.69
300.827	94.69
301.057	86.69
301.288	87.69
301.518	83.69
301.748	98.69
301.979	98.69
302.209	84.69
302.439	95.69
302.669	79.69
302.9	96.69
303.13	91.69
303.36	99.69
303.59	97.69
303.82	81.69
304.051	91.69
304.281	78.69
304.511	89.69
304.741	79.69
304.971	87.69
305.201	104.69
305.431	93.69
305.661	100.69
305.891	86.69
306.121	90.69
306.352	79.69
306.582	88.69
306.812	82.69
307.042	82.69
307.272	88.69
307.502	86.69
307.731	87.69
307.961	84.69
308.191	87.69
308.421	81.69
308.651	96.69
308.881	80.69
309.111	86.69
309.341	82.69
309.571	89.69
309.8	72.69
310.03	82.69
310.26	89.69
310.49	93.69
310.72	82.69
310.949	93.69
311.179	94.69
311.409	87.69
311.639	90.69
311.868	86.69
312.098	103.69
312.328	100.69
312.557	90.69
312.787	92.69
313.017	90.69
313.246	89.69
313.476	77.69
313.706	84.69
313.935	87.69
314.165	86.69
314.394	83.69
314.624	112.69
314.853	102.69
315.083	75.69
315.312	90.69
315.542	81.69
315.771	88.69
316.001	103.69
316.23	89.69
316.46	84.69
316.689	86.69
316.919	81.69
317.148	86.69
317.377	80.69
317.607	81.69
317.836	86.69
318.065	89.69
318.295	83.69
318.524	97.69
318.753	86.69
318.983	85.69
319.212	90.69
319.441	92.69
319.67	81.69
319.9	90.69
320.129	97.69
320.358	78.69
320.587	94.69
320.816	71.69
321.046	94.69
321.275	97.69
321.504	86.69
321.733	91.69
321.962	98.69
322.191	82.69
322.42	94.69
322.649	91.69
322.878	84.69
323.108	74.69
323.337	72.69
323.566	82.69
323.795	80.69
324.024	103.69
324.253	79.69
324.482	82.69
324.71	74.69
324.939	91.69
325.168	95.69
325.397	93.69
325.626	100.69
325.855	81.69
326.084	85.69
326.313	85.69
326.542	90.69
326.77	90.69
326.999	86.69
327.228	85.69
327.457	94.69
327.686	89.69
327.914	94.69
328.143	81.69
328.372	89.69
328.6	84.69
328.829	78.69
329.058	99.69
329.287	87.69
329.515	88.69
329.744	88.69
329.972	81.69
330.201	95.69
330.43	99.69
330.658	81.69
330.887	98.69
331.115	82.69
331.344	68.69
331.572	91.69
331.801	84.69
332.03	86.69
332.258	87.69
332.486	109.69
332.715	92.69
332.943	87.69
333.172	80.69
333.4	70.69
333.629	85.69
333.857	77.69
334.085	88.69
334.314	92.69
334.542	97.69
334.771	84.69
334.999	83.69
335.227	87.69
335.455	92.69
335.684	100.69
335.912	83.69
336.14	79.69
336.369	86.69
336.597	81.69
336.825	82.69
337.053	91.69
337.281	83.69
337.51	82.69
337.738	83.69
337.966	77.69
338.194	87.69
338.422	87.69
338.65	89.69
338.878	101.69
339.106	97.69
339.334	87.69
339.562	74.69
339.79	80.69
340.018	85.69
340.246	100.69
340.474	84.69
340.702	88.69
340.93	99.69
341.158	95.69
341.386	95.69
341.614	89.69
341.842	91.69
342.07	95.69
342.298	95.69
342.526	79.69
342.754	89.69
342.981	77.69
343.209	81.69
343.437	98.69
343.665	102.69
343.893	87.69
344.12	98.69
344.348	85.69
344.576	87.69
344.804	77.69
345.031	85.69
345.259	94.69
345.487	94.69
345.714	92.69
345.942	87.69
346.17	74.69
346.397	99.69
346.625	89.69
346.853	98.69
347.08	70.69
347.308	84.69
347.535	84.69
347.763	78.69
347.99	92.69
348.218	92.69
348.445	88.69
348.673	100.69
348.9	90.69
349.128	89.69
349.355	89.69
349.583	82.69
349.81	69.69
350.037	92.69
350.265	89.69
350.492	86.69
350.72	94.69
350.947	89.69
351.174	102.69
351.402	85.69
351.629	95.69
351.856	66.69
352.083	90.69
352.311	80.69
352.538	80.69
352.765	94.69
352.992	86.69
353.22	84.69
353.447	69.69
353.674	82.69
353.901	79.69
354.128	74.69
354.355	92.69
354.583	83.69
354.81	85.69
355.037	89.69
355.264	92.69
355.491	94.69
355.718	89.69
355.945	82.69
356.172	88.69
356.399	95.69
356.626	100.69
356.853	86.69
357.08	95.69
357.307	90.69
357.534	89.69
357.761	86.69
357.988	86.69
358.215	83.69
358.441	85.69
358.668	81.69
358.895	97.69
359.122	87.69
359.349	88.69
359.576	78.69
359.802	94.69
360.029	91.69
360.256	102.69
360.483	92.69
360.709	90.69
360.936	88.69
361.163	89.69
361.39	90.69
361.616	92.69
361.843	94.69
362.07	93.69
362.296	80.69
362.523	88.69
362.749	93.69
362.976	88.69
363.203	71.69
363.429	91.69
363.656	84.69
363.882	80.69
364.109	78.69
364.335	87.69
364.562	90.69
364.788	92.69
365.015	93.69
365.241	80.69
365.468	80.69
365.694	93.69
365.92	89.69
366.147	94.69
366.373	92.69
366.599	77.69
366.826	85.69
367.052	100.69
367.278	76.69
367.505	87.69
367.731	89.69
367.957	84.69
368.184	73.69
368.41	103.69
368.636	92.69
368.862	89.69
369.089	82.69
369.315	64.69
369.541	75.69
369.767	110.69
369.993	93.69
370.219	94.69
370.445	86.69
370.672	89.69
370.898	80.69
371.124	98.69
371.35	97.69
371.576	84.69
371.802	82.69
372.028	88.69
372.254	90.69
372.48	88.69
372.706	93.69
372.932	78.69
373.158	96.69
373.384	86.69
373.61	89.69
373.835	85.69
374.061	82.69
374.287	84.69
374.513	88.69
374.739	95.69
374.965	92.69
375.191	89.69
375.416	78.69
375.642	87.69
375.868	96.69
376.094	92.69
376.319	87.69
376.545	96.69
376.771	90.69
376.997	84.69
377.222	85.69
377.448	72.69
377.674	92.69
377.899	88.69
378.125	91.69
378.35	83.69
378.576	81.69
378.802	88.69
379.027	94.69
379.253	84.69
379.478	90.69
379.704	93.69
379.929	86.69
380.155	81.69
380.38	86.69
380.606	98.69
380.831	73.69
381.057	95.69
381.282	98.69
381.507	81.69
381.733	97.69
381.958	94.69
382.184	103.69
382.409	84.69
382.634	78.69
382.86	83.69
383.085	106.69
383.31	102.69
383.535	83.69
383.761	97.69
383.986	86.69
384.211	93.69
384.436	94.69
384.662	70.69
384.887	84.69
385.112	74.69
385.337	96.69
385.562	84.69
385.787	89.69
386.013	89.69
386.238	86.69
386.463	89.69
386.688	81.69
386.913	93.69
387.138	101.69
387.363	74.69
387.588	89.69
387.813	82.69
388.038	84.69
388.263	78.69
388.488	72.69
388.713	78.69
388.938	82.69
389.163	92.69
389.387	74.69
389.612	105.69
389.837	93.69
390.062	89.69
390.287	91.69
390.512	96.69
390.736	89.69
390.961	83.69
391.186	87.69
391.411	92.69
391.636	97.69
391.86	84.69
392.085	105.69
392.31	87.69
392.534	90.69
392.759	76.69
392.984	81.69
393.208	89.69
393.433	88.69
393.658	78.69
393.882	85.69
394.107	99.69
394.331	94.69
394.556	89.69
394.78	84.69
395.005	88.69
395.229	86.69
395.454	98.69
395.678	94.69
395.903	95.69
396.127	85.69
396.352	80.69
396.576	78.69
396.801	85.69
397.025	95.69
397.249	96.69
397.474	94.69
397.698	82.69
397.922	103.69
398.147	108.69
398.371	104.69
398.595	90.69
398.82	74.69
399.044	84.69
399.268	88.69
399.492	98.69
399.717	112.69
399.941	102.69
400.165	90.69
400.389	93.69
400.613	89.69
400.837	91.69
401.062	94.69
401.286	84.69
401.51	79.69
401.734	82.69
401.958	104.69
402.182	95.69
402.406	91.69
402.63	93.69
402.854	88.69
403.078	99.69
403.302	79.69
403.526	92.69
403.75	89.69
403.974	96.69
404.198	101.69
404.422	95.69
404.645	84.69
404.869	89.69
405.093	83.69
405.317	80.69
405.541	87.69
405.765	101.69
405.988	92.69
406.212	103.69
406.436	93.69
406.66	86.69
406.883	96.69
407.107	84.69
407.331	106.69
407.555	98.69
407.778	94.69
408.002	97.69
408.226	86.69
408.449	94.69
408.673	84.69
408.896	81.69
409.12	69.69
409.344	94.69
409.567	95.69
409.791	84.69
410.014	85.69
410.238	80.69
410.461	81.69
410.685	98.69
410.908	82.69
411.132	94.69
411.355	97.69
411.578	92.69
411.802	68.69
412.025	84.69
412.249	92.69
412.472	98.69
412.695	97.69
412.919	89.69
413.142	85.69
413.365	94.69
413.589	90.69
413.812	93.69
414.035	96.69
414.258	102.69
414.482	85.69
414.705	88.69
414.928	92.69
415.151	91.69
415.374	87.69
415.597	95.69
415.821	96.69
416.044	96.69
416.267	74.69
416.49	96.69
416.713	97.69
416.936	76.69
417.159	80.69
417.382	87.69
417.605	89.69
417.828	102.69
418.051	88.69
418.274	81.69
418.497	97.69
418.72	82.69
418.943	87.69
419.166	85.69
419.389	92.69
419.611	84.69
419.834	91.69
420.057	98.69
420.28	91.69
420.503	76.69
420.726	83.69
420.948	79.69
421.171	93.69
421.394	97.69
421.617	81.69
421.839	98.69
422.062	81.69
422.285	94.69
422.507	95.69
422.73	84.69
422.953	103.69
423.175	94.69
423.398	98.69
423.621	96.69
423.843	95.69
424.066	73.69
424.288	92.69
424.511	88.69
424.733	90.69
424.956	89.69
425.178	96.69
425.401	103.69
425.623	86.69
425.846	81.69
426.068	81.69
426.291	90.69
426.513	83.69
426.735	84.69
426.958	92.69
427.18	79.69
427.402	83.69
427.625	100.69
427.847	90.69
428.069	88.69
428.292	85.69
428.514	92.69
428.736	88.69
428.958	90.69
429.181	90.69
429.403	71.69
429.625	81.69
429.847	100.69
430.069	88.69
430.292	96.69
430.514	107.69
430.736	96.69
430.958	102.69
431.18	95.69
431.402	95.69
431.624	81.69
431.846	77.69
432.068	85.69
432.29	93.69
432.512	95.69
432.734	93.69
432.956	100.69
433.178	82.69
433.4	89.69
433.622	91.69
433.844	93.69
434.066	107.69
434.287	100.69
434.509	82.69
434.731	83.69
434.953	95.69
435.175	89.69
435.397	95.69
435.618	86.69
435.84	86.69
436.062	82.69
436.284	96.69
436.505	90.69
436.727	107.69
436.949	105.69
437.17	87.69
437.392	84.69
437.614	90.69
437.835	84.69
438.057	83.69
438.278	79.69
438.5	91.69
438.721	81.69
438.943	103.69
439.165	93.69
439.386	77.69
439.608	96.69
439.829	83.69
440.05	90.69
440.272	95.69
440.493	87.69
440.715	84.69
440.936	90.69
441.158	93.69
441.379	100.69
441.6	86.69
441.822	96.69
442.043	90.69
442.264	83.69
442.486	80.69
442.707	89.69
442.928	81.69
443.149	95.69
443.371	89.69
443.592	80.69
443.813	89.69
444.034	91.69
444.255	90.69
444.476	95.69
444.698	85.69
444.919	83.69
445.14	227.69
445.361	143.69
445.582	100.69
445.803	103.69
446.024	91.69
446.245	89.69
446.466	98.69
446.687	96.69
446.908	94.69
447.129	91.69
447.35	75.69
447.571	77.69
447.792	95.69
448.013	95.69
448.234	96.69
448.455	79.69
448.675	97.69
448.896	80.69
449.117	75.69
449.338	80.69
449.559	81.69
449.779	101.69
450	93.69
450.221	84.69
450.442	94.69
450.662	78.69
450.883	80.69
451.104	99.69
451.324	80.69
451.545	86.69
451.766	91.69
451.986	93.69
452.207	83.69
452.428	93.69
452.648	84.69
452.869	86.69
453.089	90.69
453.31	88.69
453.53	74.69
453.751	83.69
453.971	100.69
454.192	94.69
454.412	77.69
454.633	87.69
454.853	74.69
455.073	82.69
455.294	97.69
455.514	87.69
455.734	90.69
455.955	74.69
456.175	89.69
456.395	76.69
456.616	88.69
456.836	80.69
457.056	70.69
457.276	93.69
457.497	84.69
457.717	78.69
457.937	58.69
458.157	82.69
458.377	89.69
458.598	90.69
458.818	95.69
459.038	86.69
459.258	94.69
459.478	90.69
459.698	96.69
459.918	101.69
460.138	86.69
460.358	89.69
460.578	104.69
460.798	100.69
461.018	97.69
461.238	91.69
461.458	90.69
461.678	82.69
461.898	88.69
462.118	93.69
462.338	89.69
462.558	102.69
462.777	90.69
462.997	98.69
463.217	95.69
463.437	108.69
463.657	84.69
463.876	100.69
464.096	96.69
464.316	91.69
464.536	88.69
464.755	91.69
464.975	101.69
465.195	99.69
465.414	89.69
465.634	99.69
465.854	96.69
466.073	99.69
466.293	81.69
466.512	100.69
466.732	90.69
466.951	79.69
467.171	104.69
467.391	81.69
467.61	82.69
467.829	98.69
468.049	93.69
468.268	113.69
468.488	99.69
468.707	103.69
468.927	84.69
469.146	97.69
469.365	103.69
469.585	94.69
469.804	87.69
470.023	74.69
470.243	87.69
470.462	97.69
470.681	111.69
470.901	96.69
471.12	93.69
471.339	99.69
471.558	103.69
471.777	87.69
471.997	102.69
472.216	90.69
472.435	118.69
472.654	110.69
472.873	73.69
473.092	94.69
473.311	91.69
473.53	93.69
473.749	102.69
473.968	93.69
474.187	75.69
474.406	88.69
474.625	103.69
474.844	94.69
475.063	99.69
475.282	74.69
475.501	94.69
475.72	95.69
475.939	112.69
476.158	98.69
476.377	100.69
476.596	101.69
476.814	101.69
477.033	102.69
477.252	94.69
477.471	90.69
477.69	80.69
477.908	90.69
478.127	97.69
478.346	94.69
478.564	102.69
478.783	98.69
479.002	101.69
479.22	85.69
479.439	95.69
479.658	109.69
479.876	82.69
480.095	96.69
480.313	102.69
480.532	81.69
480.751	89.69
480.969	95.69
481.188	92.69
481.406	94.69
481.624	96.69
481.843	81.69
482.061	92.69
482.28	98.69
482.498	93.69
482.717	86.69
482.935	87.69
483.153	92.69
483.372	118.69
483.59	106.69
483.808	109.69
484.027	98.69
484.245	102.69
484.463	93.69
484.681	92.69
484.9	93.69
485.118	97.69
485.336	106.69
485.554	90.69
485.772	100.69
485.99	102.69
486.209	93.69
486.427	99.69
486.645	100.69
486.863	82.69
487.081	91.69
487.299	114.69
487.517	105.69
487.735	94.69
487.953	106.69
488.171	114.69
488.389	105.69
488.607	100.69
488.825	96.69
489.043	89.69
489.261	96.69
489.479	102.69
489.696	92.69
489.914	97.69
490.132	93.69
490.35	95.69
490.568	106.69
490.786	103.69
491.003	99.69
491.221	97.69
491.439	95.69
491.657	103.69
491.874	120.69
492.092	104.69
492.31	115.69
492.527	123.69
492.745	113.69
492.963	109.69
493.18	118.69
493.398	110.69
493.615	112.69
493.833	99.69
494.05	110.69
494.268	110.69
494.485	109.69
494.703	116.69
494.92	102.69
495.138	116.69
495.355	105.69
495.573	124.69
495.79	110.69
496.008	108.69
496.225	114.69
496.442	113.69
496.66	119.69
496.877	109.69
497.094	95.69
497.312	100.69
497.529	102.69
497.746	111.69
497.963	90.69
498.181	99.69
498.398	110.69
498.615	99.69
498.832	108.69
499.049	103.69
499.267	108.69
499.484	120.69
499.701	114.69
499.918	118.69
500.135	139.69
500.352	134.69
500.569	130.69
500.786	147.69
501.003	138.69
501.22	142.69
501.437	119.69
501.654	116.69
501.871	134.69
502.088	119.69
502.305	108.69
502.522	113.69
502.739	117.69
502.956	101.69
503.172	93.69
503.389	99.69
503.606	117.69
503.823	103.69
504.04	110.69
504.256	106.69
504.473	122.69
504.69	112.69
504.907	117.69
505.123	105.69
505.34	101.69
505.557	89.69
505.773	106.69
505.99	115.69
506.207	95.69
506.423	101.69
506.64	111.69
506.856	109.69
507.073	101.69
507.289	97.69
507.506	107.69
507.722	100.69
507.939	94.69
508.155	97.69
508.372	91.69
508.588	109.69
508.805	102.69
509.021	97.69
509.238	89.69
509.454	95.69
509.67	91.69
509.887	95.69
510.103	91.69
510.319	96.69
510.536	106.69
510.752	109.69
510.968	92.69
511.184	102.69
511.401	108.69
511.617	96.69
511.833	95.69
512.049	87.69
512.265	97.69
512.481	108.69
512.698	96.69
512.914	112.69
513.13	95.69
513.346	82.69
513.562	109.69
513.778	116.69
513.994	69.69
514.21	103.69
514.426	84.69
514.642	101.69
514.858	100.69
515.074	90.69
515.29	93.69
515.506	100.69
515.721	91.69
515.937	104.69
516.153	89.69
516.369	89.69
516.585	117.69
516.801	96.69
