Data from Location5.07152019.Energy5.Lamp.07192019.3%Agarose_HRD10591_15-38-43-393.txt Node
Date: Fri Jul 19 15:38:43 EDT 2019
User: cochatt
Spectrometer: HR+D1059
Trigger mode: 1
Integration Time (sec): 1.000000E-1
Scans to average: 1
Electric dark correction enabled: true
Nonlinearity correction enabled: false
Boxcar width: 0
XAxis mode: Wavelengths
Number of Pixels in Spectrum: 2048
>>>>>Begin Spectral Data<<<<<
223.165	-17.94
223.4	-17.94
223.635	-17.94
223.869	-21.94
224.104	-20.94
224.338	-13.94
224.573	-1.94
224.808	-16.94
225.042	-12.94
225.277	-22.94
225.511	2.06
225.746	-3.94
225.98	15.06
226.215	16.06
226.449	13.06
226.683	34.06
226.918	36.06
227.152	17.06
227.387	26.06
227.621	44.06
227.856	42.06
228.09	55.06
228.324	50.06
228.559	38.06
228.793	59.06
229.027	67.06
229.262	62.06
229.496	69.06
229.73	56.06
229.964	74.06
230.199	72.06
230.433	73.06
230.667	85.06
230.901	70.06
231.136	77.06
231.37	80.06
231.604	87.06
231.838	83.06
232.072	81.06
232.306	75.06
232.541	91.06
232.775	84.06
233.009	91.06
233.243	84.06
233.477	97.06
233.711	88.06
233.945	68.06
234.179	74.06
234.413	83.06
234.647	80.06
234.881	84.06
235.115	76.06
235.349	79.06
235.583	85.06
235.817	70.06
236.051	72.06
236.285	85.06
236.519	75.06
236.753	77.06
236.987	97.06
237.221	64.06
237.455	66.06
237.689	81.06
237.922	73.06
238.156	77.06
238.39	84.06
238.624	80.06
238.858	74.06
239.091	69.06
239.325	83.06
239.559	63.06
239.793	80.06
240.027	73.06
240.26	83.06
240.494	76.06
240.728	82.06
240.961	78.06
241.195	73.06
241.429	81.06
241.662	81.06
241.896	63.06
242.13	83.06
242.363	75.06
242.597	80.06
242.83	74.06
243.064	66.06
243.298	85.06
243.531	69.06
243.765	85.06
243.998	82.06
244.232	83.06
244.465	76.06
244.699	80.06
244.932	80.06
245.166	76.06
245.399	78.06
245.633	91.06
245.866	87.06
246.099	70.06
246.333	87.06
246.566	82.06
246.8	81.06
247.033	87.06
247.266	65.06
247.5	78.06
247.733	89.06
247.966	74.06
248.2	70.06
248.433	84.06
248.666	78.06
248.899	91.06
249.133	74.06
249.366	73.06
249.599	81.06
249.832	77.06
250.066	78.06
250.299	78.06
250.532	89.06
250.765	94.06
250.998	80.06
251.231	71.06
251.465	87.06
251.698	79.06
251.931	76.06
252.164	73.06
252.397	74.06
252.63	83.06
252.863	69.06
253.096	78.06
253.329	70.06
253.562	78.06
253.795	81.06
254.028	89.06
254.261	86.06
254.494	84.06
254.727	83.06
254.96	68.06
255.193	72.06
255.426	71.06
255.659	74.06
255.892	85.06
256.124	85.06
256.357	80.06
256.59	90.06
256.823	76.06
257.056	85.06
257.289	73.06
257.521	82.06
257.754	79.06
257.987	82.06
258.22	79.06
258.452	91.06
258.685	79.06
258.918	75.06
259.151	73.06
259.383	81.06
259.616	89.06
259.849	77.06
260.081	62.06
260.314	80.06
260.547	73.06
260.779	77.06
261.012	86.06
261.244	87.06
261.477	80.06
261.71	79.06
261.942	67.06
262.175	75.06
262.407	70.06
262.64	70.06
262.872	88.06
263.105	82.06
263.337	84.06
263.57	83.06
263.802	88.06
264.035	71.06
264.267	84.06
264.499	80.06
264.732	81.06
264.964	82.06
265.197	80.06
265.429	89.06
265.661	87.06
265.894	67.06
266.126	87.06
266.358	91.06
266.591	92.06
266.823	88.06
267.055	77.06
267.287	79.06
267.52	86.06
267.752	81.06
267.984	79.06
268.216	93.06
268.448	76.06
268.681	79.06
268.913	88.06
269.145	83.06
269.377	83.06
269.609	85.06
269.841	84.06
270.073	73.06
270.306	82.06
270.538	79.06
270.77	78.06
271.002	77.06
271.234	80.06
271.466	84.06
271.698	72.06
271.93	76.06
272.162	79.06
272.394	86.06
272.626	81.06
272.858	78.06
273.09	79.06
273.322	98.06
273.553	82.06
273.785	89.06
274.017	65.06
274.249	87.06
274.481	83.06
274.713	66.06
274.945	94.06
275.176	84.06
275.408	85.06
275.64	83.06
275.872	91.06
276.104	91.06
276.335	85.06
276.567	66.06
276.799	85.06
277.031	79.06
277.262	81.06
277.494	87.06
277.726	85.06
277.957	75.06
278.189	78.06
278.421	78.06
278.652	65.06
278.884	84.06
279.115	84.06
279.347	84.06
279.579	84.06
279.81	75.06
280.042	79.06
280.273	76.06
280.505	93.06
280.736	86.06
280.968	93.06
281.199	85.06
281.431	86.06
281.662	74.06
281.894	93.06
282.125	84.06
282.356	68.06
282.588	75.06
282.819	70.06
283.051	73.06
283.282	87.06
283.513	89.06
283.745	76.06
283.976	86.06
284.207	81.06
284.439	84.06
284.67	92.06
284.901	88.06
285.132	93.06
285.364	84.06
285.595	82.06
285.826	90.06
286.057	69.06
286.288	74.06
286.52	83.06
286.751	75.06
286.982	79.06
287.213	84.06
287.444	89.06
287.675	80.06
287.906	91.06
288.138	76.06
288.369	82.06
288.6	86.06
288.831	81.06
289.062	87.06
289.293	74.06
289.524	76.06
289.755	78.06
289.986	81.06
290.217	79.06
290.448	86.06
290.679	61.06
290.91	90.06
291.141	84.06
291.371	100.06
291.602	89.06
291.833	79.06
292.064	80.06
292.295	88.06
292.526	77.06
292.757	86.06
292.987	83.06
293.218	83.06
293.449	86.06
293.68	82.06
293.91	83.06
294.141	84.06
294.372	80.06
294.603	67.06
294.833	80.06
295.064	78.06
295.295	76.06
295.525	83.06
295.756	92.06
295.987	85.06
296.217	90.06
296.448	80.06
296.679	77.06
296.909	84.06
297.14	74.06
297.37	85.06
297.601	84.06
297.831	74.06
298.062	89.06
298.292	79.06
298.523	84.06
298.753	81.06
298.984	84.06
299.214	81.06
299.445	90.06
299.675	81.06
299.905	81.06
300.136	85.06
300.366	93.06
300.597	82.06
300.827	92.06
301.057	68.06
301.288	88.06
301.518	77.06
301.748	79.06
301.979	84.06
302.209	80.06
302.439	75.06
302.669	80.06
302.9	89.06
303.13	96.06
303.36	87.06
303.59	88.06
303.82	75.06
304.051	81.06
304.281	85.06
304.511	97.06
304.741	89.06
304.971	85.06
305.201	86.06
305.431	89.06
305.661	85.06
305.891	86.06
306.121	87.06
306.352	88.06
306.582	79.06
306.812	86.06
307.042	92.06
307.272	75.06
307.502	68.06
307.731	78.06
307.961	74.06
308.191	85.06
308.421	86.06
308.651	97.06
308.881	81.06
309.111	96.06
309.341	94.06
309.571	86.06
309.8	79.06
310.03	86.06
310.26	87.06
310.49	86.06
310.72	69.06
310.949	87.06
311.179	89.06
311.409	78.06
311.639	90.06
311.868	94.06
312.098	82.06
312.328	95.06
312.557	78.06
312.787	91.06
313.017	78.06
313.246	86.06
313.476	71.06
313.706	81.06
313.935	91.06
314.165	81.06
314.394	100.06
314.624	89.06
314.853	107.06
315.083	78.06
315.312	87.06
315.542	88.06
315.771	88.06
316.001	75.06
316.23	95.06
316.46	80.06
316.689	88.06
316.919	64.06
317.148	79.06
317.377	96.06
317.607	88.06
317.836	84.06
318.065	88.06
318.295	87.06
318.524	76.06
318.753	87.06
318.983	69.06
319.212	84.06
319.441	87.06
319.67	74.06
319.9	78.06
320.129	81.06
320.358	79.06
320.587	91.06
320.816	79.06
321.046	84.06
321.275	98.06
321.504	84.06
321.733	82.06
321.962	87.06
322.191	105.06
322.42	86.06
322.649	87.06
322.878	99.06
323.108	87.06
323.337	84.06
323.566	88.06
323.795	76.06
324.024	74.06
324.253	83.06
324.482	86.06
324.71	83.06
324.939	94.06
325.168	88.06
325.397	84.06
325.626	79.06
325.855	85.06
326.084	89.06
326.313	84.06
326.542	79.06
326.77	78.06
326.999	93.06
327.228	94.06
327.457	102.06
327.686	84.06
327.914	79.06
328.143	86.06
328.372	85.06
328.6	92.06
328.829	103.06
329.058	83.06
329.287	76.06
329.515	89.06
329.744	79.06
329.972	86.06
330.201	74.06
330.43	84.06
330.658	76.06
330.887	74.06
331.115	87.06
331.344	82.06
331.572	82.06
331.801	95.06
332.03	76.06
332.258	89.06
332.486	88.06
332.715	84.06
332.943	82.06
333.172	73.06
333.4	78.06
333.629	83.06
333.857	91.06
334.085	87.06
334.314	75.06
334.542	79.06
334.771	84.06
334.999	73.06
335.227	95.06
335.455	68.06
335.684	79.06
335.912	72.06
336.14	78.06
336.369	92.06
336.597	83.06
336.825	97.06
337.053	90.06
337.281	92.06
337.51	95.06
337.738	89.06
337.966	88.06
338.194	93.06
338.422	85.06
338.65	95.06
338.878	78.06
339.106	92.06
339.334	98.06
339.562	95.06
339.79	81.06
340.018	86.06
340.246	73.06
340.474	80.06
340.702	70.06
340.93	80.06
341.158	85.06
341.386	91.06
341.614	85.06
341.842	72.06
342.07	72.06
342.298	88.06
342.526	87.06
342.754	83.06
342.981	70.06
343.209	92.06
343.437	84.06
343.665	69.06
343.893	87.06
344.12	87.06
344.348	73.06
344.576	77.06
344.804	79.06
345.031	81.06
345.259	74.06
345.487	80.06
345.714	75.06
345.942	80.06
346.17	75.06
346.397	92.06
346.625	88.06
346.853	91.06
347.08	89.06
347.308	78.06
347.535	92.06
347.763	80.06
347.99	89.06
348.218	88.06
348.445	91.06
348.673	85.06
348.9	77.06
349.128	85.06
349.355	78.06
349.583	91.06
349.81	67.06
350.037	87.06
350.265	75.06
350.492	86.06
350.72	72.06
350.947	80.06
351.174	80.06
351.402	80.06
351.629	80.06
351.856	76.06
352.083	89.06
352.311	93.06
352.538	70.06
352.765	87.06
352.992	91.06
353.22	99.06
353.447	83.06
353.674	95.06
353.901	85.06
354.128	87.06
354.355	76.06
354.583	86.06
354.81	76.06
355.037	98.06
355.264	90.06
355.491	83.06
355.718	89.06
355.945	78.06
356.172	81.06
356.399	80.06
356.626	80.06
356.853	86.06
357.08	77.06
357.307	85.06
357.534	85.06
357.761	81.06
357.988	85.06
358.215	89.06
358.441	94.06
358.668	83.06
358.895	80.06
359.122	87.06
359.349	82.06
359.576	69.06
359.802	65.06
360.029	77.06
360.256	74.06
360.483	76.06
360.709	81.06
360.936	91.06
361.163	93.06
361.39	87.06
361.616	72.06
361.843	82.06
362.07	81.06
362.296	82.06
362.523	77.06
362.749	89.06
362.976	72.06
363.203	85.06
363.429	90.06
363.656	85.06
363.882	71.06
364.109	75.06
364.335	71.06
364.562	83.06
364.788	77.06
365.015	73.06
365.241	82.06
365.468	86.06
365.694	79.06
365.92	88.06
366.147	89.06
366.373	87.06
366.599	88.06
366.826	66.06
367.052	84.06
367.278	65.06
367.505	94.06
367.731	90.06
367.957	79.06
368.184	78.06
368.41	76.06
368.636	83.06
368.862	76.06
369.089	88.06
369.315	79.06
369.541	68.06
369.767	83.06
369.993	82.06
370.219	77.06
370.445	87.06
370.672	80.06
370.898	91.06
371.124	84.06
371.35	84.06
371.576	78.06
371.802	85.06
372.028	75.06
372.254	84.06
372.48	86.06
372.706	93.06
372.932	83.06
373.158	63.06
373.384	82.06
373.61	86.06
373.835	80.06
374.061	89.06
374.287	84.06
374.513	76.06
374.739	92.06
374.965	90.06
375.191	89.06
375.416	94.06
375.642	90.06
375.868	82.06
376.094	79.06
376.319	89.06
376.545	92.06
376.771	78.06
376.997	85.06
377.222	81.06
377.448	80.06
377.674	90.06
377.899	77.06
378.125	81.06
378.35	73.06
378.576	63.06
378.802	81.06
379.027	94.06
379.253	81.06
379.478	81.06
379.704	80.06
379.929	99.06
380.155	76.06
380.38	67.06
380.606	82.06
380.831	74.06
381.057	81.06
381.282	104.06
381.507	91.06
381.733	85.06
381.958	82.06
382.184	80.06
382.409	79.06
382.634	98.06
382.86	71.06
383.085	70.06
383.31	86.06
383.535	66.06
383.761	80.06
383.986	76.06
384.211	92.06
384.436	74.06
384.662	75.06
384.887	85.06
385.112	75.06
385.337	82.06
385.562	88.06
385.787	88.06
386.013	119.06
386.238	86.06
386.463	89.06
386.688	87.06
386.913	83.06
387.138	77.06
387.363	79.06
387.588	88.06
387.813	94.06
388.038	76.06
388.263	85.06
388.488	82.06
388.713	70.06
388.938	79.06
389.163	73.06
389.387	78.06
389.612	87.06
389.837	72.06
390.062	95.06
390.287	80.06
390.512	81.06
390.736	92.06
390.961	87.06
391.186	91.06
391.411	67.06
391.636	88.06
391.86	92.06
392.085	83.06
392.31	87.06
392.534	82.06
392.759	86.06
392.984	89.06
393.208	93.06
393.433	93.06
393.658	86.06
393.882	81.06
394.107	86.06
394.331	88.06
394.556	84.06
394.78	80.06
395.005	81.06
395.229	95.06
395.454	79.06
395.678	98.06
395.903	75.06
396.127	94.06
396.352	89.06
396.576	89.06
396.801	76.06
397.025	82.06
397.249	84.06
397.474	90.06
397.698	86.06
397.922	87.06
398.147	85.06
398.371	84.06
398.595	86.06
398.82	92.06
399.044	94.06
399.268	77.06
399.492	92.06
399.717	100.06
399.941	74.06
400.165	76.06
400.389	70.06
400.613	85.06
400.837	90.06
401.062	95.06
401.286	95.06
401.51	87.06
401.734	86.06
401.958	79.06
402.182	80.06
402.406	70.06
402.63	93.06
402.854	84.06
403.078	78.06
403.302	81.06
403.526	92.06
403.75	82.06
403.974	88.06
404.198	79.06
404.422	81.06
404.645	104.06
404.869	80.06
405.093	97.06
405.317	100.06
405.541	78.06
405.765	96.06
405.988	76.06
406.212	97.06
406.436	104.06
406.66	107.06
406.883	89.06
407.107	91.06
407.331	87.06
407.555	89.06
407.778	79.06
408.002	81.06
408.226	80.06
408.449	91.06
408.673	88.06
408.896	85.06
409.12	75.06
409.344	93.06
409.567	94.06
409.791	76.06
410.014	93.06
410.238	95.06
410.461	92.06
410.685	93.06
410.908	92.06
411.132	94.06
411.355	74.06
411.578	81.06
411.802	92.06
412.025	91.06
412.249	91.06
412.472	84.06
412.695	87.06
412.919	86.06
413.142	89.06
413.365	86.06
413.589	100.06
413.812	92.06
414.035	96.06
414.258	87.06
414.482	75.06
414.705	92.06
414.928	79.06
415.151	93.06
415.374	78.06
415.597	94.06
415.821	74.06
416.044	85.06
416.267	87.06
416.49	91.06
416.713	84.06
416.936	92.06
417.159	95.06
417.382	93.06
417.605	98.06
417.828	84.06
418.051	87.06
418.274	72.06
418.497	100.06
418.72	105.06
418.943	92.06
419.166	91.06
419.389	93.06
419.611	84.06
419.834	83.06
420.057	74.06
420.28	82.06
420.503	91.06
420.726	92.06
420.948	91.06
421.171	91.06
421.394	89.06
421.617	105.06
421.839	80.06
422.062	81.06
422.285	91.06
422.507	90.06
422.73	101.06
422.953	89.06
423.175	88.06
423.398	103.06
423.621	79.06
423.843	101.06
424.066	89.06
424.288	89.06
424.511	84.06
424.733	93.06
424.956	101.06
425.178	91.06
425.401	95.06
425.623	85.06
425.846	97.06
426.068	106.06
426.291	89.06
426.513	94.06
426.735	100.06
426.958	84.06
427.18	73.06
427.402	92.06
427.625	91.06
427.847	90.06
428.069	94.06
428.292	85.06
428.514	100.06
428.736	98.06
428.958	86.06
429.181	94.06
429.403	92.06
429.625	95.06
429.847	106.06
430.069	100.06
430.292	97.06
430.514	98.06
430.736	84.06
430.958	93.06
431.18	84.06
431.402	89.06
431.624	84.06
431.846	86.06
432.068	81.06
432.29	84.06
432.512	89.06
432.734	90.06
432.956	98.06
433.178	91.06
433.4	94.06
433.622	89.06
433.844	82.06
434.066	90.06
434.287	79.06
434.509	80.06
434.731	90.06
434.953	91.06
435.175	83.06
435.397	81.06
435.618	86.06
435.84	92.06
436.062	88.06
436.284	83.06
436.505	98.06
436.727	94.06
436.949	81.06
437.17	100.06
437.392	88.06
437.614	81.06
437.835	83.06
438.057	82.06
438.278	100.06
438.5	92.06
438.721	81.06
438.943	97.06
439.165	95.06
439.386	87.06
439.608	96.06
439.829	97.06
440.05	81.06
440.272	93.06
440.493	95.06
440.715	91.06
440.936	87.06
441.158	101.06
441.379	78.06
441.6	90.06
441.822	87.06
442.043	85.06
442.264	99.06
442.486	97.06
442.707	101.06
442.928	105.06
443.149	87.06
443.371	106.06
443.592	107.06
443.813	97.06
444.034	105.06
444.255	112.06
444.476	83.06
444.698	101.06
444.919	88.06
445.14	213.06
445.361	156.06
445.582	112.06
445.803	97.06
446.024	85.06
446.245	89.06
446.466	105.06
446.687	98.06
446.908	100.06
447.129	83.06
447.35	91.06
447.571	95.06
447.792	103.06
448.013	92.06
448.234	94.06
448.455	101.06
448.675	115.06
448.896	92.06
449.117	93.06
449.338	102.06
449.559	96.06
449.779	92.06
450	87.06
450.221	94.06
450.442	79.06
450.662	85.06
450.883	92.06
451.104	100.06
451.324	99.06
451.545	92.06
451.766	91.06
451.986	83.06
452.207	102.06
452.428	92.06
452.648	101.06
452.869	105.06
453.089	70.06
453.31	89.06
453.53	86.06
453.751	96.06
453.971	87.06
454.192	86.06
454.412	83.06
454.633	89.06
454.853	86.06
455.073	91.06
455.294	83.06
455.514	92.06
455.734	79.06
455.955	80.06
456.175	84.06
456.395	83.06
456.616	78.06
456.836	85.06
457.056	85.06
457.276	85.06
457.497	87.06
457.717	89.06
457.937	89.06
458.157	88.06
458.377	91.06
458.598	90.06
458.818	82.06
459.038	94.06
459.258	81.06
459.478	85.06
459.698	96.06
459.918	92.06
460.138	86.06
460.358	70.06
460.578	97.06
460.798	99.06
461.018	85.06
461.238	86.06
461.458	88.06
461.678	90.06
461.898	84.06
462.118	87.06
462.338	101.06
462.558	114.06
462.777	98.06
462.997	75.06
463.217	91.06
463.437	92.06
463.657	82.06
463.876	80.06
464.096	80.06
464.316	80.06
464.536	92.06
464.755	92.06
464.975	89.06
465.195	84.06
465.414	86.06
465.634	71.06
465.854	96.06
466.073	91.06
466.293	87.06
466.512	101.06
466.732	88.06
466.951	103.06
467.171	103.06
467.391	92.06
467.61	78.06
467.829	88.06
468.049	98.06
468.268	78.06
468.488	86.06
468.707	73.06
468.927	92.06
469.146	91.06
469.365	83.06
469.585	103.06
469.804	103.06
470.023	101.06
470.243	96.06
470.462	86.06
470.681	96.06
470.901	95.06
471.12	97.06
471.339	98.06
471.558	99.06
471.777	91.06
471.997	97.06
472.216	95.06
472.435	87.06
472.654	88.06
472.873	86.06
473.092	86.06
473.311	83.06
473.53	95.06
473.749	88.06
473.968	106.06
474.187	98.06
474.406	100.06
474.625	94.06
474.844	86.06
475.063	94.06
475.282	92.06
475.501	87.06
475.72	92.06
475.939	76.06
476.158	88.06
476.377	94.06
476.596	100.06
476.814	91.06
477.033	91.06
477.252	88.06
477.471	91.06
477.69	95.06
477.908	90.06
478.127	106.06
478.346	102.06
478.564	90.06
478.783	100.06
479.002	87.06
479.22	111.06
479.439	96.06
479.658	88.06
479.876	90.06
480.095	74.06
480.313	99.06
480.532	88.06
480.751	83.06
480.969	98.06
481.188	88.06
481.406	93.06
481.624	78.06
481.843	87.06
482.061	86.06
482.28	86.06
482.498	84.06
482.717	99.06
482.935	80.06
483.153	84.06
483.372	105.06
483.59	100.06
483.808	89.06
484.027	94.06
484.245	107.06
484.463	106.06
484.681	113.06
484.9	98.06
485.118	105.06
485.336	85.06
485.554	70.06
485.772	100.06
485.99	92.06
486.209	90.06
486.427	95.06
486.645	90.06
486.863	71.06
487.081	98.06
487.299	107.06
487.517	92.06
487.735	107.06
487.953	114.06
488.171	106.06
488.389	93.06
488.607	97.06
488.825	80.06
489.043	94.06
489.261	82.06
489.479	95.06
489.696	90.06
489.914	80.06
490.132	104.06
490.35	99.06
490.568	84.06
490.786	96.06
491.003	109.06
491.221	98.06
491.439	126.06
491.657	107.06
491.874	126.06
492.092	116.06
492.31	115.06
492.527	124.06
492.745	111.06
492.963	112.06
493.18	104.06
493.398	101.06
493.615	99.06
493.833	113.06
494.05	99.06
494.268	89.06
494.485	106.06
494.703	114.06
494.92	114.06
495.138	89.06
495.355	94.06
495.573	104.06
495.79	114.06
496.008	108.06
496.225	100.06
496.442	113.06
496.66	106.06
496.877	109.06
497.094	116.06
497.312	111.06
497.529	113.06
497.746	91.06
497.963	85.06
498.181	85.06
498.398	85.06
498.615	95.06
498.832	99.06
499.049	89.06
499.267	82.06
499.484	92.06
499.701	101.06
499.918	104.06
500.135	102.06
500.352	95.06
500.569	94.06
500.786	110.06
501.003	98.06
501.22	91.06
501.437	90.06
501.654	103.06
501.871	105.06
502.088	98.06
502.305	95.06
502.522	101.06
502.739	86.06
502.956	83.06
503.172	84.06
503.389	94.06
503.606	86.06
503.823	90.06
504.04	94.06
504.256	79.06
504.473	80.06
504.69	89.06
504.907	92.06
505.123	102.06
505.34	96.06
505.557	82.06
505.773	99.06
505.99	91.06
506.207	106.06
506.423	92.06
506.64	87.06
506.856	86.06
507.073	86.06
507.289	85.06
507.506	87.06
507.722	90.06
507.939	90.06
508.155	82.06
508.372	84.06
508.588	87.06
508.805	89.06
509.021	72.06
509.238	71.06
509.454	78.06
509.67	92.06
509.887	87.06
510.103	95.06
510.319	92.06
510.536	83.06
510.752	92.06
510.968	74.06
511.184	68.06
511.401	91.06
511.617	91.06
511.833	76.06
512.049	85.06
512.265	98.06
512.481	90.06
512.698	86.06
512.914	85.06
513.13	81.06
513.346	86.06
513.562	81.06
513.778	79.06
513.994	80.06
514.21	78.06
514.426	82.06
514.642	87.06
514.858	88.06
515.074	87.06
515.29	77.06
515.506	83.06
515.721	85.06
515.937	79.06
516.153	79.06
516.369	85.06
516.585	79.06
516.801	74.06
517.016	88.06
517.232	90.06
517.448	95.06
517.664	103.06
517.879	82.06
