Data from Location5.07152019.Energy5.Lamp.07192019.3%Agarose_HRD10591_16-03-03-629.txt Node
Date: Fri Jul 19 16:03:03 EDT 2019
User: cochatt
Spectrometer: HR+D1059
Trigger mode: 1
Integration Time (sec): 1.000000E-1
Scans to average: 1
Electric dark correction enabled: true
Nonlinearity correction enabled: false
Boxcar width: 0
XAxis mode: Wavelengths
Number of Pixels in Spectrum: 2048
>>>>>Begin Spectral Data<<<<<
223.165	-20.56
223.4	-20.56
223.635	-20.56
223.869	-17.56
224.104	-22.56
224.338	2.44
224.573	-13.56
224.808	-13.56
225.042	-4.56
225.277	-13.56
225.511	-17.56
225.746	-0.56
225.98	12.44
226.215	7.44
226.449	21.44
226.683	11.44
226.918	29.44
227.152	39.44
227.387	30.44
227.621	39.44
227.856	46.44
228.09	52.44
228.324	38.44
228.559	60.44
228.793	55.44
229.027	59.44
229.262	62.44
229.496	82.44
229.73	62.44
229.964	76.44
230.199	72.44
230.433	80.44
230.667	75.44
230.901	86.44
231.136	78.44
231.37	63.44
231.604	81.44
231.838	92.44
232.072	87.44
232.306	87.44
232.541	96.44
232.775	80.44
233.009	87.44
233.243	87.44
233.477	85.44
233.711	92.44
233.945	87.44
234.179	81.44
234.413	95.44
234.647	88.44
234.881	91.44
235.115	81.44
235.349	78.44
235.583	73.44
235.817	87.44
236.051	85.44
236.285	84.44
236.519	82.44
236.753	85.44
236.987	76.44
237.221	68.44
237.455	78.44
237.689	73.44
237.922	94.44
238.156	76.44
238.39	83.44
238.624	81.44
238.858	65.44
239.091	82.44
239.325	80.44
239.559	74.44
239.793	80.44
240.027	73.44
240.26	69.44
240.494	79.44
240.728	72.44
240.961	84.44
241.195	89.44
241.429	102.44
241.662	64.44
241.896	82.44
242.13	84.44
242.363	62.44
242.597	97.44
242.83	89.44
243.064	88.44
243.298	81.44
243.531	91.44
243.765	80.44
243.998	89.44
244.232	73.44
244.465	83.44
244.699	70.44
244.932	82.44
245.166	82.44
245.399	75.44
245.633	79.44
245.866	85.44
246.099	88.44
246.333	83.44
246.566	83.44
246.8	87.44
247.033	69.44
247.266	76.44
247.5	94.44
247.733	90.44
247.966	87.44
248.2	84.44
248.433	79.44
248.666	84.44
248.899	84.44
249.133	88.44
249.366	81.44
249.599	79.44
249.832	88.44
250.066	104.44
250.299	85.44
250.532	78.44
250.765	87.44
250.998	76.44
251.231	78.44
251.465	95.44
251.698	86.44
251.931	71.44
252.164	77.44
252.397	69.44
252.63	92.44
252.863	89.44
253.096	82.44
253.329	98.44
253.562	86.44
253.795	91.44
254.028	81.44
254.261	82.44
254.494	87.44
254.727	81.44
254.96	92.44
255.193	88.44
255.426	76.44
255.659	76.44
255.892	78.44
256.124	74.44
256.357	90.44
256.59	89.44
256.823	73.44
257.056	71.44
257.289	80.44
257.521	92.44
257.754	76.44
257.987	81.44
258.22	87.44
258.452	71.44
258.685	86.44
258.918	90.44
259.151	99.44
259.383	85.44
259.616	84.44
259.849	98.44
260.081	92.44
260.314	87.44
260.547	95.44
260.779	91.44
261.012	92.44
261.244	85.44
261.477	96.44
261.71	82.44
261.942	80.44
262.175	82.44
262.407	88.44
262.64	98.44
262.872	85.44
263.105	67.44
263.337	93.44
263.57	82.44
263.802	99.44
264.035	91.44
264.267	92.44
264.499	82.44
264.732	89.44
264.964	88.44
265.197	95.44
265.429	76.44
265.661	67.44
265.894	83.44
266.126	90.44
266.358	80.44
266.591	91.44
266.823	80.44
267.055	83.44
267.287	90.44
267.52	90.44
267.752	85.44
267.984	79.44
268.216	97.44
268.448	90.44
268.681	76.44
268.913	88.44
269.145	99.44
269.377	84.44
269.609	91.44
269.841	82.44
270.073	103.44
270.306	93.44
270.538	90.44
270.77	81.44
271.002	76.44
271.234	80.44
271.466	87.44
271.698	92.44
271.93	81.44
272.162	88.44
272.394	82.44
272.626	89.44
272.858	80.44
273.09	92.44
273.322	83.44
273.553	82.44
273.785	101.44
274.017	92.44
274.249	85.44
274.481	97.44
274.713	86.44
274.945	87.44
275.176	85.44
275.408	94.44
275.64	102.44
275.872	86.44
276.104	77.44
276.335	94.44
276.567	87.44
276.799	95.44
277.031	76.44
277.262	85.44
277.494	96.44
277.726	83.44
277.957	80.44
278.189	92.44
278.421	81.44
278.652	77.44
278.884	76.44
279.115	92.44
279.347	83.44
279.579	92.44
279.81	101.44
280.042	95.44
280.273	98.44
280.505	94.44
280.736	84.44
280.968	83.44
281.199	87.44
281.431	98.44
281.662	73.44
281.894	91.44
282.125	110.44
282.356	85.44
282.588	93.44
282.819	84.44
283.051	79.44
283.282	106.44
283.513	111.44
283.745	94.44
283.976	88.44
284.207	101.44
284.439	81.44
284.67	81.44
284.901	88.44
285.132	95.44
285.364	95.44
285.595	87.44
285.826	85.44
286.057	92.44
286.288	85.44
286.52	101.44
286.751	83.44
286.982	75.44
287.213	76.44
287.444	86.44
287.675	93.44
287.906	73.44
288.138	95.44
288.369	103.44
288.6	99.44
288.831	84.44
289.062	103.44
289.293	93.44
289.524	78.44
289.755	84.44
289.986	92.44
290.217	113.44
290.448	92.44
290.679	95.44
290.91	75.44
291.141	102.44
291.371	92.44
291.602	90.44
291.833	88.44
292.064	106.44
292.295	81.44
292.526	90.44
292.757	102.44
292.987	90.44
293.218	88.44
293.449	96.44
293.68	95.44
293.91	103.44
294.141	97.44
294.372	96.44
294.603	92.44
294.833	96.44
295.064	103.44
295.295	96.44
295.525	84.44
295.756	100.44
295.987	86.44
296.217	76.44
296.448	77.44
296.679	89.44
296.909	96.44
297.14	83.44
297.37	79.44
297.601	73.44
297.831	85.44
298.062	96.44
298.292	89.44
298.523	106.44
298.753	96.44
298.984	104.44
299.214	98.44
299.445	99.44
299.675	90.44
299.905	84.44
300.136	100.44
300.366	102.44
300.597	91.44
300.827	109.44
301.057	95.44
301.288	94.44
301.518	92.44
301.748	116.44
301.979	85.44
302.209	86.44
302.439	91.44
302.669	97.44
302.9	90.44
303.13	80.44
303.36	85.44
303.59	94.44
303.82	100.44
304.051	99.44
304.281	97.44
304.511	99.44
304.741	87.44
304.971	91.44
305.201	87.44
305.431	89.44
305.661	94.44
305.891	100.44
306.121	100.44
306.352	96.44
306.582	94.44
306.812	74.44
307.042	91.44
307.272	96.44
307.502	92.44
307.731	99.44
307.961	79.44
308.191	103.44
308.421	93.44
308.651	102.44
308.881	87.44
309.111	95.44
309.341	98.44
309.571	84.44
309.8	66.44
310.03	92.44
310.26	110.44
310.49	94.44
310.72	92.44
310.949	105.44
311.179	103.44
311.409	85.44
311.639	91.44
311.868	84.44
312.098	76.44
312.328	84.44
312.557	100.44
312.787	102.44
313.017	91.44
313.246	86.44
313.476	98.44
313.706	104.44
313.935	87.44
314.165	98.44
314.394	90.44
314.624	99.44
314.853	98.44
315.083	101.44
315.312	90.44
315.542	96.44
315.771	99.44
316.001	100.44
316.23	94.44
316.46	78.44
316.689	88.44
316.919	98.44
317.148	104.44
317.377	86.44
317.607	84.44
317.836	95.44
318.065	80.44
318.295	93.44
318.524	88.44
318.753	106.44
318.983	105.44
319.212	97.44
319.441	96.44
319.67	94.44
319.9	91.44
320.129	99.44
320.358	84.44
320.587	95.44
320.816	89.44
321.046	76.44
321.275	102.44
321.504	94.44
321.733	85.44
321.962	99.44
322.191	99.44
322.42	91.44
322.649	104.44
322.878	87.44
323.108	89.44
323.337	92.44
323.566	82.44
323.795	90.44
324.024	91.44
324.253	78.44
324.482	94.44
324.71	89.44
324.939	82.44
325.168	92.44
325.397	89.44
325.626	90.44
325.855	98.44
326.084	103.44
326.313	103.44
326.542	94.44
326.77	99.44
326.999	100.44
327.228	73.44
327.457	82.44
327.686	91.44
327.914	83.44
328.143	104.44
328.372	100.44
328.6	93.44
328.829	84.44
329.058	88.44
329.287	88.44
329.515	104.44
329.744	90.44
329.972	101.44
330.201	97.44
330.43	78.44
330.658	84.44
330.887	115.44
331.115	94.44
331.344	87.44
331.572	101.44
331.801	90.44
332.03	94.44
332.258	97.44
332.486	102.44
332.715	109.44
332.943	94.44
333.172	96.44
333.4	96.44
333.629	103.44
333.857	98.44
334.085	103.44
334.314	104.44
334.542	82.44
334.771	102.44
334.999	97.44
335.227	103.44
335.455	108.44
335.684	111.44
335.912	90.44
336.14	103.44
336.369	89.44
336.597	85.44
336.825	93.44
337.053	106.44
337.281	91.44
337.51	97.44
337.738	90.44
337.966	96.44
338.194	93.44
338.422	89.44
338.65	88.44
338.878	89.44
339.106	92.44
339.334	96.44
339.562	86.44
339.79	79.44
340.018	101.44
340.246	103.44
340.474	89.44
340.702	102.44
340.93	80.44
341.158	95.44
341.386	92.44
341.614	88.44
341.842	86.44
342.07	82.44
342.298	84.44
342.526	87.44
342.754	95.44
342.981	93.44
343.209	99.44
343.437	102.44
343.665	88.44
343.893	94.44
344.12	91.44
344.348	93.44
344.576	107.44
344.804	91.44
345.031	87.44
345.259	81.44
345.487	100.44
345.714	89.44
345.942	92.44
346.17	92.44
346.397	94.44
346.625	99.44
346.853	94.44
347.08	87.44
347.308	90.44
347.535	86.44
347.763	92.44
347.99	96.44
348.218	97.44
348.445	103.44
348.673	94.44
348.9	89.44
349.128	97.44
349.355	104.44
349.583	92.44
349.81	96.44
350.037	95.44
350.265	89.44
350.492	89.44
350.72	85.44
350.947	97.44
351.174	94.44
351.402	89.44
351.629	87.44
351.856	94.44
352.083	99.44
352.311	91.44
352.538	86.44
352.765	88.44
352.992	98.44
353.22	107.44
353.447	88.44
353.674	89.44
353.901	81.44
354.128	76.44
354.355	96.44
354.583	91.44
354.81	90.44
355.037	89.44
355.264	98.44
355.491	88.44
355.718	93.44
355.945	98.44
356.172	96.44
356.399	87.44
356.626	100.44
356.853	95.44
357.08	96.44
357.307	91.44
357.534	96.44
357.761	80.44
357.988	88.44
358.215	99.44
358.441	81.44
358.668	87.44
358.895	96.44
359.122	85.44
359.349	95.44
359.576	89.44
359.802	91.44
360.029	97.44
360.256	105.44
360.483	97.44
360.709	87.44
360.936	87.44
361.163	82.44
361.39	86.44
361.616	91.44
361.843	102.44
362.07	115.44
362.296	95.44
362.523	90.44
362.749	91.44
362.976	95.44
363.203	84.44
363.429	87.44
363.656	90.44
363.882	82.44
364.109	100.44
364.335	106.44
364.562	91.44
364.788	84.44
365.015	103.44
365.241	76.44
365.468	105.44
365.694	85.44
365.92	93.44
366.147	97.44
366.373	96.44
366.599	94.44
366.826	99.44
367.052	88.44
367.278	88.44
367.505	98.44
367.731	86.44
367.957	99.44
368.184	105.44
368.41	84.44
368.636	90.44
368.862	86.44
369.089	105.44
369.315	90.44
369.541	81.44
369.767	103.44
369.993	96.44
370.219	97.44
370.445	94.44
370.672	100.44
370.898	85.44
371.124	95.44
371.35	102.44
371.576	96.44
371.802	96.44
372.028	83.44
372.254	98.44
372.48	97.44
372.706	99.44
372.932	86.44
373.158	79.44
373.384	108.44
373.61	116.44
373.835	99.44
374.061	90.44
374.287	94.44
374.513	102.44
374.739	96.44
374.965	92.44
375.191	104.44
375.416	105.44
375.642	93.44
375.868	102.44
376.094	89.44
376.319	112.44
376.545	93.44
376.771	99.44
376.997	97.44
377.222	75.44
377.448	84.44
377.674	89.44
377.899	106.44
378.125	94.44
378.35	95.44
378.576	92.44
378.802	89.44
379.027	83.44
379.253	94.44
379.478	94.44
379.704	97.44
379.929	90.44
380.155	94.44
380.38	85.44
380.606	75.44
380.831	86.44
381.057	112.44
381.282	98.44
381.507	101.44
381.733	108.44
381.958	94.44
382.184	100.44
382.409	98.44
382.634	84.44
382.86	96.44
383.085	86.44
383.31	83.44
383.535	94.44
383.761	99.44
383.986	95.44
384.211	96.44
384.436	82.44
384.662	90.44
384.887	105.44
385.112	85.44
385.337	93.44
385.562	98.44
385.787	95.44
386.013	94.44
386.238	110.44
386.463	91.44
386.688	80.44
386.913	102.44
387.138	91.44
387.363	86.44
387.588	102.44
387.813	82.44
388.038	89.44
388.263	76.44
388.488	88.44
388.713	97.44
388.938	103.44
389.163	93.44
389.387	97.44
389.612	94.44
389.837	109.44
390.062	97.44
390.287	102.44
390.512	99.44
390.736	90.44
390.961	89.44
391.186	94.44
391.411	96.44
391.636	107.44
391.86	102.44
392.085	91.44
392.31	97.44
392.534	104.44
392.759	103.44
392.984	78.44
393.208	95.44
393.433	105.44
393.658	105.44
393.882	104.44
394.107	95.44
394.331	88.44
394.556	93.44
394.78	91.44
395.005	84.44
395.229	86.44
395.454	105.44
395.678	101.44
395.903	86.44
396.127	91.44
396.352	91.44
396.576	97.44
396.801	98.44
397.025	94.44
397.249	100.44
397.474	105.44
397.698	105.44
397.922	99.44
398.147	101.44
398.371	106.44
398.595	104.44
398.82	84.44
399.044	95.44
399.268	104.44
399.492	114.44
399.717	118.44
399.941	120.44
400.165	108.44
400.389	118.44
400.613	86.44
400.837	97.44
401.062	103.44
401.286	103.44
401.51	101.44
401.734	100.44
401.958	94.44
402.182	87.44
402.406	102.44
402.63	107.44
402.854	102.44
403.078	110.44
403.302	84.44
403.526	101.44
403.75	98.44
403.974	101.44
404.198	90.44
404.422	102.44
404.645	105.44
404.869	108.44
405.093	90.44
405.317	97.44
405.541	119.44
405.765	104.44
405.988	90.44
406.212	108.44
406.436	96.44
406.66	97.44
406.883	96.44
407.107	107.44
407.331	101.44
407.555	106.44
407.778	91.44
408.002	99.44
408.226	112.44
408.449	103.44
408.673	101.44
408.896	91.44
409.12	116.44
409.344	120.44
409.567	94.44
409.791	106.44
410.014	96.44
410.238	102.44
410.461	81.44
410.685	91.44
410.908	100.44
411.132	110.44
411.355	103.44
411.578	109.44
411.802	98.44
412.025	90.44
412.249	85.44
412.472	105.44
412.695	103.44
412.919	89.44
413.142	97.44
413.365	103.44
413.589	96.44
413.812	107.44
414.035	100.44
414.258	99.44
414.482	105.44
414.705	87.44
414.928	101.44
415.151	92.44
415.374	104.44
415.597	96.44
415.821	102.44
416.044	103.44
416.267	101.44
416.49	96.44
416.713	98.44
416.936	87.44
417.159	100.44
417.382	90.44
417.605	99.44
417.828	104.44
418.051	90.44
418.274	114.44
418.497	107.44
418.72	95.44
418.943	87.44
419.166	99.44
419.389	99.44
419.611	106.44
419.834	98.44
420.057	113.44
420.28	107.44
420.503	86.44
420.726	97.44
420.948	105.44
421.171	93.44
421.394	95.44
421.617	89.44
421.839	95.44
422.062	107.44
422.285	95.44
422.507	95.44
422.73	91.44
422.953	109.44
423.175	87.44
423.398	101.44
423.621	111.44
423.843	98.44
424.066	107.44
424.288	95.44
424.511	101.44
424.733	91.44
424.956	88.44
425.178	89.44
425.401	106.44
425.623	95.44
425.846	95.44
426.068	86.44
426.291	93.44
426.513	96.44
426.735	102.44
426.958	94.44
427.18	96.44
427.402	87.44
427.625	99.44
427.847	106.44
428.069	86.44
428.292	93.44
428.514	95.44
428.736	98.44
428.958	94.44
429.181	86.44
429.403	95.44
429.625	95.44
429.847	103.44
430.069	96.44
430.292	97.44
430.514	90.44
430.736	103.44
430.958	95.44
431.18	96.44
431.402	98.44
431.624	89.44
431.846	96.44
432.068	88.44
432.29	101.44
432.512	94.44
432.734	92.44
432.956	90.44
433.178	103.44
433.4	86.44
433.622	100.44
433.844	85.44
434.066	89.44
434.287	81.44
434.509	87.44
434.731	87.44
434.953	92.44
435.175	92.44
435.397	106.44
435.618	105.44
435.84	105.44
436.062	87.44
436.284	105.44
436.505	86.44
436.727	118.44
436.949	113.44
437.17	89.44
437.392	99.44
437.614	106.44
437.835	87.44
438.057	98.44
438.278	87.44
438.5	93.44
438.721	80.44
438.943	89.44
439.165	102.44
439.386	84.44
439.608	91.44
439.829	86.44
440.05	96.44
440.272	96.44
440.493	91.44
440.715	94.44
440.936	99.44
441.158	108.44
441.379	90.44
441.6	101.44
441.822	96.44
442.043	99.44
442.264	99.44
442.486	89.44
442.707	92.44
442.928	95.44
443.149	91.44
443.371	96.44
443.592	98.44
443.813	95.44
444.034	98.44
444.255	109.44
444.476	95.44
444.698	95.44
444.919	118.44
445.14	235.44
445.361	161.44
445.582	105.44
445.803	94.44
446.024	102.44
446.245	96.44
446.466	107.44
446.687	95.44
446.908	93.44
447.129	88.44
447.35	90.44
447.571	87.44
447.792	111.44
448.013	87.44
448.234	102.44
448.455	96.44
448.675	113.44
448.896	104.44
449.117	87.44
449.338	92.44
449.559	91.44
449.779	96.44
450	92.44
450.221	94.44
450.442	97.44
450.662	90.44
450.883	89.44
451.104	87.44
451.324	89.44
451.545	95.44
451.766	95.44
451.986	85.44
452.207	95.44
452.428	90.44
452.648	94.44
452.869	111.44
453.089	85.44
453.31	106.44
453.53	103.44
453.751	89.44
453.971	94.44
454.192	95.44
454.412	94.44
454.633	100.44
454.853	84.44
455.073	87.44
455.294	79.44
455.514	103.44
455.734	97.44
455.955	103.44
456.175	88.44
456.395	90.44
456.616	90.44
456.836	90.44
457.056	89.44
457.276	93.44
457.497	91.44
457.717	91.44
457.937	97.44
458.157	96.44
458.377	85.44
458.598	95.44
458.818	105.44
459.038	99.44
459.258	97.44
459.478	87.44
459.698	93.44
459.918	99.44
460.138	101.44
460.358	114.44
460.578	99.44
460.798	105.44
461.018	90.44
461.238	120.44
461.458	100.44
461.678	99.44
461.898	103.44
462.118	113.44
462.338	90.44
462.558	100.44
462.777	101.44
462.997	110.44
463.217	102.44
463.437	101.44
463.657	112.44
463.876	99.44
464.096	97.44
464.316	122.44
464.536	100.44
464.755	111.44
464.975	110.44
465.195	107.44
465.414	104.44
465.634	103.44
465.854	92.44
466.073	98.44
466.293	91.44
466.512	110.44
466.732	111.44
466.951	97.44
467.171	95.44
467.391	97.44
467.61	99.44
467.829	97.44
468.049	102.44
468.268	95.44
468.488	103.44
468.707	96.44
468.927	102.44
469.146	104.44
469.365	103.44
469.585	92.44
469.804	108.44
470.023	95.44
470.243	99.44
470.462	117.44
470.681	101.44
470.901	98.44
471.12	112.44
471.339	99.44
471.558	94.44
471.777	108.44
471.997	92.44
472.216	102.44
472.435	86.44
472.654	83.44
472.873	103.44
473.092	105.44
473.311	90.44
473.53	94.44
473.749	104.44
473.968	90.44
474.187	104.44
474.406	94.44
474.625	102.44
474.844	96.44
475.063	100.44
475.282	95.44
475.501	103.44
475.72	102.44
475.939	107.44
476.158	82.44
476.377	98.44
476.596	91.44
476.814	105.44
477.033	102.44
477.252	105.44
477.471	113.44
477.69	110.44
477.908	106.44
478.127	104.44
478.346	106.44
478.564	124.44
478.783	97.44
479.002	106.44
479.22	117.44
479.439	106.44
479.658	103.44
479.876	119.44
480.095	111.44
480.313	103.44
480.532	110.44
480.751	112.44
480.969	114.44
481.188	111.44
481.406	102.44
481.624	100.44
481.843	105.44
482.061	102.44
482.28	99.44
482.498	97.44
482.717	88.44
482.935	104.44
483.153	106.44
483.372	93.44
483.59	94.44
483.808	105.44
484.027	117.44
484.245	110.44
484.463	115.44
484.681	120.44
484.9	113.44
485.118	121.44
485.336	98.44
485.554	110.44
485.772	101.44
485.99	104.44
486.209	104.44
486.427	102.44
486.645	106.44
486.863	115.44
487.081	118.44
487.299	116.44
487.517	105.44
487.735	89.44
487.953	105.44
488.171	110.44
488.389	98.44
488.607	102.44
488.825	110.44
489.043	107.44
489.261	110.44
489.479	122.44
489.696	113.44
489.914	121.44
490.132	107.44
490.35	104.44
490.568	123.44
490.786	116.44
491.003	117.44
491.221	110.44
491.439	115.44
491.657	103.44
491.874	109.44
492.092	114.44
492.31	133.44
492.527	133.44
492.745	106.44
492.963	93.44
493.18	115.44
493.398	119.44
493.615	119.44
493.833	115.44
494.05	122.44
494.268	121.44
494.485	108.44
494.703	114.44
494.92	108.44
495.138	111.44
495.355	107.44
495.573	107.44
495.79	115.44
496.008	111.44
496.225	117.44
496.442	115.44
496.66	115.44
496.877	127.44
497.094	114.44
497.312	122.44
497.529	111.44
497.746	114.44
497.963	94.44
498.181	120.44
498.398	107.44
498.615	121.44
498.832	126.44
499.049	117.44
499.267	122.44
499.484	118.44
499.701	145.44
499.918	159.44
500.135	144.44
500.352	156.44
500.569	159.44
500.786	154.44
501.003	152.44
501.22	154.44
501.437	163.44
501.654	144.44
501.871	128.44
502.088	131.44
502.305	118.44
502.522	119.44
502.739	140.44
502.956	121.44
503.172	116.44
503.389	118.44
503.606	126.44
503.823	109.44
504.04	121.44
504.256	118.44
504.473	114.44
504.69	119.44
504.907	115.44
505.123	107.44
505.34	122.44
505.557	114.44
505.773	114.44
505.99	110.44
506.207	107.44
506.423	98.44
506.64	120.44
506.856	103.44
507.073	112.44
507.289	101.44
507.506	110.44
507.722	107.44
507.939	121.44
508.155	98.44
508.372	106.44
508.588	124.44
508.805	108.44
509.021	111.44
509.238	103.44
509.454	105.44
509.67	106.44
509.887	111.44
510.103	102.44
510.319	109.44
510.536	110.44
510.752	106.44
510.968	102.44
511.184	103.44
511.401	100.44
511.617	103.44
511.833	104.44
512.049	78.44
512.265	104.44
512.481	113.44
512.698	88.44
512.914	95.44
513.13	124.44
513.346	92.44
513.562	103.44
