Data from Location5.07152019.Energy5.Lamp.07192019.3%Agarose_HRD10591_16-03-55-628.txt Node
Date: Fri Jul 19 16:03:55 EDT 2019
User: cochatt
Spectrometer: HR+D1059
Trigger mode: 1
Integration Time (sec): 1.000000E-1
Scans to average: 1
Electric dark correction enabled: true
Nonlinearity correction enabled: false
Boxcar width: 0
XAxis mode: Wavelengths
Number of Pixels in Spectrum: 2048
>>>>>Begin Spectral Data<<<<<
223.165	-22.19
223.4	-22.19
223.635	-22.19
223.869	-11.19
224.104	-9.19
224.338	-25.19
224.573	-25.19
224.808	-22.19
225.042	5.81
225.277	-0.19
225.511	-7.19
225.746	-12.19
225.98	3.81
226.215	22.81
226.449	18.81
226.683	24.81
226.918	29.81
227.152	28.81
227.387	23.81
227.621	40.81
227.856	27.81
228.09	48.81
228.324	50.81
228.559	47.81
228.793	59.81
229.027	74.81
229.262	58.81
229.496	71.81
229.73	58.81
229.964	81.81
230.199	73.81
230.433	70.81
230.667	80.81
230.901	84.81
231.136	82.81
231.37	84.81
231.604	76.81
231.838	81.81
232.072	88.81
232.306	74.81
232.541	66.81
232.775	81.81
233.009	85.81
233.243	80.81
233.477	80.81
233.711	93.81
233.945	76.81
234.179	82.81
234.413	85.81
234.647	98.81
234.881	93.81
235.115	76.81
235.349	85.81
235.583	86.81
235.817	74.81
236.051	81.81
236.285	74.81
236.519	88.81
236.753	80.81
236.987	85.81
237.221	78.81
237.455	74.81
237.689	76.81
237.922	90.81
238.156	58.81
238.39	72.81
238.624	74.81
238.858	78.81
239.091	74.81
239.325	70.81
239.559	85.81
239.793	71.81
240.027	80.81
240.26	66.81
240.494	78.81
240.728	69.81
240.961	72.81
241.195	75.81
241.429	69.81
241.662	79.81
241.896	78.81
242.13	84.81
242.363	74.81
242.597	82.81
242.83	85.81
243.064	73.81
243.298	83.81
243.531	74.81
243.765	81.81
243.998	74.81
244.232	77.81
244.465	79.81
244.699	83.81
244.932	70.81
245.166	87.81
245.399	80.81
245.633	84.81
245.866	82.81
246.099	75.81
246.333	69.81
246.566	82.81
246.8	92.81
247.033	70.81
247.266	76.81
247.5	74.81
247.733	89.81
247.966	76.81
248.2	64.81
248.433	70.81
248.666	74.81
248.899	86.81
249.133	64.81
249.366	82.81
249.599	70.81
249.832	78.81
250.066	80.81
250.299	85.81
250.532	76.81
250.765	77.81
250.998	86.81
251.231	67.81
251.465	87.81
251.698	86.81
251.931	92.81
252.164	78.81
252.397	85.81
252.63	86.81
252.863	80.81
253.096	90.81
253.329	73.81
253.562	69.81
253.795	83.81
254.028	85.81
254.261	90.81
254.494	68.81
254.727	79.81
254.96	80.81
255.193	80.81
255.426	76.81
255.659	78.81
255.892	80.81
256.124	82.81
256.357	84.81
256.59	72.81
256.823	81.81
257.056	75.81
257.289	78.81
257.521	77.81
257.754	80.81
257.987	65.81
258.22	76.81
258.452	82.81
258.685	86.81
258.918	86.81
259.151	79.81
259.383	92.81
259.616	84.81
259.849	84.81
260.081	85.81
260.314	79.81
260.547	80.81
260.779	85.81
261.012	80.81
261.244	94.81
261.477	84.81
261.71	90.81
261.942	88.81
262.175	103.81
262.407	82.81
262.64	67.81
262.872	84.81
263.105	100.81
263.337	83.81
263.57	88.81
263.802	77.81
264.035	70.81
264.267	89.81
264.499	90.81
264.732	74.81
264.964	84.81
265.197	74.81
265.429	74.81
265.661	95.81
265.894	81.81
266.126	93.81
266.358	92.81
266.591	86.81
266.823	82.81
267.055	88.81
267.287	70.81
267.52	78.81
267.752	73.81
267.984	86.81
268.216	77.81
268.448	84.81
268.681	80.81
268.913	101.81
269.145	90.81
269.377	94.81
269.609	80.81
269.841	67.81
270.073	79.81
270.306	80.81
270.538	72.81
270.77	74.81
271.002	100.81
271.234	80.81
271.466	103.81
271.698	76.81
271.93	86.81
272.162	95.81
272.394	80.81
272.626	96.81
272.858	80.81
273.09	72.81
273.322	84.81
273.553	90.81
273.785	94.81
274.017	101.81
274.249	80.81
274.481	84.81
274.713	93.81
274.945	82.81
275.176	74.81
275.408	80.81
275.64	100.81
275.872	94.81
276.104	93.81
276.335	98.81
276.567	80.81
276.799	86.81
277.031	86.81
277.262	78.81
277.494	75.81
277.726	72.81
277.957	81.81
278.189	90.81
278.421	83.81
278.652	79.81
278.884	85.81
279.115	85.81
279.347	94.81
279.579	101.81
279.81	90.81
280.042	92.81
280.273	94.81
280.505	93.81
280.736	105.81
280.968	88.81
281.199	85.81
281.431	82.81
281.662	86.81
281.894	68.81
282.125	95.81
282.356	82.81
282.588	82.81
282.819	85.81
283.051	75.81
283.282	83.81
283.513	89.81
283.745	73.81
283.976	84.81
284.207	94.81
284.439	90.81
284.67	85.81
284.901	87.81
285.132	94.81
285.364	78.81
285.595	82.81
285.826	89.81
286.057	77.81
286.288	102.81
286.52	94.81
286.751	98.81
286.982	72.81
287.213	83.81
287.444	75.81
287.675	74.81
287.906	88.81
288.138	91.81
288.369	86.81
288.6	84.81
288.831	96.81
289.062	86.81
289.293	80.81
289.524	87.81
289.755	80.81
289.986	82.81
290.217	92.81
290.448	89.81
290.679	78.81
290.91	98.81
291.141	100.81
291.371	81.81
291.602	77.81
291.833	93.81
292.064	89.81
292.295	100.81
292.526	94.81
292.757	80.81
292.987	89.81
293.218	100.81
293.449	86.81
293.68	87.81
293.91	83.81
294.141	93.81
294.372	91.81
294.603	77.81
294.833	88.81
295.064	76.81
295.295	82.81
295.525	93.81
295.756	95.81
295.987	87.81
296.217	91.81
296.448	82.81
296.679	90.81
296.909	95.81
297.14	95.81
297.37	86.81
297.601	94.81
297.831	84.81
298.062	94.81
298.292	83.81
298.523	78.81
298.753	93.81
298.984	88.81
299.214	85.81
299.445	99.81
299.675	88.81
299.905	94.81
300.136	96.81
300.366	92.81
300.597	98.81
300.827	91.81
301.057	81.81
301.288	92.81
301.518	72.81
301.748	86.81
301.979	79.81
302.209	90.81
302.439	79.81
302.669	73.81
302.9	100.81
303.13	92.81
303.36	86.81
303.59	96.81
303.82	92.81
304.051	99.81
304.281	92.81
304.511	85.81
304.741	82.81
304.971	101.81
305.201	94.81
305.431	82.81
305.661	93.81
305.891	92.81
306.121	92.81
306.352	82.81
306.582	86.81
306.812	84.81
307.042	86.81
307.272	89.81
307.502	93.81
307.731	99.81
307.961	74.81
308.191	87.81
308.421	84.81
308.651	70.81
308.881	86.81
309.111	86.81
309.341	87.81
309.571	97.81
309.8	97.81
310.03	93.81
310.26	80.81
310.49	83.81
310.72	94.81
310.949	79.81
311.179	97.81
311.409	92.81
311.639	89.81
311.868	99.81
312.098	79.81
312.328	107.81
312.557	87.81
312.787	96.81
313.017	105.81
313.246	84.81
313.476	81.81
313.706	79.81
313.935	83.81
314.165	93.81
314.394	87.81
314.624	101.81
314.853	88.81
315.083	80.81
315.312	98.81
315.542	87.81
315.771	86.81
316.001	70.81
316.23	88.81
316.46	82.81
316.689	101.81
316.919	87.81
317.148	94.81
317.377	81.81
317.607	80.81
317.836	100.81
318.065	97.81
318.295	78.81
318.524	94.81
318.753	90.81
318.983	92.81
319.212	90.81
319.441	86.81
319.67	83.81
319.9	83.81
320.129	84.81
320.358	96.81
320.587	93.81
320.816	86.81
321.046	84.81
321.275	91.81
321.504	95.81
321.733	70.81
321.962	100.81
322.191	68.81
322.42	82.81
322.649	78.81
322.878	92.81
323.108	88.81
323.337	91.81
323.566	96.81
323.795	78.81
324.024	95.81
324.253	93.81
324.482	92.81
324.71	79.81
324.939	83.81
325.168	88.81
325.397	81.81
325.626	100.81
325.855	87.81
326.084	80.81
326.313	92.81
326.542	81.81
326.77	89.81
326.999	98.81
327.228	93.81
327.457	92.81
327.686	104.81
327.914	85.81
328.143	90.81
328.372	108.81
328.6	77.81
328.829	96.81
329.058	98.81
329.287	103.81
329.515	86.81
329.744	95.81
329.972	101.81
330.201	99.81
330.43	90.81
330.658	99.81
330.887	82.81
331.115	92.81
331.344	99.81
331.572	99.81
331.801	84.81
332.03	88.81
332.258	88.81
332.486	89.81
332.715	81.81
332.943	85.81
333.172	92.81
333.4	94.81
333.629	90.81
333.857	86.81
334.085	84.81
334.314	96.81
334.542	97.81
334.771	87.81
334.999	91.81
335.227	94.81
335.455	90.81
335.684	93.81
335.912	93.81
336.14	105.81
336.369	95.81
336.597	89.81
336.825	104.81
337.053	101.81
337.281	89.81
337.51	69.81
337.738	95.81
337.966	89.81
338.194	93.81
338.422	93.81
338.65	84.81
338.878	94.81
339.106	96.81
339.334	89.81
339.562	89.81
339.79	85.81
340.018	97.81
340.246	82.81
340.474	101.81
340.702	93.81
340.93	88.81
341.158	89.81
341.386	91.81
341.614	98.81
341.842	86.81
342.07	91.81
342.298	85.81
342.526	82.81
342.754	86.81
342.981	86.81
343.209	89.81
343.437	94.81
343.665	96.81
343.893	88.81
344.12	87.81
344.348	87.81
344.576	98.81
344.804	90.81
345.031	100.81
345.259	96.81
345.487	84.81
345.714	96.81
345.942	99.81
346.17	109.81
346.397	73.81
346.625	73.81
346.853	69.81
347.08	80.81
347.308	84.81
347.535	93.81
347.763	88.81
347.99	78.81
348.218	86.81
348.445	89.81
348.673	86.81
348.9	87.81
349.128	88.81
349.355	93.81
349.583	99.81
349.81	83.81
350.037	86.81
350.265	87.81
350.492	85.81
350.72	81.81
350.947	77.81
351.174	79.81
351.402	79.81
351.629	88.81
351.856	92.81
352.083	93.81
352.311	100.81
352.538	87.81
352.765	90.81
352.992	85.81
353.22	99.81
353.447	77.81
353.674	82.81
353.901	88.81
354.128	81.81
354.355	90.81
354.583	97.81
354.81	105.81
355.037	83.81
355.264	87.81
355.491	80.81
355.718	101.81
355.945	101.81
356.172	95.81
356.399	89.81
356.626	96.81
356.853	96.81
357.08	93.81
357.307	86.81
357.534	83.81
357.761	91.81
357.988	88.81
358.215	83.81
358.441	85.81
358.668	96.81
358.895	89.81
359.122	79.81
359.349	80.81
359.576	84.81
359.802	101.81
360.029	101.81
360.256	74.81
360.483	88.81
360.709	85.81
360.936	80.81
361.163	71.81
361.39	95.81
361.616	91.81
361.843	85.81
362.07	89.81
362.296	62.81
362.523	79.81
362.749	84.81
362.976	79.81
363.203	89.81
363.429	84.81
363.656	76.81
363.882	102.81
364.109	105.81
364.335	87.81
364.562	100.81
364.788	71.81
365.015	73.81
365.241	97.81
365.468	85.81
365.694	82.81
365.92	88.81
366.147	79.81
366.373	89.81
366.599	93.81
366.826	87.81
367.052	100.81
367.278	81.81
367.505	86.81
367.731	85.81
367.957	83.81
368.184	90.81
368.41	93.81
368.636	93.81
368.862	81.81
369.089	89.81
369.315	73.81
369.541	94.81
369.767	90.81
369.993	92.81
370.219	81.81
370.445	100.81
370.672	90.81
370.898	83.81
371.124	89.81
371.35	86.81
371.576	76.81
371.802	92.81
372.028	85.81
372.254	91.81
372.48	94.81
372.706	84.81
372.932	82.81
373.158	98.81
373.384	92.81
373.61	97.81
373.835	96.81
374.061	84.81
374.287	98.81
374.513	88.81
374.739	87.81
374.965	97.81
375.191	82.81
375.416	88.81
375.642	109.81
375.868	96.81
376.094	101.81
376.319	96.81
376.545	78.81
376.771	91.81
376.997	95.81
377.222	75.81
377.448	73.81
377.674	80.81
377.899	82.81
378.125	84.81
378.35	93.81
378.576	87.81
378.802	96.81
379.027	86.81
379.253	99.81
379.478	93.81
379.704	80.81
379.929	86.81
380.155	97.81
380.38	79.81
380.606	86.81
380.831	95.81
381.057	94.81
381.282	89.81
381.507	97.81
381.733	102.81
381.958	92.81
382.184	96.81
382.409	86.81
382.634	88.81
382.86	85.81
383.085	88.81
383.31	99.81
383.535	74.81
383.761	82.81
383.986	93.81
384.211	90.81
384.436	86.81
384.662	84.81
384.887	92.81
385.112	99.81
385.337	83.81
385.562	93.81
385.787	95.81
386.013	97.81
386.238	92.81
386.463	108.81
386.688	93.81
386.913	93.81
387.138	100.81
387.363	97.81
387.588	96.81
387.813	96.81
388.038	102.81
388.263	95.81
388.488	86.81
388.713	89.81
388.938	85.81
389.163	88.81
389.387	102.81
389.612	89.81
389.837	106.81
390.062	94.81
390.287	90.81
390.512	102.81
390.736	83.81
390.961	82.81
391.186	89.81
391.411	90.81
391.636	95.81
391.86	92.81
392.085	85.81
392.31	87.81
392.534	90.81
392.759	85.81
392.984	88.81
393.208	96.81
393.433	101.81
393.658	83.81
393.882	88.81
394.107	98.81
394.331	90.81
394.556	92.81
394.78	108.81
395.005	86.81
395.229	91.81
395.454	95.81
395.678	92.81
395.903	91.81
396.127	83.81
396.352	81.81
396.576	85.81
396.801	86.81
397.025	102.81
397.249	97.81
397.474	82.81
397.698	90.81
397.922	89.81
398.147	100.81
398.371	91.81
398.595	87.81
398.82	94.81
399.044	91.81
399.268	90.81
399.492	110.81
399.717	92.81
399.941	118.81
400.165	98.81
400.389	86.81
400.613	105.81
400.837	94.81
401.062	95.81
401.286	101.81
401.51	103.81
401.734	90.81
401.958	90.81
402.182	97.81
402.406	91.81
402.63	90.81
402.854	85.81
403.078	87.81
403.302	95.81
403.526	93.81
403.75	101.81
403.974	93.81
404.198	88.81
404.422	95.81
404.645	98.81
404.869	89.81
405.093	100.81
405.317	98.81
405.541	85.81
405.765	100.81
405.988	96.81
406.212	105.81
406.436	93.81
406.66	101.81
406.883	89.81
407.107	88.81
407.331	112.81
407.555	105.81
407.778	100.81
408.002	97.81
408.226	101.81
408.449	95.81
408.673	103.81
408.896	89.81
409.12	87.81
409.344	90.81
409.567	104.81
409.791	108.81
410.014	111.81
410.238	104.81
410.461	95.81
410.685	88.81
410.908	101.81
411.132	90.81
411.355	94.81
411.578	96.81
411.802	90.81
412.025	91.81
412.249	93.81
412.472	98.81
412.695	84.81
412.919	100.81
413.142	96.81
413.365	91.81
413.589	87.81
413.812	90.81
414.035	90.81
414.258	95.81
414.482	98.81
414.705	98.81
414.928	102.81
415.151	105.81
415.374	86.81
415.597	90.81
415.821	97.81
416.044	99.81
416.267	89.81
416.49	80.81
416.713	84.81
416.936	101.81
417.159	79.81
417.382	84.81
417.605	96.81
417.828	92.81
418.051	95.81
418.274	104.81
418.497	101.81
418.72	99.81
418.943	84.81
419.166	85.81
419.389	105.81
419.611	96.81
419.834	83.81
420.057	112.81
420.28	101.81
420.503	94.81
420.726	85.81
420.948	99.81
421.171	95.81
421.394	93.81
421.617	100.81
421.839	98.81
422.062	85.81
422.285	77.81
422.507	98.81
422.73	86.81
422.953	88.81
423.175	89.81
423.398	104.81
423.621	101.81
423.843	100.81
424.066	92.81
424.288	90.81
424.511	99.81
424.733	89.81
424.956	106.81
425.178	90.81
425.401	89.81
425.623	74.81
425.846	98.81
426.068	72.81
426.291	95.81
426.513	111.81
426.735	88.81
426.958	101.81
427.18	93.81
427.402	87.81
427.625	98.81
427.847	99.81
428.069	82.81
428.292	95.81
428.514	100.81
428.736	92.81
428.958	84.81
429.181	101.81
429.403	92.81
429.625	101.81
429.847	100.81
430.069	79.81
430.292	82.81
430.514	90.81
430.736	89.81
430.958	95.81
431.18	93.81
431.402	91.81
431.624	100.81
431.846	84.81
432.068	85.81
432.29	98.81
432.512	95.81
432.734	100.81
432.956	84.81
433.178	93.81
433.4	87.81
433.622	98.81
433.844	85.81
434.066	95.81
434.287	95.81
434.509	80.81
434.731	107.81
434.953	97.81
435.175	94.81
435.397	92.81
435.618	76.81
435.84	88.81
436.062	95.81
436.284	84.81
436.505	107.81
436.727	77.81
436.949	78.81
437.17	100.81
437.392	85.81
437.614	95.81
437.835	83.81
438.057	94.81
438.278	74.81
438.5	81.81
438.721	98.81
438.943	90.81
439.165	96.81
439.386	97.81
439.608	93.81
439.829	97.81
440.05	82.81
440.272	91.81
440.493	81.81
440.715	89.81
440.936	96.81
441.158	97.81
441.379	93.81
441.6	102.81
441.822	89.81
442.043	102.81
442.264	91.81
442.486	83.81
442.707	88.81
442.928	92.81
443.149	92.81
443.371	84.81
443.592	97.81
443.813	93.81
444.034	90.81
444.255	98.81
444.476	96.81
444.698	92.81
444.919	105.81
445.14	194.81
445.361	135.81
445.582	89.81
445.803	90.81
446.024	91.81
446.245	97.81
446.466	98.81
446.687	84.81
446.908	96.81
447.129	97.81
447.35	88.81
447.571	86.81
447.792	91.81
448.013	93.81
448.234	94.81
448.455	77.81
448.675	87.81
448.896	85.81
449.117	92.81
449.338	97.81
449.559	87.81
449.779	80.81
450	92.81
450.221	89.81
450.442	85.81
450.662	103.81
450.883	92.81
451.104	83.81
451.324	86.81
451.545	92.81
451.766	91.81
451.986	96.81
452.207	71.81
452.428	83.81
452.648	101.81
452.869	103.81
453.089	82.81
453.31	99.81
453.53	82.81
453.751	86.81
453.971	76.81
454.192	90.81
454.412	82.81
454.633	82.81
454.853	81.81
455.073	87.81
455.294	95.81
455.514	98.81
455.734	95.81
455.955	83.81
456.175	85.81
456.395	95.81
456.616	93.81
456.836	90.81
457.056	82.81
457.276	94.81
457.497	92.81
457.717	98.81
457.937	87.81
458.157	94.81
458.377	90.81
458.598	90.81
458.818	89.81
459.038	79.81
459.258	89.81
459.478	78.81
459.698	86.81
459.918	88.81
460.138	89.81
460.358	94.81
460.578	94.81
460.798	95.81
461.018	102.81
461.238	99.81
461.458	95.81
461.678	88.81
461.898	90.81
462.118	100.81
462.338	84.81
462.558	85.81
462.777	97.81
462.997	110.81
463.217	108.81
463.437	99.81
463.657	93.81
463.876	98.81
464.096	89.81
464.316	109.81
464.536	100.81
464.755	98.81
464.975	104.81
465.195	109.81
465.414	102.81
465.634	82.81
465.854	94.81
466.073	103.81
466.293	70.81
466.512	92.81
466.732	100.81
466.951	88.81
467.171	88.81
467.391	93.81
467.61	81.81
467.829	85.81
468.049	81.81
468.268	87.81
468.488	102.81
468.707	97.81
468.927	101.81
469.146	76.81
469.365	102.81
469.585	81.81
469.804	75.81
470.023	80.81
470.243	89.81
470.462	79.81
470.681	104.81
470.901	106.81
471.12	96.81
471.339	91.81
471.558	105.81
471.777	104.81
471.997	97.81
472.216	94.81
472.435	99.81
472.654	90.81
472.873	95.81
473.092	93.81
473.311	103.81
473.53	90.81
473.749	92.81
473.968	104.81
474.187	95.81
474.406	94.81
474.625	98.81
474.844	97.81
475.063	100.81
475.282	78.81
475.501	82.81
475.72	101.81
475.939	117.81
476.158	93.81
476.377	91.81
476.596	98.81
476.814	86.81
477.033	102.81
477.252	89.81
477.471	85.81
477.69	95.81
477.908	100.81
478.127	100.81
478.346	100.81
478.564	101.81
478.783	93.81
479.002	111.81
479.22	102.81
479.439	106.81
479.658	100.81
479.876	101.81
480.095	84.81
480.313	95.81
480.532	92.81
480.751	111.81
480.969	100.81
481.188	82.81
481.406	99.81
481.624	94.81
481.843	91.81
482.061	93.81
482.28	90.81
482.498	85.81
482.717	94.81
482.935	97.81
483.153	101.81
483.372	100.81
483.59	96.81
483.808	112.81
484.027	90.81
484.245	101.81
484.463	110.81
484.681	103.81
484.9	102.81
485.118	110.81
485.336	108.81
485.554	100.81
485.772	102.81
485.99	108.81
486.209	88.81
486.427	97.81
486.645	113.81
486.863	108.81
487.081	98.81
487.299	101.81
487.517	82.81
487.735	104.81
487.953	98.81
488.171	105.81
488.389	104.81
488.607	119.81
488.825	106.81
489.043	110.81
489.261	98.81
489.479	86.81
489.696	101.81
489.914	109.81
490.132	98.81
490.35	105.81
490.568	112.81
490.786	96.81
491.003	101.81
491.221	122.81
491.439	120.81
491.657	125.81
491.874	109.81
492.092	108.81
492.31	124.81
492.527	124.81
492.745	111.81
492.963	112.81
493.18	116.81
493.398	109.81
493.615	109.81
493.833	105.81
494.05	112.81
494.268	115.81
494.485	102.81
494.703	111.81
494.92	113.81
495.138	106.81
495.355	105.81
495.573	120.81
495.79	100.81
496.008	114.81
496.225	108.81
496.442	106.81
496.66	108.81
496.877	100.81
497.094	116.81
497.312	107.81
497.529	110.81
497.746	98.81
497.963	103.81
498.181	120.81
498.398	106.81
498.615	109.81
498.832	106.81
499.049	116.81
499.267	133.81
499.484	120.81
499.701	131.81
499.918	124.81
500.135	139.81
500.352	143.81
500.569	145.81
500.786	157.81
501.003	134.81
501.22	125.81
501.437	140.81
501.654	132.81
501.871	123.81
502.088	120.81
502.305	118.81
502.522	112.81
502.739	114.81
502.956	98.81
503.172	96.81
503.389	98.81
503.606	96.81
503.823	103.81
504.04	117.81
504.256	96.81
504.473	102.81
504.69	102.81
504.907	104.81
505.123	89.81
505.34	110.81
505.557	87.81
505.773	104.81
505.99	113.81
506.207	101.81
506.423	112.81
506.64	104.81
506.856	101.81
507.073	94.81
507.289	95.81
507.506	114.81
507.722	107.81
507.939	109.81
508.155	103.81
508.372	94.81
508.588	100.81
508.805	93.81
509.021	96.81
509.238	110.81
509.454	92.81
509.67	90.81
509.887	104.81
510.103	108.81
510.319	97.81
510.536	92.81
510.752	103.81
510.968	100.81
511.184	79.81
511.401	100.81
511.617	108.81
511.833	119.81
512.049	94.81
512.265	98.81
512.481	94.81
512.698	96.81
512.914	84.81
513.13	88.81
513.346	93.81
513.562	106.81
513.778	109.81
513.994	87.81
514.21	115.81
514.426	102.81
514.642	95.81
514.858	85.81
515.074	92.81
515.29	90.81
515.506	95.81
515.721	110.81
515.937	104.81
