Data from Location5.07152019.Energy5.Lamp.07192019.3%Agarose_HRD10591_16-03-49-629.txt Node
Date: Fri Jul 19 16:03:49 EDT 2019
User: cochatt
Spectrometer: HR+D1059
Trigger mode: 1
Integration Time (sec): 1.000000E-1
Scans to average: 1
Electric dark correction enabled: true
Nonlinearity correction enabled: false
Boxcar width: 0
XAxis mode: Wavelengths
Number of Pixels in Spectrum: 2048
>>>>>Begin Spectral Data<<<<<
223.165	-12.69
223.4	-12.69
223.635	-12.69
223.869	-5.69
224.104	-25.69
224.338	-23.69
224.573	-28.69
224.808	-19.69
225.042	-4.69
225.277	3.31
225.511	-4.69
225.746	11.31
225.98	1.31
226.215	6.31
226.449	15.31
226.683	33.31
226.918	33.31
227.152	21.31
227.387	55.31
227.621	41.31
227.856	39.31
228.09	38.31
228.324	60.31
228.559	57.31
228.793	60.31
229.027	60.31
229.262	69.31
229.496	87.31
229.73	74.31
229.964	80.31
230.199	69.31
230.433	70.31
230.667	78.31
230.901	74.31
231.136	77.31
231.37	81.31
231.604	84.31
231.838	79.31
232.072	80.31
232.306	83.31
232.541	84.31
232.775	76.31
233.009	94.31
233.243	67.31
233.477	94.31
233.711	90.31
233.945	76.31
234.179	77.31
234.413	92.31
234.647	94.31
234.881	84.31
235.115	81.31
235.349	77.31
235.583	84.31
235.817	82.31
236.051	84.31
236.285	78.31
236.519	80.31
236.753	76.31
236.987	85.31
237.221	78.31
237.455	68.31
237.689	77.31
237.922	75.31
238.156	65.31
238.39	85.31
238.624	79.31
238.858	72.31
239.091	82.31
239.325	69.31
239.559	86.31
239.793	74.31
240.027	74.31
240.26	88.31
240.494	89.31
240.728	84.31
240.961	78.31
241.195	82.31
241.429	69.31
241.662	83.31
241.896	84.31
242.13	90.31
242.363	90.31
242.597	81.31
242.83	79.31
243.064	81.31
243.298	82.31
243.531	77.31
243.765	76.31
243.998	89.31
244.232	94.31
244.465	84.31
244.699	84.31
244.932	97.31
245.166	93.31
245.399	78.31
245.633	72.31
245.866	77.31
246.099	78.31
246.333	91.31
246.566	77.31
246.8	74.31
247.033	75.31
247.266	80.31
247.5	85.31
247.733	79.31
247.966	82.31
248.2	85.31
248.433	94.31
248.666	70.31
248.899	74.31
249.133	76.31
249.366	92.31
249.599	88.31
249.832	75.31
250.066	87.31
250.299	85.31
250.532	85.31
250.765	86.31
250.998	91.31
251.231	86.31
251.465	86.31
251.698	79.31
251.931	94.31
252.164	86.31
252.397	59.31
252.63	78.31
252.863	83.31
253.096	90.31
253.329	75.31
253.562	81.31
253.795	89.31
254.028	96.31
254.261	88.31
254.494	82.31
254.727	83.31
254.96	77.31
255.193	75.31
255.426	103.31
255.659	82.31
255.892	103.31
256.124	91.31
256.357	69.31
256.59	74.31
256.823	84.31
257.056	76.31
257.289	104.31
257.521	84.31
257.754	84.31
257.987	84.31
258.22	78.31
258.452	76.31
258.685	99.31
258.918	106.31
259.151	83.31
259.383	91.31
259.616	76.31
259.849	73.31
260.081	103.31
260.314	78.31
260.547	97.31
260.779	90.31
261.012	83.31
261.244	79.31
261.477	93.31
261.71	86.31
261.942	95.31
262.175	83.31
262.407	72.31
262.64	85.31
262.872	84.31
263.105	86.31
263.337	84.31
263.57	80.31
263.802	103.31
264.035	94.31
264.267	99.31
264.499	86.31
264.732	93.31
264.964	101.31
265.197	66.31
265.429	91.31
265.661	81.31
265.894	91.31
266.126	91.31
266.358	92.31
266.591	79.31
266.823	93.31
267.055	74.31
267.287	97.31
267.52	95.31
267.752	97.31
267.984	95.31
268.216	98.31
268.448	81.31
268.681	81.31
268.913	95.31
269.145	97.31
269.377	87.31
269.609	83.31
269.841	102.31
270.073	77.31
270.306	82.31
270.538	106.31
270.77	100.31
271.002	97.31
271.234	88.31
271.466	100.31
271.698	82.31
271.93	95.31
272.162	81.31
272.394	91.31
272.626	87.31
272.858	91.31
273.09	91.31
273.322	101.31
273.553	86.31
273.785	87.31
274.017	79.31
274.249	94.31
274.481	91.31
274.713	89.31
274.945	103.31
275.176	96.31
275.408	91.31
275.64	94.31
275.872	93.31
276.104	76.31
276.335	90.31
276.567	99.31
276.799	83.31
277.031	86.31
277.262	91.31
277.494	99.31
277.726	95.31
277.957	85.31
278.189	87.31
278.421	97.31
278.652	94.31
278.884	86.31
279.115	90.31
279.347	98.31
279.579	108.31
279.81	97.31
280.042	96.31
280.273	92.31
280.505	98.31
280.736	100.31
280.968	92.31
281.199	75.31
281.431	85.31
281.662	77.31
281.894	83.31
282.125	98.31
282.356	94.31
282.588	88.31
282.819	94.31
283.051	81.31
283.282	91.31
283.513	93.31
283.745	91.31
283.976	97.31
284.207	80.31
284.439	102.31
284.67	99.31
284.901	79.31
285.132	106.31
285.364	93.31
285.595	78.31
285.826	88.31
286.057	96.31
286.288	89.31
286.52	95.31
286.751	87.31
286.982	85.31
287.213	87.31
287.444	89.31
287.675	87.31
287.906	106.31
288.138	85.31
288.369	85.31
288.6	97.31
288.831	107.31
289.062	89.31
289.293	98.31
289.524	80.31
289.755	107.31
289.986	101.31
290.217	89.31
290.448	95.31
290.679	101.31
290.91	99.31
291.141	94.31
291.371	95.31
291.602	86.31
291.833	106.31
292.064	89.31
292.295	109.31
292.526	83.31
292.757	94.31
292.987	83.31
293.218	101.31
293.449	87.31
293.68	101.31
293.91	103.31
294.141	90.31
294.372	94.31
294.603	120.31
294.833	101.31
295.064	93.31
295.295	91.31
295.525	100.31
295.756	87.31
295.987	85.31
296.217	101.31
296.448	98.31
296.679	98.31
296.909	94.31
297.14	89.31
297.37	88.31
297.601	97.31
297.831	92.31
298.062	97.31
298.292	91.31
298.523	100.31
298.753	92.31
298.984	91.31
299.214	102.31
299.445	94.31
299.675	97.31
299.905	105.31
300.136	89.31
300.366	89.31
300.597	98.31
300.827	87.31
301.057	106.31
301.288	93.31
301.518	94.31
301.748	95.31
301.979	74.31
302.209	93.31
302.439	95.31
302.669	84.31
302.9	117.31
303.13	94.31
303.36	91.31
303.59	90.31
303.82	87.31
304.051	85.31
304.281	98.31
304.511	90.31
304.741	81.31
304.971	90.31
305.201	92.31
305.431	103.31
305.661	108.31
305.891	93.31
306.121	87.31
306.352	99.31
306.582	92.31
306.812	108.31
307.042	93.31
307.272	93.31
307.502	87.31
307.731	91.31
307.961	97.31
308.191	101.31
308.421	100.31
308.651	103.31
308.881	99.31
309.111	95.31
309.341	94.31
309.571	100.31
309.8	87.31
310.03	90.31
310.26	95.31
310.49	92.31
310.72	90.31
310.949	82.31
311.179	90.31
311.409	96.31
311.639	87.31
311.868	90.31
312.098	101.31
312.328	91.31
312.557	97.31
312.787	93.31
313.017	93.31
313.246	102.31
313.476	89.31
313.706	108.31
313.935	95.31
314.165	87.31
314.394	91.31
314.624	105.31
314.853	84.31
315.083	99.31
315.312	98.31
315.542	89.31
315.771	92.31
316.001	100.31
316.23	102.31
316.46	105.31
316.689	88.31
316.919	92.31
317.148	96.31
317.377	96.31
317.607	90.31
317.836	98.31
318.065	97.31
318.295	97.31
318.524	95.31
318.753	97.31
318.983	92.31
319.212	80.31
319.441	103.31
319.67	94.31
319.9	97.31
320.129	89.31
320.358	104.31
320.587	108.31
320.816	95.31
321.046	102.31
321.275	91.31
321.504	102.31
321.733	104.31
321.962	83.31
322.191	95.31
322.42	97.31
322.649	88.31
322.878	96.31
323.108	101.31
323.337	100.31
323.566	90.31
323.795	101.31
324.024	91.31
324.253	103.31
324.482	105.31
324.71	94.31
324.939	107.31
325.168	106.31
325.397	87.31
325.626	105.31
325.855	103.31
326.084	100.31
326.313	87.31
326.542	103.31
326.77	101.31
326.999	86.31
327.228	90.31
327.457	109.31
327.686	94.31
327.914	95.31
328.143	106.31
328.372	86.31
328.6	96.31
328.829	86.31
329.058	105.31
329.287	92.31
329.515	94.31
329.744	97.31
329.972	95.31
330.201	98.31
330.43	101.31
330.658	79.31
330.887	106.31
331.115	78.31
331.344	83.31
331.572	106.31
331.801	92.31
332.03	111.31
332.258	96.31
332.486	86.31
332.715	100.31
332.943	79.31
333.172	101.31
333.4	95.31
333.629	92.31
333.857	91.31
334.085	115.31
334.314	107.31
334.542	101.31
334.771	105.31
334.999	91.31
335.227	89.31
335.455	90.31
335.684	110.31
335.912	100.31
336.14	94.31
336.369	99.31
336.597	106.31
336.825	105.31
337.053	98.31
337.281	79.31
337.51	91.31
337.738	100.31
337.966	105.31
338.194	91.31
338.422	100.31
338.65	92.31
338.878	97.31
339.106	98.31
339.334	116.31
339.562	102.31
339.79	101.31
340.018	98.31
340.246	106.31
340.474	84.31
340.702	101.31
340.93	95.31
341.158	103.31
341.386	87.31
341.614	93.31
341.842	89.31
342.07	97.31
342.298	89.31
342.526	94.31
342.754	87.31
342.981	95.31
343.209	100.31
343.437	106.31
343.665	113.31
343.893	104.31
344.12	101.31
344.348	97.31
344.576	97.31
344.804	98.31
345.031	98.31
345.259	94.31
345.487	93.31
345.714	92.31
345.942	90.31
346.17	99.31
346.397	83.31
346.625	94.31
346.853	92.31
347.08	101.31
347.308	92.31
347.535	94.31
347.763	80.31
347.99	94.31
348.218	104.31
348.445	83.31
348.673	90.31
348.9	102.31
349.128	103.31
349.355	105.31
349.583	83.31
349.81	93.31
350.037	94.31
350.265	98.31
350.492	121.31
350.72	93.31
350.947	91.31
351.174	86.31
351.402	111.31
351.629	93.31
351.856	90.31
352.083	93.31
352.311	84.31
352.538	97.31
352.765	86.31
352.992	95.31
353.22	98.31
353.447	81.31
353.674	102.31
353.901	107.31
354.128	103.31
354.355	97.31
354.583	90.31
354.81	88.31
355.037	89.31
355.264	88.31
355.491	89.31
355.718	90.31
355.945	83.31
356.172	106.31
356.399	106.31
356.626	103.31
356.853	96.31
357.08	89.31
357.307	107.31
357.534	79.31
357.761	100.31
357.988	97.31
358.215	104.31
358.441	99.31
358.668	90.31
358.895	94.31
359.122	98.31
359.349	82.31
359.576	93.31
359.802	93.31
360.029	83.31
360.256	95.31
360.483	88.31
360.709	84.31
360.936	114.31
361.163	102.31
361.39	87.31
361.616	94.31
361.843	101.31
362.07	107.31
362.296	88.31
362.523	103.31
362.749	102.31
362.976	108.31
363.203	92.31
363.429	97.31
363.656	103.31
363.882	100.31
364.109	81.31
364.335	91.31
364.562	94.31
364.788	95.31
365.015	86.31
365.241	90.31
365.468	101.31
365.694	91.31
365.92	88.31
366.147	92.31
366.373	102.31
366.599	86.31
366.826	96.31
367.052	100.31
367.278	91.31
367.505	83.31
367.731	85.31
367.957	103.31
368.184	109.31
368.41	101.31
368.636	101.31
368.862	96.31
369.089	95.31
369.315	105.31
369.541	107.31
369.767	110.31
369.993	102.31
370.219	92.31
370.445	90.31
370.672	92.31
370.898	93.31
371.124	102.31
371.35	101.31
371.576	86.31
371.802	86.31
372.028	93.31
372.254	85.31
372.48	91.31
372.706	108.31
372.932	85.31
373.158	97.31
373.384	88.31
373.61	92.31
373.835	89.31
374.061	97.31
374.287	92.31
374.513	95.31
374.739	99.31
374.965	98.31
375.191	94.31
375.416	102.31
375.642	98.31
375.868	100.31
376.094	94.31
376.319	92.31
376.545	99.31
376.771	83.31
376.997	99.31
377.222	99.31
377.448	96.31
377.674	91.31
377.899	95.31
378.125	88.31
378.35	102.31
378.576	103.31
378.802	97.31
379.027	104.31
379.253	93.31
379.478	90.31
379.704	94.31
379.929	94.31
380.155	92.31
380.38	94.31
380.606	86.31
380.831	96.31
381.057	104.31
381.282	85.31
381.507	93.31
381.733	96.31
381.958	84.31
382.184	96.31
382.409	99.31
382.634	106.31
382.86	92.31
383.085	101.31
383.31	103.31
383.535	103.31
383.761	95.31
383.986	84.31
384.211	102.31
384.436	100.31
384.662	91.31
384.887	86.31
385.112	81.31
385.337	86.31
385.562	86.31
385.787	79.31
386.013	99.31
386.238	97.31
386.463	100.31
386.688	106.31
386.913	97.31
387.138	97.31
387.363	87.31
387.588	92.31
387.813	110.31
388.038	91.31
388.263	90.31
388.488	102.31
388.713	105.31
388.938	94.31
389.163	94.31
389.387	95.31
389.612	113.31
389.837	94.31
390.062	100.31
390.287	86.31
390.512	98.31
390.736	95.31
390.961	102.31
391.186	113.31
391.411	102.31
391.636	89.31
391.86	92.31
392.085	103.31
392.31	86.31
392.534	106.31
392.759	87.31
392.984	94.31
393.208	110.31
393.433	92.31
393.658	110.31
393.882	88.31
394.107	93.31
394.331	108.31
394.556	97.31
394.78	107.31
395.005	109.31
395.229	98.31
395.454	108.31
395.678	104.31
395.903	105.31
396.127	101.31
396.352	98.31
396.576	75.31
396.801	89.31
397.025	103.31
397.249	101.31
397.474	97.31
397.698	91.31
397.922	101.31
398.147	101.31
398.371	110.31
398.595	104.31
398.82	104.31
399.044	115.31
399.268	92.31
399.492	108.31
399.717	101.31
399.941	116.31
400.165	90.31
400.389	88.31
400.613	97.31
400.837	89.31
401.062	102.31
401.286	101.31
401.51	107.31
401.734	94.31
401.958	105.31
402.182	103.31
402.406	100.31
402.63	83.31
402.854	97.31
403.078	101.31
403.302	105.31
403.526	118.31
403.75	107.31
403.974	113.31
404.198	99.31
404.422	102.31
404.645	105.31
404.869	116.31
405.093	107.31
405.317	120.31
405.541	107.31
405.765	108.31
405.988	107.31
406.212	108.31
406.436	107.31
406.66	105.31
406.883	105.31
407.107	93.31
407.331	105.31
407.555	118.31
407.778	117.31
408.002	114.31
408.226	85.31
408.449	110.31
408.673	101.31
408.896	107.31
409.12	88.31
409.344	93.31
409.567	101.31
409.791	113.31
410.014	97.31
410.238	101.31
410.461	89.31
410.685	95.31
410.908	95.31
411.132	97.31
411.355	95.31
411.578	91.31
411.802	92.31
412.025	104.31
412.249	102.31
412.472	106.31
412.695	98.31
412.919	99.31
413.142	113.31
413.365	105.31
413.589	103.31
413.812	100.31
414.035	92.31
414.258	86.31
414.482	112.31
414.705	107.31
414.928	110.31
415.151	105.31
415.374	90.31
415.597	88.31
415.821	102.31
416.044	95.31
416.267	107.31
416.49	110.31
416.713	106.31
416.936	106.31
417.159	110.31
417.382	91.31
417.605	98.31
417.828	110.31
418.051	102.31
418.274	103.31
418.497	102.31
418.72	103.31
418.943	109.31
419.166	94.31
419.389	91.31
419.611	98.31
419.834	109.31
420.057	98.31
420.28	98.31
420.503	99.31
420.726	87.31
420.948	98.31
421.171	94.31
421.394	106.31
421.617	103.31
421.839	100.31
422.062	101.31
422.285	101.31
422.507	79.31
422.73	110.31
422.953	113.31
423.175	105.31
423.398	102.31
423.621	101.31
423.843	110.31
424.066	109.31
424.288	109.31
424.511	93.31
424.733	99.31
424.956	101.31
425.178	84.31
425.401	103.31
425.623	94.31
425.846	108.31
426.068	90.31
426.291	107.31
426.513	95.31
426.735	107.31
426.958	116.31
427.18	111.31
427.402	103.31
427.625	108.31
427.847	99.31
428.069	91.31
428.292	101.31
428.514	105.31
428.736	113.31
428.958	94.31
429.181	86.31
429.403	90.31
429.625	101.31
429.847	107.31
430.069	103.31
430.292	101.31
430.514	100.31
430.736	99.31
430.958	97.31
431.18	105.31
431.402	94.31
431.624	83.31
431.846	90.31
432.068	94.31
432.29	97.31
432.512	99.31
432.734	107.31
432.956	105.31
433.178	97.31
433.4	100.31
433.622	95.31
433.844	106.31
434.066	99.31
434.287	92.31
434.509	101.31
434.731	112.31
434.953	110.31
435.175	94.31
435.397	94.31
435.618	85.31
435.84	93.31
436.062	102.31
436.284	101.31
436.505	99.31
436.727	91.31
436.949	90.31
437.17	89.31
437.392	97.31
437.614	87.31
437.835	87.31
438.057	104.31
438.278	104.31
438.5	89.31
438.721	92.31
438.943	105.31
439.165	98.31
439.386	104.31
439.608	110.31
439.829	105.31
440.05	90.31
440.272	106.31
440.493	97.31
440.715	98.31
440.936	86.31
441.158	101.31
441.379	98.31
441.6	106.31
441.822	109.31
442.043	99.31
442.264	89.31
442.486	105.31
442.707	105.31
442.928	98.31
443.149	110.31
443.371	107.31
443.592	97.31
443.813	97.31
444.034	109.31
444.255	107.31
444.476	85.31
444.698	106.31
444.919	102.31
445.14	195.31
445.361	149.31
445.582	115.31
445.803	113.31
446.024	97.31
446.245	92.31
446.466	91.31
446.687	89.31
446.908	105.31
447.129	95.31
447.35	105.31
447.571	107.31
447.792	101.31
448.013	94.31
448.234	94.31
448.455	99.31
448.675	104.31
448.896	89.31
449.117	94.31
449.338	100.31
449.559	121.31
449.779	101.31
450	97.31
450.221	101.31
450.442	99.31
450.662	121.31
450.883	97.31
451.104	83.31
451.324	110.31
451.545	98.31
451.766	100.31
451.986	107.31
452.207	105.31
452.428	90.31
452.648	91.31
452.869	99.31
453.089	94.31
453.31	102.31
453.53	88.31
453.751	99.31
453.971	109.31
454.192	90.31
454.412	101.31
454.633	110.31
454.853	83.31
455.073	102.31
455.294	87.31
455.514	100.31
455.734	96.31
455.955	93.31
456.175	107.31
456.395	93.31
456.616	84.31
456.836	84.31
457.056	87.31
457.276	80.31
457.497	87.31
457.717	98.31
457.937	84.31
458.157	94.31
458.377	97.31
458.598	89.31
458.818	99.31
459.038	94.31
459.258	89.31
459.478	95.31
459.698	96.31
459.918	97.31
460.138	90.31
460.358	107.31
460.578	104.31
460.798	96.31
461.018	100.31
461.238	114.31
461.458	105.31
461.678	101.31
461.898	98.31
462.118	107.31
462.338	100.31
462.558	103.31
462.777	109.31
462.997	120.31
463.217	110.31
463.437	101.31
463.657	101.31
463.876	115.31
464.096	108.31
464.316	100.31
464.536	98.31
464.755	109.31
464.975	106.31
465.195	104.31
465.414	99.31
465.634	96.31
465.854	103.31
466.073	98.31
466.293	81.31
466.512	104.31
466.732	107.31
466.951	97.31
467.171	88.31
467.391	82.31
467.61	87.31
467.829	102.31
468.049	100.31
468.268	105.31
468.488	99.31
468.707	92.31
468.927	106.31
469.146	93.31
469.365	97.31
469.585	99.31
469.804	105.31
470.023	117.31
470.243	100.31
470.462	110.31
470.681	98.31
470.901	108.31
471.12	92.31
471.339	97.31
471.558	99.31
471.777	94.31
471.997	98.31
472.216	105.31
472.435	95.31
472.654	103.31
472.873	91.31
473.092	95.31
473.311	106.31
473.53	104.31
473.749	94.31
473.968	89.31
474.187	95.31
474.406	86.31
474.625	91.31
474.844	94.31
475.063	93.31
475.282	108.31
475.501	116.31
475.72	111.31
475.939	91.31
476.158	108.31
476.377	100.31
476.596	91.31
476.814	104.31
477.033	83.31
477.252	105.31
477.471	94.31
477.69	94.31
477.908	120.31
478.127	102.31
478.346	108.31
478.564	108.31
478.783	102.31
479.002	114.31
479.22	120.31
479.439	92.31
479.658	107.31
479.876	121.31
480.095	101.31
480.313	115.31
480.532	105.31
480.751	115.31
480.969	117.31
481.188	106.31
481.406	118.31
481.624	106.31
481.843	94.31
482.061	95.31
482.28	87.31
482.498	94.31
482.717	97.31
482.935	118.31
483.153	100.31
483.372	110.31
483.59	109.31
483.808	113.31
484.027	96.31
484.245	104.31
484.463	104.31
484.681	117.31
484.9	105.31
485.118	100.31
485.336	115.31
485.554	118.31
485.772	105.31
485.99	99.31
486.209	104.31
486.427	112.31
486.645	109.31
486.863	101.31
487.081	104.31
487.299	94.31
487.517	95.31
487.735	113.31
487.953	115.31
488.171	118.31
488.389	125.31
488.607	114.31
488.825	95.31
489.043	113.31
489.261	101.31
489.479	114.31
489.696	116.31
489.914	102.31
490.132	105.31
490.35	108.31
490.568	105.31
490.786	117.31
491.003	114.31
491.221	104.31
491.439	119.31
491.657	116.31
491.874	113.31
492.092	121.31
492.31	115.31
492.527	116.31
492.745	119.31
492.963	97.31
493.18	125.31
493.398	125.31
493.615	131.31
493.833	113.31
494.05	114.31
494.268	117.31
494.485	114.31
494.703	121.31
494.92	123.31
495.138	113.31
495.355	131.31
495.573	124.31
495.79	117.31
496.008	118.31
496.225	121.31
496.442	119.31
496.66	113.31
496.877	117.31
497.094	113.31
497.312	120.31
497.529	125.31
497.746	107.31
497.963	114.31
498.181	125.31
498.398	110.31
498.615	137.31
498.832	100.31
499.049	122.31
499.267	117.31
499.484	122.31
499.701	144.31
499.918	150.31
500.135	154.31
500.352	166.31
500.569	174.31
500.786	165.31
501.003	162.31
501.22	160.31
501.437	143.31
501.654	136.31
501.871	131.31
502.088	127.31
502.305	134.31
502.522	137.31
502.739	118.31
502.956	115.31
503.172	125.31
503.389	102.31
503.606	107.31
503.823	110.31
504.04	126.31
504.256	102.31
504.473	112.31
504.69	117.31
504.907	115.31
505.123	107.31
505.34	124.31
505.557	108.31
505.773	100.31
505.99	98.31
506.207	102.31
506.423	102.31
506.64	110.31
506.856	117.31
507.073	104.31
507.289	112.31
507.506	116.31
507.722	105.31
507.939	115.31
508.155	110.31
508.372	109.31
508.588	120.31
508.805	96.31
509.021	107.31
509.238	110.31
509.454	115.31
509.67	97.31
509.887	95.31
510.103	102.31
510.319	115.31
510.536	105.31
510.752	102.31
510.968	108.31
511.184	97.31
511.401	101.31
511.617	104.31
511.833	98.31
512.049	98.31
512.265	112.31
