Data from Location5.07152019.Energy5.Lamp.07192019.3%Agarose_HRD10591_16-03-22-628.txt Node
Date: Fri Jul 19 16:03:22 EDT 2019
User: cochatt
Spectrometer: HR+D1059
Trigger mode: 1
Integration Time (sec): 1.000000E-1
Scans to average: 1
Electric dark correction enabled: true
Nonlinearity correction enabled: false
Boxcar width: 0
XAxis mode: Wavelengths
Number of Pixels in Spectrum: 2048
>>>>>Begin Spectral Data<<<<<
223.165	-13.12
223.4	-13.12
223.635	-13.12
223.869	-16.12
224.104	-20.12
224.338	-15.12
224.573	-6.12
224.808	-5.12
225.042	-7.12
225.277	-12.12
225.511	-1.12
225.746	0.88
225.98	15.88
226.215	16.88
226.449	-1.12
226.683	11.88
226.918	16.88
227.152	34.88
227.387	35.88
227.621	36.88
227.856	44.88
228.09	42.88
228.324	43.88
228.559	67.88
228.793	54.88
229.027	62.88
229.262	71.88
229.496	68.88
229.73	80.88
229.964	73.88
230.199	80.88
230.433	77.88
230.667	77.88
230.901	79.88
231.136	82.88
231.37	84.88
231.604	94.88
231.838	79.88
232.072	103.88
232.306	94.88
232.541	87.88
232.775	79.88
233.009	93.88
233.243	84.88
233.477	78.88
233.711	83.88
233.945	84.88
234.179	75.88
234.413	79.88
234.647	87.88
234.881	86.88
235.115	73.88
235.349	88.88
235.583	86.88
235.817	94.88
236.051	73.88
236.285	90.88
236.519	84.88
236.753	61.88
236.987	88.88
237.221	76.88
237.455	91.88
237.689	82.88
237.922	85.88
238.156	72.88
238.39	85.88
238.624	72.88
238.858	93.88
239.091	87.88
239.325	74.88
239.559	80.88
239.793	92.88
240.027	77.88
240.26	79.88
240.494	83.88
240.728	92.88
240.961	64.88
241.195	85.88
241.429	79.88
241.662	74.88
241.896	82.88
242.13	84.88
242.363	75.88
242.597	63.88
242.83	63.88
243.064	81.88
243.298	84.88
243.531	73.88
243.765	78.88
243.998	72.88
244.232	87.88
244.465	89.88
244.699	84.88
244.932	76.88
245.166	77.88
245.399	86.88
245.633	88.88
245.866	91.88
246.099	66.88
246.333	84.88
246.566	80.88
246.8	89.88
247.033	97.88
247.266	79.88
247.5	85.88
247.733	91.88
247.966	78.88
248.2	82.88
248.433	91.88
248.666	85.88
248.899	93.88
249.133	93.88
249.366	72.88
249.599	77.88
249.832	74.88
250.066	92.88
250.299	83.88
250.532	64.88
250.765	90.88
250.998	78.88
251.231	94.88
251.465	86.88
251.698	80.88
251.931	78.88
252.164	93.88
252.397	100.88
252.63	85.88
252.863	75.88
253.096	76.88
253.329	70.88
253.562	86.88
253.795	74.88
254.028	74.88
254.261	79.88
254.494	108.88
254.727	86.88
254.96	78.88
255.193	73.88
255.426	77.88
255.659	84.88
255.892	76.88
256.124	72.88
256.357	95.88
256.59	86.88
256.823	111.88
257.056	88.88
257.289	76.88
257.521	83.88
257.754	86.88
257.987	92.88
258.22	79.88
258.452	88.88
258.685	89.88
258.918	80.88
259.151	79.88
259.383	89.88
259.616	66.88
259.849	88.88
260.081	73.88
260.314	94.88
260.547	90.88
260.779	76.88
261.012	77.88
261.244	100.88
261.477	89.88
261.71	83.88
261.942	89.88
262.175	84.88
262.407	92.88
262.64	79.88
262.872	96.88
263.105	90.88
263.337	95.88
263.57	98.88
263.802	84.88
264.035	77.88
264.267	102.88
264.499	90.88
264.732	98.88
264.964	88.88
265.197	81.88
265.429	84.88
265.661	102.88
265.894	93.88
266.126	96.88
266.358	96.88
266.591	76.88
266.823	84.88
267.055	75.88
267.287	89.88
267.52	96.88
267.752	89.88
267.984	84.88
268.216	80.88
268.448	89.88
268.681	86.88
268.913	68.88
269.145	81.88
269.377	79.88
269.609	85.88
269.841	94.88
270.073	95.88
270.306	87.88
270.538	84.88
270.77	83.88
271.002	87.88
271.234	83.88
271.466	92.88
271.698	89.88
271.93	79.88
272.162	84.88
272.394	80.88
272.626	84.88
272.858	81.88
273.09	100.88
273.322	90.88
273.553	80.88
273.785	79.88
274.017	81.88
274.249	99.88
274.481	86.88
274.713	94.88
274.945	86.88
275.176	98.88
275.408	96.88
275.64	91.88
275.872	77.88
276.104	92.88
276.335	90.88
276.567	94.88
276.799	90.88
277.031	86.88
277.262	90.88
277.494	88.88
277.726	88.88
277.957	90.88
278.189	95.88
278.421	90.88
278.652	84.88
278.884	85.88
279.115	99.88
279.347	87.88
279.579	98.88
279.81	106.88
280.042	86.88
280.273	100.88
280.505	92.88
280.736	83.88
280.968	97.88
281.199	101.88
281.431	97.88
281.662	97.88
281.894	83.88
282.125	99.88
282.356	98.88
282.588	100.88
282.819	91.88
283.051	75.88
283.282	90.88
283.513	96.88
283.745	93.88
283.976	79.88
284.207	79.88
284.439	102.88
284.67	104.88
284.901	87.88
285.132	89.88
285.364	75.88
285.595	87.88
285.826	96.88
286.057	95.88
286.288	82.88
286.52	90.88
286.751	93.88
286.982	94.88
287.213	84.88
287.444	92.88
287.675	111.88
287.906	84.88
288.138	89.88
288.369	91.88
288.6	86.88
288.831	81.88
289.062	102.88
289.293	88.88
289.524	81.88
289.755	87.88
289.986	93.88
290.217	90.88
290.448	84.88
290.679	98.88
290.91	90.88
291.141	94.88
291.371	84.88
291.602	102.88
291.833	94.88
292.064	88.88
292.295	96.88
292.526	86.88
292.757	84.88
292.987	86.88
293.218	82.88
293.449	94.88
293.68	98.88
293.91	89.88
294.141	90.88
294.372	103.88
294.603	106.88
294.833	94.88
295.064	106.88
295.295	89.88
295.525	93.88
295.756	95.88
295.987	108.88
296.217	105.88
296.448	86.88
296.679	80.88
296.909	101.88
297.14	88.88
297.37	100.88
297.601	96.88
297.831	94.88
298.062	96.88
298.292	98.88
298.523	99.88
298.753	84.88
298.984	100.88
299.214	89.88
299.445	95.88
299.675	102.88
299.905	109.88
300.136	96.88
300.366	103.88
300.597	94.88
300.827	97.88
301.057	99.88
301.288	93.88
301.518	99.88
301.748	82.88
301.979	99.88
302.209	89.88
302.439	95.88
302.669	93.88
302.9	99.88
303.13	86.88
303.36	101.88
303.59	103.88
303.82	83.88
304.051	96.88
304.281	87.88
304.511	105.88
304.741	97.88
304.971	95.88
305.201	89.88
305.431	86.88
305.661	89.88
305.891	96.88
306.121	87.88
306.352	91.88
306.582	82.88
306.812	93.88
307.042	102.88
307.272	90.88
307.502	99.88
307.731	94.88
307.961	87.88
308.191	99.88
308.421	80.88
308.651	83.88
308.881	106.88
309.111	102.88
309.341	87.88
309.571	100.88
309.8	99.88
310.03	99.88
310.26	91.88
310.49	85.88
310.72	84.88
310.949	102.88
311.179	89.88
311.409	99.88
311.639	99.88
311.868	106.88
312.098	102.88
312.328	106.88
312.557	96.88
312.787	91.88
313.017	91.88
313.246	101.88
313.476	101.88
313.706	93.88
313.935	102.88
314.165	93.88
314.394	103.88
314.624	107.88
314.853	103.88
315.083	108.88
315.312	86.88
315.542	116.88
315.771	100.88
316.001	95.88
316.23	97.88
316.46	86.88
316.689	93.88
316.919	90.88
317.148	97.88
317.377	85.88
317.607	110.88
317.836	90.88
318.065	84.88
318.295	104.88
318.524	93.88
318.753	93.88
318.983	106.88
319.212	94.88
319.441	91.88
319.67	75.88
319.9	84.88
320.129	87.88
320.358	98.88
320.587	94.88
320.816	88.88
321.046	96.88
321.275	98.88
321.504	105.88
321.733	100.88
321.962	96.88
322.191	103.88
322.42	90.88
322.649	108.88
322.878	95.88
323.108	91.88
323.337	111.88
323.566	82.88
323.795	82.88
324.024	99.88
324.253	87.88
324.482	91.88
324.71	105.88
324.939	96.88
325.168	90.88
325.397	95.88
325.626	86.88
325.855	78.88
326.084	96.88
326.313	94.88
326.542	92.88
326.77	103.88
326.999	91.88
327.228	93.88
327.457	104.88
327.686	110.88
327.914	98.88
328.143	88.88
328.372	95.88
328.6	91.88
328.829	107.88
329.058	83.88
329.287	82.88
329.515	99.88
329.744	85.88
329.972	85.88
330.201	96.88
330.43	102.88
330.658	101.88
330.887	108.88
331.115	102.88
331.344	84.88
331.572	91.88
331.801	84.88
332.03	91.88
332.258	97.88
332.486	96.88
332.715	94.88
332.943	106.88
333.172	110.88
333.4	104.88
333.629	104.88
333.857	106.88
334.085	98.88
334.314	112.88
334.542	106.88
334.771	87.88
334.999	94.88
335.227	92.88
335.455	84.88
335.684	98.88
335.912	108.88
336.14	95.88
336.369	104.88
336.597	98.88
336.825	94.88
337.053	109.88
337.281	95.88
337.51	94.88
337.738	102.88
337.966	86.88
338.194	88.88
338.422	85.88
338.65	107.88
338.878	107.88
339.106	106.88
339.334	104.88
339.562	98.88
339.79	84.88
340.018	100.88
340.246	92.88
340.474	91.88
340.702	95.88
340.93	101.88
341.158	97.88
341.386	100.88
341.614	103.88
341.842	99.88
342.07	84.88
342.298	100.88
342.526	93.88
342.754	100.88
342.981	110.88
343.209	104.88
343.437	95.88
343.665	90.88
343.893	83.88
344.12	94.88
344.348	90.88
344.576	96.88
344.804	99.88
345.031	89.88
345.259	84.88
345.487	95.88
345.714	88.88
345.942	80.88
346.17	90.88
346.397	103.88
346.625	95.88
346.853	90.88
347.08	91.88
347.308	99.88
347.535	106.88
347.763	94.88
347.99	86.88
348.218	104.88
348.445	91.88
348.673	99.88
348.9	90.88
349.128	87.88
349.355	83.88
349.583	104.88
349.81	89.88
350.037	80.88
350.265	112.88
350.492	81.88
350.72	79.88
350.947	95.88
351.174	95.88
351.402	98.88
351.629	93.88
351.856	98.88
352.083	94.88
352.311	97.88
352.538	92.88
352.765	92.88
352.992	104.88
353.22	99.88
353.447	78.88
353.674	96.88
353.901	102.88
354.128	99.88
354.355	108.88
354.583	107.88
354.81	81.88
355.037	94.88
355.264	106.88
355.491	100.88
355.718	98.88
355.945	100.88
356.172	102.88
356.399	99.88
356.626	95.88
356.853	90.88
357.08	90.88
357.307	97.88
357.534	98.88
357.761	98.88
357.988	103.88
358.215	88.88
358.441	90.88
358.668	95.88
358.895	94.88
359.122	97.88
359.349	99.88
359.576	95.88
359.802	94.88
360.029	101.88
360.256	89.88
360.483	103.88
360.709	81.88
360.936	94.88
361.163	99.88
361.39	98.88
361.616	83.88
361.843	104.88
362.07	100.88
362.296	91.88
362.523	98.88
362.749	103.88
362.976	92.88
363.203	109.88
363.429	103.88
363.656	104.88
363.882	99.88
364.109	106.88
364.335	98.88
364.562	90.88
364.788	93.88
365.015	90.88
365.241	97.88
365.468	97.88
365.694	88.88
365.92	95.88
366.147	91.88
366.373	88.88
366.599	91.88
366.826	87.88
367.052	100.88
367.278	99.88
367.505	98.88
367.731	104.88
367.957	99.88
368.184	90.88
368.41	102.88
368.636	93.88
368.862	114.88
369.089	87.88
369.315	91.88
369.541	106.88
369.767	87.88
369.993	102.88
370.219	87.88
370.445	105.88
370.672	87.88
370.898	80.88
371.124	93.88
371.35	95.88
371.576	96.88
371.802	86.88
372.028	88.88
372.254	91.88
372.48	88.88
372.706	106.88
372.932	96.88
373.158	100.88
373.384	88.88
373.61	94.88
373.835	90.88
374.061	103.88
374.287	105.88
374.513	95.88
374.739	102.88
374.965	92.88
375.191	92.88
375.416	91.88
375.642	106.88
375.868	94.88
376.094	79.88
376.319	105.88
376.545	85.88
376.771	99.88
376.997	108.88
377.222	95.88
377.448	92.88
377.674	95.88
377.899	88.88
378.125	99.88
378.35	107.88
378.576	98.88
378.802	100.88
379.027	94.88
379.253	104.88
379.478	92.88
379.704	99.88
379.929	79.88
380.155	94.88
380.38	96.88
380.606	87.88
380.831	109.88
381.057	100.88
381.282	91.88
381.507	100.88
381.733	91.88
381.958	105.88
382.184	103.88
382.409	91.88
382.634	99.88
382.86	101.88
383.085	96.88
383.31	100.88
383.535	101.88
383.761	108.88
383.986	113.88
384.211	99.88
384.436	103.88
384.662	92.88
384.887	90.88
385.112	107.88
385.337	102.88
385.562	80.88
385.787	103.88
386.013	110.88
386.238	96.88
386.463	93.88
386.688	96.88
386.913	103.88
387.138	105.88
387.363	78.88
387.588	104.88
387.813	101.88
388.038	102.88
388.263	99.88
388.488	116.88
388.713	102.88
388.938	99.88
389.163	99.88
389.387	102.88
389.612	107.88
389.837	91.88
390.062	110.88
390.287	103.88
390.512	98.88
390.736	99.88
390.961	89.88
391.186	117.88
391.411	98.88
391.636	98.88
391.86	107.88
392.085	87.88
392.31	91.88
392.534	114.88
392.759	114.88
392.984	110.88
393.208	98.88
393.433	115.88
393.658	109.88
393.882	98.88
394.107	94.88
394.331	99.88
394.556	98.88
394.78	117.88
395.005	90.88
395.229	103.88
395.454	98.88
395.678	96.88
395.903	92.88
396.127	112.88
396.352	110.88
396.576	105.88
396.801	98.88
397.025	111.88
397.249	101.88
397.474	113.88
397.698	106.88
397.922	120.88
398.147	103.88
398.371	96.88
398.595	84.88
398.82	112.88
399.044	101.88
399.268	99.88
399.492	86.88
399.717	117.88
399.941	119.88
400.165	112.88
400.389	115.88
400.613	92.88
400.837	101.88
401.062	95.88
401.286	97.88
401.51	100.88
401.734	96.88
401.958	99.88
402.182	88.88
402.406	83.88
402.63	100.88
402.854	120.88
403.078	97.88
403.302	103.88
403.526	101.88
403.75	93.88
403.974	108.88
404.198	101.88
404.422	106.88
404.645	100.88
404.869	101.88
405.093	112.88
405.317	114.88
405.541	112.88
405.765	101.88
405.988	114.88
406.212	92.88
406.436	123.88
406.66	94.88
406.883	101.88
407.107	100.88
407.331	116.88
407.555	107.88
407.778	106.88
408.002	120.88
408.226	112.88
408.449	118.88
408.673	94.88
408.896	113.88
409.12	94.88
409.344	98.88
409.567	102.88
409.791	102.88
410.014	106.88
410.238	101.88
410.461	102.88
410.685	104.88
410.908	87.88
411.132	95.88
411.355	96.88
411.578	106.88
411.802	96.88
412.025	114.88
412.249	92.88
412.472	106.88
412.695	110.88
412.919	108.88
413.142	78.88
413.365	95.88
413.589	92.88
413.812	92.88
414.035	111.88
414.258	110.88
414.482	92.88
414.705	102.88
414.928	91.88
415.151	85.88
415.374	86.88
415.597	95.88
415.821	78.88
416.044	90.88
416.267	99.88
416.49	97.88
416.713	103.88
416.936	94.88
417.159	85.88
417.382	102.88
417.605	100.88
417.828	104.88
418.051	101.88
418.274	109.88
418.497	117.88
418.72	123.88
418.943	107.88
419.166	109.88
419.389	96.88
419.611	95.88
419.834	95.88
420.057	100.88
420.28	101.88
420.503	98.88
420.726	90.88
420.948	97.88
421.171	92.88
421.394	89.88
421.617	102.88
421.839	92.88
422.062	98.88
422.285	99.88
422.507	100.88
422.73	103.88
422.953	112.88
423.175	106.88
423.398	114.88
423.621	89.88
423.843	110.88
424.066	107.88
424.288	96.88
424.511	109.88
424.733	107.88
424.956	112.88
425.178	105.88
425.401	91.88
425.623	108.88
425.846	104.88
426.068	96.88
426.291	96.88
426.513	92.88
426.735	101.88
426.958	91.88
427.18	109.88
427.402	107.88
427.625	93.88
427.847	98.88
428.069	101.88
428.292	106.88
428.514	102.88
428.736	103.88
428.958	96.88
429.181	98.88
429.403	109.88
429.625	93.88
429.847	96.88
430.069	106.88
430.292	108.88
430.514	107.88
430.736	101.88
430.958	107.88
431.18	99.88
431.402	98.88
431.624	89.88
431.846	106.88
432.068	99.88
432.29	96.88
432.512	92.88
432.734	82.88
432.956	99.88
433.178	111.88
433.4	101.88
433.622	103.88
433.844	100.88
434.066	94.88
434.287	102.88
434.509	90.88
434.731	102.88
434.953	105.88
435.175	88.88
435.397	100.88
435.618	96.88
435.84	116.88
436.062	93.88
436.284	87.88
436.505	89.88
436.727	94.88
436.949	110.88
437.17	92.88
437.392	95.88
437.614	83.88
437.835	91.88
438.057	84.88
438.278	93.88
438.5	89.88
438.721	93.88
438.943	94.88
439.165	102.88
439.386	101.88
439.608	99.88
439.829	97.88
440.05	93.88
440.272	97.88
440.493	98.88
440.715	101.88
440.936	101.88
441.158	96.88
441.379	102.88
441.6	92.88
441.822	95.88
442.043	105.88
442.264	95.88
442.486	104.88
442.707	100.88
442.928	95.88
443.149	91.88
443.371	98.88
443.592	96.88
443.813	89.88
444.034	103.88
444.255	108.88
444.476	109.88
444.698	95.88
444.919	106.88
445.14	207.88
445.361	146.88
445.582	106.88
445.803	95.88
446.024	97.88
446.245	101.88
446.466	78.88
446.687	94.88
446.908	98.88
447.129	99.88
447.35	98.88
447.571	99.88
447.792	96.88
448.013	98.88
448.234	100.88
448.455	103.88
448.675	96.88
448.896	101.88
449.117	91.88
449.338	94.88
449.559	101.88
449.779	96.88
450	114.88
450.221	82.88
450.442	85.88
450.662	101.88
450.883	97.88
451.104	110.88
451.324	99.88
451.545	102.88
451.766	99.88
451.986	101.88
452.207	91.88
452.428	84.88
452.648	88.88
452.869	104.88
453.089	102.88
453.31	97.88
453.53	93.88
453.751	103.88
453.971	98.88
454.192	87.88
454.412	89.88
454.633	104.88
454.853	84.88
455.073	95.88
455.294	88.88
455.514	96.88
455.734	84.88
455.955	93.88
456.175	100.88
456.395	101.88
456.616	86.88
456.836	90.88
457.056	110.88
457.276	85.88
457.497	95.88
457.717	107.88
457.937	101.88
458.157	95.88
458.377	90.88
458.598	99.88
458.818	97.88
459.038	90.88
459.258	104.88
459.478	99.88
459.698	103.88
459.918	111.88
460.138	96.88
460.358	112.88
460.578	93.88
460.798	111.88
461.018	80.88
461.238	104.88
461.458	92.88
461.678	84.88
461.898	106.88
462.118	98.88
462.338	96.88
462.558	115.88
462.777	100.88
462.997	99.88
463.217	115.88
463.437	109.88
463.657	110.88
463.876	126.88
464.096	91.88
464.316	109.88
464.536	86.88
464.755	118.88
464.975	118.88
465.195	100.88
465.414	85.88
465.634	88.88
465.854	100.88
466.073	109.88
466.293	112.88
466.512	101.88
466.732	93.88
466.951	108.88
467.171	107.88
467.391	88.88
467.61	92.88
467.829	89.88
468.049	85.88
468.268	84.88
468.488	76.88
468.707	87.88
468.927	85.88
469.146	97.88
469.365	103.88
469.585	81.88
469.804	103.88
470.023	89.88
470.243	110.88
470.462	92.88
470.681	94.88
470.901	100.88
471.12	108.88
471.339	99.88
471.558	105.88
471.777	101.88
471.997	98.88
472.216	107.88
472.435	91.88
472.654	102.88
472.873	106.88
473.092	93.88
473.311	99.88
473.53	116.88
473.749	106.88
473.968	106.88
474.187	93.88
474.406	109.88
474.625	100.88
474.844	100.88
475.063	114.88
475.282	107.88
475.501	96.88
475.72	104.88
475.939	102.88
476.158	91.88
476.377	116.88
476.596	107.88
476.814	98.88
477.033	105.88
477.252	87.88
477.471	111.88
477.69	103.88
477.908	103.88
478.127	109.88
478.346	110.88
478.564	103.88
478.783	96.88
479.002	114.88
479.22	99.88
479.439	119.88
479.658	101.88
479.876	114.88
480.095	101.88
480.313	110.88
480.532	105.88
480.751	106.88
480.969	104.88
481.188	105.88
481.406	100.88
481.624	111.88
481.843	103.88
482.061	109.88
482.28	93.88
482.498	104.88
482.717	105.88
482.935	87.88
483.153	98.88
483.372	102.88
483.59	110.88
483.808	110.88
484.027	108.88
484.245	116.88
484.463	96.88
484.681	114.88
484.9	109.88
485.118	119.88
485.336	96.88
485.554	96.88
485.772	106.88
485.99	102.88
486.209	99.88
486.427	102.88
486.645	104.88
486.863	110.88
487.081	119.88
487.299	103.88
487.517	95.88
487.735	111.88
487.953	118.88
488.171	118.88
488.389	106.88
488.607	118.88
488.825	106.88
489.043	104.88
489.261	93.88
489.479	106.88
489.696	104.88
489.914	105.88
490.132	102.88
490.35	105.88
490.568	96.88
490.786	112.88
491.003	122.88
491.221	122.88
491.439	111.88
491.657	114.88
491.874	118.88
492.092	134.88
492.31	132.88
492.527	115.88
492.745	116.88
492.963	120.88
493.18	114.88
493.398	111.88
493.615	110.88
493.833	118.88
494.05	103.88
494.268	111.88
494.485	109.88
494.703	111.88
494.92	117.88
495.138	116.88
495.355	127.88
495.573	115.88
495.79	99.88
496.008	108.88
496.225	110.88
496.442	119.88
496.66	123.88
496.877	129.88
497.094	116.88
497.312	121.88
497.529	120.88
497.746	112.88
497.963	114.88
498.181	105.88
498.398	116.88
498.615	117.88
498.832	121.88
499.049	110.88
499.267	114.88
499.484	128.88
499.701	148.88
499.918	142.88
500.135	159.88
500.352	161.88
500.569	152.88
500.786	169.88
501.003	161.88
501.22	152.88
501.437	144.88
501.654	126.88
501.871	122.88
502.088	110.88
502.305	121.88
502.522	119.88
502.739	121.88
502.956	115.88
503.172	114.88
503.389	111.88
503.606	122.88
503.823	108.88
504.04	120.88
504.256	99.88
504.473	104.88
504.69	119.88
504.907	133.88
505.123	122.88
505.34	117.88
505.557	116.88
505.773	98.88
505.99	109.88
506.207	106.88
506.423	104.88
506.64	112.88
506.856	116.88
507.073	94.88
507.289	105.88
507.506	112.88
507.722	99.88
507.939	104.88
508.155	90.88
508.372	111.88
508.588	102.88
508.805	111.88
509.021	123.88
509.238	99.88
509.454	98.88
509.67	98.88
509.887	99.88
510.103	95.88
510.319	108.88
510.536	96.88
510.752	102.88
510.968	98.88
511.184	102.88
511.401	102.88
511.617	116.88
511.833	98.88
512.049	114.88
512.265	104.88
512.481	107.88
