Data from Location5.07152019.Energy5.Lamp.07192019.3%Agarose_HRD10591_16-03-20-628.txt Node
Date: Fri Jul 19 16:03:20 EDT 2019
User: cochatt
Spectrometer: HR+D1059
Trigger mode: 1
Integration Time (sec): 1.000000E-1
Scans to average: 1
Electric dark correction enabled: true
Nonlinearity correction enabled: false
Boxcar width: 0
XAxis mode: Wavelengths
Number of Pixels in Spectrum: 2048
>>>>>Begin Spectral Data<<<<<
223.165	-14.75
223.4	-14.75
223.635	-14.75
223.869	-17.75
224.104	-20.75
224.338	-6.75
224.573	-23.75
224.808	-7.75
225.042	-7.75
225.277	-0.75
225.511	-2.75
225.746	-13.75
225.98	14.25
226.215	0.25
226.449	23.25
226.683	14.25
226.918	31.25
227.152	33.25
227.387	36.25
227.621	37.25
227.856	38.25
228.09	50.25
228.324	41.25
228.559	61.25
228.793	53.25
229.027	67.25
229.262	68.25
229.496	63.25
229.73	56.25
229.964	83.25
230.199	80.25
230.433	87.25
230.667	77.25
230.901	91.25
231.136	72.25
231.37	84.25
231.604	79.25
231.838	75.25
232.072	84.25
232.306	82.25
232.541	84.25
232.775	96.25
233.009	83.25
233.243	76.25
233.477	92.25
233.711	87.25
233.945	77.25
234.179	78.25
234.413	83.25
234.647	89.25
234.881	84.25
235.115	58.25
235.349	72.25
235.583	81.25
235.817	88.25
236.051	77.25
236.285	85.25
236.519	72.25
236.753	79.25
236.987	95.25
237.221	76.25
237.455	84.25
237.689	80.25
237.922	81.25
238.156	73.25
238.39	73.25
238.624	67.25
238.858	82.25
239.091	76.25
239.325	68.25
239.559	68.25
239.793	82.25
240.027	96.25
240.26	82.25
240.494	70.25
240.728	83.25
240.961	81.25
241.195	83.25
241.429	86.25
241.662	76.25
241.896	71.25
242.13	81.25
242.363	82.25
242.597	91.25
242.83	70.25
243.064	83.25
243.298	76.25
243.531	79.25
243.765	75.25
243.998	90.25
244.232	85.25
244.465	78.25
244.699	81.25
244.932	73.25
245.166	89.25
245.399	91.25
245.633	74.25
245.866	84.25
246.099	92.25
246.333	79.25
246.566	74.25
246.8	66.25
247.033	69.25
247.266	91.25
247.5	85.25
247.733	88.25
247.966	81.25
248.2	89.25
248.433	76.25
248.666	83.25
248.899	69.25
249.133	87.25
249.366	84.25
249.599	74.25
249.832	88.25
250.066	71.25
250.299	89.25
250.532	85.25
250.765	83.25
250.998	73.25
251.231	74.25
251.465	91.25
251.698	89.25
251.931	76.25
252.164	106.25
252.397	91.25
252.63	82.25
252.863	72.25
253.096	91.25
253.329	84.25
253.562	82.25
253.795	86.25
254.028	72.25
254.261	75.25
254.494	100.25
254.727	92.25
254.96	74.25
255.193	78.25
255.426	73.25
255.659	77.25
255.892	76.25
256.124	83.25
256.357	86.25
256.59	86.25
256.823	64.25
257.056	91.25
257.289	86.25
257.521	72.25
257.754	87.25
257.987	84.25
258.22	82.25
258.452	84.25
258.685	75.25
258.918	96.25
259.151	83.25
259.383	86.25
259.616	79.25
259.849	87.25
260.081	94.25
260.314	94.25
260.547	73.25
260.779	88.25
261.012	94.25
261.244	86.25
261.477	76.25
261.71	82.25
261.942	88.25
262.175	76.25
262.407	81.25
262.64	73.25
262.872	96.25
263.105	96.25
263.337	84.25
263.57	91.25
263.802	86.25
264.035	92.25
264.267	94.25
264.499	89.25
264.732	91.25
264.964	85.25
265.197	92.25
265.429	97.25
265.661	81.25
265.894	87.25
266.126	98.25
266.358	101.25
266.591	82.25
266.823	84.25
267.055	83.25
267.287	72.25
267.52	86.25
267.752	78.25
267.984	78.25
268.216	76.25
268.448	90.25
268.681	72.25
268.913	74.25
269.145	81.25
269.377	69.25
269.609	91.25
269.841	81.25
270.073	95.25
270.306	89.25
270.538	93.25
270.77	82.25
271.002	81.25
271.234	93.25
271.466	87.25
271.698	74.25
271.93	103.25
272.162	73.25
272.394	87.25
272.626	82.25
272.858	85.25
273.09	96.25
273.322	99.25
273.553	99.25
273.785	89.25
274.017	79.25
274.249	83.25
274.481	89.25
274.713	77.25
274.945	100.25
275.176	80.25
275.408	84.25
275.64	85.25
275.872	92.25
276.104	91.25
276.335	91.25
276.567	85.25
276.799	93.25
277.031	81.25
277.262	81.25
277.494	89.25
277.726	82.25
277.957	81.25
278.189	95.25
278.421	88.25
278.652	72.25
278.884	80.25
279.115	92.25
279.347	80.25
279.579	95.25
279.81	94.25
280.042	108.25
280.273	94.25
280.505	83.25
280.736	91.25
280.968	91.25
281.199	97.25
281.431	94.25
281.662	80.25
281.894	97.25
282.125	90.25
282.356	90.25
282.588	87.25
282.819	75.25
283.051	88.25
283.282	66.25
283.513	94.25
283.745	77.25
283.976	86.25
284.207	97.25
284.439	88.25
284.67	90.25
284.901	101.25
285.132	83.25
285.364	84.25
285.595	75.25
285.826	88.25
286.057	80.25
286.288	77.25
286.52	110.25
286.751	86.25
286.982	96.25
287.213	80.25
287.444	84.25
287.675	100.25
287.906	102.25
288.138	84.25
288.369	99.25
288.6	91.25
288.831	83.25
289.062	97.25
289.293	90.25
289.524	90.25
289.755	92.25
289.986	81.25
290.217	83.25
290.448	86.25
290.679	80.25
290.91	85.25
291.141	85.25
291.371	83.25
291.602	103.25
291.833	89.25
292.064	85.25
292.295	79.25
292.526	92.25
292.757	95.25
292.987	88.25
293.218	111.25
293.449	98.25
293.68	91.25
293.91	84.25
294.141	95.25
294.372	85.25
294.603	95.25
294.833	89.25
295.064	92.25
295.295	97.25
295.525	106.25
295.756	102.25
295.987	97.25
296.217	121.25
296.448	89.25
296.679	101.25
296.909	90.25
297.14	90.25
297.37	101.25
297.601	102.25
297.831	101.25
298.062	103.25
298.292	96.25
298.523	94.25
298.753	98.25
298.984	73.25
299.214	83.25
299.445	108.25
299.675	98.25
299.905	91.25
300.136	74.25
300.366	92.25
300.597	91.25
300.827	101.25
301.057	88.25
301.288	91.25
301.518	90.25
301.748	89.25
301.979	103.25
302.209	85.25
302.439	80.25
302.669	94.25
302.9	94.25
303.13	94.25
303.36	86.25
303.59	92.25
303.82	99.25
304.051	87.25
304.281	115.25
304.511	86.25
304.741	102.25
304.971	93.25
305.201	89.25
305.431	111.25
305.661	97.25
305.891	93.25
306.121	96.25
306.352	85.25
306.582	87.25
306.812	92.25
307.042	104.25
307.272	81.25
307.502	102.25
307.731	87.25
307.961	91.25
308.191	100.25
308.421	98.25
308.651	97.25
308.881	83.25
309.111	92.25
309.341	100.25
309.571	99.25
309.8	88.25
310.03	100.25
310.26	93.25
310.49	95.25
310.72	88.25
310.949	84.25
311.179	82.25
311.409	91.25
311.639	100.25
311.868	99.25
312.098	91.25
312.328	89.25
312.557	90.25
312.787	88.25
313.017	95.25
313.246	89.25
313.476	84.25
313.706	93.25
313.935	90.25
314.165	86.25
314.394	89.25
314.624	92.25
314.853	96.25
315.083	92.25
315.312	89.25
315.542	109.25
315.771	96.25
316.001	89.25
316.23	88.25
316.46	94.25
316.689	88.25
316.919	93.25
317.148	97.25
317.377	97.25
317.607	83.25
317.836	90.25
318.065	100.25
318.295	87.25
318.524	82.25
318.753	81.25
318.983	88.25
319.212	97.25
319.441	89.25
319.67	89.25
319.9	88.25
320.129	102.25
320.358	93.25
320.587	106.25
320.816	94.25
321.046	94.25
321.275	99.25
321.504	107.25
321.733	80.25
321.962	91.25
322.191	77.25
322.42	103.25
322.649	95.25
322.878	89.25
323.108	76.25
323.337	93.25
323.566	96.25
323.795	106.25
324.024	98.25
324.253	66.25
324.482	82.25
324.71	85.25
324.939	101.25
325.168	89.25
325.397	85.25
325.626	88.25
325.855	96.25
326.084	99.25
326.313	106.25
326.542	101.25
326.77	94.25
326.999	104.25
327.228	99.25
327.457	88.25
327.686	103.25
327.914	96.25
328.143	89.25
328.372	96.25
328.6	96.25
328.829	82.25
329.058	82.25
329.287	87.25
329.515	102.25
329.744	94.25
329.972	77.25
330.201	73.25
330.43	97.25
330.658	90.25
330.887	89.25
331.115	91.25
331.344	103.25
331.572	97.25
331.801	105.25
332.03	91.25
332.258	105.25
332.486	84.25
332.715	97.25
332.943	81.25
333.172	80.25
333.4	99.25
333.629	112.25
333.857	107.25
334.085	86.25
334.314	102.25
334.542	99.25
334.771	82.25
334.999	80.25
335.227	90.25
335.455	90.25
335.684	94.25
335.912	91.25
336.14	96.25
336.369	91.25
336.597	77.25
336.825	98.25
337.053	104.25
337.281	94.25
337.51	84.25
337.738	88.25
337.966	85.25
338.194	86.25
338.422	99.25
338.65	92.25
338.878	104.25
339.106	92.25
339.334	99.25
339.562	83.25
339.79	85.25
340.018	104.25
340.246	96.25
340.474	92.25
340.702	88.25
340.93	101.25
341.158	101.25
341.386	87.25
341.614	87.25
341.842	84.25
342.07	90.25
342.298	93.25
342.526	87.25
342.754	97.25
342.981	92.25
343.209	94.25
343.437	100.25
343.665	91.25
343.893	92.25
344.12	98.25
344.348	111.25
344.576	90.25
344.804	94.25
345.031	84.25
345.259	90.25
345.487	95.25
345.714	92.25
345.942	94.25
346.17	92.25
346.397	79.25
346.625	93.25
346.853	70.25
347.08	80.25
347.308	90.25
347.535	95.25
347.763	91.25
347.99	86.25
348.218	101.25
348.445	89.25
348.673	93.25
348.9	90.25
349.128	100.25
349.355	90.25
349.583	85.25
349.81	94.25
350.037	105.25
350.265	94.25
350.492	89.25
350.72	88.25
350.947	92.25
351.174	95.25
351.402	92.25
351.629	98.25
351.856	86.25
352.083	94.25
352.311	95.25
352.538	95.25
352.765	82.25
352.992	83.25
353.22	84.25
353.447	95.25
353.674	91.25
353.901	94.25
354.128	82.25
354.355	97.25
354.583	85.25
354.81	97.25
355.037	94.25
355.264	87.25
355.491	100.25
355.718	81.25
355.945	88.25
356.172	80.25
356.399	94.25
356.626	80.25
356.853	90.25
357.08	88.25
357.307	88.25
357.534	91.25
357.761	106.25
357.988	99.25
358.215	92.25
358.441	83.25
358.668	89.25
358.895	95.25
359.122	78.25
359.349	82.25
359.576	81.25
359.802	90.25
360.029	97.25
360.256	88.25
360.483	84.25
360.709	97.25
360.936	99.25
361.163	92.25
361.39	91.25
361.616	83.25
361.843	100.25
362.07	96.25
362.296	94.25
362.523	91.25
362.749	98.25
362.976	84.25
363.203	76.25
363.429	79.25
363.656	86.25
363.882	81.25
364.109	94.25
364.335	87.25
364.562	88.25
364.788	87.25
365.015	106.25
365.241	91.25
365.468	83.25
365.694	85.25
365.92	82.25
366.147	92.25
366.373	87.25
366.599	79.25
366.826	77.25
367.052	100.25
367.278	96.25
367.505	91.25
367.731	103.25
367.957	87.25
368.184	88.25
368.41	99.25
368.636	92.25
368.862	77.25
369.089	88.25
369.315	91.25
369.541	102.25
369.767	91.25
369.993	99.25
370.219	90.25
370.445	74.25
370.672	87.25
370.898	99.25
371.124	100.25
371.35	80.25
371.576	102.25
371.802	91.25
372.028	106.25
372.254	87.25
372.48	90.25
372.706	75.25
372.932	80.25
373.158	96.25
373.384	97.25
373.61	74.25
373.835	94.25
374.061	86.25
374.287	97.25
374.513	102.25
374.739	93.25
374.965	92.25
375.191	95.25
375.416	90.25
375.642	95.25
375.868	86.25
376.094	96.25
376.319	85.25
376.545	96.25
376.771	89.25
376.997	91.25
377.222	99.25
377.448	87.25
377.674	82.25
377.899	83.25
378.125	99.25
378.35	90.25
378.576	108.25
378.802	84.25
379.027	96.25
379.253	100.25
379.478	89.25
379.704	107.25
379.929	99.25
380.155	89.25
380.38	89.25
380.606	100.25
380.831	104.25
381.057	101.25
381.282	95.25
381.507	91.25
381.733	81.25
381.958	89.25
382.184	99.25
382.409	90.25
382.634	91.25
382.86	94.25
383.085	96.25
383.31	95.25
383.535	99.25
383.761	95.25
383.986	112.25
384.211	98.25
384.436	80.25
384.662	90.25
384.887	97.25
385.112	81.25
385.337	83.25
385.562	94.25
385.787	104.25
386.013	94.25
386.238	102.25
386.463	96.25
386.688	82.25
386.913	99.25
387.138	102.25
387.363	93.25
387.588	107.25
387.813	92.25
388.038	86.25
388.263	75.25
388.488	102.25
388.713	82.25
388.938	96.25
389.163	95.25
389.387	102.25
389.612	91.25
389.837	92.25
390.062	87.25
390.287	76.25
390.512	95.25
390.736	99.25
390.961	90.25
391.186	100.25
391.411	99.25
391.636	101.25
391.86	111.25
392.085	99.25
392.31	90.25
392.534	100.25
392.759	90.25
392.984	91.25
393.208	86.25
393.433	89.25
393.658	90.25
393.882	85.25
394.107	91.25
394.331	103.25
394.556	105.25
394.78	105.25
395.005	104.25
395.229	98.25
395.454	90.25
395.678	94.25
395.903	92.25
396.127	104.25
396.352	85.25
396.576	99.25
396.801	99.25
397.025	99.25
397.249	84.25
397.474	108.25
397.698	94.25
397.922	95.25
398.147	95.25
398.371	89.25
398.595	84.25
398.82	122.25
399.044	110.25
399.268	106.25
399.492	112.25
399.717	97.25
399.941	110.25
400.165	112.25
400.389	106.25
400.613	107.25
400.837	95.25
401.062	105.25
401.286	97.25
401.51	103.25
401.734	112.25
401.958	95.25
402.182	100.25
402.406	92.25
402.63	98.25
402.854	95.25
403.078	88.25
403.302	90.25
403.526	96.25
403.75	99.25
403.974	95.25
404.198	96.25
404.422	125.25
404.645	126.25
404.869	104.25
405.093	110.25
405.317	104.25
405.541	100.25
405.765	97.25
405.988	91.25
406.212	109.25
406.436	100.25
406.66	104.25
406.883	94.25
407.107	105.25
407.331	106.25
407.555	98.25
407.778	97.25
408.002	111.25
408.226	96.25
408.449	88.25
408.673	101.25
408.896	101.25
409.12	113.25
409.344	87.25
409.567	85.25
409.791	94.25
410.014	97.25
410.238	113.25
410.461	98.25
410.685	97.25
410.908	93.25
411.132	111.25
411.355	84.25
411.578	98.25
411.802	91.25
412.025	96.25
412.249	99.25
412.472	105.25
412.695	104.25
412.919	103.25
413.142	99.25
413.365	87.25
413.589	90.25
413.812	77.25
414.035	104.25
414.258	107.25
414.482	95.25
414.705	101.25
414.928	87.25
415.151	87.25
415.374	97.25
415.597	93.25
415.821	92.25
416.044	84.25
416.267	90.25
416.49	107.25
416.713	99.25
416.936	105.25
417.159	91.25
417.382	89.25
417.605	112.25
417.828	97.25
418.051	96.25
418.274	97.25
418.497	91.25
418.72	93.25
418.943	113.25
419.166	111.25
419.389	102.25
419.611	94.25
419.834	101.25
420.057	87.25
420.28	94.25
420.503	100.25
420.726	100.25
420.948	89.25
421.171	104.25
421.394	87.25
421.617	84.25
421.839	106.25
422.062	94.25
422.285	88.25
422.507	92.25
422.73	115.25
422.953	88.25
423.175	103.25
423.398	93.25
423.621	100.25
423.843	100.25
424.066	88.25
424.288	97.25
424.511	82.25
424.733	102.25
424.956	92.25
425.178	117.25
425.401	89.25
425.623	96.25
425.846	97.25
426.068	99.25
426.291	104.25
426.513	95.25
426.735	90.25
426.958	82.25
427.18	95.25
427.402	116.25
427.625	96.25
427.847	94.25
428.069	92.25
428.292	100.25
428.514	106.25
428.736	99.25
428.958	94.25
429.181	96.25
429.403	99.25
429.625	83.25
429.847	102.25
430.069	88.25
430.292	94.25
430.514	87.25
430.736	82.25
430.958	98.25
431.18	89.25
431.402	93.25
431.624	86.25
431.846	99.25
432.068	90.25
432.29	96.25
432.512	106.25
432.734	91.25
432.956	97.25
433.178	93.25
433.4	94.25
433.622	93.25
433.844	102.25
434.066	83.25
434.287	89.25
434.509	99.25
434.731	104.25
434.953	90.25
435.175	98.25
435.397	104.25
435.618	107.25
435.84	81.25
436.062	92.25
436.284	92.25
436.505	87.25
436.727	90.25
436.949	88.25
437.17	94.25
437.392	86.25
437.614	89.25
437.835	99.25
438.057	92.25
438.278	88.25
438.5	101.25
438.721	105.25
438.943	96.25
439.165	100.25
439.386	91.25
439.608	98.25
439.829	104.25
440.05	102.25
440.272	94.25
440.493	107.25
440.715	95.25
440.936	84.25
441.158	96.25
441.379	96.25
441.6	91.25
441.822	100.25
442.043	84.25
442.264	95.25
442.486	88.25
442.707	89.25
442.928	91.25
443.149	98.25
443.371	106.25
443.592	102.25
443.813	99.25
444.034	84.25
444.255	97.25
444.476	90.25
444.698	93.25
444.919	89.25
445.14	211.25
445.361	139.25
445.582	111.25
445.803	88.25
446.024	86.25
446.245	98.25
446.466	94.25
446.687	98.25
446.908	92.25
447.129	104.25
447.35	84.25
447.571	96.25
447.792	77.25
448.013	102.25
448.234	83.25
448.455	96.25
448.675	90.25
448.896	101.25
449.117	91.25
449.338	95.25
449.559	97.25
449.779	97.25
450	103.25
450.221	102.25
450.442	84.25
450.662	89.25
450.883	82.25
451.104	95.25
451.324	93.25
451.545	109.25
451.766	97.25
451.986	90.25
452.207	93.25
452.428	102.25
452.648	102.25
452.869	95.25
453.089	86.25
453.31	101.25
453.53	86.25
453.751	99.25
453.971	90.25
454.192	106.25
454.412	87.25
454.633	97.25
454.853	90.25
455.073	104.25
455.294	111.25
455.514	107.25
455.734	96.25
455.955	98.25
456.175	101.25
456.395	95.25
456.616	95.25
456.836	97.25
457.056	102.25
457.276	97.25
457.497	98.25
457.717	90.25
457.937	90.25
458.157	81.25
458.377	102.25
458.598	81.25
458.818	97.25
459.038	88.25
459.258	82.25
459.478	103.25
459.698	92.25
459.918	98.25
460.138	103.25
460.358	105.25
460.578	99.25
460.798	107.25
461.018	99.25
461.238	103.25
461.458	101.25
461.678	106.25
461.898	103.25
462.118	96.25
462.338	107.25
462.558	100.25
462.777	103.25
462.997	107.25
463.217	113.25
463.437	98.25
463.657	97.25
463.876	111.25
464.096	113.25
464.316	110.25
464.536	92.25
464.755	99.25
464.975	88.25
465.195	81.25
465.414	103.25
465.634	102.25
465.854	105.25
466.073	96.25
466.293	93.25
466.512	103.25
466.732	95.25
466.951	94.25
467.171	87.25
467.391	90.25
467.61	96.25
467.829	104.25
468.049	113.25
468.268	90.25
468.488	98.25
468.707	97.25
468.927	97.25
469.146	113.25
469.365	104.25
469.585	94.25
469.804	101.25
470.023	90.25
470.243	98.25
470.462	96.25
470.681	84.25
470.901	100.25
471.12	102.25
471.339	95.25
471.558	99.25
471.777	90.25
471.997	121.25
472.216	90.25
472.435	84.25
472.654	91.25
472.873	83.25
473.092	106.25
473.311	86.25
473.53	102.25
473.749	94.25
473.968	98.25
474.187	98.25
474.406	91.25
474.625	98.25
474.844	94.25
475.063	95.25
475.282	114.25
475.501	103.25
475.72	110.25
475.939	96.25
476.158	98.25
476.377	88.25
476.596	98.25
476.814	104.25
477.033	112.25
477.252	90.25
477.471	104.25
477.69	113.25
477.908	111.25
478.127	110.25
478.346	98.25
478.564	97.25
478.783	94.25
479.002	100.25
479.22	95.25
479.439	101.25
479.658	95.25
479.876	86.25
480.095	105.25
480.313	99.25
480.532	106.25
480.751	96.25
480.969	104.25
481.188	101.25
481.406	104.25
481.624	106.25
481.843	98.25
482.061	106.25
482.28	105.25
482.498	110.25
482.717	103.25
482.935	100.25
483.153	103.25
483.372	104.25
483.59	116.25
483.808	96.25
484.027	109.25
484.245	111.25
484.463	112.25
484.681	117.25
484.9	108.25
485.118	115.25
485.336	118.25
485.554	113.25
485.772	115.25
485.99	106.25
486.209	113.25
486.427	112.25
486.645	110.25
486.863	99.25
487.081	114.25
487.299	118.25
487.517	97.25
487.735	114.25
487.953	116.25
488.171	107.25
488.389	102.25
488.607	118.25
488.825	93.25
489.043	115.25
489.261	103.25
489.479	88.25
489.696	123.25
489.914	109.25
490.132	119.25
490.35	113.25
490.568	104.25
490.786	99.25
491.003	119.25
491.221	94.25
491.439	110.25
491.657	120.25
491.874	111.25
492.092	123.25
492.31	107.25
492.527	123.25
492.745	115.25
492.963	122.25
493.18	124.25
493.398	118.25
493.615	100.25
493.833	108.25
494.05	108.25
494.268	124.25
494.485	107.25
494.703	115.25
494.92	127.25
495.138	108.25
495.355	120.25
495.573	115.25
495.79	112.25
496.008	107.25
496.225	102.25
496.442	108.25
496.66	118.25
496.877	110.25
497.094	128.25
497.312	122.25
497.529	120.25
497.746	125.25
497.963	111.25
498.181	128.25
498.398	121.25
498.615	102.25
498.832	118.25
499.049	107.25
499.267	120.25
499.484	132.25
499.701	138.25
499.918	148.25
500.135	153.25
500.352	168.25
500.569	143.25
500.786	164.25
501.003	160.25
501.22	149.25
501.437	130.25
501.654	130.25
501.871	133.25
502.088	129.25
502.305	123.25
502.522	112.25
502.739	120.25
502.956	126.25
503.172	115.25
503.389	118.25
503.606	112.25
503.823	109.25
504.04	117.25
504.256	127.25
504.473	119.25
504.69	117.25
504.907	122.25
505.123	104.25
505.34	97.25
505.557	96.25
505.773	100.25
505.99	110.25
506.207	117.25
506.423	107.25
506.64	102.25
506.856	118.25
507.073	103.25
507.289	116.25
507.506	95.25
507.722	114.25
507.939	94.25
508.155	122.25
508.372	106.25
508.588	104.25
508.805	106.25
509.021	107.25
509.238	112.25
509.454	123.25
509.67	114.25
509.887	94.25
510.103	82.25
510.319	95.25
510.536	116.25
510.752	95.25
510.968	79.25
511.184	94.25
511.401	101.25
511.617	104.25
511.833	114.25
512.049	105.25
512.265	93.25
512.481	95.25
512.698	110.25
512.914	115.25
513.13	87.25
513.346	105.25
513.562	105.25
513.778	95.25
513.994	106.25
514.21	104.25
514.426	105.25
