Data from Location5.07152019.Energy5.Lamp.07192019.3%Agarose_HRD10591_15-37-23-387.txt Node
Date: Fri Jul 19 15:37:23 EDT 2019
User: cochatt
Spectrometer: HR+D1059
Trigger mode: 1
Integration Time (sec): 1.000000E-1
Scans to average: 1
Electric dark correction enabled: true
Nonlinearity correction enabled: false
Boxcar width: 0
XAxis mode: Wavelengths
Number of Pixels in Spectrum: 2048
>>>>>Begin Spectral Data<<<<<
223.165	-19.75
223.4	-19.75
223.635	-19.75
223.869	-12.75
224.104	-6.75
224.338	-16.75
224.573	-9.75
224.808	1.25
225.042	-10.75
225.277	-7.75
225.511	-7.75
225.746	9.25
225.98	-3.75
226.215	9.25
226.449	23.25
226.683	17.25
226.918	24.25
227.152	11.25
227.387	35.25
227.621	39.25
227.856	33.25
228.09	41.25
228.324	49.25
228.559	56.25
228.793	62.25
229.027	72.25
229.262	76.25
229.496	70.25
229.73	80.25
229.964	77.25
230.199	75.25
230.433	68.25
230.667	73.25
230.901	85.25
231.136	81.25
231.37	71.25
231.604	84.25
231.838	84.25
232.072	78.25
232.306	92.25
232.541	93.25
232.775	77.25
233.009	83.25
233.243	92.25
233.477	92.25
233.711	102.25
233.945	82.25
234.179	98.25
234.413	85.25
234.647	95.25
234.881	76.25
235.115	71.25
235.349	76.25
235.583	82.25
235.817	85.25
236.051	70.25
236.285	80.25
236.519	75.25
236.753	75.25
236.987	92.25
237.221	82.25
237.455	73.25
237.689	71.25
237.922	87.25
238.156	91.25
238.39	79.25
238.624	77.25
238.858	79.25
239.091	73.25
239.325	70.25
239.559	83.25
239.793	79.25
240.027	90.25
240.26	59.25
240.494	81.25
240.728	69.25
240.961	87.25
241.195	71.25
241.429	84.25
241.662	58.25
241.896	91.25
242.13	78.25
242.363	81.25
242.597	83.25
242.83	82.25
243.064	86.25
243.298	66.25
243.531	85.25
243.765	89.25
243.998	78.25
244.232	80.25
244.465	79.25
244.699	85.25
244.932	82.25
245.166	68.25
245.399	87.25
245.633	63.25
245.866	84.25
246.099	79.25
246.333	69.25
246.566	78.25
246.8	88.25
247.033	87.25
247.266	85.25
247.5	67.25
247.733	81.25
247.966	85.25
248.2	83.25
248.433	73.25
248.666	89.25
248.899	84.25
249.133	77.25
249.366	72.25
249.599	88.25
249.832	90.25
250.066	82.25
250.299	79.25
250.532	81.25
250.765	85.25
250.998	79.25
251.231	71.25
251.465	85.25
251.698	94.25
251.931	101.25
252.164	71.25
252.397	79.25
252.63	71.25
252.863	79.25
253.096	85.25
253.329	81.25
253.562	78.25
253.795	77.25
254.028	83.25
254.261	89.25
254.494	84.25
254.727	77.25
254.96	73.25
255.193	90.25
255.426	95.25
255.659	82.25
255.892	65.25
256.124	77.25
256.357	91.25
256.59	82.25
256.823	82.25
257.056	88.25
257.289	91.25
257.521	86.25
257.754	86.25
257.987	78.25
258.22	80.25
258.452	81.25
258.685	66.25
258.918	88.25
259.151	86.25
259.383	91.25
259.616	82.25
259.849	74.25
260.081	91.25
260.314	87.25
260.547	82.25
260.779	95.25
261.012	88.25
261.244	109.25
261.477	91.25
261.71	87.25
261.942	93.25
262.175	85.25
262.407	71.25
262.64	89.25
262.872	90.25
263.105	89.25
263.337	87.25
263.57	68.25
263.802	67.25
264.035	77.25
264.267	84.25
264.499	79.25
264.732	84.25
264.964	70.25
265.197	83.25
265.429	84.25
265.661	84.25
265.894	97.25
266.126	98.25
266.358	82.25
266.591	93.25
266.823	87.25
267.055	70.25
267.287	82.25
267.52	88.25
267.752	72.25
267.984	78.25
268.216	92.25
268.448	85.25
268.681	83.25
268.913	101.25
269.145	71.25
269.377	72.25
269.609	78.25
269.841	75.25
270.073	87.25
270.306	84.25
270.538	81.25
270.77	98.25
271.002	85.25
271.234	87.25
271.466	90.25
271.698	73.25
271.93	95.25
272.162	93.25
272.394	90.25
272.626	63.25
272.858	84.25
273.09	83.25
273.322	78.25
273.553	85.25
273.785	80.25
274.017	92.25
274.249	80.25
274.481	93.25
274.713	84.25
274.945	97.25
275.176	86.25
275.408	87.25
275.64	91.25
275.872	85.25
276.104	96.25
276.335	93.25
276.567	85.25
276.799	79.25
277.031	84.25
277.262	84.25
277.494	101.25
277.726	82.25
277.957	85.25
278.189	105.25
278.421	88.25
278.652	86.25
278.884	93.25
279.115	80.25
279.347	84.25
279.579	90.25
279.81	85.25
280.042	97.25
280.273	95.25
280.505	78.25
280.736	80.25
280.968	87.25
281.199	100.25
281.431	90.25
281.662	79.25
281.894	80.25
282.125	91.25
282.356	82.25
282.588	93.25
282.819	87.25
283.051	85.25
283.282	70.25
283.513	88.25
283.745	84.25
283.976	88.25
284.207	80.25
284.439	86.25
284.67	83.25
284.901	82.25
285.132	83.25
285.364	93.25
285.595	91.25
285.826	105.25
286.057	96.25
286.288	91.25
286.52	104.25
286.751	90.25
286.982	81.25
287.213	82.25
287.444	86.25
287.675	93.25
287.906	99.25
288.138	87.25
288.369	100.25
288.6	83.25
288.831	87.25
289.062	85.25
289.293	88.25
289.524	83.25
289.755	84.25
289.986	80.25
290.217	78.25
290.448	90.25
290.679	96.25
290.91	106.25
291.141	85.25
291.371	81.25
291.602	86.25
291.833	92.25
292.064	85.25
292.295	93.25
292.526	93.25
292.757	90.25
292.987	86.25
293.218	84.25
293.449	69.25
293.68	87.25
293.91	84.25
294.141	76.25
294.372	85.25
294.603	97.25
294.833	96.25
295.064	102.25
295.295	85.25
295.525	82.25
295.756	90.25
295.987	90.25
296.217	76.25
296.448	60.25
296.679	77.25
296.909	95.25
297.14	92.25
297.37	91.25
297.601	92.25
297.831	95.25
298.062	98.25
298.292	94.25
298.523	83.25
298.753	98.25
298.984	96.25
299.214	89.25
299.445	100.25
299.675	89.25
299.905	87.25
300.136	69.25
300.366	83.25
300.597	93.25
300.827	94.25
301.057	73.25
301.288	85.25
301.518	97.25
301.748	89.25
301.979	82.25
302.209	90.25
302.439	92.25
302.669	88.25
302.9	87.25
303.13	72.25
303.36	89.25
303.59	88.25
303.82	85.25
304.051	83.25
304.281	74.25
304.511	85.25
304.741	87.25
304.971	87.25
305.201	102.25
305.431	99.25
305.661	81.25
305.891	77.25
306.121	86.25
306.352	97.25
306.582	102.25
306.812	93.25
307.042	78.25
307.272	96.25
307.502	81.25
307.731	97.25
307.961	84.25
308.191	90.25
308.421	77.25
308.651	81.25
308.881	73.25
309.111	84.25
309.341	82.25
309.571	78.25
309.8	86.25
310.03	99.25
310.26	95.25
310.49	84.25
310.72	94.25
310.949	97.25
311.179	91.25
311.409	91.25
311.639	91.25
311.868	94.25
312.098	96.25
312.328	73.25
312.557	90.25
312.787	88.25
313.017	71.25
313.246	77.25
313.476	89.25
313.706	91.25
313.935	86.25
314.165	92.25
314.394	75.25
314.624	83.25
314.853	82.25
315.083	90.25
315.312	86.25
315.542	89.25
315.771	91.25
316.001	88.25
316.23	78.25
316.46	89.25
316.689	87.25
316.919	85.25
317.148	76.25
317.377	98.25
317.607	94.25
317.836	105.25
318.065	86.25
318.295	94.25
318.524	92.25
318.753	87.25
318.983	72.25
319.212	112.25
319.441	87.25
319.67	90.25
319.9	82.25
320.129	102.25
320.358	81.25
320.587	93.25
320.816	82.25
321.046	89.25
321.275	93.25
321.504	78.25
321.733	84.25
321.962	79.25
322.191	87.25
322.42	92.25
322.649	89.25
322.878	78.25
323.108	93.25
323.337	85.25
323.566	97.25
323.795	91.25
324.024	85.25
324.253	90.25
324.482	92.25
324.71	88.25
324.939	94.25
325.168	75.25
325.397	88.25
325.626	95.25
325.855	85.25
326.084	78.25
326.313	81.25
326.542	81.25
326.77	97.25
326.999	80.25
327.228	87.25
327.457	92.25
327.686	82.25
327.914	96.25
328.143	85.25
328.372	97.25
328.6	84.25
328.829	100.25
329.058	99.25
329.287	102.25
329.515	100.25
329.744	87.25
329.972	90.25
330.201	75.25
330.43	91.25
330.658	80.25
330.887	84.25
331.115	103.25
331.344	82.25
331.572	94.25
331.801	84.25
332.03	79.25
332.258	95.25
332.486	79.25
332.715	80.25
332.943	101.25
333.172	88.25
333.4	86.25
333.629	86.25
333.857	96.25
334.085	81.25
334.314	79.25
334.542	79.25
334.771	79.25
334.999	84.25
335.227	82.25
335.455	83.25
335.684	85.25
335.912	87.25
336.14	91.25
336.369	92.25
336.597	87.25
336.825	101.25
337.053	87.25
337.281	66.25
337.51	76.25
337.738	71.25
337.966	87.25
338.194	79.25
338.422	89.25
338.65	78.25
338.878	88.25
339.106	89.25
339.334	85.25
339.562	85.25
339.79	111.25
340.018	90.25
340.246	80.25
340.474	90.25
340.702	83.25
340.93	88.25
341.158	82.25
341.386	90.25
341.614	86.25
341.842	78.25
342.07	77.25
342.298	90.25
342.526	87.25
342.754	82.25
342.981	89.25
343.209	79.25
343.437	94.25
343.665	97.25
343.893	89.25
344.12	85.25
344.348	91.25
344.576	83.25
344.804	87.25
345.031	90.25
345.259	98.25
345.487	82.25
345.714	88.25
345.942	88.25
346.17	92.25
346.397	82.25
346.625	84.25
346.853	82.25
347.08	78.25
347.308	103.25
347.535	97.25
347.763	81.25
347.99	88.25
348.218	85.25
348.445	83.25
348.673	82.25
348.9	88.25
349.128	101.25
349.355	95.25
349.583	89.25
349.81	79.25
350.037	94.25
350.265	77.25
350.492	92.25
350.72	83.25
350.947	98.25
351.174	94.25
351.402	73.25
351.629	79.25
351.856	89.25
352.083	87.25
352.311	95.25
352.538	94.25
352.765	92.25
352.992	69.25
353.22	84.25
353.447	76.25
353.674	86.25
353.901	89.25
354.128	94.25
354.355	91.25
354.583	78.25
354.81	85.25
355.037	89.25
355.264	91.25
355.491	86.25
355.718	90.25
355.945	88.25
356.172	99.25
356.399	98.25
356.626	94.25
356.853	93.25
357.08	96.25
357.307	94.25
357.534	91.25
357.761	91.25
357.988	94.25
358.215	80.25
358.441	93.25
358.668	94.25
358.895	85.25
359.122	95.25
359.349	83.25
359.576	92.25
359.802	88.25
360.029	76.25
360.256	99.25
360.483	100.25
360.709	87.25
360.936	99.25
361.163	86.25
361.39	86.25
361.616	94.25
361.843	99.25
362.07	86.25
362.296	81.25
362.523	94.25
362.749	74.25
362.976	85.25
363.203	85.25
363.429	83.25
363.656	89.25
363.882	91.25
364.109	75.25
364.335	81.25
364.562	78.25
364.788	86.25
365.015	98.25
365.241	88.25
365.468	88.25
365.694	82.25
365.92	84.25
366.147	97.25
366.373	90.25
366.599	75.25
366.826	70.25
367.052	88.25
367.278	91.25
367.505	90.25
367.731	91.25
367.957	89.25
368.184	98.25
368.41	99.25
368.636	72.25
368.862	91.25
369.089	78.25
369.315	86.25
369.541	90.25
369.767	86.25
369.993	87.25
370.219	87.25
370.445	97.25
370.672	87.25
370.898	66.25
371.124	102.25
371.35	86.25
371.576	90.25
371.802	86.25
372.028	92.25
372.254	98.25
372.48	86.25
372.706	93.25
372.932	87.25
373.158	85.25
373.384	99.25
373.61	90.25
373.835	76.25
374.061	96.25
374.287	78.25
374.513	85.25
374.739	90.25
374.965	87.25
375.191	72.25
375.416	101.25
375.642	85.25
375.868	96.25
376.094	98.25
376.319	96.25
376.545	69.25
376.771	75.25
376.997	103.25
377.222	84.25
377.448	93.25
377.674	78.25
377.899	85.25
378.125	77.25
378.35	88.25
378.576	97.25
378.802	107.25
379.027	90.25
379.253	82.25
379.478	98.25
379.704	82.25
379.929	81.25
380.155	87.25
380.38	75.25
380.606	91.25
380.831	85.25
381.057	85.25
381.282	84.25
381.507	86.25
381.733	97.25
381.958	89.25
382.184	93.25
382.409	74.25
382.634	91.25
382.86	93.25
383.085	91.25
383.31	101.25
383.535	87.25
383.761	92.25
383.986	94.25
384.211	87.25
384.436	78.25
384.662	85.25
384.887	91.25
385.112	79.25
385.337	92.25
385.562	89.25
385.787	71.25
386.013	95.25
386.238	90.25
386.463	90.25
386.688	92.25
386.913	96.25
387.138	88.25
387.363	90.25
387.588	94.25
387.813	94.25
388.038	78.25
388.263	76.25
388.488	104.25
388.713	92.25
388.938	107.25
389.163	95.25
389.387	94.25
389.612	70.25
389.837	98.25
390.062	115.25
390.287	89.25
390.512	92.25
390.736	92.25
390.961	94.25
391.186	88.25
391.411	84.25
391.636	93.25
391.86	93.25
392.085	71.25
392.31	84.25
392.534	92.25
392.759	94.25
392.984	85.25
393.208	83.25
393.433	82.25
393.658	92.25
393.882	77.25
394.107	82.25
394.331	91.25
394.556	84.25
394.78	89.25
395.005	79.25
395.229	82.25
395.454	98.25
395.678	82.25
395.903	86.25
396.127	97.25
396.352	92.25
396.576	87.25
396.801	92.25
397.025	87.25
397.249	91.25
397.474	103.25
397.698	97.25
397.922	93.25
398.147	105.25
398.371	86.25
398.595	92.25
398.82	94.25
399.044	93.25
399.268	85.25
399.492	96.25
399.717	87.25
399.941	94.25
400.165	90.25
400.389	97.25
400.613	88.25
400.837	93.25
401.062	79.25
401.286	93.25
401.51	101.25
401.734	95.25
401.958	90.25
402.182	92.25
402.406	77.25
402.63	87.25
402.854	83.25
403.078	85.25
403.302	94.25
403.526	91.25
403.75	89.25
403.974	79.25
404.198	95.25
404.422	104.25
404.645	92.25
404.869	80.25
405.093	85.25
405.317	105.25
405.541	109.25
405.765	92.25
405.988	92.25
406.212	88.25
406.436	93.25
406.66	90.25
406.883	82.25
407.107	80.25
407.331	95.25
407.555	95.25
407.778	91.25
408.002	91.25
408.226	84.25
408.449	92.25
408.673	103.25
408.896	87.25
409.12	85.25
409.344	92.25
409.567	105.25
409.791	102.25
410.014	84.25
410.238	98.25
410.461	87.25
410.685	88.25
410.908	91.25
411.132	102.25
411.355	99.25
411.578	101.25
411.802	87.25
412.025	92.25
412.249	96.25
412.472	101.25
412.695	95.25
412.919	83.25
413.142	90.25
413.365	83.25
413.589	83.25
413.812	93.25
414.035	82.25
414.258	93.25
414.482	86.25
414.705	88.25
414.928	96.25
415.151	98.25
415.374	101.25
415.597	90.25
415.821	101.25
416.044	100.25
416.267	89.25
416.49	93.25
416.713	89.25
416.936	103.25
417.159	100.25
417.382	86.25
417.605	90.25
417.828	88.25
418.051	92.25
418.274	101.25
418.497	100.25
418.72	108.25
418.943	94.25
419.166	87.25
419.389	102.25
419.611	93.25
419.834	97.25
420.057	106.25
420.28	97.25
420.503	82.25
420.726	91.25
420.948	99.25
421.171	92.25
421.394	94.25
421.617	106.25
421.839	114.25
422.062	79.25
422.285	89.25
422.507	105.25
422.73	82.25
422.953	90.25
423.175	98.25
423.398	105.25
423.621	98.25
423.843	94.25
424.066	91.25
424.288	87.25
424.511	91.25
424.733	106.25
424.956	85.25
425.178	105.25
425.401	87.25
425.623	98.25
425.846	101.25
426.068	95.25
426.291	92.25
426.513	83.25
426.735	93.25
426.958	110.25
427.18	110.25
427.402	99.25
427.625	108.25
427.847	100.25
428.069	79.25
428.292	91.25
428.514	83.25
428.736	96.25
428.958	96.25
429.181	90.25
429.403	98.25
429.625	87.25
429.847	84.25
430.069	108.25
430.292	87.25
430.514	99.25
430.736	81.25
430.958	97.25
431.18	105.25
431.402	95.25
431.624	87.25
431.846	82.25
432.068	78.25
432.29	95.25
432.512	79.25
432.734	91.25
432.956	103.25
433.178	117.25
433.4	89.25
433.622	108.25
433.844	97.25
434.066	83.25
434.287	96.25
434.509	83.25
434.731	86.25
434.953	79.25
435.175	102.25
435.397	89.25
435.618	105.25
435.84	83.25
436.062	89.25
436.284	88.25
436.505	98.25
436.727	97.25
436.949	107.25
437.17	95.25
437.392	89.25
437.614	81.25
437.835	89.25
438.057	86.25
438.278	82.25
438.5	93.25
438.721	103.25
438.943	99.25
439.165	104.25
439.386	81.25
439.608	98.25
439.829	85.25
440.05	103.25
440.272	106.25
440.493	115.25
440.715	109.25
440.936	96.25
441.158	101.25
441.379	92.25
441.6	110.25
441.822	105.25
442.043	107.25
442.264	119.25
442.486	97.25
442.707	98.25
442.928	93.25
443.149	97.25
443.371	88.25
443.592	87.25
443.813	102.25
444.034	99.25
444.255	99.25
444.476	95.25
444.698	98.25
444.919	104.25
445.14	237.25
445.361	162.25
445.582	102.25
445.803	89.25
446.024	99.25
446.245	100.25
446.466	104.25
446.687	111.25
446.908	109.25
447.129	98.25
447.35	105.25
447.571	90.25
447.792	105.25
448.013	103.25
448.234	99.25
448.455	84.25
448.675	89.25
448.896	94.25
449.117	85.25
449.338	96.25
449.559	94.25
449.779	98.25
450	86.25
450.221	90.25
450.442	89.25
450.662	101.25
450.883	101.25
451.104	99.25
451.324	93.25
451.545	105.25
451.766	90.25
451.986	102.25
452.207	85.25
452.428	89.25
452.648	101.25
452.869	83.25
453.089	109.25
453.31	85.25
453.53	90.25
453.751	87.25
453.971	89.25
454.192	89.25
454.412	67.25
454.633	67.25
454.853	105.25
455.073	88.25
455.294	87.25
455.514	101.25
455.734	91.25
455.955	93.25
456.175	72.25
456.395	87.25
456.616	94.25
456.836	87.25
457.056	78.25
457.276	86.25
457.497	91.25
457.717	92.25
457.937	95.25
458.157	92.25
458.377	90.25
458.598	89.25
458.818	85.25
459.038	103.25
459.258	89.25
459.478	95.25
459.698	85.25
459.918	87.25
460.138	90.25
460.358	84.25
460.578	106.25
460.798	87.25
461.018	96.25
461.238	83.25
461.458	97.25
461.678	83.25
461.898	87.25
462.118	76.25
462.338	91.25
462.558	98.25
462.777	102.25
462.997	93.25
463.217	97.25
463.437	84.25
463.657	85.25
463.876	90.25
464.096	96.25
464.316	86.25
464.536	106.25
464.755	85.25
464.975	95.25
465.195	94.25
465.414	92.25
465.634	90.25
465.854	88.25
466.073	84.25
466.293	95.25
466.512	102.25
466.732	90.25
466.951	88.25
467.171	102.25
467.391	87.25
467.61	96.25
467.829	95.25
468.049	90.25
468.268	90.25
468.488	103.25
468.707	95.25
468.927	102.25
469.146	101.25
469.365	104.25
469.585	87.25
469.804	102.25
470.023	99.25
470.243	97.25
470.462	101.25
470.681	99.25
470.901	108.25
471.12	92.25
471.339	91.25
471.558	108.25
471.777	119.25
471.997	93.25
472.216	91.25
472.435	89.25
472.654	98.25
472.873	93.25
473.092	87.25
473.311	99.25
473.53	101.25
473.749	99.25
473.968	90.25
474.187	103.25
474.406	102.25
474.625	95.25
474.844	82.25
475.063	100.25
475.282	87.25
475.501	87.25
475.72	100.25
475.939	80.25
476.158	91.25
476.377	90.25
476.596	93.25
476.814	101.25
477.033	94.25
477.252	93.25
477.471	101.25
477.69	87.25
477.908	97.25
478.127	102.25
478.346	97.25
478.564	94.25
478.783	98.25
479.002	99.25
479.22	99.25
479.439	113.25
479.658	94.25
479.876	83.25
480.095	99.25
480.313	87.25
480.532	84.25
480.751	97.25
480.969	77.25
481.188	77.25
481.406	87.25
481.624	89.25
481.843	89.25
482.061	87.25
482.28	90.25
482.498	90.25
482.717	89.25
482.935	100.25
483.153	105.25
483.372	111.25
483.59	104.25
483.808	91.25
484.027	90.25
484.245	109.25
484.463	105.25
484.681	96.25
484.9	97.25
485.118	106.25
485.336	103.25
485.554	88.25
485.772	97.25
485.99	80.25
486.209	93.25
486.427	94.25
486.645	97.25
486.863	98.25
487.081	105.25
487.299	75.25
487.517	96.25
487.735	107.25
487.953	118.25
488.171	123.25
488.389	100.25
488.607	104.25
488.825	102.25
489.043	97.25
489.261	91.25
489.479	113.25
489.696	98.25
489.914	103.25
490.132	102.25
490.35	99.25
490.568	107.25
490.786	109.25
491.003	112.25
491.221	111.25
491.439	94.25
491.657	114.25
491.874	110.25
492.092	125.25
492.31	129.25
492.527	126.25
492.745	121.25
492.963	122.25
493.18	114.25
493.398	99.25
493.615	104.25
493.833	111.25
494.05	113.25
494.268	108.25
494.485	106.25
494.703	102.25
494.92	101.25
495.138	110.25
495.355	114.25
495.573	105.25
495.79	112.25
496.008	104.25
496.225	97.25
496.442	103.25
496.66	105.25
496.877	114.25
497.094	117.25
497.312	108.25
497.529	102.25
497.746	110.25
497.963	99.25
498.181	95.25
498.398	95.25
498.615	92.25
498.832	97.25
499.049	86.25
499.267	90.25
499.484	95.25
499.701	78.25
499.918	95.25
500.135	101.25
500.352	84.25
500.569	96.25
500.786	90.25
501.003	104.25
501.22	89.25
501.437	106.25
501.654	90.25
501.871	102.25
502.088	98.25
502.305	98.25
502.522	95.25
502.739	89.25
502.956	107.25
503.172	110.25
503.389	103.25
503.606	78.25
503.823	102.25
504.04	94.25
504.256	104.25
504.473	97.25
504.69	89.25
504.907	99.25
505.123	88.25
505.34	97.25
505.557	104.25
505.773	100.25
505.99	88.25
506.207	80.25
506.423	91.25
506.64	103.25
506.856	90.25
507.073	91.25
507.289	91.25
507.506	103.25
507.722	98.25
507.939	93.25
508.155	80.25
508.372	101.25
508.588	76.25
508.805	94.25
509.021	91.25
509.238	91.25
509.454	85.25
509.67	86.25
509.887	89.25
510.103	85.25
510.319	89.25
510.536	88.25
510.752	81.25
510.968	81.25
511.184	87.25
511.401	79.25
511.617	86.25
511.833	86.25
512.049	78.25
512.265	95.25
512.481	85.25
512.698	88.25
512.914	85.25
513.13	85.25
513.346	92.25
513.562	90.25
513.778	87.25
513.994	94.25
514.21	83.25
514.426	99.25
514.642	90.25
514.858	91.25
515.074	97.25
515.29	85.25
515.506	87.25
515.721	91.25
515.937	89.25
516.153	103.25
516.369	89.25
516.585	90.25
516.801	96.25
