Data from Location5.07152019.Energy5.Lamp.07192019.3%Agarose_HRD10591_15-37-25-387.txt Node
Date: Fri Jul 19 15:37:25 EDT 2019
User: cochatt
Spectrometer: HR+D1059
Trigger mode: 1
Integration Time (sec): 1.000000E-1
Scans to average: 1
Electric dark correction enabled: true
Nonlinearity correction enabled: false
Boxcar width: 0
XAxis mode: Wavelengths
Number of Pixels in Spectrum: 2048
>>>>>Begin Spectral Data<<<<<
223.165	-15.94
223.4	-15.94
223.635	-15.94
223.869	-39.94
224.104	-18.94
224.338	-19.94
224.573	-23.94
224.808	-6.94
225.042	8.06
225.277	-4.94
225.511	0.06
225.746	3.06
225.98	12.06
226.215	6.06
226.449	24.06
226.683	24.06
226.918	27.06
227.152	26.06
227.387	36.06
227.621	43.06
227.856	53.06
228.09	43.06
228.324	50.06
228.559	73.06
228.793	65.06
229.027	73.06
229.262	64.06
229.496	67.06
229.73	62.06
229.964	69.06
230.199	72.06
230.433	83.06
230.667	77.06
230.901	66.06
231.136	81.06
231.37	75.06
231.604	84.06
231.838	73.06
232.072	88.06
232.306	87.06
232.541	85.06
232.775	87.06
233.009	88.06
233.243	89.06
233.477	68.06
233.711	84.06
233.945	80.06
234.179	98.06
234.413	85.06
234.647	86.06
234.881	85.06
235.115	83.06
235.349	88.06
235.583	76.06
235.817	80.06
236.051	75.06
236.285	76.06
236.519	77.06
236.753	68.06
236.987	79.06
237.221	74.06
237.455	79.06
237.689	82.06
237.922	73.06
238.156	79.06
238.39	77.06
238.624	73.06
238.858	79.06
239.091	80.06
239.325	72.06
239.559	86.06
239.793	85.06
240.027	64.06
240.26	72.06
240.494	77.06
240.728	83.06
240.961	83.06
241.195	76.06
241.429	70.06
241.662	82.06
241.896	75.06
242.13	76.06
242.363	84.06
242.597	80.06
242.83	73.06
243.064	91.06
243.298	77.06
243.531	75.06
243.765	85.06
243.998	82.06
244.232	76.06
244.465	86.06
244.699	81.06
244.932	76.06
245.166	89.06
245.399	77.06
245.633	65.06
245.866	83.06
246.099	78.06
246.333	68.06
246.566	84.06
246.8	73.06
247.033	90.06
247.266	78.06
247.5	88.06
247.733	85.06
247.966	94.06
248.2	86.06
248.433	80.06
248.666	73.06
248.899	82.06
249.133	76.06
249.366	74.06
249.599	100.06
249.832	85.06
250.066	73.06
250.299	88.06
250.532	81.06
250.765	86.06
250.998	68.06
251.231	82.06
251.465	99.06
251.698	83.06
251.931	75.06
252.164	78.06
252.397	73.06
252.63	91.06
252.863	83.06
253.096	86.06
253.329	88.06
253.562	77.06
253.795	91.06
254.028	84.06
254.261	72.06
254.494	73.06
254.727	92.06
254.96	82.06
255.193	76.06
255.426	81.06
255.659	62.06
255.892	88.06
256.124	100.06
256.357	81.06
256.59	76.06
256.823	89.06
257.056	86.06
257.289	84.06
257.521	81.06
257.754	86.06
257.987	92.06
258.22	77.06
258.452	84.06
258.685	84.06
258.918	74.06
259.151	92.06
259.383	90.06
259.616	89.06
259.849	81.06
260.081	86.06
260.314	81.06
260.547	78.06
260.779	78.06
261.012	74.06
261.244	66.06
261.477	86.06
261.71	77.06
261.942	74.06
262.175	70.06
262.407	86.06
262.64	91.06
262.872	69.06
263.105	91.06
263.337	97.06
263.57	76.06
263.802	78.06
264.035	87.06
264.267	74.06
264.499	93.06
264.732	90.06
264.964	74.06
265.197	81.06
265.429	76.06
265.661	88.06
265.894	67.06
266.126	82.06
266.358	97.06
266.591	78.06
266.823	96.06
267.055	75.06
267.287	88.06
267.52	72.06
267.752	87.06
267.984	81.06
268.216	83.06
268.448	91.06
268.681	90.06
268.913	93.06
269.145	83.06
269.377	76.06
269.609	87.06
269.841	82.06
270.073	71.06
270.306	86.06
270.538	84.06
270.77	91.06
271.002	100.06
271.234	76.06
271.466	84.06
271.698	83.06
271.93	88.06
272.162	91.06
272.394	78.06
272.626	87.06
272.858	99.06
273.09	82.06
273.322	73.06
273.553	77.06
273.785	93.06
274.017	82.06
274.249	97.06
274.481	83.06
274.713	67.06
274.945	75.06
275.176	84.06
275.408	91.06
275.64	83.06
275.872	77.06
276.104	81.06
276.335	89.06
276.567	84.06
276.799	82.06
277.031	82.06
277.262	90.06
277.494	78.06
277.726	74.06
277.957	89.06
278.189	90.06
278.421	89.06
278.652	98.06
278.884	78.06
279.115	79.06
279.347	83.06
279.579	88.06
279.81	102.06
280.042	73.06
280.273	85.06
280.505	92.06
280.736	91.06
280.968	88.06
281.199	77.06
281.431	90.06
281.662	97.06
281.894	89.06
282.125	88.06
282.356	91.06
282.588	78.06
282.819	75.06
283.051	75.06
283.282	89.06
283.513	83.06
283.745	92.06
283.976	86.06
284.207	71.06
284.439	91.06
284.67	88.06
284.901	100.06
285.132	79.06
285.364	91.06
285.595	78.06
285.826	93.06
286.057	94.06
286.288	85.06
286.52	89.06
286.751	86.06
286.982	85.06
287.213	88.06
287.444	99.06
287.675	96.06
287.906	74.06
288.138	78.06
288.369	83.06
288.6	79.06
288.831	86.06
289.062	91.06
289.293	90.06
289.524	84.06
289.755	90.06
289.986	80.06
290.217	90.06
290.448	97.06
290.679	82.06
290.91	72.06
291.141	70.06
291.371	73.06
291.602	95.06
291.833	90.06
292.064	96.06
292.295	82.06
292.526	87.06
292.757	85.06
292.987	88.06
293.218	77.06
293.449	64.06
293.68	84.06
293.91	87.06
294.141	89.06
294.372	88.06
294.603	85.06
294.833	84.06
295.064	85.06
295.295	83.06
295.525	91.06
295.756	79.06
295.987	92.06
296.217	81.06
296.448	82.06
296.679	97.06
296.909	93.06
297.14	85.06
297.37	81.06
297.601	81.06
297.831	82.06
298.062	100.06
298.292	82.06
298.523	86.06
298.753	87.06
298.984	82.06
299.214	88.06
299.445	89.06
299.675	102.06
299.905	92.06
300.136	91.06
300.366	93.06
300.597	84.06
300.827	81.06
301.057	88.06
301.288	98.06
301.518	88.06
301.748	74.06
301.979	86.06
302.209	85.06
302.439	83.06
302.669	74.06
302.9	81.06
303.13	96.06
303.36	87.06
303.59	85.06
303.82	84.06
304.051	83.06
304.281	87.06
304.511	94.06
304.741	104.06
304.971	93.06
305.201	92.06
305.431	83.06
305.661	96.06
305.891	85.06
306.121	85.06
306.352	87.06
306.582	91.06
306.812	86.06
307.042	86.06
307.272	80.06
307.502	88.06
307.731	83.06
307.961	91.06
308.191	83.06
308.421	86.06
308.651	92.06
308.881	98.06
309.111	90.06
309.341	83.06
309.571	80.06
309.8	78.06
310.03	79.06
310.26	92.06
310.49	77.06
310.72	90.06
310.949	103.06
311.179	91.06
311.409	97.06
311.639	97.06
311.868	97.06
312.098	98.06
312.328	89.06
312.557	92.06
312.787	84.06
313.017	80.06
313.246	73.06
313.476	84.06
313.706	77.06
313.935	88.06
314.165	89.06
314.394	87.06
314.624	89.06
314.853	78.06
315.083	81.06
315.312	103.06
315.542	86.06
315.771	80.06
316.001	87.06
316.23	89.06
316.46	88.06
316.689	76.06
316.919	90.06
317.148	88.06
317.377	76.06
317.607	89.06
317.836	92.06
318.065	87.06
318.295	93.06
318.524	89.06
318.753	88.06
318.983	90.06
319.212	90.06
319.441	86.06
319.67	99.06
319.9	70.06
320.129	98.06
320.358	84.06
320.587	97.06
320.816	86.06
321.046	93.06
321.275	83.06
321.504	95.06
321.733	96.06
321.962	85.06
322.191	72.06
322.42	88.06
322.649	95.06
322.878	85.06
323.108	84.06
323.337	90.06
323.566	99.06
323.795	85.06
324.024	78.06
324.253	84.06
324.482	96.06
324.71	85.06
324.939	87.06
325.168	101.06
325.397	86.06
325.626	85.06
325.855	80.06
326.084	95.06
326.313	82.06
326.542	69.06
326.77	96.06
326.999	87.06
327.228	78.06
327.457	85.06
327.686	83.06
327.914	78.06
328.143	85.06
328.372	83.06
328.6	89.06
328.829	96.06
329.058	88.06
329.287	82.06
329.515	81.06
329.744	81.06
329.972	88.06
330.201	89.06
330.43	89.06
330.658	73.06
330.887	72.06
331.115	89.06
331.344	98.06
331.572	80.06
331.801	83.06
332.03	82.06
332.258	81.06
332.486	86.06
332.715	84.06
332.943	89.06
333.172	77.06
333.4	85.06
333.629	83.06
333.857	82.06
334.085	81.06
334.314	82.06
334.542	76.06
334.771	86.06
334.999	89.06
335.227	88.06
335.455	93.06
335.684	93.06
335.912	92.06
336.14	84.06
336.369	85.06
336.597	91.06
336.825	82.06
337.053	76.06
337.281	77.06
337.51	83.06
337.738	101.06
337.966	90.06
338.194	80.06
338.422	75.06
338.65	78.06
338.878	90.06
339.106	95.06
339.334	75.06
339.562	84.06
339.79	103.06
340.018	95.06
340.246	88.06
340.474	85.06
340.702	91.06
340.93	77.06
341.158	90.06
341.386	88.06
341.614	86.06
341.842	85.06
342.07	71.06
342.298	90.06
342.526	100.06
342.754	86.06
342.981	84.06
343.209	66.06
343.437	83.06
343.665	84.06
343.893	88.06
344.12	88.06
344.348	87.06
344.576	78.06
344.804	83.06
345.031	86.06
345.259	86.06
345.487	87.06
345.714	85.06
345.942	77.06
346.17	86.06
346.397	82.06
346.625	78.06
346.853	89.06
347.08	78.06
347.308	85.06
347.535	88.06
347.763	88.06
347.99	72.06
348.218	88.06
348.445	78.06
348.673	82.06
348.9	91.06
349.128	81.06
349.355	97.06
349.583	87.06
349.81	83.06
350.037	84.06
350.265	80.06
350.492	102.06
350.72	81.06
350.947	80.06
351.174	93.06
351.402	74.06
351.629	83.06
351.856	75.06
352.083	64.06
352.311	80.06
352.538	78.06
352.765	78.06
352.992	91.06
353.22	75.06
353.447	89.06
353.674	89.06
353.901	89.06
354.128	88.06
354.355	84.06
354.583	83.06
354.81	88.06
355.037	87.06
355.264	83.06
355.491	88.06
355.718	83.06
355.945	82.06
356.172	77.06
356.399	88.06
356.626	83.06
356.853	80.06
357.08	78.06
357.307	83.06
357.534	78.06
357.761	85.06
357.988	82.06
358.215	85.06
358.441	82.06
358.668	86.06
358.895	85.06
359.122	79.06
359.349	81.06
359.576	82.06
359.802	92.06
360.029	74.06
360.256	93.06
360.483	86.06
360.709	98.06
360.936	89.06
361.163	96.06
361.39	87.06
361.616	77.06
361.843	77.06
362.07	89.06
362.296	82.06
362.523	78.06
362.749	85.06
362.976	92.06
363.203	91.06
363.429	68.06
363.656	89.06
363.882	92.06
364.109	83.06
364.335	93.06
364.562	71.06
364.788	72.06
365.015	81.06
365.241	79.06
365.468	99.06
365.694	81.06
365.92	79.06
366.147	81.06
366.373	92.06
366.599	85.06
366.826	81.06
367.052	77.06
367.278	83.06
367.505	94.06
367.731	101.06
367.957	72.06
368.184	77.06
368.41	89.06
368.636	82.06
368.862	87.06
369.089	81.06
369.315	100.06
369.541	88.06
369.767	94.06
369.993	95.06
370.219	71.06
370.445	74.06
370.672	81.06
370.898	70.06
371.124	89.06
371.35	79.06
371.576	93.06
371.802	88.06
372.028	85.06
372.254	84.06
372.48	81.06
372.706	84.06
372.932	93.06
373.158	93.06
373.384	77.06
373.61	93.06
373.835	92.06
374.061	79.06
374.287	87.06
374.513	90.06
374.739	74.06
374.965	87.06
375.191	93.06
375.416	84.06
375.642	100.06
375.868	89.06
376.094	90.06
376.319	77.06
376.545	92.06
376.771	75.06
376.997	85.06
377.222	68.06
377.448	89.06
377.674	94.06
377.899	91.06
378.125	99.06
378.35	82.06
378.576	86.06
378.802	87.06
379.027	89.06
379.253	86.06
379.478	90.06
379.704	92.06
379.929	88.06
380.155	90.06
380.38	82.06
380.606	110.06
380.831	99.06
381.057	95.06
381.282	82.06
381.507	90.06
381.733	73.06
381.958	105.06
382.184	91.06
382.409	81.06
382.634	97.06
382.86	78.06
383.085	96.06
383.31	88.06
383.535	96.06
383.761	88.06
383.986	85.06
384.211	87.06
384.436	86.06
384.662	90.06
384.887	86.06
385.112	75.06
385.337	86.06
385.562	93.06
385.787	89.06
386.013	93.06
386.238	92.06
386.463	90.06
386.688	81.06
386.913	79.06
387.138	83.06
387.363	83.06
387.588	82.06
387.813	86.06
388.038	84.06
388.263	97.06
388.488	88.06
388.713	76.06
388.938	85.06
389.163	83.06
389.387	97.06
389.612	88.06
389.837	91.06
390.062	89.06
390.287	76.06
390.512	101.06
390.736	83.06
390.961	93.06
391.186	92.06
391.411	96.06
391.636	83.06
391.86	105.06
392.085	79.06
392.31	96.06
392.534	83.06
392.759	89.06
392.984	81.06
393.208	84.06
393.433	95.06
393.658	91.06
393.882	78.06
394.107	66.06
394.331	82.06
394.556	83.06
394.78	80.06
395.005	90.06
395.229	93.06
395.454	86.06
395.678	100.06
395.903	98.06
396.127	78.06
396.352	91.06
396.576	86.06
396.801	93.06
397.025	90.06
397.249	93.06
397.474	87.06
397.698	89.06
397.922	83.06
398.147	84.06
398.371	93.06
398.595	86.06
398.82	83.06
399.044	85.06
399.268	90.06
399.492	82.06
399.717	79.06
399.941	96.06
400.165	85.06
400.389	90.06
400.613	96.06
400.837	90.06
401.062	90.06
401.286	100.06
401.51	92.06
401.734	86.06
401.958	95.06
402.182	109.06
402.406	78.06
402.63	84.06
402.854	96.06
403.078	92.06
403.302	98.06
403.526	82.06
403.75	101.06
403.974	96.06
404.198	95.06
404.422	82.06
404.645	70.06
404.869	104.06
405.093	99.06
405.317	84.06
405.541	96.06
405.765	94.06
405.988	86.06
406.212	88.06
406.436	94.06
406.66	105.06
406.883	90.06
407.107	82.06
407.331	82.06
407.555	90.06
407.778	94.06
408.002	89.06
408.226	101.06
408.449	100.06
408.673	82.06
408.896	87.06
409.12	99.06
409.344	99.06
409.567	98.06
409.791	80.06
410.014	94.06
410.238	81.06
410.461	88.06
410.685	94.06
410.908	82.06
411.132	88.06
411.355	86.06
411.578	96.06
411.802	92.06
412.025	78.06
412.249	89.06
412.472	95.06
412.695	96.06
412.919	94.06
413.142	94.06
413.365	96.06
413.589	84.06
413.812	85.06
414.035	78.06
414.258	80.06
414.482	105.06
414.705	102.06
414.928	89.06
415.151	96.06
415.374	89.06
415.597	84.06
415.821	85.06
416.044	97.06
416.267	97.06
416.49	87.06
416.713	90.06
416.936	98.06
417.159	93.06
417.382	88.06
417.605	85.06
417.828	92.06
418.051	72.06
418.274	106.06
418.497	90.06
418.72	97.06
418.943	90.06
419.166	93.06
419.389	77.06
419.611	104.06
419.834	108.06
420.057	77.06
420.28	96.06
420.503	96.06
420.726	90.06
420.948	98.06
421.171	89.06
421.394	100.06
421.617	84.06
421.839	99.06
422.062	104.06
422.285	83.06
422.507	82.06
422.73	116.06
422.953	89.06
423.175	84.06
423.398	103.06
423.621	99.06
423.843	106.06
424.066	97.06
424.288	103.06
424.511	106.06
424.733	94.06
424.956	104.06
425.178	104.06
425.401	104.06
425.623	91.06
425.846	104.06
426.068	91.06
426.291	106.06
426.513	88.06
426.735	90.06
426.958	101.06
427.18	82.06
427.402	85.06
427.625	72.06
427.847	85.06
428.069	94.06
428.292	94.06
428.514	101.06
428.736	104.06
428.958	87.06
429.181	89.06
429.403	81.06
429.625	91.06
429.847	89.06
430.069	105.06
430.292	86.06
430.514	95.06
430.736	92.06
430.958	92.06
431.18	87.06
431.402	104.06
431.624	97.06
431.846	90.06
432.068	91.06
432.29	89.06
432.512	104.06
432.734	83.06
432.956	98.06
433.178	90.06
433.4	99.06
433.622	105.06
433.844	85.06
434.066	101.06
434.287	86.06
434.509	85.06
434.731	90.06
434.953	93.06
435.175	96.06
435.397	100.06
435.618	86.06
435.84	88.06
436.062	78.06
436.284	94.06
436.505	91.06
436.727	104.06
436.949	93.06
437.17	86.06
437.392	87.06
437.614	85.06
437.835	86.06
438.057	82.06
438.278	92.06
438.5	85.06
438.721	98.06
438.943	104.06
439.165	100.06
439.386	95.06
439.608	103.06
439.829	101.06
440.05	96.06
440.272	114.06
440.493	96.06
440.715	92.06
440.936	98.06
441.158	91.06
441.379	80.06
441.6	99.06
441.822	96.06
442.043	85.06
442.264	85.06
442.486	101.06
442.707	91.06
442.928	90.06
443.149	90.06
443.371	100.06
443.592	99.06
443.813	86.06
444.034	101.06
444.255	92.06
444.476	94.06
444.698	105.06
444.919	88.06
445.14	227.06
445.361	156.06
445.582	110.06
445.803	96.06
446.024	112.06
446.245	107.06
446.466	120.06
446.687	94.06
446.908	97.06
447.129	107.06
447.35	110.06
447.571	106.06
447.792	82.06
448.013	83.06
448.234	99.06
448.455	95.06
448.675	102.06
448.896	100.06
449.117	98.06
449.338	93.06
449.559	98.06
449.779	93.06
450	100.06
450.221	104.06
450.442	101.06
450.662	96.06
450.883	89.06
451.104	89.06
451.324	107.06
451.545	96.06
451.766	83.06
451.986	86.06
452.207	91.06
452.428	81.06
452.648	96.06
452.869	79.06
453.089	88.06
453.31	89.06
453.53	98.06
453.751	98.06
453.971	82.06
454.192	84.06
454.412	88.06
454.633	80.06
454.853	96.06
455.073	107.06
455.294	88.06
455.514	94.06
455.734	112.06
455.955	92.06
456.175	87.06
456.395	96.06
456.616	103.06
456.836	84.06
457.056	90.06
457.276	101.06
457.497	85.06
457.717	85.06
457.937	89.06
458.157	96.06
458.377	83.06
458.598	106.06
458.818	85.06
459.038	97.06
459.258	93.06
459.478	76.06
459.698	83.06
459.918	93.06
460.138	93.06
460.358	97.06
460.578	92.06
460.798	91.06
461.018	93.06
461.238	92.06
461.458	75.06
461.678	95.06
461.898	89.06
462.118	96.06
462.338	89.06
462.558	87.06
462.777	89.06
462.997	84.06
463.217	87.06
463.437	97.06
463.657	95.06
463.876	87.06
464.096	96.06
464.316	89.06
464.536	88.06
464.755	78.06
464.975	80.06
465.195	92.06
465.414	94.06
465.634	81.06
465.854	83.06
466.073	98.06
466.293	101.06
466.512	106.06
466.732	81.06
466.951	93.06
467.171	106.06
467.391	87.06
467.61	110.06
467.829	92.06
468.049	97.06
468.268	99.06
468.488	101.06
468.707	104.06
468.927	89.06
469.146	106.06
469.365	90.06
469.585	96.06
469.804	89.06
470.023	104.06
470.243	98.06
470.462	99.06
470.681	108.06
470.901	97.06
471.12	95.06
471.339	98.06
471.558	85.06
471.777	101.06
471.997	93.06
472.216	97.06
472.435	78.06
472.654	90.06
472.873	104.06
473.092	87.06
473.311	102.06
473.53	88.06
473.749	106.06
473.968	90.06
474.187	98.06
474.406	98.06
474.625	97.06
474.844	104.06
475.063	91.06
475.282	110.06
475.501	105.06
475.72	77.06
475.939	95.06
476.158	98.06
476.377	89.06
476.596	89.06
476.814	80.06
477.033	98.06
477.252	92.06
477.471	109.06
477.69	101.06
477.908	102.06
478.127	86.06
478.346	93.06
478.564	113.06
478.783	93.06
479.002	103.06
479.22	115.06
479.439	98.06
479.658	87.06
479.876	86.06
480.095	77.06
480.313	98.06
480.532	95.06
480.751	82.06
480.969	78.06
481.188	90.06
481.406	85.06
481.624	87.06
481.843	85.06
482.061	64.06
482.28	86.06
482.498	84.06
482.717	83.06
482.935	102.06
483.153	97.06
483.372	83.06
483.59	108.06
483.808	102.06
484.027	92.06
484.245	92.06
484.463	87.06
484.681	98.06
484.9	96.06
485.118	99.06
485.336	108.06
485.554	91.06
485.772	95.06
485.99	88.06
486.209	104.06
486.427	80.06
486.645	90.06
486.863	93.06
487.081	101.06
487.299	89.06
487.517	108.06
487.735	101.06
487.953	100.06
488.171	115.06
488.389	109.06
488.607	105.06
488.825	88.06
489.043	106.06
489.261	94.06
489.479	97.06
489.696	102.06
489.914	105.06
490.132	97.06
490.35	89.06
490.568	120.06
490.786	99.06
491.003	105.06
491.221	110.06
491.439	104.06
491.657	112.06
491.874	122.06
492.092	115.06
492.31	128.06
492.527	125.06
492.745	125.06
492.963	126.06
493.18	119.06
493.398	107.06
493.615	116.06
493.833	108.06
494.05	107.06
494.268	107.06
494.485	99.06
494.703	117.06
494.92	104.06
495.138	106.06
495.355	107.06
495.573	119.06
495.79	102.06
496.008	108.06
496.225	118.06
496.442	94.06
496.66	108.06
496.877	103.06
497.094	95.06
497.312	102.06
497.529	99.06
497.746	92.06
497.963	88.06
498.181	96.06
498.398	92.06
498.615	91.06
498.832	91.06
499.049	100.06
499.267	90.06
499.484	75.06
499.701	101.06
499.918	99.06
500.135	87.06
500.352	99.06
500.569	108.06
500.786	99.06
501.003	102.06
501.22	99.06
501.437	97.06
501.654	100.06
501.871	102.06
502.088	88.06
502.305	119.06
502.522	99.06
502.739	90.06
502.956	96.06
503.172	98.06
503.389	88.06
503.606	86.06
503.823	89.06
504.04	96.06
504.256	92.06
504.473	100.06
504.69	91.06
504.907	99.06
505.123	101.06
505.34	84.06
505.557	96.06
505.773	78.06
505.99	97.06
506.207	96.06
506.423	89.06
506.64	103.06
506.856	99.06
507.073	96.06
507.289	101.06
507.506	113.06
507.722	96.06
507.939	93.06
508.155	116.06
508.372	98.06
508.588	98.06
508.805	91.06
509.021	96.06
509.238	80.06
509.454	80.06
509.67	82.06
509.887	84.06
510.103	97.06
510.319	97.06
510.536	91.06
510.752	91.06
510.968	73.06
511.184	80.06
511.401	86.06
511.617	81.06
511.833	77.06
512.049	81.06
512.265	100.06
512.481	83.06
512.698	97.06
512.914	91.06
513.13	93.06
513.346	88.06
513.562	94.06
513.778	92.06
513.994	79.06
514.21	101.06
514.426	88.06
514.642	87.06
514.858	83.06
515.074	92.06
515.29	90.06
515.506	83.06
515.721	77.06
515.937	87.06
516.153	70.06
516.369	86.06
516.585	84.06
516.801	88.06
517.016	92.06
517.232	102.06
