Data from Location5.07152019.Energy5.Lamp.07192019.3%Agarose_HRD10591_16-05-21-629.txt Node
Date: Fri Jul 19 16:05:21 EDT 2019
User: cochatt
Spectrometer: HR+D1059
Trigger mode: 1
Integration Time (sec): 1.000000E-1
Scans to average: 1
Electric dark correction enabled: true
Nonlinearity correction enabled: false
Boxcar width: 0
XAxis mode: Wavelengths
Number of Pixels in Spectrum: 2048
>>>>>Begin Spectral Data<<<<<
223.165	-12.44
223.4	-12.44
223.635	-12.44
223.869	-28.44
224.104	-14.44
224.338	-7.44
224.573	-11.44
224.808	-23.44
225.042	-14.44
225.277	2.56
225.511	1.56
225.746	5.56
225.98	6.56
226.215	18.56
226.449	7.56
226.683	10.56
226.918	23.56
227.152	35.56
227.387	34.56
227.621	40.56
227.856	34.56
228.09	56.56
228.324	56.56
228.559	38.56
228.793	63.56
229.027	56.56
229.262	75.56
229.496	62.56
229.73	77.56
229.964	73.56
230.199	64.56
230.433	70.56
230.667	80.56
230.901	88.56
231.136	98.56
231.37	64.56
231.604	85.56
231.838	62.56
232.072	81.56
232.306	89.56
232.541	76.56
232.775	88.56
233.009	79.56
233.243	73.56
233.477	91.56
233.711	95.56
233.945	82.56
234.179	81.56
234.413	86.56
234.647	79.56
234.881	83.56
235.115	81.56
235.349	86.56
235.583	75.56
235.817	92.56
236.051	79.56
236.285	82.56
236.519	85.56
236.753	70.56
236.987	82.56
237.221	73.56
237.455	73.56
237.689	71.56
237.922	75.56
238.156	76.56
238.39	67.56
238.624	85.56
238.858	93.56
239.091	85.56
239.325	66.56
239.559	79.56
239.793	65.56
240.027	73.56
240.26	76.56
240.494	81.56
240.728	60.56
240.961	67.56
241.195	92.56
241.429	82.56
241.662	85.56
241.896	74.56
242.13	76.56
242.363	74.56
242.597	77.56
242.83	83.56
243.064	79.56
243.298	75.56
243.531	76.56
243.765	75.56
243.998	69.56
244.232	79.56
244.465	82.56
244.699	73.56
244.932	86.56
245.166	80.56
245.399	61.56
245.633	67.56
245.866	82.56
246.099	91.56
246.333	88.56
246.566	79.56
246.8	80.56
247.033	74.56
247.266	81.56
247.5	83.56
247.733	74.56
247.966	67.56
248.2	79.56
248.433	85.56
248.666	99.56
248.899	92.56
249.133	86.56
249.366	74.56
249.599	79.56
249.832	82.56
250.066	74.56
250.299	58.56
250.532	77.56
250.765	73.56
250.998	74.56
251.231	79.56
251.465	85.56
251.698	91.56
251.931	82.56
252.164	84.56
252.397	74.56
252.63	94.56
252.863	88.56
253.096	82.56
253.329	69.56
253.562	90.56
253.795	89.56
254.028	81.56
254.261	89.56
254.494	66.56
254.727	75.56
254.96	79.56
255.193	87.56
255.426	91.56
255.659	78.56
255.892	89.56
256.124	69.56
256.357	82.56
256.59	73.56
256.823	70.56
257.056	82.56
257.289	89.56
257.521	77.56
257.754	78.56
257.987	84.56
258.22	77.56
258.452	88.56
258.685	84.56
258.918	99.56
259.151	76.56
259.383	81.56
259.616	86.56
259.849	83.56
260.081	86.56
260.314	89.56
260.547	84.56
260.779	69.56
261.012	87.56
261.244	84.56
261.477	86.56
261.71	86.56
261.942	71.56
262.175	86.56
262.407	89.56
262.64	81.56
262.872	77.56
263.105	82.56
263.337	73.56
263.57	80.56
263.802	75.56
264.035	90.56
264.267	77.56
264.499	69.56
264.732	85.56
264.964	82.56
265.197	81.56
265.429	85.56
265.661	85.56
265.894	87.56
266.126	65.56
266.358	83.56
266.591	86.56
266.823	81.56
267.055	85.56
267.287	92.56
267.52	82.56
267.752	74.56
267.984	83.56
268.216	94.56
268.448	86.56
268.681	86.56
268.913	86.56
269.145	74.56
269.377	85.56
269.609	86.56
269.841	75.56
270.073	80.56
270.306	76.56
270.538	85.56
270.77	76.56
271.002	88.56
271.234	89.56
271.466	79.56
271.698	92.56
271.93	83.56
272.162	86.56
272.394	76.56
272.626	92.56
272.858	83.56
273.09	80.56
273.322	77.56
273.553	83.56
273.785	77.56
274.017	71.56
274.249	75.56
274.481	78.56
274.713	77.56
274.945	85.56
275.176	78.56
275.408	78.56
275.64	85.56
275.872	95.56
276.104	78.56
276.335	76.56
276.567	86.56
276.799	84.56
277.031	71.56
277.262	83.56
277.494	84.56
277.726	79.56
277.957	82.56
278.189	79.56
278.421	86.56
278.652	79.56
278.884	75.56
279.115	86.56
279.347	81.56
279.579	81.56
279.81	79.56
280.042	80.56
280.273	95.56
280.505	87.56
280.736	89.56
280.968	87.56
281.199	85.56
281.431	85.56
281.662	91.56
281.894	88.56
282.125	74.56
282.356	85.56
282.588	82.56
282.819	87.56
283.051	73.56
283.282	86.56
283.513	85.56
283.745	92.56
283.976	76.56
284.207	80.56
284.439	75.56
284.67	97.56
284.901	91.56
285.132	82.56
285.364	92.56
285.595	101.56
285.826	80.56
286.057	69.56
286.288	81.56
286.52	85.56
286.751	82.56
286.982	82.56
287.213	90.56
287.444	84.56
287.675	85.56
287.906	78.56
288.138	90.56
288.369	86.56
288.6	80.56
288.831	86.56
289.062	89.56
289.293	87.56
289.524	73.56
289.755	71.56
289.986	91.56
290.217	97.56
290.448	78.56
290.679	86.56
290.91	82.56
291.141	91.56
291.371	81.56
291.602	80.56
291.833	87.56
292.064	86.56
292.295	90.56
292.526	100.56
292.757	92.56
292.987	86.56
293.218	75.56
293.449	99.56
293.68	94.56
293.91	80.56
294.141	80.56
294.372	75.56
294.603	93.56
294.833	89.56
295.064	91.56
295.295	84.56
295.525	79.56
295.756	81.56
295.987	90.56
296.217	85.56
296.448	94.56
296.679	87.56
296.909	90.56
297.14	95.56
297.37	93.56
297.601	71.56
297.831	83.56
298.062	79.56
298.292	94.56
298.523	107.56
298.753	102.56
298.984	78.56
299.214	83.56
299.445	94.56
299.675	73.56
299.905	95.56
300.136	104.56
300.366	87.56
300.597	81.56
300.827	94.56
301.057	91.56
301.288	95.56
301.518	82.56
301.748	102.56
301.979	78.56
302.209	76.56
302.439	88.56
302.669	96.56
302.9	83.56
303.13	86.56
303.36	94.56
303.59	87.56
303.82	91.56
304.051	88.56
304.281	90.56
304.511	89.56
304.741	84.56
304.971	85.56
305.201	88.56
305.431	92.56
305.661	92.56
305.891	83.56
306.121	83.56
306.352	87.56
306.582	84.56
306.812	88.56
307.042	85.56
307.272	91.56
307.502	83.56
307.731	87.56
307.961	90.56
308.191	88.56
308.421	91.56
308.651	93.56
308.881	97.56
309.111	79.56
309.341	86.56
309.571	89.56
309.8	89.56
310.03	93.56
310.26	84.56
310.49	85.56
310.72	67.56
310.949	89.56
311.179	86.56
311.409	89.56
311.639	84.56
311.868	95.56
312.098	98.56
312.328	90.56
312.557	91.56
312.787	86.56
313.017	94.56
313.246	87.56
313.476	91.56
313.706	91.56
313.935	95.56
314.165	103.56
314.394	88.56
314.624	90.56
314.853	93.56
315.083	89.56
315.312	81.56
315.542	92.56
315.771	79.56
316.001	97.56
316.23	95.56
316.46	89.56
316.689	92.56
316.919	90.56
317.148	80.56
317.377	86.56
317.607	93.56
317.836	79.56
318.065	82.56
318.295	101.56
318.524	79.56
318.753	99.56
318.983	82.56
319.212	74.56
319.441	86.56
319.67	86.56
319.9	94.56
320.129	82.56
320.358	95.56
320.587	89.56
320.816	85.56
321.046	91.56
321.275	91.56
321.504	88.56
321.733	99.56
321.962	90.56
322.191	82.56
322.42	86.56
322.649	83.56
322.878	88.56
323.108	95.56
323.337	73.56
323.566	87.56
323.795	88.56
324.024	83.56
324.253	83.56
324.482	82.56
324.71	85.56
324.939	81.56
325.168	94.56
325.397	106.56
325.626	91.56
325.855	85.56
326.084	88.56
326.313	81.56
326.542	97.56
326.77	74.56
326.999	88.56
327.228	77.56
327.457	94.56
327.686	85.56
327.914	90.56
328.143	88.56
328.372	91.56
328.6	88.56
328.829	81.56
329.058	86.56
329.287	92.56
329.515	81.56
329.744	95.56
329.972	87.56
330.201	86.56
330.43	82.56
330.658	91.56
330.887	72.56
331.115	92.56
331.344	84.56
331.572	80.56
331.801	92.56
332.03	83.56
332.258	71.56
332.486	88.56
332.715	105.56
332.943	84.56
333.172	92.56
333.4	97.56
333.629	87.56
333.857	79.56
334.085	81.56
334.314	85.56
334.542	83.56
334.771	86.56
334.999	81.56
335.227	80.56
335.455	92.56
335.684	98.56
335.912	95.56
336.14	95.56
336.369	90.56
336.597	86.56
336.825	81.56
337.053	91.56
337.281	86.56
337.51	93.56
337.738	95.56
337.966	86.56
338.194	83.56
338.422	86.56
338.65	85.56
338.878	101.56
339.106	83.56
339.334	87.56
339.562	74.56
339.79	87.56
340.018	74.56
340.246	94.56
340.474	88.56
340.702	84.56
340.93	89.56
341.158	93.56
341.386	94.56
341.614	91.56
341.842	98.56
342.07	87.56
342.298	96.56
342.526	77.56
342.754	81.56
342.981	85.56
343.209	81.56
343.437	86.56
343.665	87.56
343.893	75.56
344.12	80.56
344.348	103.56
344.576	102.56
344.804	81.56
345.031	102.56
345.259	85.56
345.487	82.56
345.714	99.56
345.942	87.56
346.17	79.56
346.397	80.56
346.625	79.56
346.853	95.56
347.08	88.56
347.308	75.56
347.535	78.56
347.763	85.56
347.99	94.56
348.218	85.56
348.445	89.56
348.673	88.56
348.9	93.56
349.128	81.56
349.355	79.56
349.583	85.56
349.81	74.56
350.037	74.56
350.265	94.56
350.492	87.56
350.72	97.56
350.947	93.56
351.174	80.56
351.402	87.56
351.629	101.56
351.856	68.56
352.083	87.56
352.311	86.56
352.538	89.56
352.765	97.56
352.992	100.56
353.22	94.56
353.447	81.56
353.674	95.56
353.901	86.56
354.128	87.56
354.355	94.56
354.583	89.56
354.81	98.56
355.037	81.56
355.264	87.56
355.491	74.56
355.718	90.56
355.945	88.56
356.172	92.56
356.399	75.56
356.626	85.56
356.853	97.56
357.08	89.56
357.307	89.56
357.534	91.56
357.761	86.56
357.988	100.56
358.215	71.56
358.441	75.56
358.668	86.56
358.895	79.56
359.122	97.56
359.349	90.56
359.576	74.56
359.802	87.56
360.029	87.56
360.256	75.56
360.483	84.56
360.709	87.56
360.936	83.56
361.163	82.56
361.39	81.56
361.616	92.56
361.843	85.56
362.07	84.56
362.296	69.56
362.523	81.56
362.749	94.56
362.976	78.56
363.203	80.56
363.429	80.56
363.656	79.56
363.882	85.56
364.109	82.56
364.335	97.56
364.562	98.56
364.788	90.56
365.015	83.56
365.241	89.56
365.468	98.56
365.694	88.56
365.92	77.56
366.147	79.56
366.373	84.56
366.599	86.56
366.826	81.56
367.052	79.56
367.278	98.56
367.505	95.56
367.731	75.56
367.957	94.56
368.184	89.56
368.41	81.56
368.636	101.56
368.862	97.56
369.089	93.56
369.315	75.56
369.541	79.56
369.767	94.56
369.993	87.56
370.219	91.56
370.445	85.56
370.672	97.56
370.898	77.56
371.124	83.56
371.35	77.56
371.576	83.56
371.802	93.56
372.028	87.56
372.254	90.56
372.48	81.56
372.706	77.56
372.932	94.56
373.158	98.56
373.384	98.56
373.61	89.56
373.835	100.56
374.061	80.56
374.287	72.56
374.513	82.56
374.739	88.56
374.965	89.56
375.191	84.56
375.416	94.56
375.642	103.56
375.868	96.56
376.094	81.56
376.319	85.56
376.545	71.56
376.771	82.56
376.997	85.56
377.222	81.56
377.448	89.56
377.674	83.56
377.899	89.56
378.125	83.56
378.35	78.56
378.576	89.56
378.802	93.56
379.027	82.56
379.253	71.56
379.478	78.56
379.704	90.56
379.929	82.56
380.155	95.56
380.38	93.56
380.606	86.56
380.831	81.56
381.057	81.56
381.282	82.56
381.507	94.56
381.733	89.56
381.958	91.56
382.184	86.56
382.409	81.56
382.634	85.56
382.86	100.56
383.085	89.56
383.31	87.56
383.535	78.56
383.761	86.56
383.986	78.56
384.211	78.56
384.436	93.56
384.662	81.56
384.887	89.56
385.112	78.56
385.337	85.56
385.562	87.56
385.787	93.56
386.013	88.56
386.238	88.56
386.463	94.56
386.688	87.56
386.913	89.56
387.138	71.56
387.363	77.56
387.588	91.56
387.813	96.56
388.038	89.56
388.263	87.56
388.488	90.56
388.713	93.56
388.938	89.56
389.163	91.56
389.387	79.56
389.612	83.56
389.837	89.56
390.062	80.56
390.287	95.56
390.512	112.56
390.736	87.56
390.961	81.56
391.186	82.56
391.411	84.56
391.636	85.56
391.86	95.56
392.085	88.56
392.31	92.56
392.534	80.56
392.759	89.56
392.984	87.56
393.208	82.56
393.433	95.56
393.658	80.56
393.882	70.56
394.107	84.56
394.331	99.56
394.556	95.56
394.78	99.56
395.005	90.56
395.229	83.56
395.454	98.56
395.678	98.56
395.903	103.56
396.127	92.56
396.352	79.56
396.576	78.56
396.801	76.56
397.025	87.56
397.249	65.56
397.474	94.56
397.698	97.56
397.922	91.56
398.147	96.56
398.371	85.56
398.595	73.56
398.82	94.56
399.044	77.56
399.268	83.56
399.492	82.56
399.717	87.56
399.941	83.56
400.165	83.56
400.389	96.56
400.613	83.56
400.837	87.56
401.062	90.56
401.286	88.56
401.51	87.56
401.734	80.56
401.958	86.56
402.182	99.56
402.406	100.56
402.63	73.56
402.854	86.56
403.078	93.56
403.302	95.56
403.526	92.56
403.75	84.56
403.974	88.56
404.198	85.56
404.422	98.56
404.645	81.56
404.869	93.56
405.093	89.56
405.317	93.56
405.541	87.56
405.765	75.56
405.988	84.56
406.212	93.56
406.436	76.56
406.66	94.56
406.883	85.56
407.107	85.56
407.331	95.56
407.555	86.56
407.778	86.56
408.002	92.56
408.226	92.56
408.449	96.56
408.673	77.56
408.896	95.56
409.12	90.56
409.344	93.56
409.567	84.56
409.791	103.56
410.014	98.56
410.238	83.56
410.461	87.56
410.685	97.56
410.908	89.56
411.132	101.56
411.355	95.56
411.578	95.56
411.802	94.56
412.025	83.56
412.249	90.56
412.472	90.56
412.695	102.56
412.919	79.56
413.142	83.56
413.365	94.56
413.589	98.56
413.812	71.56
414.035	79.56
414.258	80.56
414.482	86.56
414.705	86.56
414.928	94.56
415.151	93.56
415.374	85.56
415.597	101.56
415.821	94.56
416.044	96.56
416.267	80.56
416.49	84.56
416.713	86.56
416.936	93.56
417.159	101.56
417.382	96.56
417.605	92.56
417.828	90.56
418.051	87.56
418.274	91.56
418.497	90.56
418.72	90.56
418.943	87.56
419.166	96.56
419.389	93.56
419.611	94.56
419.834	89.56
420.057	98.56
420.28	89.56
420.503	72.56
420.726	87.56
420.948	104.56
421.171	94.56
421.394	95.56
421.617	90.56
421.839	92.56
422.062	75.56
422.285	102.56
422.507	93.56
422.73	91.56
422.953	95.56
423.175	84.56
423.398	90.56
423.621	88.56
423.843	85.56
424.066	75.56
424.288	80.56
424.511	89.56
424.733	97.56
424.956	103.56
425.178	82.56
425.401	71.56
425.623	83.56
425.846	74.56
426.068	80.56
426.291	97.56
426.513	98.56
426.735	97.56
426.958	92.56
427.18	82.56
427.402	97.56
427.625	93.56
427.847	88.56
428.069	71.56
428.292	90.56
428.514	83.56
428.736	97.56
428.958	85.56
429.181	80.56
429.403	82.56
429.625	105.56
429.847	92.56
430.069	84.56
430.292	82.56
430.514	86.56
430.736	86.56
430.958	97.56
431.18	83.56
431.402	89.56
431.624	86.56
431.846	75.56
432.068	85.56
432.29	98.56
432.512	83.56
432.734	84.56
432.956	85.56
433.178	94.56
433.4	89.56
433.622	87.56
433.844	89.56
434.066	87.56
434.287	90.56
434.509	67.56
434.731	80.56
434.953	83.56
435.175	92.56
435.397	95.56
435.618	91.56
435.84	76.56
436.062	84.56
436.284	79.56
436.505	86.56
436.727	92.56
436.949	84.56
437.17	85.56
437.392	79.56
437.614	88.56
437.835	85.56
438.057	75.56
438.278	90.56
438.5	79.56
438.721	83.56
438.943	87.56
439.165	87.56
439.386	90.56
439.608	82.56
439.829	96.56
440.05	87.56
440.272	89.56
440.493	95.56
440.715	82.56
440.936	86.56
441.158	90.56
441.379	92.56
441.6	78.56
441.822	83.56
442.043	82.56
442.264	94.56
442.486	83.56
442.707	94.56
442.928	77.56
443.149	95.56
443.371	79.56
443.592	85.56
443.813	89.56
444.034	86.56
444.255	82.56
444.476	83.56
444.698	85.56
444.919	101.56
445.14	205.56
445.361	137.56
445.582	88.56
445.803	79.56
446.024	89.56
446.245	86.56
446.466	90.56
446.687	91.56
446.908	87.56
447.129	85.56
447.35	83.56
447.571	88.56
447.792	82.56
448.013	102.56
448.234	94.56
448.455	87.56
448.675	90.56
448.896	76.56
449.117	95.56
449.338	101.56
449.559	90.56
449.779	94.56
450	83.56
450.221	79.56
450.442	93.56
450.662	79.56
450.883	89.56
451.104	79.56
451.324	89.56
451.545	83.56
451.766	85.56
451.986	77.56
452.207	93.56
452.428	93.56
452.648	86.56
452.869	76.56
453.089	97.56
453.31	88.56
453.53	79.56
453.751	89.56
453.971	83.56
454.192	78.56
454.412	83.56
454.633	81.56
454.853	78.56
455.073	91.56
455.294	82.56
455.514	93.56
455.734	83.56
455.955	80.56
456.175	81.56
456.395	88.56
456.616	86.56
456.836	89.56
457.056	78.56
457.276	70.56
457.497	77.56
457.717	95.56
457.937	85.56
458.157	71.56
458.377	82.56
458.598	82.56
458.818	89.56
459.038	89.56
459.258	88.56
459.478	87.56
459.698	75.56
459.918	71.56
460.138	92.56
460.358	89.56
460.578	91.56
460.798	94.56
461.018	82.56
461.238	83.56
461.458	105.56
461.678	90.56
461.898	85.56
462.118	85.56
462.338	73.56
462.558	93.56
462.777	83.56
462.997	92.56
463.217	83.56
463.437	107.56
463.657	86.56
463.876	98.56
464.096	76.56
464.316	84.56
464.536	91.56
464.755	84.56
464.975	93.56
465.195	77.56
465.414	81.56
465.634	82.56
465.854	87.56
466.073	79.56
466.293	107.56
466.512	88.56
466.732	82.56
466.951	94.56
467.171	99.56
467.391	87.56
467.61	96.56
467.829	87.56
468.049	85.56
468.268	99.56
468.488	84.56
468.707	86.56
468.927	81.56
469.146	81.56
469.365	93.56
469.585	86.56
469.804	95.56
470.023	88.56
470.243	98.56
470.462	91.56
470.681	79.56
470.901	82.56
471.12	98.56
471.339	89.56
471.558	97.56
471.777	95.56
471.997	86.56
472.216	88.56
472.435	94.56
472.654	68.56
472.873	100.56
473.092	95.56
473.311	94.56
473.53	96.56
473.749	85.56
473.968	93.56
474.187	97.56
474.406	88.56
474.625	91.56
474.844	93.56
475.063	91.56
475.282	100.56
475.501	83.56
475.72	87.56
475.939	81.56
476.158	94.56
476.377	101.56
476.596	82.56
476.814	88.56
477.033	88.56
477.252	94.56
477.471	82.56
477.69	107.56
477.908	96.56
478.127	90.56
478.346	106.56
478.564	97.56
478.783	94.56
479.002	89.56
479.22	115.56
479.439	90.56
479.658	93.56
479.876	89.56
480.095	96.56
480.313	95.56
480.532	109.56
480.751	87.56
480.969	100.56
481.188	96.56
481.406	91.56
481.624	100.56
481.843	97.56
482.061	88.56
482.28	86.56
482.498	85.56
482.717	101.56
482.935	101.56
483.153	109.56
483.372	97.56
483.59	93.56
483.808	89.56
484.027	91.56
484.245	89.56
484.463	99.56
484.681	93.56
484.9	94.56
485.118	94.56
485.336	104.56
485.554	89.56
485.772	114.56
485.99	99.56
486.209	79.56
486.427	99.56
486.645	88.56
486.863	95.56
487.081	97.56
487.299	89.56
487.517	101.56
487.735	96.56
487.953	98.56
488.171	99.56
488.389	103.56
488.607	87.56
488.825	93.56
489.043	93.56
489.261	102.56
489.479	98.56
489.696	89.56
489.914	91.56
490.132	96.56
490.35	103.56
490.568	90.56
490.786	119.56
491.003	96.56
491.221	101.56
491.439	98.56
491.657	94.56
491.874	97.56
492.092	109.56
492.31	97.56
492.527	103.56
492.745	111.56
492.963	103.56
493.18	103.56
493.398	104.56
493.615	94.56
493.833	110.56
494.05	111.56
494.268	116.56
494.485	93.56
494.703	106.56
494.92	95.56
495.138	102.56
495.355	110.56
495.573	95.56
495.79	121.56
496.008	113.56
496.225	116.56
496.442	101.56
496.66	107.56
496.877	104.56
497.094	113.56
497.312	107.56
497.529	109.56
497.746	113.56
497.963	100.56
498.181	99.56
498.398	99.56
498.615	109.56
498.832	105.56
499.049	110.56
499.267	112.56
499.484	119.56
499.701	131.56
499.918	123.56
500.135	120.56
500.352	136.56
500.569	126.56
500.786	130.56
501.003	134.56
501.22	121.56
501.437	115.56
501.654	110.56
501.871	98.56
502.088	106.56
502.305	95.56
502.522	98.56
502.739	109.56
502.956	104.56
503.172	111.56
503.389	97.56
503.606	89.56
503.823	100.56
504.04	104.56
504.256	97.56
504.473	98.56
504.69	112.56
504.907	92.56
505.123	99.56
505.34	117.56
505.557	92.56
505.773	108.56
505.99	104.56
506.207	102.56
506.423	104.56
506.64	112.56
506.856	95.56
507.073	92.56
507.289	100.56
507.506	117.56
507.722	93.56
507.939	88.56
508.155	103.56
508.372	96.56
508.588	96.56
508.805	93.56
509.021	101.56
509.238	97.56
509.454	93.56
509.67	88.56
509.887	87.56
510.103	86.56
510.319	89.56
510.536	85.56
510.752	90.56
510.968	99.56
511.184	97.56
511.401	81.56
511.617	105.56
511.833	83.56
512.049	91.56
512.265	98.56
512.481	100.56
512.698	101.56
512.914	99.56
513.13	98.56
513.346	97.56
513.562	97.56
513.778	97.56
513.994	89.56
514.21	101.56
514.426	97.56
514.642	99.56
514.858	85.56
515.074	89.56
515.29	75.56
515.506	97.56
515.721	94.56
515.937	84.56
516.153	95.56
516.369	88.56
516.585	106.56
516.801	103.56
517.016	98.56
517.232	109.56
517.448	89.56
517.664	94.56
517.879	100.56
