Data from Location5.07152019.Energy5.Lamp.07192019.3%Agarose_HRD10591_15-37-51-387.txt Node
Date: Fri Jul 19 15:37:51 EDT 2019
User: cochatt
Spectrometer: HR+D1059
Trigger mode: 1
Integration Time (sec): 1.000000E-1
Scans to average: 1
Electric dark correction enabled: true
Nonlinearity correction enabled: false
Boxcar width: 0
XAxis mode: Wavelengths
Number of Pixels in Spectrum: 2048
>>>>>Begin Spectral Data<<<<<
223.165	-19.81
223.4	-19.81
223.635	-19.81
223.869	-18.81
224.104	-14.81
224.338	-24.81
224.573	-13.81
224.808	-7.81
225.042	-9.81
225.277	-4.81
225.511	2.19
225.746	-6.81
225.98	10.19
226.215	15.19
226.449	17.19
226.683	24.19
226.918	24.19
227.152	28.19
227.387	23.19
227.621	33.19
227.856	56.19
228.09	33.19
228.324	30.19
228.559	59.19
228.793	55.19
229.027	72.19
229.262	71.19
229.496	60.19
229.73	87.19
229.964	77.19
230.199	63.19
230.433	67.19
230.667	83.19
230.901	73.19
231.136	80.19
231.37	81.19
231.604	76.19
231.838	91.19
232.072	94.19
232.306	71.19
232.541	89.19
232.775	95.19
233.009	73.19
233.243	71.19
233.477	77.19
233.711	87.19
233.945	93.19
234.179	80.19
234.413	82.19
234.647	85.19
234.881	87.19
235.115	81.19
235.349	72.19
235.583	79.19
235.817	80.19
236.051	66.19
236.285	75.19
236.519	70.19
236.753	67.19
236.987	68.19
237.221	90.19
237.455	58.19
237.689	71.19
237.922	78.19
238.156	71.19
238.39	74.19
238.624	79.19
238.858	82.19
239.091	79.19
239.325	73.19
239.559	74.19
239.793	67.19
240.027	73.19
240.26	66.19
240.494	66.19
240.728	74.19
240.961	76.19
241.195	86.19
241.429	62.19
241.662	97.19
241.896	74.19
242.13	73.19
242.363	68.19
242.597	71.19
242.83	79.19
243.064	73.19
243.298	81.19
243.531	70.19
243.765	65.19
243.998	72.19
244.232	68.19
244.465	77.19
244.699	87.19
244.932	87.19
245.166	83.19
245.399	73.19
245.633	78.19
245.866	76.19
246.099	80.19
246.333	81.19
246.566	71.19
246.8	85.19
247.033	79.19
247.266	82.19
247.5	83.19
247.733	57.19
247.966	80.19
248.2	82.19
248.433	86.19
248.666	67.19
248.899	63.19
249.133	70.19
249.366	86.19
249.599	81.19
249.832	80.19
250.066	94.19
250.299	81.19
250.532	76.19
250.765	78.19
250.998	64.19
251.231	73.19
251.465	72.19
251.698	72.19
251.931	78.19
252.164	76.19
252.397	75.19
252.63	63.19
252.863	77.19
253.096	81.19
253.329	68.19
253.562	67.19
253.795	84.19
254.028	91.19
254.261	80.19
254.494	80.19
254.727	65.19
254.96	77.19
255.193	70.19
255.426	69.19
255.659	76.19
255.892	66.19
256.124	74.19
256.357	72.19
256.59	74.19
256.823	78.19
257.056	74.19
257.289	91.19
257.521	67.19
257.754	71.19
257.987	77.19
258.22	59.19
258.452	84.19
258.685	85.19
258.918	68.19
259.151	73.19
259.383	86.19
259.616	87.19
259.849	87.19
260.081	76.19
260.314	75.19
260.547	70.19
260.779	62.19
261.012	78.19
261.244	72.19
261.477	83.19
261.71	77.19
261.942	72.19
262.175	82.19
262.407	82.19
262.64	81.19
262.872	91.19
263.105	77.19
263.337	72.19
263.57	75.19
263.802	78.19
264.035	79.19
264.267	75.19
264.499	97.19
264.732	71.19
264.964	88.19
265.197	96.19
265.429	74.19
265.661	88.19
265.894	87.19
266.126	87.19
266.358	76.19
266.591	91.19
266.823	90.19
267.055	73.19
267.287	84.19
267.52	79.19
267.752	74.19
267.984	71.19
268.216	73.19
268.448	87.19
268.681	77.19
268.913	88.19
269.145	75.19
269.377	76.19
269.609	81.19
269.841	82.19
270.073	83.19
270.306	91.19
270.538	73.19
270.77	88.19
271.002	58.19
271.234	100.19
271.466	76.19
271.698	75.19
271.93	83.19
272.162	74.19
272.394	82.19
272.626	84.19
272.858	87.19
273.09	66.19
273.322	65.19
273.553	92.19
273.785	70.19
274.017	88.19
274.249	76.19
274.481	97.19
274.713	80.19
274.945	85.19
275.176	76.19
275.408	80.19
275.64	64.19
275.872	74.19
276.104	84.19
276.335	77.19
276.567	81.19
276.799	77.19
277.031	84.19
277.262	74.19
277.494	76.19
277.726	88.19
277.957	86.19
278.189	72.19
278.421	71.19
278.652	71.19
278.884	81.19
279.115	79.19
279.347	93.19
279.579	77.19
279.81	70.19
280.042	80.19
280.273	79.19
280.505	83.19
280.736	79.19
280.968	81.19
281.199	92.19
281.431	79.19
281.662	66.19
281.894	78.19
282.125	85.19
282.356	70.19
282.588	70.19
282.819	91.19
283.051	88.19
283.282	86.19
283.513	78.19
283.745	79.19
283.976	81.19
284.207	81.19
284.439	82.19
284.67	79.19
284.901	91.19
285.132	77.19
285.364	81.19
285.595	82.19
285.826	75.19
286.057	95.19
286.288	75.19
286.52	84.19
286.751	88.19
286.982	84.19
287.213	91.19
287.444	93.19
287.675	80.19
287.906	78.19
288.138	94.19
288.369	80.19
288.6	84.19
288.831	78.19
289.062	85.19
289.293	86.19
289.524	92.19
289.755	85.19
289.986	90.19
290.217	83.19
290.448	77.19
290.679	86.19
290.91	72.19
291.141	77.19
291.371	89.19
291.602	80.19
291.833	83.19
292.064	92.19
292.295	96.19
292.526	77.19
292.757	85.19
292.987	85.19
293.218	78.19
293.449	81.19
293.68	88.19
293.91	91.19
294.141	88.19
294.372	79.19
294.603	86.19
294.833	78.19
295.064	85.19
295.295	87.19
295.525	84.19
295.756	89.19
295.987	84.19
296.217	93.19
296.448	77.19
296.679	82.19
296.909	72.19
297.14	68.19
297.37	91.19
297.601	81.19
297.831	78.19
298.062	77.19
298.292	92.19
298.523	100.19
298.753	78.19
298.984	67.19
299.214	86.19
299.445	83.19
299.675	83.19
299.905	88.19
300.136	85.19
300.366	79.19
300.597	85.19
300.827	79.19
301.057	71.19
301.288	89.19
301.518	85.19
301.748	91.19
301.979	78.19
302.209	83.19
302.439	89.19
302.669	81.19
302.9	75.19
303.13	80.19
303.36	83.19
303.59	93.19
303.82	91.19
304.051	74.19
304.281	96.19
304.511	94.19
304.741	75.19
304.971	86.19
305.201	88.19
305.431	91.19
305.661	85.19
305.891	69.19
306.121	83.19
306.352	68.19
306.582	85.19
306.812	95.19
307.042	81.19
307.272	72.19
307.502	89.19
307.731	78.19
307.961	92.19
308.191	84.19
308.421	93.19
308.651	68.19
308.881	90.19
309.111	79.19
309.341	81.19
309.571	92.19
309.8	88.19
310.03	81.19
310.26	83.19
310.49	72.19
310.72	82.19
310.949	80.19
311.179	85.19
311.409	94.19
311.639	72.19
311.868	96.19
312.098	82.19
312.328	98.19
312.557	92.19
312.787	80.19
313.017	86.19
313.246	83.19
313.476	79.19
313.706	84.19
313.935	87.19
314.165	79.19
314.394	83.19
314.624	69.19
314.853	93.19
315.083	80.19
315.312	87.19
315.542	83.19
315.771	80.19
316.001	89.19
316.23	97.19
316.46	87.19
316.689	83.19
316.919	81.19
317.148	99.19
317.377	88.19
317.607	82.19
317.836	80.19
318.065	75.19
318.295	77.19
318.524	79.19
318.753	78.19
318.983	75.19
319.212	71.19
319.441	92.19
319.67	82.19
319.9	72.19
320.129	79.19
320.358	89.19
320.587	84.19
320.816	96.19
321.046	82.19
321.275	87.19
321.504	84.19
321.733	79.19
321.962	73.19
322.191	80.19
322.42	82.19
322.649	84.19
322.878	96.19
323.108	86.19
323.337	80.19
323.566	87.19
323.795	96.19
324.024	84.19
324.253	68.19
324.482	89.19
324.71	79.19
324.939	92.19
325.168	74.19
325.397	80.19
325.626	87.19
325.855	77.19
326.084	76.19
326.313	98.19
326.542	77.19
326.77	81.19
326.999	80.19
327.228	74.19
327.457	84.19
327.686	92.19
327.914	79.19
328.143	88.19
328.372	68.19
328.6	76.19
328.829	73.19
329.058	78.19
329.287	71.19
329.515	83.19
329.744	96.19
329.972	91.19
330.201	87.19
330.43	71.19
330.658	83.19
330.887	68.19
331.115	59.19
331.344	72.19
331.572	75.19
331.801	93.19
332.03	91.19
332.258	91.19
332.486	83.19
332.715	93.19
332.943	87.19
333.172	77.19
333.4	79.19
333.629	78.19
333.857	81.19
334.085	63.19
334.314	82.19
334.542	87.19
334.771	81.19
334.999	77.19
335.227	88.19
335.455	88.19
335.684	75.19
335.912	81.19
336.14	100.19
336.369	79.19
336.597	82.19
336.825	73.19
337.053	84.19
337.281	82.19
337.51	79.19
337.738	90.19
337.966	77.19
338.194	81.19
338.422	94.19
338.65	83.19
338.878	83.19
339.106	91.19
339.334	77.19
339.562	88.19
339.79	81.19
340.018	92.19
340.246	84.19
340.474	77.19
340.702	70.19
340.93	93.19
341.158	73.19
341.386	86.19
341.614	91.19
341.842	64.19
342.07	95.19
342.298	77.19
342.526	84.19
342.754	87.19
342.981	86.19
343.209	88.19
343.437	88.19
343.665	88.19
343.893	81.19
344.12	76.19
344.348	84.19
344.576	73.19
344.804	65.19
345.031	83.19
345.259	91.19
345.487	80.19
345.714	91.19
345.942	83.19
346.17	77.19
346.397	72.19
346.625	76.19
346.853	81.19
347.08	65.19
347.308	86.19
347.535	84.19
347.763	78.19
347.99	72.19
348.218	73.19
348.445	79.19
348.673	79.19
348.9	61.19
349.128	68.19
349.355	92.19
349.583	79.19
349.81	91.19
350.037	78.19
350.265	86.19
350.492	88.19
350.72	77.19
350.947	87.19
351.174	77.19
351.402	80.19
351.629	74.19
351.856	80.19
352.083	79.19
352.311	83.19
352.538	73.19
352.765	83.19
352.992	88.19
353.22	70.19
353.447	84.19
353.674	76.19
353.901	83.19
354.128	79.19
354.355	75.19
354.583	85.19
354.81	84.19
355.037	95.19
355.264	84.19
355.491	79.19
355.718	74.19
355.945	87.19
356.172	95.19
356.399	87.19
356.626	65.19
356.853	88.19
357.08	84.19
357.307	73.19
357.534	84.19
357.761	79.19
357.988	84.19
358.215	79.19
358.441	83.19
358.668	85.19
358.895	83.19
359.122	84.19
359.349	80.19
359.576	84.19
359.802	92.19
360.029	81.19
360.256	76.19
360.483	86.19
360.709	77.19
360.936	91.19
361.163	79.19
361.39	73.19
361.616	108.19
361.843	73.19
362.07	74.19
362.296	89.19
362.523	81.19
362.749	76.19
362.976	67.19
363.203	91.19
363.429	85.19
363.656	68.19
363.882	85.19
364.109	79.19
364.335	85.19
364.562	82.19
364.788	69.19
365.015	89.19
365.241	76.19
365.468	86.19
365.694	80.19
365.92	72.19
366.147	89.19
366.373	85.19
366.599	78.19
366.826	77.19
367.052	75.19
367.278	80.19
367.505	79.19
367.731	87.19
367.957	82.19
368.184	70.19
368.41	72.19
368.636	89.19
368.862	69.19
369.089	72.19
369.315	74.19
369.541	82.19
369.767	102.19
369.993	86.19
370.219	79.19
370.445	68.19
370.672	94.19
370.898	76.19
371.124	87.19
371.35	67.19
371.576	76.19
371.802	75.19
372.028	77.19
372.254	84.19
372.48	94.19
372.706	76.19
372.932	71.19
373.158	79.19
373.384	75.19
373.61	86.19
373.835	100.19
374.061	85.19
374.287	75.19
374.513	90.19
374.739	88.19
374.965	88.19
375.191	80.19
375.416	79.19
375.642	79.19
375.868	78.19
376.094	79.19
376.319	74.19
376.545	92.19
376.771	82.19
376.997	77.19
377.222	92.19
377.448	79.19
377.674	87.19
377.899	88.19
378.125	68.19
378.35	88.19
378.576	79.19
378.802	89.19
379.027	79.19
379.253	86.19
379.478	90.19
379.704	76.19
379.929	77.19
380.155	78.19
380.38	90.19
380.606	81.19
380.831	80.19
381.057	85.19
381.282	73.19
381.507	86.19
381.733	82.19
381.958	76.19
382.184	93.19
382.409	88.19
382.634	87.19
382.86	86.19
383.085	84.19
383.31	81.19
383.535	98.19
383.761	95.19
383.986	78.19
384.211	79.19
384.436	84.19
384.662	73.19
384.887	65.19
385.112	69.19
385.337	70.19
385.562	93.19
385.787	74.19
386.013	84.19
386.238	81.19
386.463	68.19
386.688	98.19
386.913	80.19
387.138	79.19
387.363	73.19
387.588	80.19
387.813	97.19
388.038	72.19
388.263	83.19
388.488	86.19
388.713	91.19
388.938	73.19
389.163	72.19
389.387	64.19
389.612	80.19
389.837	74.19
390.062	94.19
390.287	73.19
390.512	78.19
390.736	67.19
390.961	79.19
391.186	86.19
391.411	89.19
391.636	73.19
391.86	83.19
392.085	88.19
392.31	79.19
392.534	85.19
392.759	96.19
392.984	95.19
393.208	88.19
393.433	81.19
393.658	69.19
393.882	89.19
394.107	77.19
394.331	84.19
394.556	86.19
394.78	89.19
395.005	89.19
395.229	86.19
395.454	98.19
395.678	84.19
395.903	82.19
396.127	88.19
396.352	97.19
396.576	84.19
396.801	92.19
397.025	96.19
397.249	87.19
397.474	85.19
397.698	84.19
397.922	88.19
398.147	89.19
398.371	79.19
398.595	81.19
398.82	82.19
399.044	87.19
399.268	91.19
399.492	84.19
399.717	82.19
399.941	76.19
400.165	71.19
400.389	81.19
400.613	83.19
400.837	84.19
401.062	72.19
401.286	78.19
401.51	87.19
401.734	74.19
401.958	79.19
402.182	89.19
402.406	96.19
402.63	91.19
402.854	75.19
403.078	76.19
403.302	84.19
403.526	76.19
403.75	92.19
403.974	94.19
404.198	87.19
404.422	92.19
404.645	84.19
404.869	93.19
405.093	83.19
405.317	90.19
405.541	71.19
405.765	83.19
405.988	77.19
406.212	84.19
406.436	82.19
406.66	88.19
406.883	89.19
407.107	84.19
407.331	97.19
407.555	70.19
407.778	100.19
408.002	87.19
408.226	88.19
408.449	84.19
408.673	77.19
408.896	82.19
409.12	87.19
409.344	98.19
409.567	83.19
409.791	70.19
410.014	86.19
410.238	78.19
410.461	79.19
410.685	88.19
410.908	77.19
411.132	95.19
411.355	83.19
411.578	87.19
411.802	91.19
412.025	75.19
412.249	74.19
412.472	76.19
412.695	98.19
412.919	83.19
413.142	82.19
413.365	84.19
413.589	95.19
413.812	94.19
414.035	80.19
414.258	80.19
414.482	83.19
414.705	85.19
414.928	91.19
415.151	85.19
415.374	94.19
415.597	92.19
415.821	83.19
416.044	87.19
416.267	87.19
416.49	99.19
416.713	85.19
416.936	89.19
417.159	88.19
417.382	95.19
417.605	95.19
417.828	93.19
418.051	76.19
418.274	87.19
418.497	96.19
418.72	97.19
418.943	98.19
419.166	87.19
419.389	99.19
419.611	99.19
419.834	73.19
420.057	104.19
420.28	85.19
420.503	104.19
420.726	84.19
420.948	92.19
421.171	87.19
421.394	87.19
421.617	100.19
421.839	96.19
422.062	104.19
422.285	91.19
422.507	87.19
422.73	79.19
422.953	74.19
423.175	69.19
423.398	71.19
423.621	80.19
423.843	83.19
424.066	92.19
424.288	96.19
424.511	91.19
424.733	91.19
424.956	87.19
425.178	101.19
425.401	83.19
425.623	95.19
425.846	86.19
426.068	91.19
426.291	73.19
426.513	93.19
426.735	85.19
426.958	79.19
427.18	100.19
427.402	86.19
427.625	87.19
427.847	85.19
428.069	91.19
428.292	92.19
428.514	89.19
428.736	91.19
428.958	99.19
429.181	101.19
429.403	93.19
429.625	86.19
429.847	94.19
430.069	88.19
430.292	92.19
430.514	94.19
430.736	88.19
430.958	91.19
431.18	90.19
431.402	88.19
431.624	85.19
431.846	88.19
432.068	82.19
432.29	90.19
432.512	74.19
432.734	92.19
432.956	89.19
433.178	86.19
433.4	102.19
433.622	88.19
433.844	85.19
434.066	93.19
434.287	77.19
434.509	88.19
434.731	72.19
434.953	77.19
435.175	72.19
435.397	76.19
435.618	88.19
435.84	80.19
436.062	78.19
436.284	77.19
436.505	95.19
436.727	84.19
436.949	94.19
437.17	92.19
437.392	92.19
437.614	86.19
437.835	79.19
438.057	92.19
438.278	83.19
438.5	88.19
438.721	87.19
438.943	108.19
439.165	93.19
439.386	81.19
439.608	95.19
439.829	99.19
440.05	96.19
440.272	96.19
440.493	85.19
440.715	81.19
440.936	85.19
441.158	94.19
441.379	101.19
441.6	107.19
441.822	88.19
442.043	92.19
442.264	86.19
442.486	96.19
442.707	85.19
442.928	90.19
443.149	103.19
443.371	101.19
443.592	89.19
443.813	86.19
444.034	88.19
444.255	92.19
444.476	73.19
444.698	102.19
444.919	79.19
445.14	213.19
445.361	135.19
445.582	87.19
445.803	79.19
446.024	82.19
446.245	91.19
446.466	87.19
446.687	88.19
446.908	84.19
447.129	94.19
447.35	95.19
447.571	94.19
447.792	95.19
448.013	95.19
448.234	88.19
448.455	91.19
448.675	93.19
448.896	93.19
449.117	85.19
449.338	94.19
449.559	96.19
449.779	90.19
450	84.19
450.221	89.19
450.442	78.19
450.662	89.19
450.883	101.19
451.104	103.19
451.324	96.19
451.545	79.19
451.766	103.19
451.986	97.19
452.207	93.19
452.428	102.19
452.648	87.19
452.869	65.19
453.089	73.19
453.31	79.19
453.53	79.19
453.751	79.19
453.971	91.19
454.192	84.19
454.412	90.19
454.633	83.19
454.853	105.19
455.073	102.19
455.294	90.19
455.514	89.19
455.734	97.19
455.955	76.19
456.175	85.19
456.395	88.19
456.616	88.19
456.836	79.19
457.056	75.19
457.276	91.19
457.497	73.19
457.717	94.19
457.937	79.19
458.157	73.19
458.377	89.19
458.598	72.19
458.818	62.19
459.038	90.19
459.258	84.19
459.478	71.19
459.698	88.19
459.918	94.19
460.138	79.19
460.358	82.19
460.578	89.19
460.798	89.19
461.018	93.19
461.238	93.19
461.458	86.19
461.678	92.19
461.898	81.19
462.118	97.19
462.338	95.19
462.558	90.19
462.777	102.19
462.997	87.19
463.217	82.19
463.437	76.19
463.657	78.19
463.876	62.19
464.096	83.19
464.316	81.19
464.536	92.19
464.755	81.19
464.975	98.19
465.195	84.19
465.414	87.19
465.634	76.19
465.854	70.19
466.073	89.19
466.293	89.19
466.512	94.19
466.732	96.19
466.951	92.19
467.171	93.19
467.391	93.19
467.61	86.19
467.829	92.19
468.049	97.19
468.268	102.19
468.488	103.19
468.707	95.19
468.927	93.19
469.146	89.19
469.365	113.19
469.585	112.19
469.804	109.19
470.023	111.19
470.243	96.19
470.462	100.19
470.681	82.19
470.901	81.19
471.12	102.19
471.339	81.19
471.558	98.19
471.777	103.19
471.997	94.19
472.216	94.19
472.435	85.19
472.654	60.19
472.873	104.19
473.092	94.19
473.311	82.19
473.53	83.19
473.749	95.19
473.968	94.19
474.187	90.19
474.406	101.19
474.625	90.19
474.844	81.19
475.063	87.19
475.282	87.19
475.501	89.19
475.72	100.19
475.939	86.19
476.158	77.19
476.377	94.19
476.596	88.19
476.814	91.19
477.033	81.19
477.252	80.19
477.471	102.19
477.69	84.19
477.908	80.19
478.127	85.19
478.346	98.19
478.564	88.19
478.783	102.19
479.002	79.19
479.22	81.19
479.439	96.19
479.658	87.19
479.876	95.19
480.095	92.19
480.313	78.19
480.532	96.19
480.751	92.19
480.969	74.19
481.188	84.19
481.406	73.19
481.624	100.19
481.843	80.19
482.061	98.19
482.28	80.19
482.498	95.19
482.717	87.19
482.935	96.19
483.153	85.19
483.372	101.19
483.59	107.19
483.808	92.19
484.027	103.19
484.245	87.19
484.463	92.19
484.681	119.19
484.9	83.19
485.118	92.19
485.336	90.19
485.554	93.19
485.772	95.19
485.99	88.19
486.209	91.19
486.427	84.19
486.645	94.19
486.863	98.19
487.081	98.19
487.299	102.19
487.517	91.19
487.735	103.19
487.953	97.19
488.171	120.19
488.389	104.19
488.607	95.19
488.825	103.19
489.043	103.19
489.261	96.19
489.479	99.19
489.696	109.19
489.914	92.19
490.132	91.19
490.35	96.19
490.568	91.19
490.786	103.19
491.003	110.19
491.221	94.19
491.439	100.19
491.657	96.19
491.874	105.19
492.092	112.19
492.31	130.19
492.527	122.19
492.745	127.19
492.963	108.19
493.18	116.19
493.398	115.19
493.615	102.19
493.833	111.19
494.05	98.19
494.268	111.19
494.485	110.19
494.703	100.19
494.92	102.19
495.138	99.19
495.355	103.19
495.573	108.19
495.79	99.19
496.008	115.19
496.225	107.19
496.442	112.19
496.66	117.19
496.877	108.19
497.094	109.19
497.312	104.19
497.529	97.19
497.746	100.19
497.963	92.19
498.181	95.19
498.398	76.19
498.615	86.19
498.832	96.19
499.049	96.19
499.267	104.19
499.484	80.19
499.701	92.19
499.918	91.19
500.135	96.19
500.352	87.19
500.569	99.19
500.786	94.19
501.003	100.19
501.22	111.19
501.437	104.19
501.654	99.19
501.871	96.19
502.088	96.19
502.305	97.19
502.522	89.19
502.739	86.19
502.956	80.19
503.172	88.19
503.389	100.19
503.606	90.19
503.823	80.19
504.04	83.19
504.256	95.19
504.473	92.19
504.69	97.19
504.907	94.19
505.123	91.19
505.34	96.19
505.557	80.19
505.773	87.19
505.99	102.19
506.207	100.19
506.423	98.19
506.64	86.19
506.856	89.19
507.073	89.19
507.289	99.19
507.506	91.19
507.722	99.19
507.939	92.19
508.155	94.19
508.372	82.19
508.588	68.19
508.805	97.19
509.021	78.19
509.238	82.19
509.454	81.19
509.67	71.19
509.887	87.19
510.103	92.19
510.319	89.19
510.536	80.19
510.752	101.19
510.968	82.19
511.184	96.19
511.401	85.19
511.617	91.19
511.833	66.19
512.049	83.19
512.265	81.19
512.481	84.19
512.698	86.19
512.914	95.19
513.13	87.19
513.346	98.19
513.562	101.19
513.778	84.19
513.994	86.19
514.21	78.19
514.426	90.19
514.642	79.19
514.858	87.19
515.074	86.19
515.29	94.19
515.506	80.19
515.721	73.19
515.937	84.19
516.153	80.19
516.369	78.19
516.585	73.19
516.801	97.19
517.016	68.19
517.232	81.19
517.448	78.19
517.664	85.19
517.879	80.19
518.095	91.19
518.311	71.19
