Data from Location5.07152019.Energy5.Lamp.07192019.3%Agarose_HRD10591_15-39-29-388.txt Node
Date: Fri Jul 19 15:39:29 EDT 2019
User: cochatt
Spectrometer: HR+D1059
Trigger mode: 1
Integration Time (sec): 1.000000E-1
Scans to average: 1
Electric dark correction enabled: true
Nonlinearity correction enabled: false
Boxcar width: 0
XAxis mode: Wavelengths
Number of Pixels in Spectrum: 2048
>>>>>Begin Spectral Data<<<<<
223.165	-25.44
223.4	-25.44
223.635	-25.44
223.869	-26.44
224.104	-3.44
224.338	-10.44
224.573	-14.44
224.808	-4.44
225.042	-8.44
225.277	-5.44
225.511	-1.44
225.746	-7.44
225.98	-5.44
226.215	13.56
226.449	20.56
226.683	28.56
226.918	33.56
227.152	16.56
227.387	25.56
227.621	28.56
227.856	44.56
228.09	53.56
228.324	52.56
228.559	46.56
228.793	50.56
229.027	64.56
229.262	73.56
229.496	63.56
229.73	70.56
229.964	63.56
230.199	65.56
230.433	52.56
230.667	69.56
230.901	70.56
231.136	62.56
231.37	79.56
231.604	78.56
231.838	84.56
232.072	79.56
232.306	77.56
232.541	87.56
232.775	95.56
233.009	87.56
233.243	87.56
233.477	81.56
233.711	75.56
233.945	89.56
234.179	91.56
234.413	84.56
234.647	92.56
234.881	84.56
235.115	75.56
235.349	92.56
235.583	73.56
235.817	81.56
236.051	88.56
236.285	78.56
236.519	70.56
236.753	63.56
236.987	63.56
237.221	72.56
237.455	70.56
237.689	80.56
237.922	70.56
238.156	88.56
238.39	80.56
238.624	80.56
238.858	75.56
239.091	66.56
239.325	79.56
239.559	87.56
239.793	82.56
240.027	77.56
240.26	72.56
240.494	89.56
240.728	71.56
240.961	76.56
241.195	83.56
241.429	78.56
241.662	64.56
241.896	87.56
242.13	68.56
242.363	76.56
242.597	67.56
242.83	70.56
243.064	68.56
243.298	69.56
243.531	65.56
243.765	66.56
243.998	85.56
244.232	77.56
244.465	86.56
244.699	71.56
244.932	96.56
245.166	86.56
245.399	74.56
245.633	78.56
245.866	80.56
246.099	82.56
246.333	59.56
246.566	82.56
246.8	73.56
247.033	67.56
247.266	60.56
247.5	76.56
247.733	86.56
247.966	83.56
248.2	81.56
248.433	87.56
248.666	82.56
248.899	64.56
249.133	81.56
249.366	74.56
249.599	96.56
249.832	82.56
250.066	65.56
250.299	88.56
250.532	81.56
250.765	73.56
250.998	86.56
251.231	81.56
251.465	88.56
251.698	75.56
251.931	72.56
252.164	79.56
252.397	87.56
252.63	97.56
252.863	77.56
253.096	74.56
253.329	86.56
253.562	88.56
253.795	87.56
254.028	83.56
254.261	87.56
254.494	70.56
254.727	78.56
254.96	72.56
255.193	84.56
255.426	95.56
255.659	82.56
255.892	83.56
256.124	68.56
256.357	75.56
256.59	86.56
256.823	88.56
257.056	69.56
257.289	73.56
257.521	86.56
257.754	78.56
257.987	68.56
258.22	80.56
258.452	82.56
258.685	75.56
258.918	76.56
259.151	75.56
259.383	81.56
259.616	79.56
259.849	62.56
260.081	70.56
260.314	78.56
260.547	89.56
260.779	85.56
261.012	61.56
261.244	66.56
261.477	78.56
261.71	79.56
261.942	70.56
262.175	74.56
262.407	74.56
262.64	87.56
262.872	76.56
263.105	80.56
263.337	81.56
263.57	73.56
263.802	83.56
264.035	75.56
264.267	83.56
264.499	69.56
264.732	74.56
264.964	81.56
265.197	72.56
265.429	74.56
265.661	79.56
265.894	86.56
266.126	88.56
266.358	75.56
266.591	78.56
266.823	80.56
267.055	64.56
267.287	75.56
267.52	82.56
267.752	90.56
267.984	85.56
268.216	84.56
268.448	76.56
268.681	82.56
268.913	74.56
269.145	82.56
269.377	67.56
269.609	67.56
269.841	74.56
270.073	92.56
270.306	77.56
270.538	86.56
270.77	75.56
271.002	89.56
271.234	71.56
271.466	82.56
271.698	94.56
271.93	86.56
272.162	84.56
272.394	76.56
272.626	73.56
272.858	90.56
273.09	78.56
273.322	84.56
273.553	83.56
273.785	80.56
274.017	75.56
274.249	84.56
274.481	84.56
274.713	95.56
274.945	85.56
275.176	74.56
275.408	92.56
275.64	90.56
275.872	96.56
276.104	87.56
276.335	91.56
276.567	74.56
276.799	73.56
277.031	88.56
277.262	72.56
277.494	85.56
277.726	78.56
277.957	83.56
278.189	85.56
278.421	93.56
278.652	91.56
278.884	77.56
279.115	77.56
279.347	79.56
279.579	70.56
279.81	82.56
280.042	77.56
280.273	80.56
280.505	76.56
280.736	93.56
280.968	81.56
281.199	79.56
281.431	74.56
281.662	82.56
281.894	80.56
282.125	93.56
282.356	83.56
282.588	78.56
282.819	87.56
283.051	87.56
283.282	94.56
283.513	91.56
283.745	71.56
283.976	73.56
284.207	91.56
284.439	80.56
284.67	91.56
284.901	81.56
285.132	95.56
285.364	71.56
285.595	71.56
285.826	73.56
286.057	96.56
286.288	90.56
286.52	77.56
286.751	96.56
286.982	82.56
287.213	74.56
287.444	73.56
287.675	80.56
287.906	77.56
288.138	68.56
288.369	92.56
288.6	69.56
288.831	94.56
289.062	86.56
289.293	94.56
289.524	79.56
289.755	81.56
289.986	82.56
290.217	85.56
290.448	95.56
290.679	89.56
290.91	93.56
291.141	77.56
291.371	87.56
291.602	75.56
291.833	82.56
292.064	82.56
292.295	68.56
292.526	84.56
292.757	111.56
292.987	93.56
293.218	82.56
293.449	81.56
293.68	82.56
293.91	85.56
294.141	85.56
294.372	85.56
294.603	89.56
294.833	81.56
295.064	81.56
295.295	61.56
295.525	82.56
295.756	90.56
295.987	66.56
296.217	85.56
296.448	70.56
296.679	83.56
296.909	83.56
297.14	86.56
297.37	89.56
297.601	78.56
297.831	78.56
298.062	82.56
298.292	85.56
298.523	74.56
298.753	89.56
298.984	77.56
299.214	93.56
299.445	65.56
299.675	92.56
299.905	84.56
300.136	84.56
300.366	74.56
300.597	63.56
300.827	77.56
301.057	87.56
301.288	85.56
301.518	86.56
301.748	78.56
301.979	87.56
302.209	72.56
302.439	86.56
302.669	84.56
302.9	84.56
303.13	75.56
303.36	73.56
303.59	84.56
303.82	86.56
304.051	78.56
304.281	79.56
304.511	96.56
304.741	89.56
304.971	78.56
305.201	69.56
305.431	82.56
305.661	73.56
305.891	77.56
306.121	82.56
306.352	89.56
306.582	80.56
306.812	94.56
307.042	82.56
307.272	79.56
307.502	91.56
307.731	79.56
307.961	89.56
308.191	84.56
308.421	75.56
308.651	85.56
308.881	84.56
309.111	82.56
309.341	86.56
309.571	101.56
309.8	80.56
310.03	85.56
310.26	78.56
310.49	86.56
310.72	76.56
310.949	80.56
311.179	83.56
311.409	99.56
311.639	94.56
311.868	88.56
312.098	79.56
312.328	69.56
312.557	83.56
312.787	78.56
313.017	78.56
313.246	77.56
313.476	80.56
313.706	81.56
313.935	86.56
314.165	91.56
314.394	92.56
314.624	92.56
314.853	94.56
315.083	77.56
315.312	86.56
315.542	81.56
315.771	83.56
316.001	85.56
316.23	90.56
316.46	81.56
316.689	74.56
316.919	87.56
317.148	80.56
317.377	86.56
317.607	77.56
317.836	91.56
318.065	93.56
318.295	89.56
318.524	90.56
318.753	78.56
318.983	78.56
319.212	83.56
319.441	72.56
319.67	73.56
319.9	101.56
320.129	85.56
320.358	88.56
320.587	99.56
320.816	89.56
321.046	97.56
321.275	81.56
321.504	82.56
321.733	80.56
321.962	85.56
322.191	102.56
322.42	106.56
322.649	79.56
322.878	83.56
323.108	100.56
323.337	100.56
323.566	86.56
323.795	94.56
324.024	80.56
324.253	91.56
324.482	88.56
324.71	78.56
324.939	81.56
325.168	95.56
325.397	78.56
325.626	90.56
325.855	91.56
326.084	81.56
326.313	83.56
326.542	80.56
326.77	80.56
326.999	79.56
327.228	86.56
327.457	75.56
327.686	85.56
327.914	76.56
328.143	95.56
328.372	83.56
328.6	93.56
328.829	81.56
329.058	73.56
329.287	85.56
329.515	76.56
329.744	76.56
329.972	81.56
330.201	85.56
330.43	94.56
330.658	70.56
330.887	90.56
331.115	86.56
331.344	81.56
331.572	92.56
331.801	92.56
332.03	73.56
332.258	81.56
332.486	79.56
332.715	80.56
332.943	87.56
333.172	89.56
333.4	84.56
333.629	70.56
333.857	82.56
334.085	89.56
334.314	85.56
334.542	77.56
334.771	79.56
334.999	80.56
335.227	71.56
335.455	92.56
335.684	73.56
335.912	80.56
336.14	81.56
336.369	64.56
336.597	77.56
336.825	69.56
337.053	77.56
337.281	79.56
337.51	82.56
337.738	90.56
337.966	92.56
338.194	73.56
338.422	83.56
338.65	79.56
338.878	80.56
339.106	69.56
339.334	92.56
339.562	75.56
339.79	77.56
340.018	80.56
340.246	75.56
340.474	76.56
340.702	75.56
340.93	109.56
341.158	87.56
341.386	77.56
341.614	88.56
341.842	73.56
342.07	89.56
342.298	83.56
342.526	83.56
342.754	94.56
342.981	93.56
343.209	70.56
343.437	79.56
343.665	92.56
343.893	88.56
344.12	82.56
344.348	66.56
344.576	76.56
344.804	91.56
345.031	78.56
345.259	87.56
345.487	72.56
345.714	71.56
345.942	93.56
346.17	72.56
346.397	81.56
346.625	84.56
346.853	78.56
347.08	68.56
347.308	78.56
347.535	97.56
347.763	78.56
347.99	77.56
348.218	101.56
348.445	77.56
348.673	95.56
348.9	82.56
349.128	73.56
349.355	81.56
349.583	70.56
349.81	69.56
350.037	86.56
350.265	89.56
350.492	82.56
350.72	73.56
350.947	85.56
351.174	76.56
351.402	77.56
351.629	82.56
351.856	74.56
352.083	85.56
352.311	78.56
352.538	78.56
352.765	79.56
352.992	79.56
353.22	94.56
353.447	70.56
353.674	69.56
353.901	85.56
354.128	88.56
354.355	79.56
354.583	88.56
354.81	93.56
355.037	88.56
355.264	88.56
355.491	79.56
355.718	80.56
355.945	73.56
356.172	77.56
356.399	77.56
356.626	69.56
356.853	86.56
357.08	77.56
357.307	84.56
357.534	90.56
357.761	86.56
357.988	94.56
358.215	70.56
358.441	73.56
358.668	92.56
358.895	79.56
359.122	71.56
359.349	73.56
359.576	80.56
359.802	91.56
360.029	68.56
360.256	73.56
360.483	90.56
360.709	78.56
360.936	87.56
361.163	81.56
361.39	80.56
361.616	89.56
361.843	77.56
362.07	79.56
362.296	68.56
362.523	77.56
362.749	86.56
362.976	89.56
363.203	78.56
363.429	85.56
363.656	72.56
363.882	82.56
364.109	89.56
364.335	76.56
364.562	78.56
364.788	92.56
365.015	95.56
365.241	78.56
365.468	85.56
365.694	81.56
365.92	83.56
366.147	79.56
366.373	69.56
366.599	78.56
366.826	86.56
367.052	80.56
367.278	70.56
367.505	80.56
367.731	92.56
367.957	85.56
368.184	81.56
368.41	84.56
368.636	86.56
368.862	84.56
369.089	82.56
369.315	84.56
369.541	95.56
369.767	99.56
369.993	85.56
370.219	66.56
370.445	82.56
370.672	93.56
370.898	79.56
371.124	82.56
371.35	92.56
371.576	76.56
371.802	78.56
372.028	82.56
372.254	78.56
372.48	72.56
372.706	82.56
372.932	99.56
373.158	101.56
373.384	91.56
373.61	83.56
373.835	93.56
374.061	95.56
374.287	85.56
374.513	94.56
374.739	96.56
374.965	85.56
375.191	92.56
375.416	83.56
375.642	81.56
375.868	93.56
376.094	82.56
376.319	85.56
376.545	87.56
376.771	83.56
376.997	72.56
377.222	86.56
377.448	97.56
377.674	88.56
377.899	82.56
378.125	76.56
378.35	79.56
378.576	78.56
378.802	94.56
379.027	71.56
379.253	78.56
379.478	76.56
379.704	79.56
379.929	92.56
380.155	87.56
380.38	87.56
380.606	74.56
380.831	71.56
381.057	71.56
381.282	85.56
381.507	105.56
381.733	74.56
381.958	83.56
382.184	80.56
382.409	75.56
382.634	84.56
382.86	84.56
383.085	84.56
383.31	89.56
383.535	89.56
383.761	87.56
383.986	79.56
384.211	82.56
384.436	67.56
384.662	78.56
384.887	75.56
385.112	79.56
385.337	74.56
385.562	68.56
385.787	86.56
386.013	94.56
386.238	77.56
386.463	84.56
386.688	91.56
386.913	85.56
387.138	76.56
387.363	99.56
387.588	78.56
387.813	98.56
388.038	77.56
388.263	86.56
388.488	80.56
388.713	83.56
388.938	88.56
389.163	76.56
389.387	81.56
389.612	84.56
389.837	89.56
390.062	76.56
390.287	84.56
390.512	93.56
390.736	86.56
390.961	79.56
391.186	93.56
391.411	98.56
391.636	84.56
391.86	94.56
392.085	89.56
392.31	74.56
392.534	92.56
392.759	84.56
392.984	72.56
393.208	76.56
393.433	84.56
393.658	86.56
393.882	84.56
394.107	71.56
394.331	88.56
394.556	79.56
394.78	88.56
395.005	81.56
395.229	70.56
395.454	86.56
395.678	60.56
395.903	86.56
396.127	88.56
396.352	74.56
396.576	84.56
396.801	86.56
397.025	78.56
397.249	89.56
397.474	86.56
397.698	92.56
397.922	84.56
398.147	96.56
398.371	73.56
398.595	76.56
398.82	80.56
399.044	82.56
399.268	82.56
399.492	78.56
399.717	69.56
399.941	89.56
400.165	81.56
400.389	98.56
400.613	95.56
400.837	86.56
401.062	88.56
401.286	88.56
401.51	96.56
401.734	74.56
401.958	84.56
402.182	76.56
402.406	91.56
402.63	85.56
402.854	91.56
403.078	80.56
403.302	85.56
403.526	101.56
403.75	93.56
403.974	68.56
404.198	79.56
404.422	86.56
404.645	95.56
404.869	84.56
405.093	80.56
405.317	89.56
405.541	88.56
405.765	88.56
405.988	89.56
406.212	75.56
406.436	80.56
406.66	89.56
406.883	90.56
407.107	85.56
407.331	88.56
407.555	83.56
407.778	89.56
408.002	89.56
408.226	79.56
408.449	87.56
408.673	92.56
408.896	79.56
409.12	71.56
409.344	100.56
409.567	79.56
409.791	102.56
410.014	82.56
410.238	94.56
410.461	87.56
410.685	88.56
410.908	89.56
411.132	85.56
411.355	92.56
411.578	88.56
411.802	87.56
412.025	83.56
412.249	90.56
412.472	88.56
412.695	98.56
412.919	87.56
413.142	80.56
413.365	105.56
413.589	92.56
413.812	84.56
414.035	94.56
414.258	98.56
414.482	95.56
414.705	85.56
414.928	92.56
415.151	82.56
415.374	87.56
415.597	93.56
415.821	102.56
416.044	87.56
416.267	92.56
416.49	83.56
416.713	89.56
416.936	87.56
417.159	90.56
417.382	67.56
417.605	92.56
417.828	82.56
418.051	84.56
418.274	86.56
418.497	97.56
418.72	85.56
418.943	100.56
419.166	97.56
419.389	88.56
419.611	82.56
419.834	90.56
420.057	95.56
420.28	87.56
420.503	80.56
420.726	99.56
420.948	66.56
421.171	99.56
421.394	81.56
421.617	75.56
421.839	99.56
422.062	86.56
422.285	91.56
422.507	90.56
422.73	81.56
422.953	94.56
423.175	98.56
423.398	97.56
423.621	81.56
423.843	103.56
424.066	77.56
424.288	95.56
424.511	91.56
424.733	90.56
424.956	97.56
425.178	88.56
425.401	98.56
425.623	93.56
425.846	81.56
426.068	92.56
426.291	78.56
426.513	85.56
426.735	97.56
426.958	76.56
427.18	82.56
427.402	84.56
427.625	84.56
427.847	95.56
428.069	89.56
428.292	90.56
428.514	93.56
428.736	99.56
428.958	90.56
429.181	93.56
429.403	91.56
429.625	91.56
429.847	85.56
430.069	75.56
430.292	96.56
430.514	92.56
430.736	85.56
430.958	84.56
431.18	62.56
431.402	86.56
431.624	93.56
431.846	84.56
432.068	103.56
432.29	94.56
432.512	89.56
432.734	96.56
432.956	96.56
433.178	95.56
433.4	99.56
433.622	93.56
433.844	85.56
434.066	77.56
434.287	83.56
434.509	85.56
434.731	86.56
434.953	79.56
435.175	83.56
435.397	84.56
435.618	86.56
435.84	89.56
436.062	94.56
436.284	86.56
436.505	98.56
436.727	104.56
436.949	86.56
437.17	87.56
437.392	93.56
437.614	78.56
437.835	84.56
438.057	79.56
438.278	91.56
438.5	96.56
438.721	85.56
438.943	98.56
439.165	85.56
439.386	74.56
439.608	94.56
439.829	90.56
440.05	95.56
440.272	110.56
440.493	92.56
440.715	85.56
440.936	94.56
441.158	96.56
441.379	88.56
441.6	100.56
441.822	93.56
442.043	87.56
442.264	79.56
442.486	100.56
442.707	67.56
442.928	104.56
443.149	99.56
443.371	95.56
443.592	82.56
443.813	87.56
444.034	86.56
444.255	84.56
444.476	89.56
444.698	71.56
444.919	108.56
445.14	209.56
445.361	160.56
445.582	95.56
445.803	78.56
446.024	80.56
446.245	93.56
446.466	86.56
446.687	92.56
446.908	81.56
447.129	82.56
447.35	95.56
447.571	81.56
447.792	72.56
448.013	85.56
448.234	86.56
448.455	97.56
448.675	108.56
448.896	90.56
449.117	93.56
449.338	97.56
449.559	84.56
449.779	100.56
450	72.56
450.221	84.56
450.442	86.56
450.662	104.56
450.883	93.56
451.104	97.56
451.324	88.56
451.545	92.56
451.766	94.56
451.986	88.56
452.207	71.56
452.428	93.56
452.648	88.56
452.869	91.56
453.089	91.56
453.31	95.56
453.53	87.56
453.751	101.56
453.971	82.56
454.192	89.56
454.412	86.56
454.633	78.56
454.853	75.56
455.073	72.56
455.294	91.56
455.514	88.56
455.734	99.56
455.955	89.56
456.175	86.56
456.395	88.56
456.616	79.56
456.836	86.56
457.056	89.56
457.276	97.56
457.497	90.56
457.717	88.56
457.937	83.56
458.157	101.56
458.377	74.56
458.598	67.56
458.818	77.56
459.038	71.56
459.258	89.56
459.478	94.56
459.698	69.56
459.918	71.56
460.138	85.56
460.358	92.56
460.578	83.56
460.798	87.56
461.018	96.56
461.238	105.56
461.458	98.56
461.678	87.56
461.898	93.56
462.118	79.56
462.338	82.56
462.558	84.56
462.777	95.56
462.997	95.56
463.217	112.56
463.437	89.56
463.657	86.56
463.876	89.56
464.096	77.56
464.316	93.56
464.536	95.56
464.755	89.56
464.975	93.56
465.195	93.56
465.414	85.56
465.634	84.56
465.854	90.56
466.073	93.56
466.293	98.56
466.512	90.56
466.732	89.56
466.951	85.56
467.171	84.56
467.391	84.56
467.61	94.56
467.829	85.56
468.049	99.56
468.268	89.56
468.488	89.56
468.707	94.56
468.927	94.56
469.146	103.56
469.365	103.56
469.585	99.56
469.804	94.56
470.023	103.56
470.243	104.56
470.462	101.56
470.681	92.56
470.901	85.56
471.12	82.56
471.339	99.56
471.558	94.56
471.777	101.56
471.997	85.56
472.216	89.56
472.435	82.56
472.654	87.56
472.873	89.56
473.092	89.56
473.311	74.56
473.53	94.56
473.749	86.56
473.968	88.56
474.187	90.56
474.406	92.56
474.625	98.56
474.844	93.56
475.063	95.56
475.282	97.56
475.501	90.56
475.72	102.56
475.939	88.56
476.158	104.56
476.377	81.56
476.596	84.56
476.814	106.56
477.033	87.56
477.252	95.56
477.471	93.56
477.69	88.56
477.908	97.56
478.127	85.56
478.346	89.56
478.564	79.56
478.783	82.56
479.002	101.56
479.22	100.56
479.439	85.56
479.658	80.56
479.876	86.56
480.095	87.56
480.313	95.56
480.532	88.56
480.751	82.56
480.969	82.56
481.188	85.56
481.406	100.56
481.624	69.56
481.843	77.56
482.061	91.56
482.28	77.56
482.498	82.56
482.717	94.56
482.935	86.56
483.153	102.56
483.372	92.56
483.59	93.56
483.808	87.56
484.027	92.56
484.245	84.56
484.463	95.56
484.681	101.56
484.9	89.56
485.118	96.56
485.336	86.56
485.554	94.56
485.772	93.56
485.99	85.56
486.209	83.56
486.427	96.56
486.645	106.56
486.863	104.56
487.081	83.56
487.299	86.56
487.517	91.56
487.735	98.56
487.953	106.56
488.171	117.56
488.389	101.56
488.607	78.56
488.825	97.56
489.043	89.56
489.261	90.56
489.479	100.56
489.696	87.56
489.914	77.56
490.132	98.56
490.35	97.56
490.568	99.56
490.786	92.56
491.003	92.56
491.221	109.56
491.439	95.56
491.657	111.56
491.874	106.56
492.092	117.56
492.31	130.56
492.527	112.56
492.745	121.56
492.963	111.56
493.18	117.56
493.398	115.56
493.615	90.56
493.833	91.56
494.05	99.56
494.268	111.56
494.485	108.56
494.703	99.56
494.92	108.56
495.138	101.56
495.355	102.56
495.573	94.56
495.79	109.56
496.008	97.56
496.225	89.56
496.442	105.56
496.66	111.56
496.877	102.56
497.094	93.56
497.312	109.56
497.529	96.56
497.746	94.56
497.963	89.56
498.181	90.56
498.398	93.56
498.615	94.56
498.832	83.56
499.049	94.56
499.267	104.56
499.484	92.56
499.701	89.56
499.918	95.56
500.135	93.56
500.352	89.56
500.569	117.56
500.786	113.56
501.003	88.56
501.22	100.56
501.437	86.56
501.654	102.56
501.871	99.56
502.088	81.56
502.305	108.56
502.522	97.56
502.739	84.56
502.956	85.56
503.172	87.56
503.389	93.56
503.606	95.56
503.823	84.56
504.04	101.56
504.256	89.56
504.473	103.56
504.69	89.56
504.907	94.56
505.123	96.56
505.34	82.56
505.557	81.56
505.773	92.56
505.99	82.56
506.207	86.56
506.423	84.56
506.64	105.56
506.856	90.56
507.073	74.56
507.289	100.56
507.506	102.56
507.722	88.56
507.939	92.56
508.155	96.56
508.372	90.56
508.588	88.56
508.805	89.56
509.021	97.56
509.238	81.56
509.454	87.56
509.67	77.56
509.887	91.56
510.103	89.56
510.319	77.56
510.536	86.56
510.752	88.56
510.968	73.56
511.184	78.56
511.401	92.56
511.617	76.56
511.833	79.56
512.049	106.56
512.265	81.56
512.481	79.56
512.698	79.56
512.914	77.56
513.13	81.56
513.346	81.56
513.562	84.56
513.778	94.56
513.994	84.56
514.21	90.56
514.426	88.56
514.642	72.56
514.858	67.56
515.074	85.56
515.29	85.56
515.506	93.56
515.721	90.56
515.937	98.56
516.153	80.56
516.369	76.56
516.585	96.56
516.801	102.56
517.016	74.56
517.232	85.56
517.448	83.56
517.664	98.56
517.879	91.56
518.095	84.56
518.311	90.56
