Data from Location5.07152019.Energy5.Lamp.07192019.3%Agarose_HRD10591_16-05-38-629.txt Node
Date: Fri Jul 19 16:05:38 EDT 2019
User: cochatt
Spectrometer: HR+D1059
Trigger mode: 1
Integration Time (sec): 1.000000E-1
Scans to average: 1
Electric dark correction enabled: true
Nonlinearity correction enabled: false
Boxcar width: 0
XAxis mode: Wavelengths
Number of Pixels in Spectrum: 2048
>>>>>Begin Spectral Data<<<<<
223.165	-6.69
223.4	-6.69
223.635	-6.69
223.869	-24.69
224.104	-4.69
224.338	-7.69
224.573	-23.69
224.808	-15.69
225.042	-1.69
225.277	-8.69
225.511	-7.69
225.746	8.31
225.98	10.31
226.215	21.31
226.449	5.31
226.683	16.31
226.918	16.31
227.152	23.31
227.387	44.31
227.621	55.31
227.856	33.31
228.09	47.31
228.324	49.31
228.559	48.31
228.793	68.31
229.027	69.31
229.262	67.31
229.496	50.31
229.73	56.31
229.964	64.31
230.199	67.31
230.433	77.31
230.667	77.31
230.901	73.31
231.136	77.31
231.37	81.31
231.604	72.31
231.838	87.31
232.072	83.31
232.306	77.31
232.541	75.31
232.775	80.31
233.009	79.31
233.243	79.31
233.477	81.31
233.711	84.31
233.945	81.31
234.179	78.31
234.413	84.31
234.647	79.31
234.881	81.31
235.115	80.31
235.349	79.31
235.583	75.31
235.817	97.31
236.051	83.31
236.285	86.31
236.519	79.31
236.753	80.31
236.987	72.31
237.221	74.31
237.455	72.31
237.689	87.31
237.922	78.31
238.156	74.31
238.39	70.31
238.624	77.31
238.858	80.31
239.091	72.31
239.325	75.31
239.559	74.31
239.793	71.31
240.027	79.31
240.26	90.31
240.494	79.31
240.728	76.31
240.961	73.31
241.195	79.31
241.429	66.31
241.662	76.31
241.896	82.31
242.13	61.31
242.363	78.31
242.597	61.31
242.83	80.31
243.064	77.31
243.298	80.31
243.531	73.31
243.765	80.31
243.998	74.31
244.232	85.31
244.465	82.31
244.699	90.31
244.932	71.31
245.166	64.31
245.399	80.31
245.633	76.31
245.866	78.31
246.099	81.31
246.333	75.31
246.566	68.31
246.8	73.31
247.033	79.31
247.266	67.31
247.5	76.31
247.733	87.31
247.966	75.31
248.2	95.31
248.433	88.31
248.666	76.31
248.899	86.31
249.133	70.31
249.366	68.31
249.599	91.31
249.832	71.31
250.066	83.31
250.299	80.31
250.532	80.31
250.765	65.31
250.998	84.31
251.231	87.31
251.465	85.31
251.698	64.31
251.931	82.31
252.164	80.31
252.397	87.31
252.63	84.31
252.863	84.31
253.096	84.31
253.329	85.31
253.562	82.31
253.795	75.31
254.028	64.31
254.261	89.31
254.494	86.31
254.727	72.31
254.96	86.31
255.193	86.31
255.426	70.31
255.659	76.31
255.892	81.31
256.124	68.31
256.357	81.31
256.59	71.31
256.823	85.31
257.056	71.31
257.289	73.31
257.521	71.31
257.754	77.31
257.987	84.31
258.22	89.31
258.452	82.31
258.685	73.31
258.918	76.31
259.151	72.31
259.383	84.31
259.616	78.31
259.849	85.31
260.081	81.31
260.314	76.31
260.547	89.31
260.779	86.31
261.012	84.31
261.244	86.31
261.477	90.31
261.71	96.31
261.942	88.31
262.175	75.31
262.407	85.31
262.64	74.31
262.872	87.31
263.105	84.31
263.337	76.31
263.57	86.31
263.802	68.31
264.035	79.31
264.267	83.31
264.499	87.31
264.732	92.31
264.964	78.31
265.197	73.31
265.429	60.31
265.661	79.31
265.894	95.31
266.126	98.31
266.358	77.31
266.591	85.31
266.823	70.31
267.055	71.31
267.287	79.31
267.52	79.31
267.752	89.31
267.984	79.31
268.216	77.31
268.448	89.31
268.681	83.31
268.913	84.31
269.145	85.31
269.377	90.31
269.609	87.31
269.841	77.31
270.073	103.31
270.306	93.31
270.538	77.31
270.77	83.31
271.002	76.31
271.234	73.31
271.466	79.31
271.698	92.31
271.93	76.31
272.162	91.31
272.394	91.31
272.626	95.31
272.858	94.31
273.09	86.31
273.322	96.31
273.553	88.31
273.785	103.31
274.017	87.31
274.249	78.31
274.481	82.31
274.713	88.31
274.945	79.31
275.176	78.31
275.408	90.31
275.64	103.31
275.872	85.31
276.104	90.31
276.335	85.31
276.567	86.31
276.799	95.31
277.031	82.31
277.262	91.31
277.494	86.31
277.726	92.31
277.957	88.31
278.189	79.31
278.421	78.31
278.652	86.31
278.884	83.31
279.115	97.31
279.347	97.31
279.579	94.31
279.81	79.31
280.042	86.31
280.273	88.31
280.505	91.31
280.736	84.31
280.968	85.31
281.199	96.31
281.431	78.31
281.662	102.31
281.894	77.31
282.125	75.31
282.356	83.31
282.588	70.31
282.819	79.31
283.051	87.31
283.282	78.31
283.513	88.31
283.745	82.31
283.976	75.31
284.207	91.31
284.439	76.31
284.67	90.31
284.901	89.31
285.132	93.31
285.364	68.31
285.595	98.31
285.826	79.31
286.057	77.31
286.288	88.31
286.52	80.31
286.751	73.31
286.982	83.31
287.213	105.31
287.444	85.31
287.675	93.31
287.906	87.31
288.138	75.31
288.369	80.31
288.6	79.31
288.831	93.31
289.062	78.31
289.293	82.31
289.524	82.31
289.755	86.31
289.986	89.31
290.217	88.31
290.448	89.31
290.679	77.31
290.91	78.31
291.141	86.31
291.371	85.31
291.602	90.31
291.833	113.31
292.064	93.31
292.295	85.31
292.526	86.31
292.757	72.31
292.987	81.31
293.218	83.31
293.449	86.31
293.68	87.31
293.91	80.31
294.141	86.31
294.372	86.31
294.603	83.31
294.833	94.31
295.064	86.31
295.295	81.31
295.525	94.31
295.756	91.31
295.987	83.31
296.217	92.31
296.448	82.31
296.679	80.31
296.909	91.31
297.14	87.31
297.37	95.31
297.601	94.31
297.831	80.31
298.062	92.31
298.292	100.31
298.523	78.31
298.753	88.31
298.984	80.31
299.214	100.31
299.445	88.31
299.675	85.31
299.905	89.31
300.136	81.31
300.366	85.31
300.597	77.31
300.827	83.31
301.057	100.31
301.288	98.31
301.518	90.31
301.748	108.31
301.979	89.31
302.209	75.31
302.439	86.31
302.669	97.31
302.9	85.31
303.13	97.31
303.36	91.31
303.59	76.31
303.82	84.31
304.051	94.31
304.281	96.31
304.511	93.31
304.741	85.31
304.971	91.31
305.201	84.31
305.431	92.31
305.661	104.31
305.891	99.31
306.121	89.31
306.352	76.31
306.582	75.31
306.812	92.31
307.042	92.31
307.272	93.31
307.502	101.31
307.731	88.31
307.961	85.31
308.191	94.31
308.421	87.31
308.651	92.31
308.881	94.31
309.111	78.31
309.341	81.31
309.571	80.31
309.8	95.31
310.03	99.31
310.26	86.31
310.49	95.31
310.72	91.31
310.949	94.31
311.179	88.31
311.409	91.31
311.639	93.31
311.868	87.31
312.098	114.31
312.328	93.31
312.557	81.31
312.787	73.31
313.017	77.31
313.246	88.31
313.476	95.31
313.706	69.31
313.935	80.31
314.165	81.31
314.394	96.31
314.624	95.31
314.853	85.31
315.083	102.31
315.312	88.31
315.542	88.31
315.771	87.31
316.001	84.31
316.23	87.31
316.46	95.31
316.689	87.31
316.919	87.31
317.148	90.31
317.377	83.31
317.607	88.31
317.836	85.31
318.065	91.31
318.295	88.31
318.524	75.31
318.753	88.31
318.983	98.31
319.212	91.31
319.441	87.31
319.67	89.31
319.9	81.31
320.129	99.31
320.358	106.31
320.587	84.31
320.816	96.31
321.046	94.31
321.275	92.31
321.504	93.31
321.733	91.31
321.962	76.31
322.191	82.31
322.42	79.31
322.649	101.31
322.878	84.31
323.108	92.31
323.337	93.31
323.566	90.31
323.795	92.31
324.024	86.31
324.253	88.31
324.482	92.31
324.71	83.31
324.939	80.31
325.168	91.31
325.397	92.31
325.626	92.31
325.855	85.31
326.084	91.31
326.313	70.31
326.542	79.31
326.77	74.31
326.999	90.31
327.228	79.31
327.457	82.31
327.686	87.31
327.914	84.31
328.143	88.31
328.372	88.31
328.6	86.31
328.829	86.31
329.058	82.31
329.287	93.31
329.515	92.31
329.744	91.31
329.972	83.31
330.201	84.31
330.43	94.31
330.658	100.31
330.887	94.31
331.115	94.31
331.344	95.31
331.572	73.31
331.801	95.31
332.03	86.31
332.258	84.31
332.486	79.31
332.715	103.31
332.943	87.31
333.172	85.31
333.4	86.31
333.629	90.31
333.857	93.31
334.085	99.31
334.314	87.31
334.542	95.31
334.771	85.31
334.999	98.31
335.227	89.31
335.455	97.31
335.684	98.31
335.912	82.31
336.14	100.31
336.369	98.31
336.597	88.31
336.825	88.31
337.053	87.31
337.281	97.31
337.51	70.31
337.738	96.31
337.966	108.31
338.194	96.31
338.422	80.31
338.65	87.31
338.878	100.31
339.106	92.31
339.334	82.31
339.562	98.31
339.79	85.31
340.018	95.31
340.246	91.31
340.474	84.31
340.702	87.31
340.93	82.31
341.158	91.31
341.386	87.31
341.614	78.31
341.842	76.31
342.07	75.31
342.298	81.31
342.526	95.31
342.754	96.31
342.981	87.31
343.209	99.31
343.437	101.31
343.665	96.31
343.893	88.31
344.12	80.31
344.348	95.31
344.576	77.31
344.804	97.31
345.031	95.31
345.259	82.31
345.487	94.31
345.714	108.31
345.942	79.31
346.17	74.31
346.397	86.31
346.625	97.31
346.853	80.31
347.08	81.31
347.308	78.31
347.535	84.31
347.763	83.31
347.99	91.31
348.218	97.31
348.445	85.31
348.673	80.31
348.9	85.31
349.128	82.31
349.355	83.31
349.583	96.31
349.81	87.31
350.037	87.31
350.265	95.31
350.492	84.31
350.72	101.31
350.947	100.31
351.174	87.31
351.402	84.31
351.629	90.31
351.856	91.31
352.083	74.31
352.311	97.31
352.538	83.31
352.765	91.31
352.992	95.31
353.22	93.31
353.447	91.31
353.674	85.31
353.901	92.31
354.128	93.31
354.355	90.31
354.583	100.31
354.81	97.31
355.037	95.31
355.264	85.31
355.491	99.31
355.718	90.31
355.945	85.31
356.172	92.31
356.399	84.31
356.626	94.31
356.853	88.31
357.08	82.31
357.307	79.31
357.534	88.31
357.761	88.31
357.988	96.31
358.215	96.31
358.441	98.31
358.668	92.31
358.895	74.31
359.122	93.31
359.349	107.31
359.576	83.31
359.802	80.31
360.029	84.31
360.256	76.31
360.483	94.31
360.709	91.31
360.936	82.31
361.163	99.31
361.39	101.31
361.616	87.31
361.843	97.31
362.07	89.31
362.296	98.31
362.523	85.31
362.749	78.31
362.976	68.31
363.203	94.31
363.429	79.31
363.656	92.31
363.882	91.31
364.109	99.31
364.335	86.31
364.562	81.31
364.788	84.31
365.015	90.31
365.241	86.31
365.468	95.31
365.694	89.31
365.92	91.31
366.147	84.31
366.373	89.31
366.599	79.31
366.826	75.31
367.052	93.31
367.278	83.31
367.505	86.31
367.731	90.31
367.957	101.31
368.184	87.31
368.41	88.31
368.636	86.31
368.862	84.31
369.089	80.31
369.315	76.31
369.541	88.31
369.767	86.31
369.993	74.31
370.219	87.31
370.445	93.31
370.672	101.31
370.898	71.31
371.124	85.31
371.35	87.31
371.576	98.31
371.802	100.31
372.028	76.31
372.254	97.31
372.48	85.31
372.706	92.31
372.932	86.31
373.158	77.31
373.384	88.31
373.61	90.31
373.835	91.31
374.061	93.31
374.287	80.31
374.513	80.31
374.739	85.31
374.965	89.31
375.191	77.31
375.416	87.31
375.642	89.31
375.868	98.31
376.094	84.31
376.319	87.31
376.545	90.31
376.771	90.31
376.997	88.31
377.222	89.31
377.448	78.31
377.674	96.31
377.899	88.31
378.125	103.31
378.35	94.31
378.576	85.31
378.802	73.31
379.027	86.31
379.253	90.31
379.478	89.31
379.704	87.31
379.929	94.31
380.155	84.31
380.38	96.31
380.606	103.31
380.831	95.31
381.057	81.31
381.282	83.31
381.507	86.31
381.733	99.31
381.958	90.31
382.184	80.31
382.409	73.31
382.634	83.31
382.86	89.31
383.085	88.31
383.31	94.31
383.535	97.31
383.761	92.31
383.986	87.31
384.211	88.31
384.436	102.31
384.662	100.31
384.887	91.31
385.112	90.31
385.337	91.31
385.562	88.31
385.787	91.31
386.013	102.31
386.238	98.31
386.463	95.31
386.688	96.31
386.913	87.31
387.138	85.31
387.363	91.31
387.588	80.31
387.813	83.31
388.038	82.31
388.263	89.31
388.488	84.31
388.713	89.31
388.938	78.31
389.163	97.31
389.387	104.31
389.612	93.31
389.837	100.31
390.062	89.31
390.287	82.31
390.512	94.31
390.736	97.31
390.961	98.31
391.186	85.31
391.411	85.31
391.636	78.31
391.86	101.31
392.085	84.31
392.31	92.31
392.534	104.31
392.759	89.31
392.984	98.31
393.208	82.31
393.433	95.31
393.658	89.31
393.882	94.31
394.107	91.31
394.331	85.31
394.556	88.31
394.78	96.31
395.005	108.31
395.229	109.31
395.454	84.31
395.678	83.31
395.903	107.31
396.127	98.31
396.352	83.31
396.576	85.31
396.801	87.31
397.025	83.31
397.249	90.31
397.474	89.31
397.698	81.31
397.922	75.31
398.147	92.31
398.371	90.31
398.595	102.31
398.82	83.31
399.044	91.31
399.268	96.31
399.492	112.31
399.717	105.31
399.941	95.31
400.165	104.31
400.389	109.31
400.613	94.31
400.837	100.31
401.062	102.31
401.286	101.31
401.51	97.31
401.734	83.31
401.958	96.31
402.182	96.31
402.406	78.31
402.63	93.31
402.854	104.31
403.078	94.31
403.302	95.31
403.526	101.31
403.75	94.31
403.974	98.31
404.198	98.31
404.422	107.31
404.645	100.31
404.869	106.31
405.093	99.31
405.317	100.31
405.541	104.31
405.765	101.31
405.988	98.31
406.212	97.31
406.436	99.31
406.66	87.31
406.883	92.31
407.107	75.31
407.331	88.31
407.555	87.31
407.778	103.31
408.002	106.31
408.226	83.31
408.449	91.31
408.673	99.31
408.896	91.31
409.12	103.31
409.344	96.31
409.567	95.31
409.791	94.31
410.014	86.31
410.238	106.31
410.461	93.31
410.685	94.31
410.908	92.31
411.132	90.31
411.355	81.31
411.578	87.31
411.802	94.31
412.025	63.31
412.249	93.31
412.472	94.31
412.695	90.31
412.919	92.31
413.142	93.31
413.365	84.31
413.589	87.31
413.812	81.31
414.035	90.31
414.258	103.31
414.482	73.31
414.705	85.31
414.928	81.31
415.151	85.31
415.374	94.31
415.597	96.31
415.821	83.31
416.044	88.31
416.267	87.31
416.49	92.31
416.713	94.31
416.936	87.31
417.159	107.31
417.382	83.31
417.605	106.31
417.828	99.31
418.051	89.31
418.274	83.31
418.497	89.31
418.72	93.31
418.943	86.31
419.166	98.31
419.389	89.31
419.611	88.31
419.834	104.31
420.057	104.31
420.28	89.31
420.503	108.31
420.726	95.31
420.948	88.31
421.171	92.31
421.394	89.31
421.617	90.31
421.839	91.31
422.062	95.31
422.285	102.31
422.507	84.31
422.73	89.31
422.953	93.31
423.175	95.31
423.398	99.31
423.621	81.31
423.843	92.31
424.066	93.31
424.288	99.31
424.511	101.31
424.733	87.31
424.956	80.31
425.178	95.31
425.401	102.31
425.623	91.31
425.846	94.31
426.068	85.31
426.291	87.31
426.513	86.31
426.735	109.31
426.958	97.31
427.18	81.31
427.402	96.31
427.625	84.31
427.847	89.31
428.069	106.31
428.292	73.31
428.514	81.31
428.736	88.31
428.958	96.31
429.181	87.31
429.403	90.31
429.625	87.31
429.847	89.31
430.069	91.31
430.292	95.31
430.514	83.31
430.736	97.31
430.958	92.31
431.18	89.31
431.402	107.31
431.624	86.31
431.846	69.31
432.068	98.31
432.29	83.31
432.512	80.31
432.734	92.31
432.956	96.31
433.178	107.31
433.4	101.31
433.622	77.31
433.844	93.31
434.066	94.31
434.287	91.31
434.509	91.31
434.731	86.31
434.953	94.31
435.175	93.31
435.397	104.31
435.618	106.31
435.84	86.31
436.062	91.31
436.284	82.31
436.505	89.31
436.727	83.31
436.949	88.31
437.17	101.31
437.392	81.31
437.614	86.31
437.835	102.31
438.057	99.31
438.278	91.31
438.5	94.31
438.721	86.31
438.943	94.31
439.165	92.31
439.386	75.31
439.608	107.31
439.829	85.31
440.05	90.31
440.272	93.31
440.493	88.31
440.715	96.31
440.936	105.31
441.158	108.31
441.379	92.31
441.6	85.31
441.822	89.31
442.043	86.31
442.264	67.31
442.486	81.31
442.707	97.31
442.928	95.31
443.149	99.31
443.371	96.31
443.592	92.31
443.813	92.31
444.034	84.31
444.255	97.31
444.476	93.31
444.698	99.31
444.919	100.31
445.14	237.31
445.361	150.31
445.582	95.31
445.803	100.31
446.024	100.31
446.245	96.31
446.466	89.31
446.687	85.31
446.908	87.31
447.129	96.31
447.35	79.31
447.571	95.31
447.792	98.31
448.013	74.31
448.234	90.31
448.455	94.31
448.675	89.31
448.896	91.31
449.117	87.31
449.338	72.31
449.559	80.31
449.779	88.31
450	92.31
450.221	92.31
450.442	109.31
450.662	87.31
450.883	85.31
451.104	88.31
451.324	83.31
451.545	96.31
451.766	82.31
451.986	102.31
452.207	83.31
452.428	87.31
452.648	85.31
452.869	95.31
453.089	91.31
453.31	92.31
453.53	90.31
453.751	82.31
453.971	81.31
454.192	80.31
454.412	80.31
454.633	89.31
454.853	88.31
455.073	84.31
455.294	82.31
455.514	82.31
455.734	91.31
455.955	92.31
456.175	89.31
456.395	95.31
456.616	81.31
456.836	85.31
457.056	94.31
457.276	86.31
457.497	93.31
457.717	84.31
457.937	88.31
458.157	85.31
458.377	82.31
458.598	80.31
458.818	100.31
459.038	91.31
459.258	92.31
459.478	90.31
459.698	97.31
459.918	82.31
460.138	95.31
460.358	72.31
460.578	98.31
460.798	80.31
461.018	85.31
461.238	92.31
461.458	89.31
461.678	104.31
461.898	89.31
462.118	101.31
462.338	95.31
462.558	98.31
462.777	95.31
462.997	99.31
463.217	92.31
463.437	95.31
463.657	97.31
463.876	104.31
464.096	109.31
464.316	101.31
464.536	93.31
464.755	79.31
464.975	102.31
465.195	88.31
465.414	96.31
465.634	80.31
465.854	85.31
466.073	83.31
466.293	88.31
466.512	88.31
466.732	81.31
466.951	95.31
467.171	91.31
467.391	78.31
467.61	86.31
467.829	86.31
468.049	85.31
468.268	97.31
468.488	101.31
468.707	98.31
468.927	92.31
469.146	87.31
469.365	94.31
469.585	91.31
469.804	107.31
470.023	102.31
470.243	97.31
470.462	88.31
470.681	96.31
470.901	98.31
471.12	90.31
471.339	98.31
471.558	87.31
471.777	88.31
471.997	86.31
472.216	85.31
472.435	92.31
472.654	94.31
472.873	102.31
473.092	84.31
473.311	97.31
473.53	84.31
473.749	91.31
473.968	98.31
474.187	97.31
474.406	98.31
474.625	83.31
474.844	95.31
475.063	91.31
475.282	96.31
475.501	95.31
475.72	100.31
475.939	94.31
476.158	93.31
476.377	94.31
476.596	90.31
476.814	80.31
477.033	97.31
477.252	94.31
477.471	79.31
477.69	89.31
477.908	101.31
478.127	98.31
478.346	89.31
478.564	105.31
478.783	104.31
479.002	101.31
479.22	101.31
479.439	96.31
479.658	100.31
479.876	100.31
480.095	106.31
480.313	103.31
480.532	103.31
480.751	119.31
480.969	111.31
481.188	91.31
481.406	97.31
481.624	97.31
481.843	104.31
482.061	91.31
482.28	84.31
482.498	100.31
482.717	104.31
482.935	97.31
483.153	99.31
483.372	109.31
483.59	107.31
483.808	91.31
484.027	105.31
484.245	95.31
484.463	95.31
484.681	112.31
484.9	99.31
485.118	95.31
485.336	91.31
485.554	93.31
485.772	112.31
485.99	84.31
486.209	100.31
486.427	103.31
486.645	104.31
486.863	84.31
487.081	98.31
487.299	93.31
487.517	98.31
487.735	99.31
487.953	113.31
488.171	125.31
488.389	99.31
488.607	96.31
488.825	85.31
489.043	81.31
489.261	95.31
489.479	111.31
489.696	93.31
489.914	100.31
490.132	96.31
490.35	101.31
490.568	96.31
490.786	99.31
491.003	114.31
491.221	110.31
491.439	105.31
491.657	109.31
491.874	109.31
492.092	95.31
492.31	117.31
492.527	109.31
492.745	110.31
492.963	117.31
493.18	107.31
493.398	110.31
493.615	89.31
493.833	118.31
494.05	123.31
494.268	107.31
494.485	105.31
494.703	95.31
494.92	107.31
495.138	110.31
495.355	105.31
495.573	95.31
495.79	103.31
496.008	105.31
496.225	104.31
496.442	109.31
496.66	95.31
496.877	91.31
497.094	102.31
497.312	114.31
497.529	99.31
497.746	109.31
497.963	102.31
498.181	111.31
498.398	103.31
498.615	101.31
498.832	113.31
499.049	103.31
499.267	114.31
499.484	115.31
499.701	125.31
499.918	139.31
500.135	136.31
500.352	145.31
500.569	144.31
500.786	145.31
501.003	157.31
501.22	138.31
501.437	128.31
501.654	127.31
501.871	120.31
502.088	104.31
502.305	109.31
502.522	117.31
502.739	107.31
502.956	112.31
503.172	81.31
503.389	104.31
503.606	101.31
503.823	84.31
504.04	96.31
504.256	108.31
504.473	106.31
504.69	98.31
504.907	101.31
505.123	120.31
505.34	101.31
505.557	97.31
505.773	119.31
505.99	99.31
506.207	102.31
506.423	109.31
506.64	106.31
506.856	105.31
507.073	103.31
507.289	101.31
507.506	98.31
507.722	101.31
507.939	78.31
508.155	95.31
508.372	94.31
508.588	92.31
508.805	91.31
509.021	96.31
509.238	84.31
509.454	89.31
509.67	100.31
509.887	94.31
510.103	101.31
510.319	99.31
510.536	91.31
510.752	93.31
510.968	95.31
511.184	94.31
511.401	92.31
511.617	98.31
511.833	99.31
512.049	98.31
512.265	87.31
512.481	86.31
512.698	102.31
512.914	99.31
513.13	94.31
513.346	85.31
513.562	97.31
513.778	101.31
513.994	109.31
514.21	87.31
514.426	97.31
514.642	76.31
514.858	96.31
515.074	89.31
515.29	104.31
515.506	104.31
515.721	98.31
515.937	98.31
516.153	100.31
516.369	79.31
516.585	107.31
