Data from Location5.07152019.Energy5.Lamp.07192019.3%Agarose_HRD10591_15-39-35-389.txt Node
Date: Fri Jul 19 15:39:35 EDT 2019
User: cochatt
Spectrometer: HR+D1059
Trigger mode: 1
Integration Time (sec): 1.000000E-1
Scans to average: 1
Electric dark correction enabled: true
Nonlinearity correction enabled: false
Boxcar width: 0
XAxis mode: Wavelengths
Number of Pixels in Spectrum: 2048
>>>>>Begin Spectral Data<<<<<
223.165	-16.81
223.4	-16.81
223.635	-16.81
223.869	-23.81
224.104	-15.81
224.338	-16.81
224.573	-14.81
224.808	-6.81
225.042	-12.81
225.277	-10.81
225.511	6.19
225.746	1.19
225.98	10.19
226.215	-2.81
226.449	15.19
226.683	30.19
226.918	26.19
227.152	32.19
227.387	27.19
227.621	49.19
227.856	51.19
228.09	47.19
228.324	60.19
228.559	53.19
228.793	58.19
229.027	55.19
229.262	64.19
229.496	67.19
229.73	66.19
229.964	91.19
230.199	71.19
230.433	57.19
230.667	86.19
230.901	83.19
231.136	84.19
231.37	80.19
231.604	89.19
231.838	71.19
232.072	71.19
232.306	78.19
232.541	88.19
232.775	88.19
233.009	76.19
233.243	70.19
233.477	82.19
233.711	89.19
233.945	70.19
234.179	73.19
234.413	89.19
234.647	84.19
234.881	81.19
235.115	66.19
235.349	86.19
235.583	88.19
235.817	73.19
236.051	82.19
236.285	77.19
236.519	78.19
236.753	80.19
236.987	80.19
237.221	79.19
237.455	89.19
237.689	84.19
237.922	79.19
238.156	81.19
238.39	82.19
238.624	68.19
238.858	80.19
239.091	60.19
239.325	74.19
239.559	76.19
239.793	97.19
240.027	76.19
240.26	80.19
240.494	97.19
240.728	81.19
240.961	87.19
241.195	100.19
241.429	67.19
241.662	62.19
241.896	75.19
242.13	70.19
242.363	84.19
242.597	74.19
242.83	74.19
243.064	75.19
243.298	78.19
243.531	72.19
243.765	77.19
243.998	82.19
244.232	93.19
244.465	71.19
244.699	65.19
244.932	92.19
245.166	75.19
245.399	73.19
245.633	80.19
245.866	86.19
246.099	70.19
246.333	85.19
246.566	91.19
246.8	77.19
247.033	70.19
247.266	94.19
247.5	80.19
247.733	72.19
247.966	74.19
248.2	86.19
248.433	70.19
248.666	76.19
248.899	76.19
249.133	78.19
249.366	86.19
249.599	67.19
249.832	76.19
250.066	84.19
250.299	87.19
250.532	79.19
250.765	64.19
250.998	80.19
251.231	76.19
251.465	76.19
251.698	76.19
251.931	87.19
252.164	73.19
252.397	74.19
252.63	84.19
252.863	77.19
253.096	82.19
253.329	83.19
253.562	80.19
253.795	75.19
254.028	79.19
254.261	94.19
254.494	92.19
254.727	78.19
254.96	81.19
255.193	70.19
255.426	89.19
255.659	81.19
255.892	91.19
256.124	82.19
256.357	99.19
256.59	97.19
256.823	69.19
257.056	85.19
257.289	75.19
257.521	81.19
257.754	86.19
257.987	82.19
258.22	90.19
258.452	85.19
258.685	85.19
258.918	77.19
259.151	87.19
259.383	73.19
259.616	62.19
259.849	76.19
260.081	72.19
260.314	93.19
260.547	76.19
260.779	96.19
261.012	96.19
261.244	73.19
261.477	78.19
261.71	75.19
261.942	84.19
262.175	89.19
262.407	86.19
262.64	81.19
262.872	79.19
263.105	90.19
263.337	78.19
263.57	84.19
263.802	79.19
264.035	66.19
264.267	90.19
264.499	92.19
264.732	84.19
264.964	76.19
265.197	88.19
265.429	76.19
265.661	100.19
265.894	93.19
266.126	76.19
266.358	83.19
266.591	71.19
266.823	70.19
267.055	99.19
267.287	87.19
267.52	88.19
267.752	90.19
267.984	80.19
268.216	86.19
268.448	79.19
268.681	74.19
268.913	76.19
269.145	75.19
269.377	83.19
269.609	78.19
269.841	88.19
270.073	77.19
270.306	87.19
270.538	71.19
270.77	87.19
271.002	87.19
271.234	86.19
271.466	94.19
271.698	100.19
271.93	94.19
272.162	90.19
272.394	99.19
272.626	91.19
272.858	90.19
273.09	91.19
273.322	87.19
273.553	79.19
273.785	66.19
274.017	72.19
274.249	79.19
274.481	85.19
274.713	70.19
274.945	77.19
275.176	97.19
275.408	82.19
275.64	63.19
275.872	74.19
276.104	71.19
276.335	85.19
276.567	77.19
276.799	78.19
277.031	83.19
277.262	81.19
277.494	81.19
277.726	82.19
277.957	83.19
278.189	87.19
278.421	87.19
278.652	94.19
278.884	85.19
279.115	94.19
279.347	85.19
279.579	89.19
279.81	89.19
280.042	79.19
280.273	90.19
280.505	91.19
280.736	79.19
280.968	88.19
281.199	89.19
281.431	82.19
281.662	91.19
281.894	88.19
282.125	77.19
282.356	95.19
282.588	86.19
282.819	88.19
283.051	72.19
283.282	72.19
283.513	97.19
283.745	82.19
283.976	79.19
284.207	82.19
284.439	82.19
284.67	102.19
284.901	91.19
285.132	82.19
285.364	98.19
285.595	99.19
285.826	74.19
286.057	99.19
286.288	90.19
286.52	86.19
286.751	88.19
286.982	83.19
287.213	77.19
287.444	81.19
287.675	97.19
287.906	83.19
288.138	80.19
288.369	81.19
288.6	91.19
288.831	75.19
289.062	93.19
289.293	83.19
289.524	84.19
289.755	85.19
289.986	91.19
290.217	97.19
290.448	107.19
290.679	87.19
290.91	93.19
291.141	84.19
291.371	75.19
291.602	86.19
291.833	97.19
292.064	87.19
292.295	83.19
292.526	94.19
292.757	82.19
292.987	81.19
293.218	83.19
293.449	81.19
293.68	96.19
293.91	82.19
294.141	81.19
294.372	77.19
294.603	85.19
294.833	88.19
295.064	88.19
295.295	66.19
295.525	85.19
295.756	97.19
295.987	88.19
296.217	78.19
296.448	78.19
296.679	83.19
296.909	91.19
297.14	81.19
297.37	76.19
297.601	86.19
297.831	93.19
298.062	77.19
298.292	91.19
298.523	94.19
298.753	90.19
298.984	86.19
299.214	92.19
299.445	94.19
299.675	94.19
299.905	76.19
300.136	90.19
300.366	89.19
300.597	88.19
300.827	82.19
301.057	80.19
301.288	79.19
301.518	81.19
301.748	88.19
301.979	85.19
302.209	92.19
302.439	68.19
302.669	90.19
302.9	83.19
303.13	84.19
303.36	92.19
303.59	84.19
303.82	96.19
304.051	96.19
304.281	96.19
304.511	78.19
304.741	89.19
304.971	90.19
305.201	75.19
305.431	89.19
305.661	84.19
305.891	83.19
306.121	82.19
306.352	80.19
306.582	73.19
306.812	97.19
307.042	83.19
307.272	87.19
307.502	86.19
307.731	85.19
307.961	90.19
308.191	81.19
308.421	80.19
308.651	92.19
308.881	94.19
309.111	91.19
309.341	74.19
309.571	93.19
309.8	71.19
310.03	89.19
310.26	94.19
310.49	82.19
310.72	80.19
310.949	69.19
311.179	98.19
311.409	86.19
311.639	86.19
311.868	80.19
312.098	92.19
312.328	84.19
312.557	82.19
312.787	94.19
313.017	74.19
313.246	91.19
313.476	90.19
313.706	86.19
313.935	76.19
314.165	86.19
314.394	73.19
314.624	79.19
314.853	101.19
315.083	104.19
315.312	91.19
315.542	100.19
315.771	95.19
316.001	88.19
316.23	89.19
316.46	95.19
316.689	84.19
316.919	80.19
317.148	80.19
317.377	92.19
317.607	89.19
317.836	81.19
318.065	89.19
318.295	85.19
318.524	78.19
318.753	92.19
318.983	90.19
319.212	90.19
319.441	76.19
319.67	83.19
319.9	89.19
320.129	90.19
320.358	94.19
320.587	86.19
320.816	92.19
321.046	75.19
321.275	93.19
321.504	85.19
321.733	78.19
321.962	94.19
322.191	84.19
322.42	91.19
322.649	80.19
322.878	91.19
323.108	78.19
323.337	90.19
323.566	81.19
323.795	80.19
324.024	81.19
324.253	86.19
324.482	78.19
324.71	84.19
324.939	96.19
325.168	95.19
325.397	101.19
325.626	96.19
325.855	91.19
326.084	89.19
326.313	90.19
326.542	73.19
326.77	89.19
326.999	93.19
327.228	82.19
327.457	76.19
327.686	84.19
327.914	84.19
328.143	85.19
328.372	101.19
328.6	84.19
328.829	79.19
329.058	86.19
329.287	93.19
329.515	76.19
329.744	81.19
329.972	75.19
330.201	90.19
330.43	88.19
330.658	77.19
330.887	83.19
331.115	82.19
331.344	89.19
331.572	84.19
331.801	95.19
332.03	87.19
332.258	92.19
332.486	92.19
332.715	88.19
332.943	91.19
333.172	86.19
333.4	95.19
333.629	76.19
333.857	91.19
334.085	79.19
334.314	92.19
334.542	80.19
334.771	82.19
334.999	86.19
335.227	96.19
335.455	84.19
335.684	101.19
335.912	83.19
336.14	92.19
336.369	89.19
336.597	87.19
336.825	77.19
337.053	89.19
337.281	68.19
337.51	88.19
337.738	87.19
337.966	89.19
338.194	72.19
338.422	74.19
338.65	69.19
338.878	83.19
339.106	90.19
339.334	94.19
339.562	83.19
339.79	85.19
340.018	91.19
340.246	98.19
340.474	87.19
340.702	84.19
340.93	73.19
341.158	90.19
341.386	103.19
341.614	91.19
341.842	93.19
342.07	77.19
342.298	79.19
342.526	95.19
342.754	83.19
342.981	71.19
343.209	89.19
343.437	95.19
343.665	75.19
343.893	73.19
344.12	74.19
344.348	82.19
344.576	84.19
344.804	81.19
345.031	65.19
345.259	85.19
345.487	75.19
345.714	95.19
345.942	70.19
346.17	87.19
346.397	77.19
346.625	86.19
346.853	76.19
347.08	80.19
347.308	91.19
347.535	82.19
347.763	91.19
347.99	90.19
348.218	87.19
348.445	75.19
348.673	78.19
348.9	99.19
349.128	87.19
349.355	84.19
349.583	87.19
349.81	81.19
350.037	81.19
350.265	79.19
350.492	89.19
350.72	90.19
350.947	81.19
351.174	90.19
351.402	79.19
351.629	78.19
351.856	67.19
352.083	72.19
352.311	79.19
352.538	66.19
352.765	81.19
352.992	70.19
353.22	81.19
353.447	94.19
353.674	90.19
353.901	79.19
354.128	79.19
354.355	74.19
354.583	85.19
354.81	86.19
355.037	74.19
355.264	77.19
355.491	84.19
355.718	86.19
355.945	85.19
356.172	90.19
356.399	89.19
356.626	83.19
356.853	82.19
357.08	89.19
357.307	88.19
357.534	80.19
357.761	87.19
357.988	80.19
358.215	90.19
358.441	89.19
358.668	84.19
358.895	90.19
359.122	77.19
359.349	89.19
359.576	88.19
359.802	81.19
360.029	88.19
360.256	90.19
360.483	87.19
360.709	80.19
360.936	94.19
361.163	91.19
361.39	88.19
361.616	70.19
361.843	87.19
362.07	89.19
362.296	85.19
362.523	98.19
362.749	87.19
362.976	89.19
363.203	82.19
363.429	87.19
363.656	92.19
363.882	92.19
364.109	100.19
364.335	87.19
364.562	89.19
364.788	89.19
365.015	92.19
365.241	88.19
365.468	81.19
365.694	76.19
365.92	82.19
366.147	89.19
366.373	76.19
366.599	75.19
366.826	77.19
367.052	90.19
367.278	79.19
367.505	78.19
367.731	100.19
367.957	87.19
368.184	92.19
368.41	97.19
368.636	86.19
368.862	100.19
369.089	89.19
369.315	71.19
369.541	92.19
369.767	94.19
369.993	84.19
370.219	78.19
370.445	96.19
370.672	79.19
370.898	82.19
371.124	74.19
371.35	86.19
371.576	82.19
371.802	91.19
372.028	83.19
372.254	75.19
372.48	80.19
372.706	75.19
372.932	82.19
373.158	90.19
373.384	93.19
373.61	102.19
373.835	95.19
374.061	82.19
374.287	82.19
374.513	80.19
374.739	84.19
374.965	82.19
375.191	79.19
375.416	82.19
375.642	79.19
375.868	85.19
376.094	77.19
376.319	89.19
376.545	86.19
376.771	96.19
376.997	94.19
377.222	77.19
377.448	79.19
377.674	87.19
377.899	94.19
378.125	78.19
378.35	86.19
378.576	84.19
378.802	102.19
379.027	96.19
379.253	84.19
379.478	94.19
379.704	94.19
379.929	81.19
380.155	83.19
380.38	83.19
380.606	90.19
380.831	89.19
381.057	92.19
381.282	94.19
381.507	95.19
381.733	83.19
381.958	79.19
382.184	70.19
382.409	76.19
382.634	87.19
382.86	82.19
383.085	91.19
383.31	89.19
383.535	115.19
383.761	79.19
383.986	96.19
384.211	94.19
384.436	89.19
384.662	86.19
384.887	83.19
385.112	83.19
385.337	85.19
385.562	78.19
385.787	81.19
386.013	76.19
386.238	76.19
386.463	85.19
386.688	81.19
386.913	83.19
387.138	76.19
387.363	94.19
387.588	82.19
387.813	86.19
388.038	77.19
388.263	92.19
388.488	79.19
388.713	86.19
388.938	88.19
389.163	89.19
389.387	78.19
389.612	94.19
389.837	77.19
390.062	91.19
390.287	89.19
390.512	104.19
390.736	97.19
390.961	85.19
391.186	84.19
391.411	89.19
391.636	87.19
391.86	72.19
392.085	92.19
392.31	96.19
392.534	76.19
392.759	79.19
392.984	92.19
393.208	97.19
393.433	98.19
393.658	96.19
393.882	97.19
394.107	73.19
394.331	79.19
394.556	79.19
394.78	78.19
395.005	88.19
395.229	86.19
395.454	96.19
395.678	83.19
395.903	86.19
396.127	81.19
396.352	90.19
396.576	91.19
396.801	88.19
397.025	84.19
397.249	93.19
397.474	77.19
397.698	73.19
397.922	80.19
398.147	88.19
398.371	83.19
398.595	87.19
398.82	88.19
399.044	76.19
399.268	76.19
399.492	98.19
399.717	88.19
399.941	102.19
400.165	80.19
400.389	77.19
400.613	84.19
400.837	90.19
401.062	83.19
401.286	89.19
401.51	77.19
401.734	78.19
401.958	79.19
402.182	97.19
402.406	75.19
402.63	106.19
402.854	78.19
403.078	102.19
403.302	81.19
403.526	87.19
403.75	86.19
403.974	91.19
404.198	90.19
404.422	84.19
404.645	90.19
404.869	93.19
405.093	81.19
405.317	90.19
405.541	76.19
405.765	105.19
405.988	72.19
406.212	90.19
406.436	91.19
406.66	90.19
406.883	103.19
407.107	71.19
407.331	96.19
407.555	94.19
407.778	81.19
408.002	96.19
408.226	82.19
408.449	85.19
408.673	103.19
408.896	99.19
409.12	103.19
409.344	100.19
409.567	80.19
409.791	101.19
410.014	88.19
410.238	83.19
410.461	86.19
410.685	90.19
410.908	88.19
411.132	96.19
411.355	90.19
411.578	86.19
411.802	98.19
412.025	82.19
412.249	95.19
412.472	93.19
412.695	94.19
412.919	90.19
413.142	75.19
413.365	79.19
413.589	81.19
413.812	99.19
414.035	103.19
414.258	92.19
414.482	91.19
414.705	91.19
414.928	89.19
415.151	88.19
415.374	84.19
415.597	91.19
415.821	75.19
416.044	84.19
416.267	95.19
416.49	92.19
416.713	92.19
416.936	85.19
417.159	79.19
417.382	88.19
417.605	86.19
417.828	76.19
418.051	89.19
418.274	86.19
418.497	96.19
418.72	102.19
418.943	95.19
419.166	88.19
419.389	104.19
419.611	90.19
419.834	98.19
420.057	107.19
420.28	81.19
420.503	87.19
420.726	87.19
420.948	86.19
421.171	94.19
421.394	99.19
421.617	99.19
421.839	96.19
422.062	108.19
422.285	99.19
422.507	94.19
422.73	85.19
422.953	76.19
423.175	90.19
423.398	84.19
423.621	93.19
423.843	95.19
424.066	96.19
424.288	99.19
424.511	101.19
424.733	105.19
424.956	95.19
425.178	95.19
425.401	103.19
425.623	102.19
425.846	93.19
426.068	90.19
426.291	95.19
426.513	77.19
426.735	100.19
426.958	79.19
427.18	97.19
427.402	98.19
427.625	87.19
427.847	110.19
428.069	89.19
428.292	88.19
428.514	92.19
428.736	82.19
428.958	100.19
429.181	95.19
429.403	92.19
429.625	94.19
429.847	86.19
430.069	84.19
430.292	100.19
430.514	94.19
430.736	105.19
430.958	94.19
431.18	99.19
431.402	95.19
431.624	105.19
431.846	93.19
432.068	88.19
432.29	83.19
432.512	79.19
432.734	90.19
432.956	86.19
433.178	86.19
433.4	96.19
433.622	102.19
433.844	94.19
434.066	86.19
434.287	90.19
434.509	97.19
434.731	80.19
434.953	100.19
435.175	89.19
435.397	91.19
435.618	90.19
435.84	100.19
436.062	97.19
436.284	98.19
436.505	101.19
436.727	87.19
436.949	97.19
437.17	70.19
437.392	98.19
437.614	68.19
437.835	96.19
438.057	92.19
438.278	82.19
438.5	95.19
438.721	102.19
438.943	87.19
439.165	101.19
439.386	93.19
439.608	99.19
439.829	105.19
440.05	102.19
440.272	94.19
440.493	77.19
440.715	80.19
440.936	91.19
441.158	101.19
441.379	93.19
441.6	90.19
441.822	89.19
442.043	98.19
442.264	92.19
442.486	108.19
442.707	81.19
442.928	95.19
443.149	95.19
443.371	103.19
443.592	103.19
443.813	79.19
444.034	97.19
444.255	95.19
444.476	85.19
444.698	94.19
444.919	95.19
445.14	228.19
445.361	164.19
445.582	99.19
445.803	98.19
446.024	99.19
446.245	95.19
446.466	98.19
446.687	91.19
446.908	94.19
447.129	100.19
447.35	104.19
447.571	102.19
447.792	92.19
448.013	85.19
448.234	86.19
448.455	107.19
448.675	97.19
448.896	96.19
449.117	96.19
449.338	97.19
449.559	89.19
449.779	92.19
450	107.19
450.221	90.19
450.442	97.19
450.662	88.19
450.883	88.19
451.104	101.19
451.324	95.19
451.545	90.19
451.766	86.19
451.986	94.19
452.207	91.19
452.428	94.19
452.648	91.19
452.869	82.19
453.089	86.19
453.31	87.19
453.53	85.19
453.751	87.19
453.971	89.19
454.192	77.19
454.412	88.19
454.633	93.19
454.853	84.19
455.073	88.19
455.294	91.19
455.514	86.19
455.734	89.19
455.955	77.19
456.175	82.19
456.395	94.19
456.616	78.19
456.836	84.19
457.056	87.19
457.276	82.19
457.497	81.19
457.717	83.19
457.937	87.19
458.157	83.19
458.377	82.19
458.598	97.19
458.818	80.19
459.038	91.19
459.258	88.19
459.478	87.19
459.698	81.19
459.918	79.19
460.138	79.19
460.358	79.19
460.578	91.19
460.798	101.19
461.018	89.19
461.238	94.19
461.458	83.19
461.678	78.19
461.898	89.19
462.118	82.19
462.338	87.19
462.558	99.19
462.777	90.19
462.997	91.19
463.217	83.19
463.437	85.19
463.657	80.19
463.876	94.19
464.096	76.19
464.316	79.19
464.536	95.19
464.755	88.19
464.975	85.19
465.195	102.19
465.414	94.19
465.634	91.19
465.854	90.19
466.073	94.19
466.293	85.19
466.512	89.19
466.732	92.19
466.951	100.19
467.171	83.19
467.391	98.19
467.61	102.19
467.829	89.19
468.049	88.19
468.268	95.19
468.488	92.19
468.707	93.19
468.927	101.19
469.146	87.19
469.365	106.19
469.585	91.19
469.804	94.19
470.023	102.19
470.243	81.19
470.462	102.19
470.681	88.19
470.901	97.19
471.12	87.19
471.339	100.19
471.558	100.19
471.777	89.19
471.997	89.19
472.216	90.19
472.435	98.19
472.654	96.19
472.873	89.19
473.092	91.19
473.311	92.19
473.53	93.19
473.749	85.19
473.968	110.19
474.187	94.19
474.406	70.19
474.625	93.19
474.844	90.19
475.063	87.19
475.282	79.19
475.501	95.19
475.72	103.19
475.939	73.19
476.158	84.19
476.377	93.19
476.596	94.19
476.814	85.19
477.033	77.19
477.252	92.19
477.471	87.19
477.69	95.19
477.908	108.19
478.127	101.19
478.346	102.19
478.564	80.19
478.783	99.19
479.002	104.19
479.22	97.19
479.439	104.19
479.658	95.19
479.876	84.19
480.095	74.19
480.313	83.19
480.532	85.19
480.751	84.19
480.969	87.19
481.188	84.19
481.406	73.19
481.624	87.19
481.843	77.19
482.061	86.19
482.28	86.19
482.498	88.19
482.717	93.19
482.935	100.19
483.153	84.19
483.372	110.19
483.59	107.19
483.808	102.19
484.027	107.19
484.245	106.19
484.463	93.19
484.681	107.19
484.9	91.19
485.118	88.19
485.336	89.19
485.554	93.19
485.772	56.19
485.99	84.19
486.209	83.19
486.427	89.19
486.645	103.19
486.863	92.19
487.081	103.19
487.299	93.19
487.517	94.19
487.735	97.19
487.953	105.19
488.171	105.19
488.389	106.19
488.607	111.19
488.825	88.19
489.043	91.19
489.261	92.19
489.479	99.19
489.696	90.19
489.914	108.19
490.132	101.19
490.35	89.19
490.568	92.19
490.786	101.19
491.003	119.19
491.221	110.19
491.439	120.19
491.657	95.19
491.874	127.19
492.092	122.19
492.31	127.19
492.527	124.19
492.745	131.19
492.963	112.19
493.18	105.19
493.398	115.19
493.615	110.19
493.833	104.19
494.05	110.19
494.268	99.19
494.485	105.19
494.703	102.19
494.92	107.19
495.138	105.19
495.355	89.19
495.573	99.19
495.79	103.19
496.008	103.19
496.225	98.19
496.442	102.19
496.66	120.19
496.877	114.19
497.094	111.19
497.312	97.19
497.529	100.19
497.746	83.19
497.963	102.19
498.181	94.19
498.398	107.19
498.615	86.19
498.832	97.19
499.049	94.19
499.267	79.19
499.484	88.19
499.701	98.19
499.918	82.19
500.135	84.19
500.352	104.19
500.569	111.19
500.786	112.19
501.003	95.19
501.22	103.19
501.437	87.19
501.654	90.19
501.871	85.19
502.088	86.19
502.305	95.19
502.522	82.19
502.739	103.19
502.956	93.19
503.172	88.19
503.389	99.19
503.606	89.19
503.823	82.19
504.04	81.19
504.256	78.19
504.473	99.19
504.69	94.19
504.907	83.19
505.123	100.19
505.34	85.19
505.557	106.19
505.773	102.19
505.99	74.19
506.207	75.19
506.423	84.19
506.64	95.19
506.856	86.19
507.073	99.19
507.289	86.19
507.506	105.19
507.722	89.19
507.939	86.19
508.155	91.19
508.372	89.19
508.588	76.19
508.805	108.19
509.021	94.19
509.238	98.19
509.454	82.19
509.67	86.19
509.887	96.19
510.103	105.19
510.319	84.19
510.536	82.19
510.752	92.19
510.968	70.19
511.184	94.19
511.401	96.19
511.617	88.19
511.833	92.19
512.049	85.19
512.265	110.19
512.481	90.19
512.698	86.19
512.914	68.19
513.13	91.19
513.346	99.19
513.562	84.19
513.778	87.19
513.994	88.19
514.21	95.19
514.426	83.19
514.642	82.19
514.858	94.19
515.074	82.19
515.29	85.19
515.506	76.19
515.721	66.19
515.937	80.19
516.153	88.19
516.369	87.19
516.585	73.19
516.801	88.19
517.016	92.19
517.232	91.19
517.448	96.19
517.664	104.19
