Data from Location5.07152019.Energy5.Lamp.07192019.3%Agarose_HRD10591_16-03-51-629.txt Node
Date: Fri Jul 19 16:03:51 EDT 2019
User: cochatt
Spectrometer: HR+D1059
Trigger mode: 1
Integration Time (sec): 1.000000E-1
Scans to average: 1
Electric dark correction enabled: true
Nonlinearity correction enabled: false
Boxcar width: 0
XAxis mode: Wavelengths
Number of Pixels in Spectrum: 2048
>>>>>Begin Spectral Data<<<<<
223.165	-9.56
223.4	-9.56
223.635	-9.56
223.869	-14.56
224.104	-18.56
224.338	-6.56
224.573	-20.56
224.808	-9.56
225.042	-10.56
225.277	-16.56
225.511	-1.56
225.746	3.44
225.98	19.44
226.215	8.44
226.449	1.44
226.683	23.44
226.918	25.44
227.152	26.44
227.387	28.44
227.621	36.44
227.856	49.44
228.09	39.44
228.324	29.44
228.559	45.44
228.793	58.44
229.027	57.44
229.262	54.44
229.496	56.44
229.73	80.44
229.964	55.44
230.199	72.44
230.433	65.44
230.667	79.44
230.901	80.44
231.136	72.44
231.37	63.44
231.604	68.44
231.838	72.44
232.072	79.44
232.306	90.44
232.541	86.44
232.775	87.44
233.009	94.44
233.243	70.44
233.477	71.44
233.711	90.44
233.945	76.44
234.179	84.44
234.413	89.44
234.647	74.44
234.881	88.44
235.115	76.44
235.349	83.44
235.583	89.44
235.817	70.44
236.051	73.44
236.285	82.44
236.519	80.44
236.753	69.44
236.987	71.44
237.221	79.44
237.455	74.44
237.689	87.44
237.922	66.44
238.156	73.44
238.39	87.44
238.624	72.44
238.858	84.44
239.091	80.44
239.325	65.44
239.559	73.44
239.793	72.44
240.027	83.44
240.26	89.44
240.494	74.44
240.728	80.44
240.961	79.44
241.195	72.44
241.429	77.44
241.662	78.44
241.896	87.44
242.13	80.44
242.363	96.44
242.597	83.44
242.83	81.44
243.064	73.44
243.298	66.44
243.531	72.44
243.765	85.44
243.998	72.44
244.232	69.44
244.465	71.44
244.699	73.44
244.932	73.44
245.166	84.44
245.399	58.44
245.633	88.44
245.866	85.44
246.099	59.44
246.333	80.44
246.566	78.44
246.8	79.44
247.033	94.44
247.266	75.44
247.5	89.44
247.733	73.44
247.966	70.44
248.2	63.44
248.433	82.44
248.666	81.44
248.899	90.44
249.133	82.44
249.366	78.44
249.599	78.44
249.832	78.44
250.066	87.44
250.299	86.44
250.532	81.44
250.765	77.44
250.998	75.44
251.231	73.44
251.465	89.44
251.698	92.44
251.931	90.44
252.164	83.44
252.397	81.44
252.63	72.44
252.863	75.44
253.096	80.44
253.329	78.44
253.562	80.44
253.795	72.44
254.028	90.44
254.261	72.44
254.494	78.44
254.727	78.44
254.96	76.44
255.193	74.44
255.426	87.44
255.659	86.44
255.892	74.44
256.124	71.44
256.357	79.44
256.59	78.44
256.823	88.44
257.056	75.44
257.289	81.44
257.521	87.44
257.754	77.44
257.987	67.44
258.22	68.44
258.452	77.44
258.685	80.44
258.918	73.44
259.151	79.44
259.383	78.44
259.616	86.44
259.849	69.44
260.081	87.44
260.314	68.44
260.547	83.44
260.779	70.44
261.012	65.44
261.244	87.44
261.477	85.44
261.71	78.44
261.942	94.44
262.175	82.44
262.407	79.44
262.64	82.44
262.872	85.44
263.105	74.44
263.337	98.44
263.57	95.44
263.802	77.44
264.035	89.44
264.267	76.44
264.499	85.44
264.732	89.44
264.964	75.44
265.197	79.44
265.429	83.44
265.661	77.44
265.894	86.44
266.126	78.44
266.358	72.44
266.591	75.44
266.823	77.44
267.055	86.44
267.287	74.44
267.52	91.44
267.752	79.44
267.984	82.44
268.216	86.44
268.448	90.44
268.681	82.44
268.913	89.44
269.145	83.44
269.377	84.44
269.609	67.44
269.841	80.44
270.073	89.44
270.306	91.44
270.538	78.44
270.77	73.44
271.002	86.44
271.234	86.44
271.466	74.44
271.698	87.44
271.93	89.44
272.162	82.44
272.394	99.44
272.626	90.44
272.858	82.44
273.09	77.44
273.322	87.44
273.553	93.44
273.785	93.44
274.017	71.44
274.249	88.44
274.481	86.44
274.713	88.44
274.945	79.44
275.176	73.44
275.408	92.44
275.64	89.44
275.872	91.44
276.104	82.44
276.335	81.44
276.567	86.44
276.799	79.44
277.031	65.44
277.262	82.44
277.494	95.44
277.726	85.44
277.957	82.44
278.189	76.44
278.421	85.44
278.652	88.44
278.884	89.44
279.115	92.44
279.347	85.44
279.579	88.44
279.81	81.44
280.042	84.44
280.273	82.44
280.505	98.44
280.736	86.44
280.968	80.44
281.199	84.44
281.431	81.44
281.662	83.44
281.894	93.44
282.125	90.44
282.356	101.44
282.588	86.44
282.819	87.44
283.051	81.44
283.282	100.44
283.513	89.44
283.745	71.44
283.976	98.44
284.207	87.44
284.439	71.44
284.67	93.44
284.901	96.44
285.132	87.44
285.364	85.44
285.595	84.44
285.826	78.44
286.057	91.44
286.288	88.44
286.52	89.44
286.751	82.44
286.982	79.44
287.213	86.44
287.444	89.44
287.675	102.44
287.906	83.44
288.138	95.44
288.369	105.44
288.6	94.44
288.831	95.44
289.062	92.44
289.293	80.44
289.524	76.44
289.755	80.44
289.986	72.44
290.217	78.44
290.448	85.44
290.679	92.44
290.91	75.44
291.141	91.44
291.371	86.44
291.602	96.44
291.833	73.44
292.064	88.44
292.295	106.44
292.526	80.44
292.757	80.44
292.987	74.44
293.218	83.44
293.449	97.44
293.68	102.44
293.91	84.44
294.141	97.44
294.372	103.44
294.603	92.44
294.833	89.44
295.064	88.44
295.295	89.44
295.525	84.44
295.756	74.44
295.987	97.44
296.217	80.44
296.448	82.44
296.679	95.44
296.909	87.44
297.14	84.44
297.37	89.44
297.601	80.44
297.831	87.44
298.062	106.44
298.292	101.44
298.523	82.44
298.753	89.44
298.984	83.44
299.214	91.44
299.445	72.44
299.675	87.44
299.905	85.44
300.136	101.44
300.366	84.44
300.597	84.44
300.827	98.44
301.057	82.44
301.288	90.44
301.518	90.44
301.748	83.44
301.979	94.44
302.209	91.44
302.439	96.44
302.669	91.44
302.9	72.44
303.13	96.44
303.36	84.44
303.59	92.44
303.82	86.44
304.051	81.44
304.281	87.44
304.511	104.44
304.741	84.44
304.971	91.44
305.201	91.44
305.431	92.44
305.661	101.44
305.891	84.44
306.121	77.44
306.352	102.44
306.582	98.44
306.812	84.44
307.042	90.44
307.272	86.44
307.502	71.44
307.731	92.44
307.961	94.44
308.191	98.44
308.421	100.44
308.651	88.44
308.881	88.44
309.111	69.44
309.341	79.44
309.571	89.44
309.8	76.44
310.03	99.44
310.26	77.44
310.49	88.44
310.72	86.44
310.949	81.44
311.179	96.44
311.409	84.44
311.639	93.44
311.868	85.44
312.098	87.44
312.328	86.44
312.557	82.44
312.787	97.44
313.017	82.44
313.246	75.44
313.476	89.44
313.706	93.44
313.935	95.44
314.165	78.44
314.394	81.44
314.624	89.44
314.853	91.44
315.083	90.44
315.312	94.44
315.542	89.44
315.771	96.44
316.001	92.44
316.23	101.44
316.46	81.44
316.689	86.44
316.919	88.44
317.148	78.44
317.377	93.44
317.607	80.44
317.836	95.44
318.065	81.44
318.295	97.44
318.524	96.44
318.753	84.44
318.983	98.44
319.212	90.44
319.441	98.44
319.67	95.44
319.9	88.44
320.129	86.44
320.358	71.44
320.587	79.44
320.816	81.44
321.046	71.44
321.275	84.44
321.504	87.44
321.733	88.44
321.962	98.44
322.191	91.44
322.42	96.44
322.649	83.44
322.878	93.44
323.108	89.44
323.337	97.44
323.566	93.44
323.795	95.44
324.024	89.44
324.253	84.44
324.482	80.44
324.71	96.44
324.939	82.44
325.168	84.44
325.397	92.44
325.626	91.44
325.855	87.44
326.084	91.44
326.313	79.44
326.542	103.44
326.77	82.44
326.999	98.44
327.228	97.44
327.457	85.44
327.686	83.44
327.914	90.44
328.143	85.44
328.372	75.44
328.6	85.44
328.829	83.44
329.058	97.44
329.287	81.44
329.515	94.44
329.744	78.44
329.972	93.44
330.201	91.44
330.43	93.44
330.658	86.44
330.887	90.44
331.115	99.44
331.344	93.44
331.572	79.44
331.801	95.44
332.03	91.44
332.258	88.44
332.486	93.44
332.715	97.44
332.943	95.44
333.172	101.44
333.4	94.44
333.629	98.44
333.857	109.44
334.085	88.44
334.314	103.44
334.542	88.44
334.771	89.44
334.999	94.44
335.227	88.44
335.455	87.44
335.684	102.44
335.912	101.44
336.14	91.44
336.369	92.44
336.597	86.44
336.825	88.44
337.053	87.44
337.281	106.44
337.51	81.44
337.738	81.44
337.966	94.44
338.194	78.44
338.422	102.44
338.65	96.44
338.878	94.44
339.106	96.44
339.334	93.44
339.562	93.44
339.79	90.44
340.018	89.44
340.246	99.44
340.474	85.44
340.702	78.44
340.93	97.44
341.158	97.44
341.386	84.44
341.614	84.44
341.842	99.44
342.07	79.44
342.298	97.44
342.526	90.44
342.754	101.44
342.981	95.44
343.209	105.44
343.437	87.44
343.665	96.44
343.893	105.44
344.12	93.44
344.348	79.44
344.576	102.44
344.804	80.44
345.031	78.44
345.259	81.44
345.487	93.44
345.714	89.44
345.942	80.44
346.17	77.44
346.397	82.44
346.625	95.44
346.853	90.44
347.08	83.44
347.308	90.44
347.535	82.44
347.763	89.44
347.99	86.44
348.218	93.44
348.445	87.44
348.673	89.44
348.9	102.44
349.128	93.44
349.355	100.44
349.583	114.44
349.81	89.44
350.037	82.44
350.265	84.44
350.492	97.44
350.72	93.44
350.947	98.44
351.174	88.44
351.402	73.44
351.629	86.44
351.856	89.44
352.083	94.44
352.311	95.44
352.538	91.44
352.765	100.44
352.992	88.44
353.22	89.44
353.447	93.44
353.674	91.44
353.901	98.44
354.128	95.44
354.355	78.44
354.583	76.44
354.81	93.44
355.037	81.44
355.264	85.44
355.491	94.44
355.718	81.44
355.945	110.44
356.172	101.44
356.399	80.44
356.626	88.44
356.853	96.44
357.08	75.44
357.307	76.44
357.534	75.44
357.761	87.44
357.988	89.44
358.215	87.44
358.441	83.44
358.668	82.44
358.895	101.44
359.122	86.44
359.349	88.44
359.576	89.44
359.802	90.44
360.029	102.44
360.256	89.44
360.483	81.44
360.709	93.44
360.936	99.44
361.163	88.44
361.39	101.44
361.616	90.44
361.843	93.44
362.07	86.44
362.296	98.44
362.523	91.44
362.749	105.44
362.976	89.44
363.203	111.44
363.429	91.44
363.656	84.44
363.882	86.44
364.109	80.44
364.335	101.44
364.562	80.44
364.788	73.44
365.015	86.44
365.241	102.44
365.468	95.44
365.694	91.44
365.92	79.44
366.147	95.44
366.373	100.44
366.599	88.44
366.826	81.44
367.052	81.44
367.278	89.44
367.505	96.44
367.731	90.44
367.957	71.44
368.184	88.44
368.41	88.44
368.636	88.44
368.862	95.44
369.089	76.44
369.315	94.44
369.541	84.44
369.767	90.44
369.993	86.44
370.219	101.44
370.445	84.44
370.672	87.44
370.898	83.44
371.124	95.44
371.35	96.44
371.576	93.44
371.802	87.44
372.028	82.44
372.254	83.44
372.48	103.44
372.706	76.44
372.932	101.44
373.158	94.44
373.384	95.44
373.61	110.44
373.835	78.44
374.061	86.44
374.287	86.44
374.513	92.44
374.739	92.44
374.965	96.44
375.191	99.44
375.416	85.44
375.642	96.44
375.868	98.44
376.094	86.44
376.319	81.44
376.545	82.44
376.771	96.44
376.997	89.44
377.222	93.44
377.448	88.44
377.674	81.44
377.899	91.44
378.125	87.44
378.35	97.44
378.576	86.44
378.802	84.44
379.027	87.44
379.253	100.44
379.478	89.44
379.704	84.44
379.929	93.44
380.155	96.44
380.38	95.44
380.606	90.44
380.831	87.44
381.057	99.44
381.282	89.44
381.507	95.44
381.733	86.44
381.958	94.44
382.184	92.44
382.409	105.44
382.634	101.44
382.86	82.44
383.085	93.44
383.31	98.44
383.535	92.44
383.761	97.44
383.986	94.44
384.211	90.44
384.436	99.44
384.662	98.44
384.887	88.44
385.112	87.44
385.337	83.44
385.562	92.44
385.787	92.44
386.013	106.44
386.238	92.44
386.463	92.44
386.688	108.44
386.913	92.44
387.138	107.44
387.363	93.44
387.588	94.44
387.813	87.44
388.038	88.44
388.263	94.44
388.488	85.44
388.713	77.44
388.938	91.44
389.163	95.44
389.387	83.44
389.612	90.44
389.837	73.44
390.062	109.44
390.287	80.44
390.512	91.44
390.736	98.44
390.961	76.44
391.186	87.44
391.411	97.44
391.636	85.44
391.86	104.44
392.085	95.44
392.31	88.44
392.534	94.44
392.759	77.44
392.984	94.44
393.208	93.44
393.433	90.44
393.658	88.44
393.882	81.44
394.107	94.44
394.331	102.44
394.556	87.44
394.78	95.44
395.005	114.44
395.229	99.44
395.454	100.44
395.678	95.44
395.903	90.44
396.127	100.44
396.352	96.44
396.576	95.44
396.801	95.44
397.025	104.44
397.249	92.44
397.474	97.44
397.698	93.44
397.922	100.44
398.147	80.44
398.371	86.44
398.595	83.44
398.82	76.44
399.044	92.44
399.268	101.44
399.492	108.44
399.717	94.44
399.941	105.44
400.165	101.44
400.389	94.44
400.613	83.44
400.837	83.44
401.062	83.44
401.286	103.44
401.51	100.44
401.734	71.44
401.958	92.44
402.182	99.44
402.406	98.44
402.63	96.44
402.854	97.44
403.078	87.44
403.302	95.44
403.526	88.44
403.75	99.44
403.974	95.44
404.198	101.44
404.422	104.44
404.645	94.44
404.869	106.44
405.093	99.44
405.317	104.44
405.541	79.44
405.765	86.44
405.988	99.44
406.212	100.44
406.436	97.44
406.66	95.44
406.883	93.44
407.107	81.44
407.331	109.44
407.555	101.44
407.778	90.44
408.002	97.44
408.226	95.44
408.449	95.44
408.673	95.44
408.896	98.44
409.12	101.44
409.344	98.44
409.567	83.44
409.791	113.44
410.014	84.44
410.238	95.44
410.461	95.44
410.685	89.44
410.908	90.44
411.132	105.44
411.355	100.44
411.578	85.44
411.802	82.44
412.025	103.44
412.249	95.44
412.472	86.44
412.695	81.44
412.919	95.44
413.142	85.44
413.365	88.44
413.589	83.44
413.812	90.44
414.035	98.44
414.258	86.44
414.482	87.44
414.705	86.44
414.928	95.44
415.151	102.44
415.374	96.44
415.597	94.44
415.821	96.44
416.044	119.44
416.267	92.44
416.49	94.44
416.713	75.44
416.936	89.44
417.159	85.44
417.382	81.44
417.605	91.44
417.828	80.44
418.051	74.44
418.274	93.44
418.497	85.44
418.72	93.44
418.943	86.44
419.166	92.44
419.389	104.44
419.611	92.44
419.834	85.44
420.057	103.44
420.28	95.44
420.503	92.44
420.726	91.44
420.948	105.44
421.171	92.44
421.394	102.44
421.617	104.44
421.839	96.44
422.062	92.44
422.285	103.44
422.507	89.44
422.73	81.44
422.953	90.44
423.175	97.44
423.398	100.44
423.621	105.44
423.843	98.44
424.066	91.44
424.288	82.44
424.511	101.44
424.733	98.44
424.956	93.44
425.178	87.44
425.401	80.44
425.623	96.44
425.846	96.44
426.068	73.44
426.291	87.44
426.513	87.44
426.735	96.44
426.958	102.44
427.18	92.44
427.402	99.44
427.625	98.44
427.847	90.44
428.069	106.44
428.292	83.44
428.514	82.44
428.736	91.44
428.958	92.44
429.181	97.44
429.403	100.44
429.625	99.44
429.847	83.44
430.069	84.44
430.292	85.44
430.514	84.44
430.736	81.44
430.958	92.44
431.18	73.44
431.402	86.44
431.624	104.44
431.846	91.44
432.068	94.44
432.29	92.44
432.512	86.44
432.734	115.44
432.956	96.44
433.178	83.44
433.4	97.44
433.622	87.44
433.844	95.44
434.066	91.44
434.287	90.44
434.509	86.44
434.731	105.44
434.953	85.44
435.175	97.44
435.397	87.44
435.618	93.44
435.84	95.44
436.062	83.44
436.284	90.44
436.505	81.44
436.727	77.44
436.949	103.44
437.17	91.44
437.392	87.44
437.614	74.44
437.835	88.44
438.057	85.44
438.278	92.44
438.5	97.44
438.721	98.44
438.943	85.44
439.165	90.44
439.386	89.44
439.608	91.44
439.829	96.44
440.05	99.44
440.272	90.44
440.493	100.44
440.715	93.44
440.936	88.44
441.158	93.44
441.379	95.44
441.6	95.44
441.822	103.44
442.043	93.44
442.264	102.44
442.486	98.44
442.707	99.44
442.928	92.44
443.149	91.44
443.371	94.44
443.592	96.44
443.813	98.44
444.034	82.44
444.255	109.44
444.476	82.44
444.698	81.44
444.919	105.44
445.14	184.44
445.361	139.44
445.582	98.44
445.803	78.44
446.024	84.44
446.245	95.44
446.466	86.44
446.687	103.44
446.908	104.44
447.129	102.44
447.35	112.44
447.571	100.44
447.792	88.44
448.013	98.44
448.234	95.44
448.455	89.44
448.675	90.44
448.896	91.44
449.117	78.44
449.338	96.44
449.559	86.44
449.779	92.44
450	93.44
450.221	79.44
450.442	89.44
450.662	72.44
450.883	88.44
451.104	94.44
451.324	100.44
451.545	82.44
451.766	86.44
451.986	87.44
452.207	88.44
452.428	87.44
452.648	97.44
452.869	72.44
453.089	84.44
453.31	103.44
453.53	101.44
453.751	90.44
453.971	97.44
454.192	85.44
454.412	97.44
454.633	98.44
454.853	90.44
455.073	98.44
455.294	94.44
455.514	86.44
455.734	83.44
455.955	84.44
456.175	100.44
456.395	108.44
456.616	94.44
456.836	93.44
457.056	81.44
457.276	92.44
457.497	83.44
457.717	87.44
457.937	89.44
458.157	100.44
458.377	106.44
458.598	86.44
458.818	103.44
459.038	98.44
459.258	81.44
459.478	87.44
459.698	84.44
459.918	88.44
460.138	98.44
460.358	100.44
460.578	99.44
460.798	86.44
461.018	86.44
461.238	94.44
461.458	99.44
461.678	85.44
461.898	92.44
462.118	103.44
462.338	101.44
462.558	107.44
462.777	109.44
462.997	109.44
463.217	109.44
463.437	95.44
463.657	103.44
463.876	103.44
464.096	85.44
464.316	99.44
464.536	100.44
464.755	93.44
464.975	112.44
465.195	92.44
465.414	92.44
465.634	97.44
465.854	90.44
466.073	94.44
466.293	89.44
466.512	84.44
466.732	92.44
466.951	97.44
467.171	106.44
467.391	103.44
467.61	84.44
467.829	95.44
468.049	98.44
468.268	116.44
468.488	92.44
468.707	77.44
468.927	84.44
469.146	103.44
469.365	103.44
469.585	108.44
469.804	99.44
470.023	101.44
470.243	90.44
470.462	90.44
470.681	87.44
470.901	85.44
471.12	106.44
471.339	89.44
471.558	95.44
471.777	90.44
471.997	88.44
472.216	95.44
472.435	98.44
472.654	101.44
472.873	80.44
473.092	99.44
473.311	97.44
473.53	79.44
473.749	89.44
473.968	97.44
474.187	100.44
474.406	77.44
474.625	105.44
474.844	95.44
475.063	86.44
475.282	101.44
475.501	96.44
475.72	104.44
475.939	91.44
476.158	104.44
476.377	113.44
476.596	89.44
476.814	99.44
477.033	97.44
477.252	89.44
477.471	103.44
477.69	95.44
477.908	104.44
478.127	101.44
478.346	110.44
478.564	101.44
478.783	92.44
479.002	99.44
479.22	100.44
479.439	108.44
479.658	104.44
479.876	96.44
480.095	109.44
480.313	107.44
480.532	100.44
480.751	98.44
480.969	90.44
481.188	97.44
481.406	106.44
481.624	99.44
481.843	94.44
482.061	98.44
482.28	100.44
482.498	92.44
482.717	93.44
482.935	104.44
483.153	92.44
483.372	95.44
483.59	104.44
483.808	98.44
484.027	118.44
484.245	95.44
484.463	102.44
484.681	109.44
484.9	94.44
485.118	105.44
485.336	90.44
485.554	97.44
485.772	93.44
485.99	91.44
486.209	99.44
486.427	100.44
486.645	106.44
486.863	95.44
487.081	103.44
487.299	110.44
487.517	95.44
487.735	92.44
487.953	108.44
488.171	109.44
488.389	119.44
488.607	94.44
488.825	98.44
489.043	102.44
489.261	92.44
489.479	92.44
489.696	93.44
489.914	95.44
490.132	97.44
490.35	118.44
490.568	108.44
490.786	103.44
491.003	104.44
491.221	118.44
491.439	105.44
491.657	116.44
491.874	108.44
492.092	109.44
492.31	108.44
492.527	113.44
492.745	116.44
492.963	110.44
493.18	105.44
493.398	102.44
493.615	112.44
493.833	102.44
494.05	97.44
494.268	107.44
494.485	103.44
494.703	111.44
494.92	121.44
495.138	111.44
495.355	114.44
495.573	115.44
495.79	108.44
496.008	118.44
496.225	110.44
496.442	112.44
496.66	100.44
496.877	108.44
497.094	98.44
497.312	105.44
497.529	117.44
497.746	101.44
497.963	108.44
498.181	101.44
498.398	105.44
498.615	103.44
498.832	110.44
499.049	136.44
499.267	119.44
499.484	127.44
499.701	138.44
499.918	136.44
500.135	121.44
500.352	151.44
500.569	148.44
500.786	164.44
501.003	137.44
501.22	150.44
501.437	148.44
501.654	119.44
501.871	110.44
502.088	119.44
502.305	116.44
502.522	116.44
502.739	120.44
502.956	119.44
503.172	115.44
503.389	121.44
503.606	112.44
503.823	110.44
504.04	125.44
504.256	118.44
504.473	94.44
504.69	106.44
504.907	113.44
505.123	100.44
505.34	100.44
505.557	93.44
505.773	99.44
505.99	103.44
506.207	98.44
506.423	86.44
506.64	103.44
506.856	80.44
507.073	101.44
507.289	86.44
507.506	101.44
507.722	90.44
507.939	101.44
508.155	113.44
508.372	96.44
508.588	108.44
508.805	103.44
509.021	113.44
509.238	115.44
509.454	95.44
509.67	111.44
509.887	96.44
510.103	108.44
510.319	89.44
510.536	95.44
510.752	95.44
510.968	86.44
511.184	93.44
511.401	100.44
511.617	102.44
511.833	88.44
512.049	98.44
512.265	93.44
512.481	89.44
512.698	96.44
512.914	109.44
513.13	107.44
513.346	92.44
513.562	100.44
513.778	90.44
513.994	90.44
514.21	102.44
514.426	79.44
514.642	98.44
514.858	97.44
515.074	92.44
515.29	98.44
515.506	95.44
515.721	87.44
515.937	96.44
