Data from Location5.07152019.Energy5.Lamp.07192019.3%Agarose_HRD10591_16-04-57-629.txt Node
Date: Fri Jul 19 16:04:57 EDT 2019
User: cochatt
Spectrometer: HR+D1059
Trigger mode: 1
Integration Time (sec): 1.000000E-1
Scans to average: 1
Electric dark correction enabled: true
Nonlinearity correction enabled: false
Boxcar width: 0
XAxis mode: Wavelengths
Number of Pixels in Spectrum: 2048
>>>>>Begin Spectral Data<<<<<
223.165	-19.25
223.4	-19.25
223.635	-19.25
223.869	-14.25
224.104	-11.25
224.338	-21.25
224.573	-8.25
224.808	-17.25
225.042	-7.25
225.277	-0.25
225.511	7.75
225.746	3.75
225.98	4.75
226.215	8.75
226.449	6.75
226.683	16.75
226.918	13.75
227.152	36.75
227.387	44.75
227.621	42.75
227.856	38.75
228.09	51.75
228.324	55.75
228.559	47.75
228.793	59.75
229.027	59.75
229.262	63.75
229.496	64.75
229.73	64.75
229.964	70.75
230.199	74.75
230.433	67.75
230.667	73.75
230.901	79.75
231.136	77.75
231.37	70.75
231.604	83.75
231.838	77.75
232.072	91.75
232.306	95.75
232.541	86.75
232.775	73.75
233.009	66.75
233.243	87.75
233.477	76.75
233.711	84.75
233.945	83.75
234.179	93.75
234.413	92.75
234.647	77.75
234.881	87.75
235.115	85.75
235.349	69.75
235.583	81.75
235.817	71.75
236.051	91.75
236.285	80.75
236.519	74.75
236.753	78.75
236.987	86.75
237.221	79.75
237.455	63.75
237.689	86.75
237.922	83.75
238.156	72.75
238.39	74.75
238.624	74.75
238.858	94.75
239.091	68.75
239.325	81.75
239.559	80.75
239.793	77.75
240.027	68.75
240.26	82.75
240.494	87.75
240.728	77.75
240.961	79.75
241.195	73.75
241.429	96.75
241.662	70.75
241.896	74.75
242.13	77.75
242.363	82.75
242.597	78.75
242.83	80.75
243.064	82.75
243.298	75.75
243.531	64.75
243.765	78.75
243.998	83.75
244.232	77.75
244.465	79.75
244.699	66.75
244.932	72.75
245.166	90.75
245.399	70.75
245.633	72.75
245.866	82.75
246.099	86.75
246.333	89.75
246.566	77.75
246.8	78.75
247.033	89.75
247.266	82.75
247.5	76.75
247.733	80.75
247.966	75.75
248.2	86.75
248.433	73.75
248.666	83.75
248.899	70.75
249.133	75.75
249.366	73.75
249.599	82.75
249.832	71.75
250.066	80.75
250.299	77.75
250.532	76.75
250.765	84.75
250.998	74.75
251.231	73.75
251.465	75.75
251.698	82.75
251.931	69.75
252.164	77.75
252.397	71.75
252.63	79.75
252.863	83.75
253.096	71.75
253.329	67.75
253.562	70.75
253.795	82.75
254.028	81.75
254.261	81.75
254.494	80.75
254.727	80.75
254.96	80.75
255.193	81.75
255.426	67.75
255.659	87.75
255.892	88.75
256.124	71.75
256.357	91.75
256.59	82.75
256.823	73.75
257.056	77.75
257.289	89.75
257.521	87.75
257.754	87.75
257.987	83.75
258.22	80.75
258.452	76.75
258.685	94.75
258.918	83.75
259.151	86.75
259.383	91.75
259.616	80.75
259.849	91.75
260.081	86.75
260.314	85.75
260.547	88.75
260.779	67.75
261.012	89.75
261.244	84.75
261.477	94.75
261.71	87.75
261.942	75.75
262.175	83.75
262.407	80.75
262.64	86.75
262.872	81.75
263.105	96.75
263.337	85.75
263.57	84.75
263.802	79.75
264.035	74.75
264.267	89.75
264.499	88.75
264.732	84.75
264.964	98.75
265.197	83.75
265.429	66.75
265.661	70.75
265.894	91.75
266.126	83.75
266.358	88.75
266.591	76.75
266.823	78.75
267.055	80.75
267.287	81.75
267.52	78.75
267.752	89.75
267.984	75.75
268.216	100.75
268.448	84.75
268.681	76.75
268.913	86.75
269.145	90.75
269.377	86.75
269.609	81.75
269.841	95.75
270.073	94.75
270.306	80.75
270.538	90.75
270.77	90.75
271.002	92.75
271.234	92.75
271.466	85.75
271.698	91.75
271.93	89.75
272.162	100.75
272.394	90.75
272.626	79.75
272.858	84.75
273.09	89.75
273.322	81.75
273.553	101.75
273.785	84.75
274.017	90.75
274.249	90.75
274.481	88.75
274.713	81.75
274.945	77.75
275.176	82.75
275.408	80.75
275.64	82.75
275.872	79.75
276.104	83.75
276.335	89.75
276.567	91.75
276.799	75.75
277.031	87.75
277.262	93.75
277.494	89.75
277.726	84.75
277.957	96.75
278.189	90.75
278.421	85.75
278.652	92.75
278.884	91.75
279.115	80.75
279.347	82.75
279.579	82.75
279.81	92.75
280.042	86.75
280.273	94.75
280.505	89.75
280.736	80.75
280.968	91.75
281.199	93.75
281.431	75.75
281.662	88.75
281.894	101.75
282.125	101.75
282.356	98.75
282.588	94.75
282.819	88.75
283.051	96.75
283.282	92.75
283.513	87.75
283.745	94.75
283.976	76.75
284.207	97.75
284.439	81.75
284.67	98.75
284.901	100.75
285.132	84.75
285.364	75.75
285.595	98.75
285.826	77.75
286.057	95.75
286.288	87.75
286.52	80.75
286.751	81.75
286.982	87.75
287.213	91.75
287.444	79.75
287.675	89.75
287.906	76.75
288.138	80.75
288.369	89.75
288.6	78.75
288.831	95.75
289.062	91.75
289.293	104.75
289.524	113.75
289.755	92.75
289.986	86.75
290.217	101.75
290.448	80.75
290.679	86.75
290.91	88.75
291.141	89.75
291.371	94.75
291.602	80.75
291.833	89.75
292.064	94.75
292.295	88.75
292.526	90.75
292.757	78.75
292.987	95.75
293.218	84.75
293.449	81.75
293.68	95.75
293.91	97.75
294.141	83.75
294.372	97.75
294.603	83.75
294.833	92.75
295.064	97.75
295.295	76.75
295.525	88.75
295.756	86.75
295.987	79.75
296.217	89.75
296.448	91.75
296.679	107.75
296.909	97.75
297.14	86.75
297.37	98.75
297.601	108.75
297.831	86.75
298.062	82.75
298.292	84.75
298.523	90.75
298.753	82.75
298.984	97.75
299.214	93.75
299.445	82.75
299.675	91.75
299.905	110.75
300.136	94.75
300.366	98.75
300.597	99.75
300.827	88.75
301.057	91.75
301.288	91.75
301.518	89.75
301.748	81.75
301.979	92.75
302.209	80.75
302.439	82.75
302.669	91.75
302.9	102.75
303.13	102.75
303.36	92.75
303.59	98.75
303.82	89.75
304.051	92.75
304.281	86.75
304.511	95.75
304.741	97.75
304.971	103.75
305.201	97.75
305.431	93.75
305.661	96.75
305.891	93.75
306.121	97.75
306.352	98.75
306.582	85.75
306.812	93.75
307.042	82.75
307.272	89.75
307.502	84.75
307.731	76.75
307.961	92.75
308.191	90.75
308.421	94.75
308.651	78.75
308.881	85.75
309.111	85.75
309.341	80.75
309.571	83.75
309.8	75.75
310.03	92.75
310.26	103.75
310.49	96.75
310.72	81.75
310.949	71.75
311.179	76.75
311.409	94.75
311.639	86.75
311.868	93.75
312.098	92.75
312.328	101.75
312.557	91.75
312.787	92.75
313.017	90.75
313.246	95.75
313.476	82.75
313.706	88.75
313.935	86.75
314.165	85.75
314.394	97.75
314.624	95.75
314.853	104.75
315.083	103.75
315.312	84.75
315.542	101.75
315.771	92.75
316.001	92.75
316.23	94.75
316.46	79.75
316.689	93.75
316.919	102.75
317.148	95.75
317.377	98.75
317.607	95.75
317.836	104.75
318.065	90.75
318.295	93.75
318.524	84.75
318.753	88.75
318.983	81.75
319.212	84.75
319.441	98.75
319.67	77.75
319.9	95.75
320.129	85.75
320.358	92.75
320.587	87.75
320.816	93.75
321.046	88.75
321.275	83.75
321.504	92.75
321.733	95.75
321.962	97.75
322.191	91.75
322.42	99.75
322.649	105.75
322.878	99.75
323.108	102.75
323.337	92.75
323.566	88.75
323.795	106.75
324.024	100.75
324.253	95.75
324.482	90.75
324.71	86.75
324.939	90.75
325.168	80.75
325.397	91.75
325.626	90.75
325.855	93.75
326.084	91.75
326.313	100.75
326.542	83.75
326.77	104.75
326.999	79.75
327.228	78.75
327.457	99.75
327.686	97.75
327.914	97.75
328.143	110.75
328.372	89.75
328.6	84.75
328.829	98.75
329.058	95.75
329.287	83.75
329.515	102.75
329.744	97.75
329.972	83.75
330.201	98.75
330.43	101.75
330.658	95.75
330.887	92.75
331.115	95.75
331.344	99.75
331.572	97.75
331.801	90.75
332.03	103.75
332.258	102.75
332.486	82.75
332.715	96.75
332.943	90.75
333.172	96.75
333.4	92.75
333.629	98.75
333.857	98.75
334.085	103.75
334.314	103.75
334.542	100.75
334.771	99.75
334.999	84.75
335.227	91.75
335.455	87.75
335.684	91.75
335.912	91.75
336.14	91.75
336.369	101.75
336.597	92.75
336.825	97.75
337.053	88.75
337.281	81.75
337.51	83.75
337.738	98.75
337.966	95.75
338.194	87.75
338.422	98.75
338.65	91.75
338.878	97.75
339.106	87.75
339.334	84.75
339.562	87.75
339.79	94.75
340.018	92.75
340.246	89.75
340.474	85.75
340.702	81.75
340.93	79.75
341.158	99.75
341.386	99.75
341.614	106.75
341.842	96.75
342.07	91.75
342.298	91.75
342.526	107.75
342.754	84.75
342.981	91.75
343.209	89.75
343.437	89.75
343.665	103.75
343.893	94.75
344.12	93.75
344.348	99.75
344.576	85.75
344.804	95.75
345.031	102.75
345.259	90.75
345.487	92.75
345.714	100.75
345.942	91.75
346.17	98.75
346.397	107.75
346.625	106.75
346.853	85.75
347.08	82.75
347.308	80.75
347.535	93.75
347.763	96.75
347.99	96.75
348.218	81.75
348.445	87.75
348.673	92.75
348.9	75.75
349.128	71.75
349.355	68.75
349.583	88.75
349.81	92.75
350.037	86.75
350.265	94.75
350.492	102.75
350.72	95.75
350.947	83.75
351.174	86.75
351.402	84.75
351.629	97.75
351.856	80.75
352.083	77.75
352.311	79.75
352.538	100.75
352.765	95.75
352.992	104.75
353.22	97.75
353.447	73.75
353.674	94.75
353.901	100.75
354.128	98.75
354.355	92.75
354.583	101.75
354.81	96.75
355.037	82.75
355.264	89.75
355.491	85.75
355.718	84.75
355.945	103.75
356.172	91.75
356.399	100.75
356.626	84.75
356.853	88.75
357.08	101.75
357.307	89.75
357.534	103.75
357.761	87.75
357.988	104.75
358.215	86.75
358.441	92.75
358.668	79.75
358.895	82.75
359.122	86.75
359.349	106.75
359.576	97.75
359.802	84.75
360.029	86.75
360.256	84.75
360.483	79.75
360.709	94.75
360.936	99.75
361.163	89.75
361.39	103.75
361.616	96.75
361.843	93.75
362.07	80.75
362.296	98.75
362.523	111.75
362.749	87.75
362.976	88.75
363.203	95.75
363.429	82.75
363.656	86.75
363.882	89.75
364.109	85.75
364.335	90.75
364.562	88.75
364.788	94.75
365.015	82.75
365.241	95.75
365.468	81.75
365.694	101.75
365.92	88.75
366.147	85.75
366.373	87.75
366.599	94.75
366.826	98.75
367.052	89.75
367.278	107.75
367.505	92.75
367.731	88.75
367.957	87.75
368.184	101.75
368.41	100.75
368.636	94.75
368.862	100.75
369.089	100.75
369.315	88.75
369.541	89.75
369.767	85.75
369.993	70.75
370.219	79.75
370.445	91.75
370.672	100.75
370.898	89.75
371.124	87.75
371.35	92.75
371.576	80.75
371.802	86.75
372.028	96.75
372.254	90.75
372.48	94.75
372.706	80.75
372.932	81.75
373.158	85.75
373.384	97.75
373.61	87.75
373.835	102.75
374.061	93.75
374.287	99.75
374.513	93.75
374.739	84.75
374.965	91.75
375.191	99.75
375.416	88.75
375.642	100.75
375.868	92.75
376.094	98.75
376.319	97.75
376.545	87.75
376.771	99.75
376.997	99.75
377.222	89.75
377.448	96.75
377.674	94.75
377.899	90.75
378.125	66.75
378.35	87.75
378.576	88.75
378.802	99.75
379.027	90.75
379.253	84.75
379.478	94.75
379.704	85.75
379.929	91.75
380.155	86.75
380.38	96.75
380.606	86.75
380.831	89.75
381.057	85.75
381.282	77.75
381.507	89.75
381.733	102.75
381.958	95.75
382.184	87.75
382.409	86.75
382.634	91.75
382.86	106.75
383.085	96.75
383.31	87.75
383.535	96.75
383.761	91.75
383.986	88.75
384.211	94.75
384.436	99.75
384.662	90.75
384.887	88.75
385.112	101.75
385.337	97.75
385.562	95.75
385.787	100.75
386.013	94.75
386.238	96.75
386.463	91.75
386.688	92.75
386.913	85.75
387.138	83.75
387.363	103.75
387.588	90.75
387.813	86.75
388.038	90.75
388.263	87.75
388.488	79.75
388.713	92.75
388.938	85.75
389.163	99.75
389.387	92.75
389.612	96.75
389.837	96.75
390.062	92.75
390.287	84.75
390.512	96.75
390.736	90.75
390.961	79.75
391.186	84.75
391.411	81.75
391.636	95.75
391.86	97.75
392.085	91.75
392.31	102.75
392.534	111.75
392.759	95.75
392.984	99.75
393.208	81.75
393.433	90.75
393.658	102.75
393.882	69.75
394.107	97.75
394.331	101.75
394.556	87.75
394.78	88.75
395.005	111.75
395.229	93.75
395.454	111.75
395.678	96.75
395.903	90.75
396.127	75.75
396.352	93.75
396.576	95.75
396.801	103.75
397.025	85.75
397.249	95.75
397.474	97.75
397.698	101.75
397.922	98.75
398.147	100.75
398.371	89.75
398.595	78.75
398.82	91.75
399.044	76.75
399.268	93.75
399.492	106.75
399.717	104.75
399.941	101.75
400.165	85.75
400.389	99.75
400.613	103.75
400.837	96.75
401.062	99.75
401.286	100.75
401.51	105.75
401.734	98.75
401.958	91.75
402.182	94.75
402.406	103.75
402.63	95.75
402.854	92.75
403.078	99.75
403.302	100.75
403.526	101.75
403.75	101.75
403.974	98.75
404.198	102.75
404.422	100.75
404.645	95.75
404.869	110.75
405.093	98.75
405.317	99.75
405.541	97.75
405.765	77.75
405.988	90.75
406.212	101.75
406.436	90.75
406.66	100.75
406.883	87.75
407.107	86.75
407.331	94.75
407.555	101.75
407.778	86.75
408.002	105.75
408.226	101.75
408.449	105.75
408.673	102.75
408.896	97.75
409.12	98.75
409.344	88.75
409.567	88.75
409.791	89.75
410.014	103.75
410.238	110.75
410.461	87.75
410.685	95.75
410.908	90.75
411.132	102.75
411.355	78.75
411.578	69.75
411.802	81.75
412.025	97.75
412.249	98.75
412.472	106.75
412.695	106.75
412.919	98.75
413.142	102.75
413.365	88.75
413.589	96.75
413.812	99.75
414.035	102.75
414.258	98.75
414.482	95.75
414.705	93.75
414.928	95.75
415.151	82.75
415.374	81.75
415.597	95.75
415.821	87.75
416.044	93.75
416.267	87.75
416.49	96.75
416.713	92.75
416.936	95.75
417.159	83.75
417.382	89.75
417.605	109.75
417.828	94.75
418.051	95.75
418.274	115.75
418.497	120.75
418.72	119.75
418.943	106.75
419.166	90.75
419.389	90.75
419.611	92.75
419.834	97.75
420.057	104.75
420.28	84.75
420.503	76.75
420.726	103.75
420.948	92.75
421.171	94.75
421.394	105.75
421.617	105.75
421.839	95.75
422.062	103.75
422.285	99.75
422.507	106.75
422.73	92.75
422.953	109.75
423.175	94.75
423.398	110.75
423.621	97.75
423.843	84.75
424.066	91.75
424.288	99.75
424.511	83.75
424.733	88.75
424.956	88.75
425.178	93.75
425.401	105.75
425.623	103.75
425.846	88.75
426.068	102.75
426.291	108.75
426.513	90.75
426.735	90.75
426.958	75.75
427.18	104.75
427.402	108.75
427.625	97.75
427.847	108.75
428.069	100.75
428.292	86.75
428.514	86.75
428.736	86.75
428.958	92.75
429.181	91.75
429.403	104.75
429.625	100.75
429.847	111.75
430.069	102.75
430.292	98.75
430.514	108.75
430.736	102.75
430.958	102.75
431.18	89.75
431.402	105.75
431.624	95.75
431.846	94.75
432.068	89.75
432.29	95.75
432.512	87.75
432.734	91.75
432.956	104.75
433.178	97.75
433.4	90.75
433.622	92.75
433.844	85.75
434.066	99.75
434.287	101.75
434.509	86.75
434.731	86.75
434.953	101.75
435.175	90.75
435.397	91.75
435.618	98.75
435.84	91.75
436.062	92.75
436.284	89.75
436.505	93.75
436.727	87.75
436.949	86.75
437.17	88.75
437.392	101.75
437.614	97.75
437.835	99.75
438.057	107.75
438.278	90.75
438.5	85.75
438.721	107.75
438.943	94.75
439.165	95.75
439.386	94.75
439.608	97.75
439.829	86.75
440.05	96.75
440.272	87.75
440.493	97.75
440.715	103.75
440.936	97.75
441.158	107.75
441.379	91.75
441.6	92.75
441.822	107.75
442.043	96.75
442.264	89.75
442.486	90.75
442.707	89.75
442.928	84.75
443.149	101.75
443.371	112.75
443.592	100.75
443.813	90.75
444.034	88.75
444.255	92.75
444.476	104.75
444.698	98.75
444.919	96.75
445.14	218.75
445.361	157.75
445.582	95.75
445.803	85.75
446.024	98.75
446.245	92.75
446.466	94.75
446.687	101.75
446.908	100.75
447.129	100.75
447.35	98.75
447.571	90.75
447.792	105.75
448.013	110.75
448.234	101.75
448.455	87.75
448.675	105.75
448.896	88.75
449.117	101.75
449.338	88.75
449.559	102.75
449.779	92.75
450	98.75
450.221	91.75
450.442	86.75
450.662	96.75
450.883	97.75
451.104	88.75
451.324	95.75
451.545	103.75
451.766	98.75
451.986	91.75
452.207	95.75
452.428	80.75
452.648	96.75
452.869	102.75
453.089	102.75
453.31	96.75
453.53	74.75
453.751	94.75
453.971	93.75
454.192	84.75
454.412	82.75
454.633	94.75
454.853	96.75
455.073	85.75
455.294	87.75
455.514	96.75
455.734	99.75
455.955	95.75
456.175	89.75
456.395	75.75
456.616	87.75
456.836	86.75
457.056	108.75
457.276	98.75
457.497	93.75
457.717	97.75
457.937	83.75
458.157	79.75
458.377	92.75
458.598	97.75
458.818	81.75
459.038	95.75
459.258	103.75
459.478	103.75
459.698	97.75
459.918	95.75
460.138	101.75
460.358	85.75
460.578	94.75
460.798	97.75
461.018	103.75
461.238	97.75
461.458	94.75
461.678	94.75
461.898	107.75
462.118	94.75
462.338	98.75
462.558	105.75
462.777	101.75
462.997	106.75
463.217	100.75
463.437	101.75
463.657	92.75
463.876	90.75
464.096	102.75
464.316	97.75
464.536	95.75
464.755	91.75
464.975	99.75
465.195	111.75
465.414	103.75
465.634	83.75
465.854	77.75
466.073	103.75
466.293	79.75
466.512	101.75
466.732	94.75
466.951	93.75
467.171	89.75
467.391	90.75
467.61	87.75
467.829	94.75
468.049	86.75
468.268	97.75
468.488	121.75
468.707	91.75
468.927	92.75
469.146	83.75
469.365	90.75
469.585	94.75
469.804	106.75
470.023	86.75
470.243	90.75
470.462	103.75
470.681	89.75
470.901	88.75
471.12	82.75
471.339	98.75
471.558	91.75
471.777	99.75
471.997	113.75
472.216	100.75
472.435	89.75
472.654	100.75
472.873	112.75
473.092	100.75
473.311	104.75
473.53	81.75
473.749	95.75
473.968	102.75
474.187	101.75
474.406	92.75
474.625	93.75
474.844	97.75
475.063	86.75
475.282	91.75
475.501	87.75
475.72	110.75
475.939	113.75
476.158	106.75
476.377	95.75
476.596	99.75
476.814	103.75
477.033	89.75
477.252	94.75
477.471	100.75
477.69	94.75
477.908	99.75
478.127	93.75
478.346	104.75
478.564	97.75
478.783	103.75
479.002	103.75
479.22	88.75
479.439	103.75
479.658	95.75
479.876	94.75
480.095	107.75
480.313	90.75
480.532	108.75
480.751	86.75
480.969	91.75
481.188	84.75
481.406	96.75
481.624	108.75
481.843	94.75
482.061	102.75
482.28	93.75
482.498	92.75
482.717	86.75
482.935	94.75
483.153	116.75
483.372	102.75
483.59	107.75
483.808	95.75
484.027	107.75
484.245	99.75
484.463	108.75
484.681	109.75
484.9	95.75
485.118	106.75
485.336	95.75
485.554	104.75
485.772	85.75
485.99	79.75
486.209	112.75
486.427	112.75
486.645	107.75
486.863	99.75
487.081	102.75
487.299	96.75
487.517	89.75
487.735	90.75
487.953	115.75
488.171	96.75
488.389	96.75
488.607	90.75
488.825	101.75
489.043	100.75
489.261	88.75
489.479	104.75
489.696	96.75
489.914	97.75
490.132	112.75
490.35	112.75
490.568	96.75
490.786	108.75
491.003	106.75
491.221	113.75
491.439	112.75
491.657	116.75
491.874	119.75
492.092	100.75
492.31	118.75
492.527	94.75
492.745	117.75
492.963	103.75
493.18	120.75
493.398	118.75
493.615	117.75
493.833	115.75
494.05	103.75
494.268	107.75
494.485	127.75
494.703	108.75
494.92	118.75
495.138	106.75
495.355	116.75
495.573	116.75
495.79	104.75
496.008	114.75
496.225	113.75
496.442	96.75
496.66	104.75
496.877	115.75
497.094	108.75
497.312	104.75
497.529	112.75
497.746	97.75
497.963	118.75
498.181	107.75
498.398	104.75
498.615	119.75
498.832	118.75
499.049	107.75
499.267	118.75
499.484	106.75
499.701	130.75
499.918	136.75
500.135	129.75
500.352	142.75
500.569	151.75
500.786	159.75
501.003	169.75
501.22	124.75
501.437	119.75
501.654	122.75
501.871	108.75
502.088	126.75
502.305	120.75
502.522	114.75
502.739	107.75
502.956	101.75
503.172	105.75
503.389	101.75
503.606	103.75
503.823	101.75
504.04	100.75
504.256	113.75
504.473	90.75
504.69	105.75
504.907	108.75
505.123	100.75
505.34	105.75
505.557	110.75
505.773	99.75
505.99	101.75
506.207	101.75
506.423	106.75
506.64	104.75
506.856	95.75
507.073	112.75
507.289	99.75
507.506	100.75
507.722	103.75
507.939	98.75
508.155	106.75
508.372	98.75
508.588	93.75
508.805	99.75
509.021	99.75
509.238	108.75
509.454	97.75
509.67	101.75
509.887	98.75
510.103	102.75
510.319	84.75
510.536	105.75
510.752	84.75
510.968	106.75
511.184	99.75
511.401	91.75
511.617	80.75
511.833	102.75
512.049	105.75
512.265	91.75
512.481	103.75
512.698	101.75
512.914	95.75
513.13	96.75
513.346	82.75
513.562	94.75
513.778	111.75
513.994	95.75
514.21	98.75
514.426	95.75
514.642	100.75
514.858	91.75
515.074	92.75
515.29	95.75
