Data from Location5.07152019.Energy5.Lamp.07192019.3%Agarose_HRD10591_16-04-32-629.txt Node
Date: Fri Jul 19 16:04:32 EDT 2019
User: cochatt
Spectrometer: HR+D1059
Trigger mode: 1
Integration Time (sec): 1.000000E-1
Scans to average: 1
Electric dark correction enabled: true
Nonlinearity correction enabled: false
Boxcar width: 0
XAxis mode: Wavelengths
Number of Pixels in Spectrum: 2048
>>>>>Begin Spectral Data<<<<<
223.165	-23.5
223.4	-23.5
223.635	-23.5
223.869	-10.5
224.104	-24.5
224.338	-13.5
224.573	-26.5
224.808	-10.5
225.042	-7.5
225.277	-15.5
225.511	-5.5
225.746	7.5
225.98	7.5
226.215	25.5
226.449	15.5
226.683	28.5
226.918	36.5
227.152	16.5
227.387	21.5
227.621	26.5
227.856	35.5
228.09	54.5
228.324	50.5
228.559	49.5
228.793	64.5
229.027	62.5
229.262	72.5
229.496	52.5
229.73	62.5
229.964	73.5
230.199	65.5
230.433	64.5
230.667	80.5
230.901	82.5
231.136	75.5
231.37	83.5
231.604	82.5
231.838	80.5
232.072	73.5
232.306	86.5
232.541	80.5
232.775	68.5
233.009	93.5
233.243	83.5
233.477	90.5
233.711	70.5
233.945	90.5
234.179	89.5
234.413	80.5
234.647	66.5
234.881	78.5
235.115	74.5
235.349	81.5
235.583	79.5
235.817	73.5
236.051	56.5
236.285	71.5
236.519	73.5
236.753	81.5
236.987	70.5
237.221	80.5
237.455	81.5
237.689	81.5
237.922	77.5
238.156	86.5
238.39	76.5
238.624	74.5
238.858	80.5
239.091	95.5
239.325	90.5
239.559	86.5
239.793	77.5
240.027	83.5
240.26	62.5
240.494	76.5
240.728	80.5
240.961	78.5
241.195	67.5
241.429	63.5
241.662	76.5
241.896	70.5
242.13	77.5
242.363	72.5
242.597	78.5
242.83	72.5
243.064	65.5
243.298	79.5
243.531	78.5
243.765	78.5
243.998	80.5
244.232	69.5
244.465	79.5
244.699	74.5
244.932	87.5
245.166	73.5
245.399	75.5
245.633	74.5
245.866	82.5
246.099	79.5
246.333	73.5
246.566	82.5
246.8	72.5
247.033	88.5
247.266	85.5
247.5	79.5
247.733	72.5
247.966	74.5
248.2	79.5
248.433	67.5
248.666	77.5
248.899	86.5
249.133	90.5
249.366	84.5
249.599	81.5
249.832	85.5
250.066	93.5
250.299	70.5
250.532	71.5
250.765	84.5
250.998	72.5
251.231	81.5
251.465	72.5
251.698	72.5
251.931	71.5
252.164	84.5
252.397	82.5
252.63	79.5
252.863	87.5
253.096	74.5
253.329	54.5
253.562	77.5
253.795	82.5
254.028	90.5
254.261	88.5
254.494	73.5
254.727	84.5
254.96	66.5
255.193	72.5
255.426	77.5
255.659	76.5
255.892	93.5
256.124	84.5
256.357	83.5
256.59	95.5
256.823	80.5
257.056	70.5
257.289	92.5
257.521	72.5
257.754	71.5
257.987	70.5
258.22	98.5
258.452	87.5
258.685	88.5
258.918	66.5
259.151	84.5
259.383	102.5
259.616	82.5
259.849	78.5
260.081	77.5
260.314	78.5
260.547	59.5
260.779	92.5
261.012	82.5
261.244	74.5
261.477	73.5
261.71	85.5
261.942	87.5
262.175	92.5
262.407	82.5
262.64	94.5
262.872	77.5
263.105	86.5
263.337	89.5
263.57	81.5
263.802	73.5
264.035	92.5
264.267	90.5
264.499	73.5
264.732	86.5
264.964	76.5
265.197	90.5
265.429	82.5
265.661	84.5
265.894	77.5
266.126	71.5
266.358	79.5
266.591	80.5
266.823	90.5
267.055	72.5
267.287	80.5
267.52	89.5
267.752	79.5
267.984	76.5
268.216	90.5
268.448	92.5
268.681	86.5
268.913	86.5
269.145	93.5
269.377	79.5
269.609	75.5
269.841	97.5
270.073	89.5
270.306	79.5
270.538	94.5
270.77	84.5
271.002	88.5
271.234	77.5
271.466	93.5
271.698	91.5
271.93	75.5
272.162	82.5
272.394	83.5
272.626	89.5
272.858	89.5
273.09	95.5
273.322	86.5
273.553	70.5
273.785	81.5
274.017	86.5
274.249	91.5
274.481	86.5
274.713	84.5
274.945	94.5
275.176	86.5
275.408	88.5
275.64	77.5
275.872	87.5
276.104	81.5
276.335	81.5
276.567	78.5
276.799	79.5
277.031	86.5
277.262	79.5
277.494	89.5
277.726	90.5
277.957	88.5
278.189	101.5
278.421	72.5
278.652	75.5
278.884	84.5
279.115	98.5
279.347	84.5
279.579	76.5
279.81	89.5
280.042	94.5
280.273	76.5
280.505	82.5
280.736	86.5
280.968	86.5
281.199	83.5
281.431	86.5
281.662	95.5
281.894	86.5
282.125	94.5
282.356	83.5
282.588	82.5
282.819	77.5
283.051	84.5
283.282	91.5
283.513	95.5
283.745	84.5
283.976	71.5
284.207	97.5
284.439	98.5
284.67	95.5
284.901	84.5
285.132	91.5
285.364	105.5
285.595	85.5
285.826	75.5
286.057	84.5
286.288	85.5
286.52	74.5
286.751	73.5
286.982	94.5
287.213	86.5
287.444	92.5
287.675	82.5
287.906	72.5
288.138	98.5
288.369	83.5
288.6	86.5
288.831	90.5
289.062	97.5
289.293	84.5
289.524	70.5
289.755	88.5
289.986	80.5
290.217	87.5
290.448	88.5
290.679	82.5
290.91	93.5
291.141	93.5
291.371	86.5
291.602	87.5
291.833	92.5
292.064	76.5
292.295	84.5
292.526	84.5
292.757	92.5
292.987	78.5
293.218	95.5
293.449	100.5
293.68	83.5
293.91	89.5
294.141	85.5
294.372	59.5
294.603	94.5
294.833	89.5
295.064	83.5
295.295	85.5
295.525	90.5
295.756	94.5
295.987	97.5
296.217	88.5
296.448	101.5
296.679	101.5
296.909	77.5
297.14	87.5
297.37	93.5
297.601	75.5
297.831	98.5
298.062	90.5
298.292	97.5
298.523	102.5
298.753	92.5
298.984	87.5
299.214	90.5
299.445	93.5
299.675	89.5
299.905	88.5
300.136	94.5
300.366	84.5
300.597	88.5
300.827	84.5
301.057	92.5
301.288	95.5
301.518	96.5
301.748	85.5
301.979	81.5
302.209	90.5
302.439	81.5
302.669	89.5
302.9	82.5
303.13	92.5
303.36	93.5
303.59	81.5
303.82	82.5
304.051	88.5
304.281	83.5
304.511	84.5
304.741	92.5
304.971	83.5
305.201	91.5
305.431	92.5
305.661	81.5
305.891	75.5
306.121	82.5
306.352	88.5
306.582	100.5
306.812	72.5
307.042	94.5
307.272	85.5
307.502	96.5
307.731	86.5
307.961	87.5
308.191	90.5
308.421	84.5
308.651	86.5
308.881	92.5
309.111	79.5
309.341	84.5
309.571	77.5
309.8	87.5
310.03	70.5
310.26	98.5
310.49	103.5
310.72	86.5
310.949	79.5
311.179	89.5
311.409	100.5
311.639	85.5
311.868	84.5
312.098	92.5
312.328	88.5
312.557	92.5
312.787	83.5
313.017	89.5
313.246	85.5
313.476	76.5
313.706	85.5
313.935	87.5
314.165	93.5
314.394	92.5
314.624	89.5
314.853	74.5
315.083	78.5
315.312	98.5
315.542	90.5
315.771	101.5
316.001	74.5
316.23	96.5
316.46	90.5
316.689	93.5
316.919	90.5
317.148	92.5
317.377	90.5
317.607	84.5
317.836	82.5
318.065	96.5
318.295	89.5
318.524	103.5
318.753	74.5
318.983	84.5
319.212	84.5
319.441	83.5
319.67	100.5
319.9	92.5
320.129	83.5
320.358	85.5
320.587	86.5
320.816	85.5
321.046	80.5
321.275	97.5
321.504	97.5
321.733	85.5
321.962	72.5
322.191	80.5
322.42	98.5
322.649	80.5
322.878	95.5
323.108	96.5
323.337	84.5
323.566	80.5
323.795	90.5
324.024	86.5
324.253	97.5
324.482	94.5
324.71	86.5
324.939	91.5
325.168	88.5
325.397	104.5
325.626	82.5
325.855	89.5
326.084	84.5
326.313	86.5
326.542	96.5
326.77	89.5
326.999	89.5
327.228	84.5
327.457	97.5
327.686	83.5
327.914	93.5
328.143	84.5
328.372	91.5
328.6	89.5
328.829	96.5
329.058	82.5
329.287	86.5
329.515	100.5
329.744	98.5
329.972	93.5
330.201	86.5
330.43	84.5
330.658	80.5
330.887	95.5
331.115	88.5
331.344	87.5
331.572	102.5
331.801	90.5
332.03	108.5
332.258	88.5
332.486	94.5
332.715	101.5
332.943	84.5
333.172	77.5
333.4	93.5
333.629	100.5
333.857	93.5
334.085	91.5
334.314	92.5
334.542	103.5
334.771	104.5
334.999	91.5
335.227	85.5
335.455	97.5
335.684	97.5
335.912	81.5
336.14	104.5
336.369	88.5
336.597	68.5
336.825	87.5
337.053	96.5
337.281	92.5
337.51	90.5
337.738	78.5
337.966	98.5
338.194	80.5
338.422	105.5
338.65	101.5
338.878	95.5
339.106	94.5
339.334	85.5
339.562	69.5
339.79	94.5
340.018	98.5
340.246	92.5
340.474	90.5
340.702	83.5
340.93	88.5
341.158	91.5
341.386	72.5
341.614	95.5
341.842	78.5
342.07	87.5
342.298	85.5
342.526	89.5
342.754	87.5
342.981	81.5
343.209	96.5
343.437	101.5
343.665	98.5
343.893	71.5
344.12	103.5
344.348	83.5
344.576	94.5
344.804	79.5
345.031	88.5
345.259	101.5
345.487	99.5
345.714	74.5
345.942	104.5
346.17	93.5
346.397	92.5
346.625	95.5
346.853	90.5
347.08	82.5
347.308	91.5
347.535	76.5
347.763	80.5
347.99	93.5
348.218	85.5
348.445	88.5
348.673	81.5
348.9	95.5
349.128	98.5
349.355	80.5
349.583	89.5
349.81	84.5
350.037	94.5
350.265	84.5
350.492	91.5
350.72	97.5
350.947	96.5
351.174	93.5
351.402	81.5
351.629	87.5
351.856	77.5
352.083	83.5
352.311	82.5
352.538	98.5
352.765	78.5
352.992	86.5
353.22	86.5
353.447	96.5
353.674	84.5
353.901	96.5
354.128	87.5
354.355	90.5
354.583	79.5
354.81	82.5
355.037	95.5
355.264	94.5
355.491	83.5
355.718	89.5
355.945	108.5
356.172	87.5
356.399	88.5
356.626	95.5
356.853	75.5
357.08	90.5
357.307	102.5
357.534	85.5
357.761	85.5
357.988	94.5
358.215	98.5
358.441	80.5
358.668	81.5
358.895	98.5
359.122	86.5
359.349	100.5
359.576	79.5
359.802	82.5
360.029	88.5
360.256	103.5
360.483	91.5
360.709	94.5
360.936	93.5
361.163	89.5
361.39	84.5
361.616	100.5
361.843	82.5
362.07	77.5
362.296	85.5
362.523	92.5
362.749	82.5
362.976	88.5
363.203	92.5
363.429	92.5
363.656	109.5
363.882	84.5
364.109	86.5
364.335	92.5
364.562	70.5
364.788	77.5
365.015	84.5
365.241	86.5
365.468	91.5
365.694	92.5
365.92	93.5
366.147	96.5
366.373	88.5
366.599	92.5
366.826	83.5
367.052	82.5
367.278	80.5
367.505	81.5
367.731	90.5
367.957	99.5
368.184	90.5
368.41	98.5
368.636	92.5
368.862	95.5
369.089	62.5
369.315	93.5
369.541	77.5
369.767	85.5
369.993	89.5
370.219	95.5
370.445	75.5
370.672	80.5
370.898	89.5
371.124	89.5
371.35	78.5
371.576	79.5
371.802	96.5
372.028	88.5
372.254	89.5
372.48	82.5
372.706	88.5
372.932	97.5
373.158	92.5
373.384	95.5
373.61	101.5
373.835	96.5
374.061	104.5
374.287	87.5
374.513	90.5
374.739	75.5
374.965	80.5
375.191	79.5
375.416	86.5
375.642	92.5
375.868	87.5
376.094	84.5
376.319	88.5
376.545	86.5
376.771	81.5
376.997	84.5
377.222	84.5
377.448	85.5
377.674	78.5
377.899	86.5
378.125	74.5
378.35	114.5
378.576	85.5
378.802	82.5
379.027	88.5
379.253	90.5
379.478	78.5
379.704	87.5
379.929	96.5
380.155	96.5
380.38	96.5
380.606	84.5
380.831	90.5
381.057	100.5
381.282	95.5
381.507	109.5
381.733	92.5
381.958	74.5
382.184	84.5
382.409	95.5
382.634	89.5
382.86	93.5
383.085	79.5
383.31	92.5
383.535	77.5
383.761	82.5
383.986	85.5
384.211	101.5
384.436	91.5
384.662	89.5
384.887	92.5
385.112	93.5
385.337	96.5
385.562	87.5
385.787	89.5
386.013	105.5
386.238	89.5
386.463	90.5
386.688	83.5
386.913	94.5
387.138	83.5
387.363	80.5
387.588	79.5
387.813	100.5
388.038	93.5
388.263	89.5
388.488	83.5
388.713	85.5
388.938	103.5
389.163	103.5
389.387	85.5
389.612	94.5
389.837	83.5
390.062	92.5
390.287	97.5
390.512	96.5
390.736	81.5
390.961	93.5
391.186	88.5
391.411	100.5
391.636	83.5
391.86	100.5
392.085	89.5
392.31	84.5
392.534	82.5
392.759	107.5
392.984	91.5
393.208	84.5
393.433	82.5
393.658	70.5
393.882	95.5
394.107	94.5
394.331	98.5
394.556	97.5
394.78	101.5
395.005	88.5
395.229	80.5
395.454	88.5
395.678	88.5
395.903	92.5
396.127	86.5
396.352	91.5
396.576	92.5
396.801	77.5
397.025	95.5
397.249	90.5
397.474	84.5
397.698	88.5
397.922	92.5
398.147	96.5
398.371	80.5
398.595	92.5
398.82	74.5
399.044	90.5
399.268	95.5
399.492	93.5
399.717	90.5
399.941	111.5
400.165	96.5
400.389	97.5
400.613	88.5
400.837	81.5
401.062	101.5
401.286	94.5
401.51	101.5
401.734	96.5
401.958	83.5
402.182	95.5
402.406	86.5
402.63	91.5
402.854	108.5
403.078	99.5
403.302	80.5
403.526	97.5
403.75	89.5
403.974	78.5
404.198	86.5
404.422	93.5
404.645	90.5
404.869	99.5
405.093	92.5
405.317	90.5
405.541	103.5
405.765	89.5
405.988	92.5
406.212	86.5
406.436	90.5
406.66	109.5
406.883	98.5
407.107	92.5
407.331	89.5
407.555	88.5
407.778	103.5
408.002	92.5
408.226	85.5
408.449	101.5
408.673	91.5
408.896	89.5
409.12	81.5
409.344	95.5
409.567	94.5
409.791	99.5
410.014	90.5
410.238	94.5
410.461	93.5
410.685	97.5
410.908	92.5
411.132	90.5
411.355	99.5
411.578	93.5
411.802	82.5
412.025	95.5
412.249	100.5
412.472	98.5
412.695	88.5
412.919	105.5
413.142	94.5
413.365	87.5
413.589	96.5
413.812	101.5
414.035	95.5
414.258	89.5
414.482	88.5
414.705	97.5
414.928	86.5
415.151	92.5
415.374	91.5
415.597	84.5
415.821	95.5
416.044	95.5
416.267	90.5
416.49	84.5
416.713	106.5
416.936	95.5
417.159	106.5
417.382	94.5
417.605	98.5
417.828	100.5
418.051	89.5
418.274	95.5
418.497	80.5
418.72	92.5
418.943	96.5
419.166	93.5
419.389	101.5
419.611	110.5
419.834	103.5
420.057	90.5
420.28	93.5
420.503	86.5
420.726	93.5
420.948	90.5
421.171	84.5
421.394	86.5
421.617	105.5
421.839	84.5
422.062	91.5
422.285	92.5
422.507	94.5
422.73	93.5
422.953	88.5
423.175	96.5
423.398	88.5
423.621	97.5
423.843	94.5
424.066	83.5
424.288	96.5
424.511	100.5
424.733	112.5
424.956	94.5
425.178	86.5
425.401	93.5
425.623	102.5
425.846	91.5
426.068	112.5
426.291	84.5
426.513	88.5
426.735	97.5
426.958	95.5
427.18	88.5
427.402	100.5
427.625	90.5
427.847	88.5
428.069	93.5
428.292	89.5
428.514	102.5
428.736	80.5
428.958	84.5
429.181	80.5
429.403	92.5
429.625	80.5
429.847	100.5
430.069	91.5
430.292	88.5
430.514	87.5
430.736	94.5
430.958	79.5
431.18	86.5
431.402	92.5
431.624	92.5
431.846	82.5
432.068	85.5
432.29	93.5
432.512	71.5
432.734	92.5
432.956	91.5
433.178	80.5
433.4	83.5
433.622	83.5
433.844	92.5
434.066	84.5
434.287	84.5
434.509	100.5
434.731	111.5
434.953	94.5
435.175	95.5
435.397	94.5
435.618	82.5
435.84	83.5
436.062	91.5
436.284	95.5
436.505	94.5
436.727	92.5
436.949	90.5
437.17	79.5
437.392	79.5
437.614	90.5
437.835	83.5
438.057	78.5
438.278	84.5
438.5	85.5
438.721	85.5
438.943	85.5
439.165	89.5
439.386	66.5
439.608	89.5
439.829	80.5
440.05	92.5
440.272	92.5
440.493	88.5
440.715	109.5
440.936	84.5
441.158	90.5
441.379	95.5
441.6	97.5
441.822	96.5
442.043	96.5
442.264	89.5
442.486	98.5
442.707	74.5
442.928	94.5
443.149	77.5
443.371	86.5
443.592	87.5
443.813	94.5
444.034	81.5
444.255	91.5
444.476	90.5
444.698	95.5
444.919	101.5
445.14	239.5
445.361	151.5
445.582	99.5
445.803	93.5
446.024	83.5
446.245	102.5
446.466	97.5
446.687	87.5
446.908	103.5
447.129	105.5
447.35	80.5
447.571	84.5
447.792	85.5
448.013	81.5
448.234	89.5
448.455	94.5
448.675	78.5
448.896	79.5
449.117	88.5
449.338	90.5
449.559	86.5
449.779	80.5
450	79.5
450.221	80.5
450.442	81.5
450.662	86.5
450.883	100.5
451.104	88.5
451.324	102.5
451.545	95.5
451.766	97.5
451.986	86.5
452.207	102.5
452.428	78.5
452.648	101.5
452.869	84.5
453.089	90.5
453.31	76.5
453.53	83.5
453.751	79.5
453.971	87.5
454.192	90.5
454.412	97.5
454.633	83.5
454.853	83.5
455.073	82.5
455.294	77.5
455.514	94.5
455.734	90.5
455.955	93.5
456.175	95.5
456.395	77.5
456.616	83.5
456.836	84.5
457.056	89.5
457.276	84.5
457.497	92.5
457.717	79.5
457.937	91.5
458.157	85.5
458.377	96.5
458.598	78.5
458.818	74.5
459.038	94.5
459.258	80.5
459.478	96.5
459.698	95.5
459.918	91.5
460.138	84.5
460.358	96.5
460.578	94.5
460.798	86.5
461.018	98.5
461.238	108.5
461.458	92.5
461.678	98.5
461.898	96.5
462.118	94.5
462.338	98.5
462.558	95.5
462.777	89.5
462.997	102.5
463.217	86.5
463.437	113.5
463.657	88.5
463.876	97.5
464.096	95.5
464.316	109.5
464.536	102.5
464.755	94.5
464.975	95.5
465.195	112.5
465.414	76.5
465.634	98.5
465.854	91.5
466.073	100.5
466.293	94.5
466.512	94.5
466.732	97.5
466.951	106.5
467.171	89.5
467.391	98.5
467.61	88.5
467.829	92.5
468.049	93.5
468.268	75.5
468.488	99.5
468.707	85.5
468.927	93.5
469.146	97.5
469.365	97.5
469.585	78.5
469.804	89.5
470.023	91.5
470.243	86.5
470.462	91.5
470.681	102.5
470.901	100.5
471.12	96.5
471.339	103.5
471.558	93.5
471.777	96.5
471.997	105.5
472.216	98.5
472.435	94.5
472.654	83.5
472.873	93.5
473.092	88.5
473.311	89.5
473.53	100.5
473.749	103.5
473.968	90.5
474.187	86.5
474.406	100.5
474.625	84.5
474.844	89.5
475.063	78.5
475.282	105.5
475.501	92.5
475.72	103.5
475.939	103.5
476.158	86.5
476.377	95.5
476.596	84.5
476.814	88.5
477.033	101.5
477.252	90.5
477.471	95.5
477.69	90.5
477.908	95.5
478.127	112.5
478.346	95.5
478.564	108.5
478.783	86.5
479.002	99.5
479.22	103.5
479.439	98.5
479.658	93.5
479.876	87.5
480.095	83.5
480.313	95.5
480.532	97.5
480.751	101.5
480.969	102.5
481.188	92.5
481.406	101.5
481.624	85.5
481.843	87.5
482.061	98.5
482.28	100.5
482.498	82.5
482.717	92.5
482.935	101.5
483.153	93.5
483.372	106.5
483.59	96.5
483.808	88.5
484.027	111.5
484.245	102.5
484.463	89.5
484.681	99.5
484.9	97.5
485.118	85.5
485.336	94.5
485.554	93.5
485.772	98.5
485.99	100.5
486.209	100.5
486.427	104.5
486.645	85.5
486.863	99.5
487.081	101.5
487.299	107.5
487.517	86.5
487.735	84.5
487.953	100.5
488.171	109.5
488.389	108.5
488.607	97.5
488.825	102.5
489.043	88.5
489.261	104.5
489.479	99.5
489.696	104.5
489.914	94.5
490.132	102.5
490.35	104.5
490.568	96.5
490.786	98.5
491.003	101.5
491.221	93.5
491.439	109.5
491.657	105.5
491.874	94.5
492.092	103.5
492.31	116.5
492.527	116.5
492.745	102.5
492.963	100.5
493.18	106.5
493.398	109.5
493.615	102.5
493.833	95.5
494.05	96.5
494.268	103.5
494.485	101.5
494.703	114.5
494.92	101.5
495.138	95.5
495.355	99.5
495.573	114.5
495.79	108.5
496.008	113.5
496.225	99.5
496.442	87.5
496.66	117.5
496.877	97.5
497.094	113.5
497.312	110.5
497.529	122.5
497.746	113.5
497.963	109.5
498.181	93.5
498.398	122.5
498.615	94.5
498.832	101.5
499.049	124.5
499.267	113.5
499.484	118.5
499.701	119.5
499.918	120.5
500.135	120.5
500.352	124.5
500.569	136.5
500.786	140.5
501.003	145.5
501.22	119.5
501.437	131.5
501.654	120.5
501.871	124.5
502.088	101.5
502.305	111.5
502.522	112.5
502.739	105.5
502.956	108.5
503.172	100.5
503.389	113.5
503.606	97.5
503.823	102.5
504.04	114.5
504.256	109.5
504.473	102.5
504.69	108.5
504.907	109.5
505.123	97.5
505.34	97.5
505.557	113.5
505.773	101.5
505.99	102.5
506.207	103.5
506.423	92.5
506.64	103.5
506.856	89.5
507.073	96.5
507.289	87.5
507.506	104.5
507.722	95.5
507.939	109.5
508.155	104.5
508.372	84.5
508.588	108.5
508.805	94.5
509.021	90.5
509.238	96.5
509.454	102.5
509.67	91.5
509.887	98.5
510.103	91.5
510.319	92.5
510.536	101.5
510.752	96.5
510.968	106.5
511.184	93.5
511.401	84.5
511.617	84.5
511.833	104.5
512.049	91.5
512.265	78.5
512.481	96.5
512.698	80.5
512.914	100.5
513.13	81.5
513.346	82.5
513.562	94.5
513.778	98.5
513.994	109.5
514.21	93.5
514.426	104.5
514.642	89.5
514.858	91.5
515.074	87.5
515.29	90.5
515.506	97.5
515.721	98.5
515.937	79.5
516.153	86.5
516.369	88.5
516.585	96.5
516.801	97.5
517.016	94.5
517.232	88.5
517.448	108.5
517.664	98.5
517.879	100.5
518.095	108.5
518.311	110.5
518.527	120.5
518.742	87.5
518.958	95.5
519.173	103.5
519.389	100.5
519.605	80.5
519.82	94.5
520.036	104.5
520.251	99.5
520.467	86.5
520.682	92.5
520.898	108.5
521.113	100.5
521.329	85.5
521.544	73.5
521.76	88.5
521.975	97.5
522.19	109.5
522.406	87.5
522.621	92.5
522.836	98.5
523.052	88.5
523.267	97.5
523.482	95.5
523.698	93.5
523.913	85.5
524.128	90.5
524.343	81.5
524.559	97.5
524.774	98.5
524.989	91.5
525.204	91.5
525.419	90.5
525.634	91.5
525.849	98.5
526.064	90.5
526.28	92.5
526.495	100.5
526.71	95.5
526.925	99.5
527.14	101.5
527.355	99.5
527.57	90.5
527.785	90.5
527.999	88.5
528.214	101.5
528.429	94.5
528.644	94.5
528.859	102.5
529.074	108.5
529.289	96.5
529.503	89.5
529.718	91.5
529.933	80.5
530.148	97.5
530.363	92.5
530.577	95.5
530.792	93.5
531.007	108.5
531.221	101.5
531.436	105.5
531.651	82.5
531.865	100.5
532.08	91.5
532.295	81.5
532.509	96.5
532.724	106.5
532.938	94.5
533.153	98.5
533.367	83.5
533.582	88.5
533.796	92.5
534.011	94.5
534.225	96.5
534.44	79.5
534.654	96.5
534.868	85.5
535.083	96.5
535.297	106.5
535.511	88.5
535.726	90.5
535.94	98.5
536.154	103.5
536.369	90.5
