Data from Location5.07152019.Energy5.Lamp.07192019.3%Agarose_HRD10591_16-03-41-629.txt Node
Date: Fri Jul 19 16:03:41 EDT 2019
User: cochatt
Spectrometer: HR+D1059
Trigger mode: 1
Integration Time (sec): 1.000000E-1
Scans to average: 1
Electric dark correction enabled: true
Nonlinearity correction enabled: false
Boxcar width: 0
XAxis mode: Wavelengths
Number of Pixels in Spectrum: 2048
>>>>>Begin Spectral Data<<<<<
223.165	-13.19
223.4	-13.19
223.635	-13.19
223.869	-16.19
224.104	-27.19
224.338	-6.19
224.573	-16.19
224.808	-5.19
225.042	-32.19
225.277	-13.19
225.511	2.81
225.746	6.81
225.98	7.81
226.215	19.81
226.449	17.81
226.683	17.81
226.918	26.81
227.152	29.81
227.387	33.81
227.621	23.81
227.856	34.81
228.09	44.81
228.324	57.81
228.559	65.81
228.793	56.81
229.027	70.81
229.262	54.81
229.496	55.81
229.73	76.81
229.964	62.81
230.199	70.81
230.433	67.81
230.667	78.81
230.901	95.81
231.136	83.81
231.37	73.81
231.604	85.81
231.838	67.81
232.072	78.81
232.306	84.81
232.541	67.81
232.775	75.81
233.009	64.81
233.243	71.81
233.477	80.81
233.711	80.81
233.945	63.81
234.179	88.81
234.413	88.81
234.647	88.81
234.881	84.81
235.115	77.81
235.349	82.81
235.583	71.81
235.817	71.81
236.051	67.81
236.285	70.81
236.519	81.81
236.753	73.81
236.987	85.81
237.221	84.81
237.455	86.81
237.689	78.81
237.922	69.81
238.156	65.81
238.39	70.81
238.624	77.81
238.858	67.81
239.091	72.81
239.325	66.81
239.559	77.81
239.793	77.81
240.027	67.81
240.26	83.81
240.494	67.81
240.728	80.81
240.961	58.81
241.195	77.81
241.429	75.81
241.662	81.81
241.896	77.81
242.13	59.81
242.363	69.81
242.597	80.81
242.83	79.81
243.064	76.81
243.298	66.81
243.531	73.81
243.765	71.81
243.998	78.81
244.232	78.81
244.465	82.81
244.699	73.81
244.932	82.81
245.166	76.81
245.399	79.81
245.633	75.81
245.866	83.81
246.099	75.81
246.333	85.81
246.566	78.81
246.8	76.81
247.033	81.81
247.266	78.81
247.5	67.81
247.733	66.81
247.966	65.81
248.2	74.81
248.433	77.81
248.666	64.81
248.899	78.81
249.133	76.81
249.366	85.81
249.599	83.81
249.832	87.81
250.066	70.81
250.299	72.81
250.532	71.81
250.765	79.81
250.998	64.81
251.231	73.81
251.465	83.81
251.698	80.81
251.931	88.81
252.164	72.81
252.397	76.81
252.63	80.81
252.863	79.81
253.096	70.81
253.329	69.81
253.562	66.81
253.795	84.81
254.028	89.81
254.261	78.81
254.494	82.81
254.727	80.81
254.96	73.81
255.193	87.81
255.426	70.81
255.659	74.81
255.892	79.81
256.124	74.81
256.357	89.81
256.59	97.81
256.823	79.81
257.056	76.81
257.289	74.81
257.521	76.81
257.754	85.81
257.987	87.81
258.22	90.81
258.452	94.81
258.685	86.81
258.918	87.81
259.151	98.81
259.383	78.81
259.616	69.81
259.849	80.81
260.081	70.81
260.314	85.81
260.547	96.81
260.779	71.81
261.012	82.81
261.244	80.81
261.477	87.81
261.71	85.81
261.942	78.81
262.175	87.81
262.407	84.81
262.64	85.81
262.872	85.81
263.105	89.81
263.337	92.81
263.57	73.81
263.802	82.81
264.035	75.81
264.267	86.81
264.499	88.81
264.732	77.81
264.964	71.81
265.197	84.81
265.429	88.81
265.661	75.81
265.894	81.81
266.126	79.81
266.358	80.81
266.591	84.81
266.823	92.81
267.055	81.81
267.287	82.81
267.52	82.81
267.752	80.81
267.984	86.81
268.216	72.81
268.448	88.81
268.681	83.81
268.913	87.81
269.145	89.81
269.377	86.81
269.609	84.81
269.841	93.81
270.073	77.81
270.306	89.81
270.538	82.81
270.77	88.81
271.002	83.81
271.234	87.81
271.466	91.81
271.698	82.81
271.93	70.81
272.162	90.81
272.394	92.81
272.626	72.81
272.858	78.81
273.09	95.81
273.322	76.81
273.553	94.81
273.785	72.81
274.017	96.81
274.249	99.81
274.481	93.81
274.713	80.81
274.945	79.81
275.176	79.81
275.408	75.81
275.64	73.81
275.872	90.81
276.104	77.81
276.335	98.81
276.567	84.81
276.799	90.81
277.031	85.81
277.262	80.81
277.494	94.81
277.726	92.81
277.957	89.81
278.189	89.81
278.421	89.81
278.652	88.81
278.884	81.81
279.115	93.81
279.347	72.81
279.579	75.81
279.81	80.81
280.042	86.81
280.273	84.81
280.505	96.81
280.736	89.81
280.968	84.81
281.199	88.81
281.431	87.81
281.662	84.81
281.894	81.81
282.125	90.81
282.356	91.81
282.588	84.81
282.819	90.81
283.051	84.81
283.282	88.81
283.513	87.81
283.745	85.81
283.976	84.81
284.207	90.81
284.439	86.81
284.67	90.81
284.901	99.81
285.132	72.81
285.364	88.81
285.595	95.81
285.826	89.81
286.057	73.81
286.288	86.81
286.52	89.81
286.751	86.81
286.982	91.81
287.213	89.81
287.444	92.81
287.675	91.81
287.906	85.81
288.138	96.81
288.369	83.81
288.6	93.81
288.831	90.81
289.062	87.81
289.293	81.81
289.524	78.81
289.755	94.81
289.986	82.81
290.217	80.81
290.448	88.81
290.679	94.81
290.91	86.81
291.141	95.81
291.371	86.81
291.602	85.81
291.833	80.81
292.064	78.81
292.295	78.81
292.526	85.81
292.757	92.81
292.987	83.81
293.218	83.81
293.449	79.81
293.68	84.81
293.91	79.81
294.141	75.81
294.372	84.81
294.603	87.81
294.833	80.81
295.064	68.81
295.295	91.81
295.525	86.81
295.756	97.81
295.987	83.81
296.217	85.81
296.448	89.81
296.679	75.81
296.909	99.81
297.14	84.81
297.37	87.81
297.601	95.81
297.831	102.81
298.062	96.81
298.292	74.81
298.523	96.81
298.753	80.81
298.984	85.81
299.214	85.81
299.445	82.81
299.675	89.81
299.905	100.81
300.136	79.81
300.366	75.81
300.597	72.81
300.827	91.81
301.057	99.81
301.288	89.81
301.518	83.81
301.748	85.81
301.979	93.81
302.209	82.81
302.439	70.81
302.669	93.81
302.9	85.81
303.13	74.81
303.36	82.81
303.59	91.81
303.82	83.81
304.051	80.81
304.281	92.81
304.511	112.81
304.741	92.81
304.971	74.81
305.201	76.81
305.431	91.81
305.661	91.81
305.891	91.81
306.121	100.81
306.352	90.81
306.582	100.81
306.812	98.81
307.042	92.81
307.272	87.81
307.502	92.81
307.731	82.81
307.961	84.81
308.191	90.81
308.421	98.81
308.651	83.81
308.881	74.81
309.111	87.81
309.341	93.81
309.571	93.81
309.8	78.81
310.03	87.81
310.26	92.81
310.49	77.81
310.72	82.81
310.949	81.81
311.179	86.81
311.409	94.81
311.639	87.81
311.868	101.81
312.098	102.81
312.328	87.81
312.557	83.81
312.787	106.81
313.017	96.81
313.246	97.81
313.476	99.81
313.706	91.81
313.935	82.81
314.165	91.81
314.394	100.81
314.624	87.81
314.853	100.81
315.083	96.81
315.312	86.81
315.542	100.81
315.771	103.81
316.001	97.81
316.23	72.81
316.46	73.81
316.689	84.81
316.919	94.81
317.148	88.81
317.377	91.81
317.607	72.81
317.836	92.81
318.065	92.81
318.295	91.81
318.524	86.81
318.753	93.81
318.983	72.81
319.212	72.81
319.441	82.81
319.67	94.81
319.9	96.81
320.129	99.81
320.358	83.81
320.587	87.81
320.816	99.81
321.046	96.81
321.275	92.81
321.504	90.81
321.733	73.81
321.962	97.81
322.191	91.81
322.42	75.81
322.649	84.81
322.878	90.81
323.108	90.81
323.337	79.81
323.566	75.81
323.795	94.81
324.024	96.81
324.253	91.81
324.482	95.81
324.71	84.81
324.939	78.81
325.168	85.81
325.397	90.81
325.626	90.81
325.855	85.81
326.084	71.81
326.313	94.81
326.542	99.81
326.77	99.81
326.999	95.81
327.228	91.81
327.457	91.81
327.686	88.81
327.914	85.81
328.143	97.81
328.372	95.81
328.6	79.81
328.829	96.81
329.058	105.81
329.287	94.81
329.515	91.81
329.744	92.81
329.972	84.81
330.201	92.81
330.43	113.81
330.658	95.81
330.887	85.81
331.115	86.81
331.344	85.81
331.572	98.81
331.801	95.81
332.03	80.81
332.258	68.81
332.486	96.81
332.715	100.81
332.943	94.81
333.172	100.81
333.4	98.81
333.629	96.81
333.857	100.81
334.085	100.81
334.314	93.81
334.542	99.81
334.771	86.81
334.999	90.81
335.227	84.81
335.455	86.81
335.684	89.81
335.912	88.81
336.14	85.81
336.369	106.81
336.597	96.81
336.825	95.81
337.053	92.81
337.281	82.81
337.51	97.81
337.738	101.81
337.966	92.81
338.194	93.81
338.422	80.81
338.65	88.81
338.878	91.81
339.106	106.81
339.334	92.81
339.562	101.81
339.79	84.81
340.018	88.81
340.246	91.81
340.474	92.81
340.702	79.81
340.93	79.81
341.158	86.81
341.386	83.81
341.614	91.81
341.842	98.81
342.07	93.81
342.298	92.81
342.526	87.81
342.754	84.81
342.981	99.81
343.209	84.81
343.437	92.81
343.665	95.81
343.893	89.81
344.12	87.81
344.348	92.81
344.576	100.81
344.804	83.81
345.031	76.81
345.259	76.81
345.487	87.81
345.714	95.81
345.942	92.81
346.17	91.81
346.397	99.81
346.625	91.81
346.853	88.81
347.08	87.81
347.308	88.81
347.535	94.81
347.763	95.81
347.99	83.81
348.218	91.81
348.445	101.81
348.673	88.81
348.9	89.81
349.128	80.81
349.355	87.81
349.583	99.81
349.81	102.81
350.037	91.81
350.265	78.81
350.492	84.81
350.72	83.81
350.947	82.81
351.174	85.81
351.402	80.81
351.629	97.81
351.856	87.81
352.083	74.81
352.311	92.81
352.538	93.81
352.765	84.81
352.992	88.81
353.22	90.81
353.447	95.81
353.674	98.81
353.901	80.81
354.128	87.81
354.355	82.81
354.583	84.81
354.81	95.81
355.037	76.81
355.264	78.81
355.491	81.81
355.718	75.81
355.945	74.81
356.172	92.81
356.399	97.81
356.626	71.81
356.853	66.81
357.08	76.81
357.307	95.81
357.534	87.81
357.761	91.81
357.988	85.81
358.215	94.81
358.441	83.81
358.668	85.81
358.895	106.81
359.122	73.81
359.349	102.81
359.576	96.81
359.802	80.81
360.029	93.81
360.256	88.81
360.483	86.81
360.709	90.81
360.936	89.81
361.163	99.81
361.39	109.81
361.616	80.81
361.843	86.81
362.07	86.81
362.296	99.81
362.523	83.81
362.749	86.81
362.976	95.81
363.203	91.81
363.429	103.81
363.656	95.81
363.882	95.81
364.109	90.81
364.335	84.81
364.562	94.81
364.788	75.81
365.015	94.81
365.241	83.81
365.468	78.81
365.694	78.81
365.92	86.81
366.147	76.81
366.373	84.81
366.599	103.81
366.826	98.81
367.052	91.81
367.278	79.81
367.505	75.81
367.731	67.81
367.957	77.81
368.184	88.81
368.41	80.81
368.636	92.81
368.862	65.81
369.089	80.81
369.315	86.81
369.541	98.81
369.767	86.81
369.993	92.81
370.219	93.81
370.445	81.81
370.672	100.81
370.898	95.81
371.124	91.81
371.35	84.81
371.576	82.81
371.802	97.81
372.028	92.81
372.254	82.81
372.48	101.81
372.706	82.81
372.932	96.81
373.158	92.81
373.384	99.81
373.61	104.81
373.835	78.81
374.061	81.81
374.287	97.81
374.513	101.81
374.739	84.81
374.965	97.81
375.191	91.81
375.416	90.81
375.642	87.81
375.868	95.81
376.094	85.81
376.319	97.81
376.545	82.81
376.771	85.81
376.997	85.81
377.222	101.81
377.448	87.81
377.674	86.81
377.899	83.81
378.125	87.81
378.35	87.81
378.576	102.81
378.802	88.81
379.027	95.81
379.253	87.81
379.478	78.81
379.704	85.81
379.929	75.81
380.155	86.81
380.38	91.81
380.606	94.81
380.831	84.81
381.057	92.81
381.282	92.81
381.507	79.81
381.733	90.81
381.958	87.81
382.184	82.81
382.409	93.81
382.634	88.81
382.86	89.81
383.085	83.81
383.31	106.81
383.535	83.81
383.761	85.81
383.986	91.81
384.211	79.81
384.436	87.81
384.662	82.81
384.887	97.81
385.112	95.81
385.337	100.81
385.562	97.81
385.787	91.81
386.013	110.81
386.238	87.81
386.463	92.81
386.688	102.81
386.913	82.81
387.138	98.81
387.363	98.81
387.588	91.81
387.813	94.81
388.038	83.81
388.263	96.81
388.488	106.81
388.713	94.81
388.938	98.81
389.163	102.81
389.387	94.81
389.612	86.81
389.837	94.81
390.062	89.81
390.287	96.81
390.512	85.81
390.736	94.81
390.961	91.81
391.186	86.81
391.411	84.81
391.636	96.81
391.86	95.81
392.085	98.81
392.31	115.81
392.534	106.81
392.759	86.81
392.984	76.81
393.208	75.81
393.433	79.81
393.658	93.81
393.882	95.81
394.107	89.81
394.331	81.81
394.556	88.81
394.78	84.81
395.005	100.81
395.229	92.81
395.454	125.81
395.678	106.81
395.903	98.81
396.127	112.81
396.352	86.81
396.576	82.81
396.801	101.81
397.025	87.81
397.249	108.81
397.474	98.81
397.698	90.81
397.922	95.81
398.147	104.81
398.371	108.81
398.595	84.81
398.82	87.81
399.044	107.81
399.268	101.81
399.492	101.81
399.717	100.81
399.941	115.81
400.165	110.81
400.389	98.81
400.613	106.81
400.837	100.81
401.062	96.81
401.286	93.81
401.51	96.81
401.734	80.81
401.958	90.81
402.182	94.81
402.406	109.81
402.63	101.81
402.854	89.81
403.078	100.81
403.302	100.81
403.526	87.81
403.75	86.81
403.974	103.81
404.198	99.81
404.422	87.81
404.645	94.81
404.869	109.81
405.093	96.81
405.317	94.81
405.541	103.81
405.765	102.81
405.988	91.81
406.212	86.81
406.436	87.81
406.66	95.81
406.883	97.81
407.107	109.81
407.331	87.81
407.555	100.81
407.778	113.81
408.002	88.81
408.226	97.81
408.449	100.81
408.673	97.81
408.896	102.81
409.12	92.81
409.344	103.81
409.567	82.81
409.791	107.81
410.014	98.81
410.238	109.81
410.461	104.81
410.685	87.81
410.908	98.81
411.132	86.81
411.355	105.81
411.578	90.81
411.802	82.81
412.025	85.81
412.249	101.81
412.472	96.81
412.695	100.81
412.919	98.81
413.142	92.81
413.365	83.81
413.589	82.81
413.812	98.81
414.035	111.81
414.258	100.81
414.482	84.81
414.705	112.81
414.928	79.81
415.151	96.81
415.374	96.81
415.597	79.81
415.821	106.81
416.044	103.81
416.267	86.81
416.49	90.81
416.713	103.81
416.936	89.81
417.159	99.81
417.382	104.81
417.605	91.81
417.828	106.81
418.051	100.81
418.274	84.81
418.497	98.81
418.72	93.81
418.943	90.81
419.166	96.81
419.389	92.81
419.611	106.81
419.834	89.81
420.057	94.81
420.28	85.81
420.503	109.81
420.726	93.81
420.948	99.81
421.171	82.81
421.394	102.81
421.617	93.81
421.839	92.81
422.062	89.81
422.285	108.81
422.507	97.81
422.73	90.81
422.953	82.81
423.175	95.81
423.398	100.81
423.621	90.81
423.843	116.81
424.066	81.81
424.288	92.81
424.511	97.81
424.733	78.81
424.956	94.81
425.178	98.81
425.401	98.81
425.623	93.81
425.846	87.81
426.068	91.81
426.291	83.81
426.513	83.81
426.735	99.81
426.958	104.81
427.18	83.81
427.402	91.81
427.625	86.81
427.847	80.81
428.069	107.81
428.292	82.81
428.514	97.81
428.736	90.81
428.958	87.81
429.181	94.81
429.403	86.81
429.625	87.81
429.847	97.81
430.069	87.81
430.292	85.81
430.514	72.81
430.736	95.81
430.958	95.81
431.18	94.81
431.402	97.81
431.624	80.81
431.846	93.81
432.068	108.81
432.29	94.81
432.512	85.81
432.734	77.81
432.956	94.81
433.178	88.81
433.4	87.81
433.622	90.81
433.844	94.81
434.066	85.81
434.287	92.81
434.509	91.81
434.731	103.81
434.953	81.81
435.175	86.81
435.397	116.81
435.618	82.81
435.84	90.81
436.062	85.81
436.284	88.81
436.505	93.81
436.727	88.81
436.949	90.81
437.17	84.81
437.392	103.81
437.614	87.81
437.835	88.81
438.057	82.81
438.278	89.81
438.5	82.81
438.721	87.81
438.943	87.81
439.165	92.81
439.386	90.81
439.608	82.81
439.829	92.81
440.05	88.81
440.272	92.81
440.493	87.81
440.715	88.81
440.936	83.81
441.158	89.81
441.379	89.81
441.6	91.81
441.822	89.81
442.043	94.81
442.264	88.81
442.486	83.81
442.707	114.81
442.928	96.81
443.149	80.81
443.371	94.81
443.592	95.81
443.813	89.81
444.034	86.81
444.255	84.81
444.476	89.81
444.698	83.81
444.919	95.81
445.14	226.81
445.361	162.81
445.582	105.81
445.803	88.81
446.024	92.81
446.245	99.81
446.466	82.81
446.687	93.81
446.908	103.81
447.129	102.81
447.35	99.81
447.571	99.81
447.792	86.81
448.013	89.81
448.234	84.81
448.455	95.81
448.675	88.81
448.896	94.81
449.117	83.81
449.338	93.81
449.559	91.81
449.779	82.81
450	85.81
450.221	87.81
450.442	96.81
450.662	91.81
450.883	99.81
451.104	98.81
451.324	97.81
451.545	77.81
451.766	88.81
451.986	83.81
452.207	90.81
452.428	87.81
452.648	95.81
452.869	98.81
453.089	92.81
453.31	80.81
453.53	81.81
453.751	114.81
453.971	88.81
454.192	82.81
454.412	79.81
454.633	57.81
454.853	93.81
455.073	73.81
455.294	79.81
455.514	96.81
455.734	71.81
455.955	87.81
456.175	96.81
456.395	84.81
456.616	83.81
456.836	93.81
457.056	90.81
457.276	88.81
457.497	83.81
457.717	77.81
457.937	93.81
458.157	92.81
458.377	90.81
458.598	78.81
458.818	98.81
459.038	92.81
459.258	99.81
459.478	91.81
459.698	99.81
459.918	87.81
460.138	89.81
460.358	82.81
460.578	98.81
460.798	90.81
461.018	95.81
461.238	99.81
461.458	91.81
461.678	85.81
461.898	93.81
462.118	85.81
462.338	106.81
462.558	106.81
462.777	102.81
462.997	86.81
463.217	78.81
463.437	92.81
463.657	90.81
463.876	88.81
464.096	103.81
464.316	104.81
464.536	95.81
464.755	94.81
464.975	101.81
465.195	90.81
465.414	89.81
465.634	84.81
465.854	100.81
466.073	101.81
466.293	94.81
466.512	102.81
466.732	92.81
466.951	94.81
467.171	91.81
467.391	83.81
467.61	97.81
467.829	103.81
468.049	106.81
468.268	86.81
468.488	91.81
468.707	91.81
468.927	99.81
469.146	75.81
469.365	95.81
469.585	101.81
469.804	89.81
470.023	107.81
470.243	96.81
470.462	102.81
470.681	113.81
470.901	104.81
471.12	101.81
471.339	92.81
471.558	101.81
471.777	85.81
471.997	94.81
472.216	97.81
472.435	96.81
472.654	93.81
472.873	88.81
473.092	87.81
473.311	88.81
473.53	94.81
473.749	98.81
473.968	102.81
474.187	81.81
474.406	88.81
474.625	91.81
474.844	86.81
475.063	96.81
475.282	91.81
475.501	97.81
475.72	110.81
475.939	92.81
476.158	106.81
476.377	89.81
476.596	93.81
476.814	101.81
477.033	92.81
477.252	103.81
477.471	93.81
477.69	96.81
477.908	107.81
478.127	86.81
478.346	100.81
478.564	120.81
478.783	108.81
479.002	96.81
479.22	98.81
479.439	99.81
479.658	107.81
479.876	94.81
480.095	107.81
480.313	95.81
480.532	97.81
480.751	96.81
480.969	97.81
481.188	96.81
481.406	101.81
481.624	92.81
481.843	87.81
482.061	91.81
482.28	94.81
482.498	83.81
482.717	89.81
482.935	92.81
483.153	90.81
483.372	91.81
483.59	90.81
483.808	98.81
484.027	108.81
484.245	102.81
484.463	99.81
484.681	106.81
484.9	102.81
485.118	100.81
485.336	96.81
485.554	98.81
485.772	106.81
485.99	95.81
486.209	93.81
486.427	97.81
486.645	91.81
486.863	104.81
487.081	94.81
487.299	103.81
487.517	94.81
487.735	98.81
487.953	115.81
488.171	102.81
488.389	109.81
488.607	92.81
488.825	94.81
489.043	107.81
489.261	104.81
489.479	112.81
489.696	108.81
489.914	94.81
490.132	104.81
490.35	96.81
490.568	122.81
490.786	115.81
491.003	112.81
491.221	95.81
491.439	108.81
491.657	109.81
491.874	93.81
492.092	129.81
492.31	122.81
492.527	110.81
492.745	88.81
492.963	100.81
493.18	118.81
493.398	106.81
493.615	89.81
493.833	114.81
494.05	94.81
494.268	112.81
494.485	115.81
494.703	100.81
494.92	124.81
495.138	115.81
495.355	112.81
495.573	122.81
495.79	108.81
496.008	107.81
496.225	114.81
496.442	119.81
496.66	104.81
496.877	91.81
497.094	123.81
497.312	108.81
497.529	108.81
497.746	99.81
497.963	106.81
498.181	108.81
498.398	118.81
498.615	116.81
498.832	124.81
499.049	106.81
499.267	122.81
499.484	125.81
499.701	137.81
499.918	139.81
500.135	144.81
500.352	142.81
500.569	147.81
500.786	156.81
501.003	159.81
501.22	141.81
501.437	132.81
501.654	126.81
501.871	109.81
502.088	122.81
502.305	97.81
502.522	118.81
502.739	112.81
502.956	105.81
503.172	120.81
503.389	106.81
503.606	96.81
503.823	116.81
504.04	111.81
504.256	108.81
504.473	103.81
504.69	91.81
504.907	93.81
505.123	112.81
505.34	110.81
505.557	103.81
505.773	101.81
505.99	92.81
506.207	114.81
506.423	102.81
506.64	86.81
506.856	95.81
507.073	97.81
507.289	104.81
507.506	92.81
507.722	104.81
507.939	113.81
508.155	104.81
508.372	100.81
508.588	84.81
508.805	85.81
509.021	98.81
509.238	101.81
509.454	104.81
509.67	81.81
509.887	95.81
510.103	102.81
510.319	82.81
510.536	85.81
510.752	95.81
510.968	96.81
511.184	98.81
511.401	82.81
511.617	98.81
511.833	85.81
512.049	86.81
512.265	97.81
512.481	102.81
512.698	83.81
512.914	88.81
513.13	96.81
513.346	97.81
513.562	98.81
513.778	101.81
513.994	93.81
514.21	97.81
514.426	100.81
514.642	94.81
514.858	104.81
515.074	100.81
515.29	105.81
515.506	100.81
515.721	103.81
515.937	104.81
516.153	91.81
