Data from Location5.07152019.Energy5.Lamp.07192019.3%Agarose_HRD10591_15-37-31-387.txt Node
Date: Fri Jul 19 15:37:31 EDT 2019
User: cochatt
Spectrometer: HR+D1059
Trigger mode: 1
Integration Time (sec): 1.000000E-1
Scans to average: 1
Electric dark correction enabled: true
Nonlinearity correction enabled: false
Boxcar width: 0
XAxis mode: Wavelengths
Number of Pixels in Spectrum: 2048
>>>>>Begin Spectral Data<<<<<
223.165	-14.75
223.4	-14.75
223.635	-14.75
223.869	-20.75
224.104	-19.75
224.338	-26.75
224.573	2.25
224.808	-1.75
225.042	-5.75
225.277	1.25
225.511	-20.75
225.746	4.25
225.98	1.25
226.215	-1.75
226.449	28.25
226.683	16.25
226.918	21.25
227.152	37.25
227.387	44.25
227.621	34.25
227.856	34.25
228.09	31.25
228.324	44.25
228.559	66.25
228.793	69.25
229.027	67.25
229.262	67.25
229.496	70.25
229.73	70.25
229.964	73.25
230.199	88.25
230.433	91.25
230.667	73.25
230.901	78.25
231.136	81.25
231.37	84.25
231.604	87.25
231.838	87.25
232.072	89.25
232.306	76.25
232.541	83.25
232.775	78.25
233.009	77.25
233.243	86.25
233.477	75.25
233.711	87.25
233.945	85.25
234.179	76.25
234.413	89.25
234.647	82.25
234.881	82.25
235.115	83.25
235.349	77.25
235.583	84.25
235.817	97.25
236.051	81.25
236.285	76.25
236.519	76.25
236.753	77.25
236.987	78.25
237.221	77.25
237.455	82.25
237.689	72.25
237.922	77.25
238.156	84.25
238.39	77.25
238.624	76.25
238.858	78.25
239.091	81.25
239.325	74.25
239.559	76.25
239.793	85.25
240.027	86.25
240.26	70.25
240.494	75.25
240.728	64.25
240.961	72.25
241.195	70.25
241.429	67.25
241.662	79.25
241.896	89.25
242.13	78.25
242.363	89.25
242.597	83.25
242.83	87.25
243.064	86.25
243.298	90.25
243.531	80.25
243.765	73.25
243.998	87.25
244.232	69.25
244.465	85.25
244.699	72.25
244.932	76.25
245.166	85.25
245.399	83.25
245.633	63.25
245.866	75.25
246.099	79.25
246.333	75.25
246.566	76.25
246.8	70.25
247.033	79.25
247.266	73.25
247.5	68.25
247.733	78.25
247.966	76.25
248.2	78.25
248.433	78.25
248.666	67.25
248.899	87.25
249.133	77.25
249.366	76.25
249.599	91.25
249.832	78.25
250.066	71.25
250.299	91.25
250.532	82.25
250.765	86.25
250.998	67.25
251.231	90.25
251.465	83.25
251.698	85.25
251.931	68.25
252.164	83.25
252.397	87.25
252.63	99.25
252.863	97.25
253.096	87.25
253.329	80.25
253.562	87.25
253.795	78.25
254.028	77.25
254.261	63.25
254.494	75.25
254.727	81.25
254.96	86.25
255.193	75.25
255.426	84.25
255.659	80.25
255.892	67.25
256.124	78.25
256.357	76.25
256.59	82.25
256.823	87.25
257.056	83.25
257.289	86.25
257.521	92.25
257.754	83.25
257.987	80.25
258.22	82.25
258.452	90.25
258.685	82.25
258.918	65.25
259.151	91.25
259.383	79.25
259.616	94.25
259.849	90.25
260.081	87.25
260.314	78.25
260.547	76.25
260.779	91.25
261.012	75.25
261.244	87.25
261.477	94.25
261.71	84.25
261.942	85.25
262.175	73.25
262.407	68.25
262.64	75.25
262.872	67.25
263.105	81.25
263.337	86.25
263.57	88.25
263.802	81.25
264.035	86.25
264.267	75.25
264.499	83.25
264.732	86.25
264.964	87.25
265.197	79.25
265.429	84.25
265.661	75.25
265.894	81.25
266.126	83.25
266.358	76.25
266.591	69.25
266.823	85.25
267.055	90.25
267.287	79.25
267.52	81.25
267.752	91.25
267.984	82.25
268.216	81.25
268.448	84.25
268.681	82.25
268.913	77.25
269.145	76.25
269.377	80.25
269.609	71.25
269.841	96.25
270.073	86.25
270.306	98.25
270.538	80.25
270.77	81.25
271.002	84.25
271.234	88.25
271.466	63.25
271.698	81.25
271.93	94.25
272.162	94.25
272.394	86.25
272.626	82.25
272.858	86.25
273.09	87.25
273.322	87.25
273.553	84.25
273.785	87.25
274.017	85.25
274.249	82.25
274.481	88.25
274.713	76.25
274.945	86.25
275.176	97.25
275.408	80.25
275.64	89.25
275.872	90.25
276.104	85.25
276.335	75.25
276.567	82.25
276.799	81.25
277.031	75.25
277.262	88.25
277.494	84.25
277.726	76.25
277.957	100.25
278.189	89.25
278.421	82.25
278.652	86.25
278.884	70.25
279.115	95.25
279.347	89.25
279.579	80.25
279.81	91.25
280.042	84.25
280.273	80.25
280.505	84.25
280.736	89.25
280.968	73.25
281.199	99.25
281.431	95.25
281.662	102.25
281.894	70.25
282.125	98.25
282.356	89.25
282.588	96.25
282.819	66.25
283.051	88.25
283.282	93.25
283.513	83.25
283.745	81.25
283.976	97.25
284.207	73.25
284.439	82.25
284.67	88.25
284.901	98.25
285.132	93.25
285.364	91.25
285.595	80.25
285.826	89.25
286.057	74.25
286.288	101.25
286.52	91.25
286.751	89.25
286.982	90.25
287.213	92.25
287.444	82.25
287.675	88.25
287.906	86.25
288.138	67.25
288.369	95.25
288.6	88.25
288.831	94.25
289.062	92.25
289.293	95.25
289.524	70.25
289.755	84.25
289.986	90.25
290.217	79.25
290.448	66.25
290.679	95.25
290.91	83.25
291.141	83.25
291.371	83.25
291.602	84.25
291.833	85.25
292.064	81.25
292.295	100.25
292.526	91.25
292.757	87.25
292.987	90.25
293.218	81.25
293.449	87.25
293.68	94.25
293.91	87.25
294.141	76.25
294.372	76.25
294.603	86.25
294.833	78.25
295.064	76.25
295.295	95.25
295.525	82.25
295.756	90.25
295.987	80.25
296.217	99.25
296.448	86.25
296.679	79.25
296.909	75.25
297.14	77.25
297.37	82.25
297.601	78.25
297.831	74.25
298.062	94.25
298.292	84.25
298.523	85.25
298.753	92.25
298.984	82.25
299.214	80.25
299.445	82.25
299.675	85.25
299.905	107.25
300.136	79.25
300.366	63.25
300.597	83.25
300.827	74.25
301.057	93.25
301.288	97.25
301.518	83.25
301.748	90.25
301.979	89.25
302.209	92.25
302.439	91.25
302.669	79.25
302.9	78.25
303.13	83.25
303.36	82.25
303.59	90.25
303.82	89.25
304.051	79.25
304.281	89.25
304.511	86.25
304.741	82.25
304.971	101.25
305.201	83.25
305.431	92.25
305.661	69.25
305.891	87.25
306.121	80.25
306.352	83.25
306.582	81.25
306.812	77.25
307.042	77.25
307.272	92.25
307.502	77.25
307.731	88.25
307.961	75.25
308.191	84.25
308.421	86.25
308.651	99.25
308.881	95.25
309.111	76.25
309.341	76.25
309.571	89.25
309.8	95.25
310.03	78.25
310.26	87.25
310.49	65.25
310.72	75.25
310.949	81.25
311.179	89.25
311.409	88.25
311.639	68.25
311.868	75.25
312.098	83.25
312.328	95.25
312.557	89.25
312.787	64.25
313.017	80.25
313.246	81.25
313.476	90.25
313.706	101.25
313.935	89.25
314.165	87.25
314.394	86.25
314.624	70.25
314.853	71.25
315.083	91.25
315.312	84.25
315.542	90.25
315.771	85.25
316.001	84.25
316.23	80.25
316.46	78.25
316.689	86.25
316.919	96.25
317.148	97.25
317.377	87.25
317.607	94.25
317.836	82.25
318.065	84.25
318.295	92.25
318.524	98.25
318.753	80.25
318.983	89.25
319.212	85.25
319.441	80.25
319.67	92.25
319.9	78.25
320.129	82.25
320.358	95.25
320.587	82.25
320.816	91.25
321.046	86.25
321.275	95.25
321.504	83.25
321.733	87.25
321.962	82.25
322.191	90.25
322.42	82.25
322.649	83.25
322.878	88.25
323.108	96.25
323.337	93.25
323.566	101.25
323.795	84.25
324.024	91.25
324.253	66.25
324.482	89.25
324.71	84.25
324.939	83.25
325.168	90.25
325.397	87.25
325.626	80.25
325.855	87.25
326.084	82.25
326.313	81.25
326.542	67.25
326.77	85.25
326.999	84.25
327.228	90.25
327.457	74.25
327.686	98.25
327.914	85.25
328.143	92.25
328.372	75.25
328.6	78.25
328.829	86.25
329.058	87.25
329.287	88.25
329.515	84.25
329.744	84.25
329.972	82.25
330.201	82.25
330.43	84.25
330.658	80.25
330.887	79.25
331.115	84.25
331.344	78.25
331.572	89.25
331.801	93.25
332.03	85.25
332.258	71.25
332.486	79.25
332.715	78.25
332.943	81.25
333.172	88.25
333.4	75.25
333.629	88.25
333.857	88.25
334.085	76.25
334.314	83.25
334.542	81.25
334.771	88.25
334.999	89.25
335.227	93.25
335.455	84.25
335.684	87.25
335.912	94.25
336.14	86.25
336.369	101.25
336.597	81.25
336.825	85.25
337.053	86.25
337.281	93.25
337.51	81.25
337.738	82.25
337.966	83.25
338.194	74.25
338.422	86.25
338.65	102.25
338.878	91.25
339.106	80.25
339.334	86.25
339.562	85.25
339.79	100.25
340.018	80.25
340.246	82.25
340.474	83.25
340.702	86.25
340.93	83.25
341.158	78.25
341.386	94.25
341.614	88.25
341.842	78.25
342.07	86.25
342.298	67.25
342.526	74.25
342.754	80.25
342.981	90.25
343.209	84.25
343.437	79.25
343.665	80.25
343.893	85.25
344.12	87.25
344.348	80.25
344.576	84.25
344.804	84.25
345.031	89.25
345.259	86.25
345.487	93.25
345.714	97.25
345.942	97.25
346.17	96.25
346.397	88.25
346.625	77.25
346.853	79.25
347.08	80.25
347.308	90.25
347.535	87.25
347.763	82.25
347.99	90.25
348.218	86.25
348.445	96.25
348.673	80.25
348.9	75.25
349.128	92.25
349.355	68.25
349.583	79.25
349.81	87.25
350.037	83.25
350.265	83.25
350.492	87.25
350.72	93.25
350.947	70.25
351.174	85.25
351.402	77.25
351.629	89.25
351.856	89.25
352.083	89.25
352.311	91.25
352.538	69.25
352.765	91.25
352.992	78.25
353.22	86.25
353.447	91.25
353.674	94.25
353.901	79.25
354.128	73.25
354.355	70.25
354.583	82.25
354.81	72.25
355.037	95.25
355.264	87.25
355.491	90.25
355.718	74.25
355.945	96.25
356.172	74.25
356.399	88.25
356.626	83.25
356.853	84.25
357.08	89.25
357.307	70.25
357.534	74.25
357.761	102.25
357.988	85.25
358.215	78.25
358.441	73.25
358.668	83.25
358.895	88.25
359.122	93.25
359.349	80.25
359.576	72.25
359.802	95.25
360.029	82.25
360.256	82.25
360.483	75.25
360.709	76.25
360.936	89.25
361.163	99.25
361.39	91.25
361.616	92.25
361.843	78.25
362.07	89.25
362.296	91.25
362.523	88.25
362.749	79.25
362.976	67.25
363.203	85.25
363.429	102.25
363.656	87.25
363.882	73.25
364.109	71.25
364.335	91.25
364.562	94.25
364.788	72.25
365.015	82.25
365.241	75.25
365.468	84.25
365.694	90.25
365.92	94.25
366.147	96.25
366.373	83.25
366.599	75.25
366.826	84.25
367.052	79.25
367.278	71.25
367.505	85.25
367.731	89.25
367.957	86.25
368.184	83.25
368.41	91.25
368.636	94.25
368.862	78.25
369.089	84.25
369.315	90.25
369.541	72.25
369.767	80.25
369.993	80.25
370.219	84.25
370.445	82.25
370.672	87.25
370.898	95.25
371.124	75.25
371.35	91.25
371.576	72.25
371.802	83.25
372.028	74.25
372.254	81.25
372.48	88.25
372.706	84.25
372.932	76.25
373.158	89.25
373.384	79.25
373.61	77.25
373.835	81.25
374.061	75.25
374.287	76.25
374.513	91.25
374.739	79.25
374.965	70.25
375.191	86.25
375.416	98.25
375.642	77.25
375.868	83.25
376.094	82.25
376.319	72.25
376.545	84.25
376.771	78.25
376.997	86.25
377.222	76.25
377.448	86.25
377.674	84.25
377.899	81.25
378.125	89.25
378.35	83.25
378.576	80.25
378.802	90.25
379.027	80.25
379.253	94.25
379.478	90.25
379.704	90.25
379.929	83.25
380.155	75.25
380.38	76.25
380.606	80.25
380.831	87.25
381.057	83.25
381.282	82.25
381.507	73.25
381.733	88.25
381.958	101.25
382.184	87.25
382.409	91.25
382.634	77.25
382.86	82.25
383.085	74.25
383.31	83.25
383.535	79.25
383.761	85.25
383.986	85.25
384.211	85.25
384.436	76.25
384.662	89.25
384.887	64.25
385.112	75.25
385.337	82.25
385.562	96.25
385.787	90.25
386.013	91.25
386.238	89.25
386.463	88.25
386.688	79.25
386.913	82.25
387.138	74.25
387.363	76.25
387.588	88.25
387.813	86.25
388.038	85.25
388.263	78.25
388.488	93.25
388.713	81.25
388.938	81.25
389.163	86.25
389.387	89.25
389.612	84.25
389.837	88.25
390.062	92.25
390.287	94.25
390.512	88.25
390.736	89.25
390.961	76.25
391.186	88.25
391.411	91.25
391.636	96.25
391.86	73.25
392.085	78.25
392.31	82.25
392.534	85.25
392.759	95.25
392.984	78.25
393.208	84.25
393.433	91.25
393.658	83.25
393.882	79.25
394.107	87.25
394.331	98.25
394.556	82.25
394.78	88.25
395.005	108.25
395.229	87.25
395.454	81.25
395.678	83.25
395.903	84.25
396.127	88.25
396.352	87.25
396.576	99.25
396.801	88.25
397.025	92.25
397.249	89.25
397.474	94.25
397.698	90.25
397.922	72.25
398.147	71.25
398.371	82.25
398.595	90.25
398.82	82.25
399.044	82.25
399.268	73.25
399.492	96.25
399.717	87.25
399.941	82.25
400.165	74.25
400.389	88.25
400.613	79.25
400.837	86.25
401.062	91.25
401.286	92.25
401.51	84.25
401.734	80.25
401.958	86.25
402.182	82.25
402.406	85.25
402.63	96.25
402.854	89.25
403.078	80.25
403.302	80.25
403.526	86.25
403.75	80.25
403.974	97.25
404.198	101.25
404.422	97.25
404.645	97.25
404.869	87.25
405.093	94.25
405.317	100.25
405.541	88.25
405.765	84.25
405.988	97.25
406.212	98.25
406.436	86.25
406.66	89.25
406.883	85.25
407.107	90.25
407.331	84.25
407.555	92.25
407.778	89.25
408.002	100.25
408.226	92.25
408.449	97.25
408.673	94.25
408.896	106.25
409.12	87.25
409.344	89.25
409.567	95.25
409.791	90.25
410.014	105.25
410.238	87.25
410.461	87.25
410.685	80.25
410.908	98.25
411.132	96.25
411.355	87.25
411.578	72.25
411.802	86.25
412.025	97.25
412.249	97.25
412.472	92.25
412.695	100.25
412.919	89.25
413.142	75.25
413.365	94.25
413.589	88.25
413.812	82.25
414.035	79.25
414.258	90.25
414.482	91.25
414.705	84.25
414.928	77.25
415.151	97.25
415.374	80.25
415.597	93.25
415.821	96.25
416.044	92.25
416.267	84.25
416.49	107.25
416.713	99.25
416.936	91.25
417.159	98.25
417.382	83.25
417.605	96.25
417.828	89.25
418.051	94.25
418.274	94.25
418.497	104.25
418.72	96.25
418.943	92.25
419.166	95.25
419.389	92.25
419.611	95.25
419.834	92.25
420.057	103.25
420.28	83.25
420.503	90.25
420.726	94.25
420.948	96.25
421.171	82.25
421.394	66.25
421.617	90.25
421.839	101.25
422.062	83.25
422.285	90.25
422.507	104.25
422.73	91.25
422.953	80.25
423.175	94.25
423.398	89.25
423.621	112.25
423.843	110.25
424.066	94.25
424.288	96.25
424.511	86.25
424.733	95.25
424.956	91.25
425.178	82.25
425.401	105.25
425.623	107.25
425.846	86.25
426.068	80.25
426.291	98.25
426.513	87.25
426.735	90.25
426.958	93.25
427.18	94.25
427.402	96.25
427.625	88.25
427.847	97.25
428.069	84.25
428.292	98.25
428.514	84.25
428.736	95.25
428.958	79.25
429.181	99.25
429.403	91.25
429.625	82.25
429.847	86.25
430.069	81.25
430.292	75.25
430.514	98.25
430.736	91.25
430.958	103.25
431.18	94.25
431.402	94.25
431.624	104.25
431.846	89.25
432.068	89.25
432.29	79.25
432.512	83.25
432.734	91.25
432.956	82.25
433.178	88.25
433.4	99.25
433.622	82.25
433.844	100.25
434.066	91.25
434.287	86.25
434.509	83.25
434.731	94.25
434.953	88.25
435.175	90.25
435.397	93.25
435.618	84.25
435.84	89.25
436.062	82.25
436.284	99.25
436.505	89.25
436.727	88.25
436.949	93.25
437.17	90.25
437.392	86.25
437.614	99.25
437.835	78.25
438.057	75.25
438.278	92.25
438.5	92.25
438.721	98.25
438.943	111.25
439.165	96.25
439.386	99.25
439.608	84.25
439.829	104.25
440.05	98.25
440.272	99.25
440.493	96.25
440.715	83.25
440.936	80.25
441.158	100.25
441.379	110.25
441.6	92.25
441.822	95.25
442.043	97.25
442.264	106.25
442.486	90.25
442.707	99.25
442.928	102.25
443.149	93.25
443.371	89.25
443.592	99.25
443.813	111.25
444.034	106.25
444.255	72.25
444.476	104.25
444.698	89.25
444.919	97.25
445.14	226.25
445.361	156.25
445.582	86.25
445.803	105.25
446.024	106.25
446.245	104.25
446.466	103.25
446.687	99.25
446.908	96.25
447.129	105.25
447.35	101.25
447.571	107.25
447.792	93.25
448.013	83.25
448.234	95.25
448.455	92.25
448.675	102.25
448.896	114.25
449.117	94.25
449.338	98.25
449.559	108.25
449.779	104.25
450	98.25
450.221	87.25
450.442	84.25
450.662	96.25
450.883	83.25
451.104	86.25
451.324	93.25
451.545	100.25
451.766	99.25
451.986	89.25
452.207	86.25
452.428	95.25
452.648	90.25
452.869	81.25
453.089	90.25
453.31	98.25
453.53	70.25
453.751	100.25
453.971	90.25
454.192	83.25
454.412	76.25
454.633	92.25
454.853	98.25
455.073	94.25
455.294	91.25
455.514	84.25
455.734	95.25
455.955	113.25
456.175	75.25
456.395	104.25
456.616	106.25
456.836	101.25
457.056	95.25
457.276	106.25
457.497	90.25
457.717	88.25
457.937	79.25
458.157	83.25
458.377	92.25
458.598	89.25
458.818	88.25
459.038	96.25
459.258	89.25
459.478	79.25
459.698	70.25
459.918	84.25
460.138	92.25
460.358	96.25
460.578	82.25
460.798	89.25
461.018	91.25
461.238	89.25
461.458	77.25
461.678	94.25
461.898	83.25
462.118	94.25
462.338	88.25
462.558	98.25
462.777	92.25
462.997	96.25
463.217	86.25
463.437	98.25
463.657	86.25
463.876	83.25
464.096	102.25
464.316	86.25
464.536	96.25
464.755	95.25
464.975	93.25
465.195	110.25
465.414	99.25
465.634	91.25
465.854	100.25
466.073	78.25
466.293	76.25
466.512	85.25
466.732	105.25
466.951	95.25
467.171	86.25
467.391	112.25
467.61	109.25
467.829	94.25
468.049	95.25
468.268	97.25
468.488	83.25
468.707	96.25
468.927	99.25
469.146	94.25
469.365	94.25
469.585	91.25
469.804	102.25
470.023	95.25
470.243	95.25
470.462	106.25
470.681	92.25
470.901	91.25
471.12	95.25
471.339	102.25
471.558	97.25
471.777	97.25
471.997	104.25
472.216	86.25
472.435	75.25
472.654	92.25
472.873	101.25
473.092	96.25
473.311	96.25
473.53	90.25
473.749	93.25
473.968	83.25
474.187	86.25
474.406	98.25
474.625	90.25
474.844	71.25
475.063	90.25
475.282	90.25
475.501	94.25
475.72	98.25
475.939	96.25
476.158	80.25
476.377	94.25
476.596	105.25
476.814	101.25
477.033	94.25
477.252	89.25
477.471	72.25
477.69	91.25
477.908	94.25
478.127	111.25
478.346	83.25
478.564	97.25
478.783	90.25
479.002	95.25
479.22	85.25
479.439	100.25
479.658	84.25
479.876	82.25
480.095	87.25
480.313	101.25
480.532	90.25
480.751	86.25
480.969	75.25
481.188	84.25
481.406	79.25
481.624	88.25
481.843	94.25
482.061	84.25
482.28	91.25
482.498	91.25
482.717	88.25
482.935	97.25
483.153	105.25
483.372	99.25
483.59	99.25
483.808	92.25
484.027	80.25
484.245	86.25
484.463	90.25
484.681	102.25
484.9	105.25
485.118	100.25
485.336	77.25
485.554	101.25
485.772	99.25
485.99	80.25
486.209	100.25
486.427	87.25
486.645	91.25
486.863	96.25
487.081	99.25
487.299	95.25
487.517	91.25
487.735	105.25
487.953	116.25
488.171	107.25
488.389	104.25
488.607	106.25
488.825	90.25
489.043	92.25
489.261	98.25
489.479	90.25
489.696	87.25
489.914	102.25
490.132	94.25
490.35	100.25
490.568	118.25
490.786	99.25
491.003	99.25
491.221	107.25
491.439	107.25
491.657	99.25
491.874	111.25
492.092	121.25
492.31	123.25
492.527	131.25
492.745	119.25
492.963	123.25
493.18	122.25
493.398	111.25
493.615	107.25
493.833	102.25
494.05	94.25
494.268	98.25
494.485	108.25
494.703	106.25
494.92	96.25
495.138	95.25
495.355	106.25
495.573	119.25
495.79	112.25
496.008	104.25
496.225	98.25
496.442	99.25
496.66	93.25
496.877	116.25
497.094	96.25
497.312	104.25
497.529	107.25
497.746	107.25
497.963	95.25
498.181	96.25
498.398	82.25
498.615	96.25
498.832	90.25
499.049	95.25
499.267	91.25
499.484	108.25
499.701	90.25
499.918	88.25
500.135	113.25
500.352	95.25
500.569	92.25
500.786	99.25
501.003	114.25
501.22	96.25
501.437	82.25
501.654	92.25
501.871	111.25
502.088	96.25
502.305	81.25
502.522	89.25
502.739	92.25
502.956	96.25
503.172	98.25
503.389	95.25
503.606	82.25
503.823	95.25
504.04	80.25
504.256	95.25
504.473	117.25
504.69	78.25
504.907	102.25
505.123	102.25
505.34	83.25
505.557	102.25
505.773	93.25
505.99	108.25
506.207	90.25
506.423	103.25
506.64	89.25
506.856	88.25
507.073	101.25
507.289	96.25
507.506	94.25
507.722	103.25
507.939	80.25
508.155	94.25
508.372	97.25
508.588	84.25
508.805	98.25
509.021	83.25
509.238	83.25
509.454	91.25
509.67	84.25
509.887	90.25
510.103	89.25
510.319	89.25
510.536	83.25
510.752	78.25
510.968	74.25
511.184	64.25
511.401	82.25
511.617	96.25
511.833	91.25
512.049	86.25
512.265	87.25
512.481	78.25
512.698	87.25
512.914	93.25
513.13	101.25
513.346	79.25
513.562	89.25
513.778	84.25
513.994	84.25
514.21	95.25
514.426	94.25
514.642	93.25
514.858	77.25
515.074	87.25
515.29	94.25
515.506	78.25
515.721	90.25
515.937	87.25
516.153	88.25
516.369	89.25
516.585	95.25
516.801	82.25
517.016	97.25
517.232	84.25
517.448	78.25
517.664	84.25
