Data from Location5.07152019.Energy5.Lamp.07192019.3%Agarose_HRD10591_15-37-45-387.txt Node
Date: Fri Jul 19 15:37:45 EDT 2019
User: cochatt
Spectrometer: HR+D1059
Trigger mode: 1
Integration Time (sec): 1.000000E-1
Scans to average: 1
Electric dark correction enabled: true
Nonlinearity correction enabled: false
Boxcar width: 0
XAxis mode: Wavelengths
Number of Pixels in Spectrum: 2048
>>>>>Begin Spectral Data<<<<<
223.165	-9.69
223.4	-9.69
223.635	-9.69
223.869	-24.69
224.104	-18.69
224.338	-3.69
224.573	-17.69
224.808	1.31
225.042	-8.69
225.277	-6.69
225.511	1.31
225.746	1.31
225.98	-9.69
226.215	15.31
226.449	23.31
226.683	9.31
226.918	24.31
227.152	23.31
227.387	19.31
227.621	34.31
227.856	48.31
228.09	59.31
228.324	42.31
228.559	49.31
228.793	56.31
229.027	58.31
229.262	80.31
229.496	67.31
229.73	71.31
229.964	89.31
230.199	79.31
230.433	69.31
230.667	85.31
230.901	84.31
231.136	76.31
231.37	74.31
231.604	81.31
231.838	87.31
232.072	73.31
232.306	88.31
232.541	84.31
232.775	89.31
233.009	73.31
233.243	91.31
233.477	101.31
233.711	94.31
233.945	87.31
234.179	74.31
234.413	82.31
234.647	78.31
234.881	70.31
235.115	90.31
235.349	82.31
235.583	71.31
235.817	86.31
236.051	83.31
236.285	82.31
236.519	75.31
236.753	73.31
236.987	79.31
237.221	85.31
237.455	72.31
237.689	75.31
237.922	73.31
238.156	66.31
238.39	73.31
238.624	78.31
238.858	74.31
239.091	90.31
239.325	65.31
239.559	80.31
239.793	85.31
240.027	72.31
240.26	75.31
240.494	79.31
240.728	79.31
240.961	71.31
241.195	74.31
241.429	74.31
241.662	74.31
241.896	66.31
242.13	67.31
242.363	72.31
242.597	83.31
242.83	64.31
243.064	73.31
243.298	82.31
243.531	67.31
243.765	69.31
243.998	75.31
244.232	74.31
244.465	82.31
244.699	79.31
244.932	76.31
245.166	94.31
245.399	82.31
245.633	67.31
245.866	85.31
246.099	69.31
246.333	79.31
246.566	75.31
246.8	88.31
247.033	66.31
247.266	98.31
247.5	86.31
247.733	76.31
247.966	72.31
248.2	83.31
248.433	75.31
248.666	83.31
248.899	75.31
249.133	77.31
249.366	85.31
249.599	81.31
249.832	78.31
250.066	68.31
250.299	76.31
250.532	68.31
250.765	75.31
250.998	81.31
251.231	67.31
251.465	86.31
251.698	91.31
251.931	67.31
252.164	77.31
252.397	74.31
252.63	81.31
252.863	73.31
253.096	86.31
253.329	68.31
253.562	73.31
253.795	86.31
254.028	73.31
254.261	77.31
254.494	84.31
254.727	76.31
254.96	73.31
255.193	82.31
255.426	84.31
255.659	71.31
255.892	90.31
256.124	75.31
256.357	63.31
256.59	83.31
256.823	86.31
257.056	80.31
257.289	83.31
257.521	90.31
257.754	71.31
257.987	74.31
258.22	82.31
258.452	75.31
258.685	71.31
258.918	74.31
259.151	75.31
259.383	78.31
259.616	75.31
259.849	91.31
260.081	80.31
260.314	73.31
260.547	73.31
260.779	80.31
261.012	71.31
261.244	77.31
261.477	97.31
261.71	80.31
261.942	87.31
262.175	88.31
262.407	84.31
262.64	86.31
262.872	84.31
263.105	84.31
263.337	92.31
263.57	71.31
263.802	84.31
264.035	78.31
264.267	76.31
264.499	87.31
264.732	95.31
264.964	76.31
265.197	101.31
265.429	86.31
265.661	106.31
265.894	85.31
266.126	63.31
266.358	77.31
266.591	71.31
266.823	88.31
267.055	84.31
267.287	94.31
267.52	80.31
267.752	84.31
267.984	87.31
268.216	80.31
268.448	81.31
268.681	91.31
268.913	80.31
269.145	91.31
269.377	79.31
269.609	81.31
269.841	86.31
270.073	75.31
270.306	83.31
270.538	93.31
270.77	98.31
271.002	74.31
271.234	81.31
271.466	79.31
271.698	82.31
271.93	94.31
272.162	78.31
272.394	79.31
272.626	85.31
272.858	83.31
273.09	79.31
273.322	82.31
273.553	89.31
273.785	81.31
274.017	102.31
274.249	82.31
274.481	87.31
274.713	75.31
274.945	91.31
275.176	83.31
275.408	76.31
275.64	89.31
275.872	72.31
276.104	80.31
276.335	83.31
276.567	90.31
276.799	80.31
277.031	89.31
277.262	85.31
277.494	79.31
277.726	81.31
277.957	101.31
278.189	92.31
278.421	74.31
278.652	84.31
278.884	79.31
279.115	86.31
279.347	86.31
279.579	74.31
279.81	89.31
280.042	93.31
280.273	84.31
280.505	92.31
280.736	70.31
280.968	79.31
281.199	82.31
281.431	73.31
281.662	84.31
281.894	92.31
282.125	73.31
282.356	81.31
282.588	82.31
282.819	76.31
283.051	79.31
283.282	89.31
283.513	88.31
283.745	89.31
283.976	102.31
284.207	75.31
284.439	101.31
284.67	69.31
284.901	72.31
285.132	87.31
285.364	80.31
285.595	72.31
285.826	89.31
286.057	89.31
286.288	88.31
286.52	91.31
286.751	76.31
286.982	90.31
287.213	79.31
287.444	81.31
287.675	72.31
287.906	86.31
288.138	89.31
288.369	83.31
288.6	85.31
288.831	86.31
289.062	90.31
289.293	77.31
289.524	83.31
289.755	85.31
289.986	84.31
290.217	74.31
290.448	92.31
290.679	86.31
290.91	80.31
291.141	90.31
291.371	75.31
291.602	77.31
291.833	77.31
292.064	83.31
292.295	87.31
292.526	81.31
292.757	82.31
292.987	81.31
293.218	91.31
293.449	84.31
293.68	84.31
293.91	87.31
294.141	75.31
294.372	76.31
294.603	73.31
294.833	81.31
295.064	84.31
295.295	69.31
295.525	72.31
295.756	74.31
295.987	89.31
296.217	85.31
296.448	89.31
296.679	102.31
296.909	82.31
297.14	91.31
297.37	96.31
297.601	76.31
297.831	87.31
298.062	87.31
298.292	89.31
298.523	90.31
298.753	83.31
298.984	75.31
299.214	83.31
299.445	96.31
299.675	79.31
299.905	101.31
300.136	100.31
300.366	87.31
300.597	66.31
300.827	88.31
301.057	82.31
301.288	81.31
301.518	74.31
301.748	87.31
301.979	79.31
302.209	85.31
302.439	92.31
302.669	83.31
302.9	92.31
303.13	92.31
303.36	81.31
303.59	84.31
303.82	89.31
304.051	83.31
304.281	87.31
304.511	85.31
304.741	77.31
304.971	86.31
305.201	72.31
305.431	80.31
305.661	82.31
305.891	80.31
306.121	84.31
306.352	74.31
306.582	80.31
306.812	79.31
307.042	91.31
307.272	75.31
307.502	86.31
307.731	89.31
307.961	85.31
308.191	87.31
308.421	92.31
308.651	81.31
308.881	72.31
309.111	104.31
309.341	82.31
309.571	86.31
309.8	76.31
310.03	93.31
310.26	73.31
310.49	88.31
310.72	89.31
310.949	91.31
311.179	82.31
311.409	79.31
311.639	80.31
311.868	84.31
312.098	100.31
312.328	91.31
312.557	90.31
312.787	70.31
313.017	83.31
313.246	89.31
313.476	86.31
313.706	85.31
313.935	92.31
314.165	87.31
314.394	90.31
314.624	82.31
314.853	81.31
315.083	84.31
315.312	97.31
315.542	86.31
315.771	79.31
316.001	93.31
316.23	93.31
316.46	76.31
316.689	79.31
316.919	92.31
317.148	82.31
317.377	92.31
317.607	98.31
317.836	75.31
318.065	83.31
318.295	80.31
318.524	89.31
318.753	93.31
318.983	79.31
319.212	75.31
319.441	87.31
319.67	77.31
319.9	93.31
320.129	85.31
320.358	75.31
320.587	95.31
320.816	91.31
321.046	95.31
321.275	91.31
321.504	86.31
321.733	86.31
321.962	73.31
322.191	93.31
322.42	95.31
322.649	91.31
322.878	90.31
323.108	82.31
323.337	78.31
323.566	94.31
323.795	91.31
324.024	86.31
324.253	83.31
324.482	85.31
324.71	73.31
324.939	85.31
325.168	77.31
325.397	79.31
325.626	78.31
325.855	78.31
326.084	82.31
326.313	83.31
326.542	83.31
326.77	91.31
326.999	90.31
327.228	88.31
327.457	85.31
327.686	86.31
327.914	82.31
328.143	87.31
328.372	83.31
328.6	97.31
328.829	76.31
329.058	83.31
329.287	93.31
329.515	85.31
329.744	84.31
329.972	86.31
330.201	82.31
330.43	90.31
330.658	73.31
330.887	69.31
331.115	74.31
331.344	81.31
331.572	98.31
331.801	93.31
332.03	101.31
332.258	83.31
332.486	80.31
332.715	81.31
332.943	86.31
333.172	94.31
333.4	70.31
333.629	87.31
333.857	93.31
334.085	75.31
334.314	90.31
334.542	82.31
334.771	92.31
334.999	83.31
335.227	79.31
335.455	80.31
335.684	84.31
335.912	80.31
336.14	79.31
336.369	82.31
336.597	83.31
336.825	98.31
337.053	84.31
337.281	75.31
337.51	74.31
337.738	71.31
337.966	73.31
338.194	78.31
338.422	75.31
338.65	80.31
338.878	72.31
339.106	75.31
339.334	77.31
339.562	88.31
339.79	83.31
340.018	79.31
340.246	79.31
340.474	94.31
340.702	90.31
340.93	69.31
341.158	88.31
341.386	91.31
341.614	99.31
341.842	79.31
342.07	68.31
342.298	81.31
342.526	81.31
342.754	72.31
342.981	79.31
343.209	90.31
343.437	75.31
343.665	86.31
343.893	81.31
344.12	86.31
344.348	77.31
344.576	93.31
344.804	75.31
345.031	83.31
345.259	72.31
345.487	82.31
345.714	87.31
345.942	87.31
346.17	93.31
346.397	82.31
346.625	74.31
346.853	89.31
347.08	73.31
347.308	96.31
347.535	93.31
347.763	84.31
347.99	85.31
348.218	73.31
348.445	81.31
348.673	88.31
348.9	88.31
349.128	101.31
349.355	85.31
349.583	66.31
349.81	80.31
350.037	78.31
350.265	84.31
350.492	75.31
350.72	73.31
350.947	83.31
351.174	78.31
351.402	77.31
351.629	83.31
351.856	95.31
352.083	86.31
352.311	91.31
352.538	81.31
352.765	79.31
352.992	81.31
353.22	84.31
353.447	89.31
353.674	82.31
353.901	86.31
354.128	70.31
354.355	85.31
354.583	86.31
354.81	88.31
355.037	82.31
355.264	73.31
355.491	78.31
355.718	85.31
355.945	72.31
356.172	93.31
356.399	97.31
356.626	72.31
356.853	86.31
357.08	77.31
357.307	76.31
357.534	78.31
357.761	79.31
357.988	91.31
358.215	89.31
358.441	86.31
358.668	92.31
358.895	90.31
359.122	80.31
359.349	85.31
359.576	81.31
359.802	80.31
360.029	91.31
360.256	82.31
360.483	80.31
360.709	81.31
360.936	80.31
361.163	81.31
361.39	100.31
361.616	78.31
361.843	86.31
362.07	82.31
362.296	89.31
362.523	78.31
362.749	80.31
362.976	91.31
363.203	88.31
363.429	102.31
363.656	82.31
363.882	69.31
364.109	80.31
364.335	80.31
364.562	76.31
364.788	83.31
365.015	92.31
365.241	81.31
365.468	87.31
365.694	73.31
365.92	84.31
366.147	93.31
366.373	83.31
366.599	96.31
366.826	75.31
367.052	83.31
367.278	84.31
367.505	87.31
367.731	83.31
367.957	82.31
368.184	78.31
368.41	81.31
368.636	79.31
368.862	81.31
369.089	82.31
369.315	80.31
369.541	82.31
369.767	95.31
369.993	83.31
370.219	98.31
370.445	83.31
370.672	82.31
370.898	84.31
371.124	88.31
371.35	79.31
371.576	87.31
371.802	87.31
372.028	72.31
372.254	91.31
372.48	87.31
372.706	71.31
372.932	83.31
373.158	74.31
373.384	89.31
373.61	81.31
373.835	104.31
374.061	90.31
374.287	81.31
374.513	85.31
374.739	93.31
374.965	88.31
375.191	79.31
375.416	77.31
375.642	83.31
375.868	82.31
376.094	87.31
376.319	87.31
376.545	74.31
376.771	92.31
376.997	94.31
377.222	85.31
377.448	80.31
377.674	101.31
377.899	94.31
378.125	81.31
378.35	91.31
378.576	71.31
378.802	107.31
379.027	90.31
379.253	84.31
379.478	75.31
379.704	74.31
379.929	79.31
380.155	86.31
380.38	81.31
380.606	72.31
380.831	85.31
381.057	90.31
381.282	87.31
381.507	99.31
381.733	93.31
381.958	92.31
382.184	80.31
382.409	71.31
382.634	87.31
382.86	81.31
383.085	87.31
383.31	83.31
383.535	89.31
383.761	99.31
383.986	74.31
384.211	80.31
384.436	77.31
384.662	79.31
384.887	83.31
385.112	79.31
385.337	77.31
385.562	100.31
385.787	80.31
386.013	89.31
386.238	87.31
386.463	90.31
386.688	79.31
386.913	85.31
387.138	81.31
387.363	85.31
387.588	101.31
387.813	95.31
388.038	95.31
388.263	86.31
388.488	73.31
388.713	77.31
388.938	73.31
389.163	67.31
389.387	84.31
389.612	81.31
389.837	99.31
390.062	87.31
390.287	89.31
390.512	86.31
390.736	82.31
390.961	78.31
391.186	90.31
391.411	88.31
391.636	75.31
391.86	72.31
392.085	87.31
392.31	86.31
392.534	93.31
392.759	96.31
392.984	81.31
393.208	74.31
393.433	93.31
393.658	83.31
393.882	89.31
394.107	93.31
394.331	97.31
394.556	89.31
394.78	85.31
395.005	86.31
395.229	89.31
395.454	101.31
395.678	88.31
395.903	87.31
396.127	79.31
396.352	86.31
396.576	93.31
396.801	92.31
397.025	91.31
397.249	90.31
397.474	78.31
397.698	88.31
397.922	78.31
398.147	84.31
398.371	88.31
398.595	99.31
398.82	94.31
399.044	80.31
399.268	85.31
399.492	72.31
399.717	108.31
399.941	86.31
400.165	86.31
400.389	86.31
400.613	98.31
400.837	88.31
401.062	86.31
401.286	91.31
401.51	82.31
401.734	79.31
401.958	82.31
402.182	91.31
402.406	83.31
402.63	90.31
402.854	82.31
403.078	100.31
403.302	79.31
403.526	82.31
403.75	85.31
403.974	83.31
404.198	97.31
404.422	94.31
404.645	86.31
404.869	98.31
405.093	79.31
405.317	107.31
405.541	89.31
405.765	77.31
405.988	86.31
406.212	82.31
406.436	82.31
406.66	85.31
406.883	84.31
407.107	88.31
407.331	67.31
407.555	84.31
407.778	89.31
408.002	95.31
408.226	86.31
408.449	92.31
408.673	80.31
408.896	90.31
409.12	104.31
409.344	96.31
409.567	92.31
409.791	98.31
410.014	85.31
410.238	91.31
410.461	88.31
410.685	106.31
410.908	92.31
411.132	83.31
411.355	88.31
411.578	83.31
411.802	90.31
412.025	95.31
412.249	81.31
412.472	104.31
412.695	94.31
412.919	95.31
413.142	79.31
413.365	88.31
413.589	91.31
413.812	84.31
414.035	97.31
414.258	91.31
414.482	91.31
414.705	86.31
414.928	79.31
415.151	86.31
415.374	78.31
415.597	73.31
415.821	73.31
416.044	82.31
416.267	92.31
416.49	94.31
416.713	75.31
416.936	91.31
417.159	79.31
417.382	92.31
417.605	92.31
417.828	87.31
418.051	90.31
418.274	96.31
418.497	88.31
418.72	90.31
418.943	95.31
419.166	93.31
419.389	75.31
419.611	95.31
419.834	107.31
420.057	102.31
420.28	87.31
420.503	99.31
420.726	97.31
420.948	103.31
421.171	90.31
421.394	84.31
421.617	95.31
421.839	87.31
422.062	96.31
422.285	99.31
422.507	87.31
422.73	71.31
422.953	90.31
423.175	95.31
423.398	96.31
423.621	83.31
423.843	88.31
424.066	88.31
424.288	93.31
424.511	89.31
424.733	105.31
424.956	90.31
425.178	94.31
425.401	101.31
425.623	100.31
425.846	114.31
426.068	96.31
426.291	88.31
426.513	98.31
426.735	95.31
426.958	103.31
427.18	98.31
427.402	99.31
427.625	97.31
427.847	98.31
428.069	101.31
428.292	88.31
428.514	89.31
428.736	81.31
428.958	96.31
429.181	83.31
429.403	92.31
429.625	90.31
429.847	96.31
430.069	94.31
430.292	93.31
430.514	96.31
430.736	100.31
430.958	89.31
431.18	85.31
431.402	96.31
431.624	85.31
431.846	74.31
432.068	82.31
432.29	85.31
432.512	97.31
432.734	96.31
432.956	94.31
433.178	86.31
433.4	81.31
433.622	87.31
433.844	87.31
434.066	98.31
434.287	86.31
434.509	81.31
434.731	81.31
434.953	87.31
435.175	94.31
435.397	89.31
435.618	101.31
435.84	85.31
436.062	77.31
436.284	89.31
436.505	99.31
436.727	96.31
436.949	96.31
437.17	94.31
437.392	95.31
437.614	88.31
437.835	85.31
438.057	70.31
438.278	76.31
438.5	89.31
438.721	75.31
438.943	103.31
439.165	82.31
439.386	92.31
439.608	97.31
439.829	91.31
440.05	114.31
440.272	106.31
440.493	90.31
440.715	82.31
440.936	82.31
441.158	99.31
441.379	97.31
441.6	80.31
441.822	85.31
442.043	95.31
442.264	86.31
442.486	93.31
442.707	101.31
442.928	89.31
443.149	112.31
443.371	104.31
443.592	87.31
443.813	86.31
444.034	85.31
444.255	102.31
444.476	94.31
444.698	95.31
444.919	97.31
445.14	219.31
445.361	155.31
445.582	109.31
445.803	85.31
446.024	85.31
446.245	100.31
446.466	97.31
446.687	94.31
446.908	102.31
447.129	104.31
447.35	92.31
447.571	90.31
447.792	101.31
448.013	89.31
448.234	99.31
448.455	92.31
448.675	96.31
448.896	98.31
449.117	97.31
449.338	102.31
449.559	92.31
449.779	86.31
450	90.31
450.221	90.31
450.442	95.31
450.662	86.31
450.883	98.31
451.104	107.31
451.324	86.31
451.545	87.31
451.766	89.31
451.986	95.31
452.207	85.31
452.428	77.31
452.648	78.31
452.869	95.31
453.089	89.31
453.31	88.31
453.53	104.31
453.751	93.31
453.971	80.31
454.192	93.31
454.412	71.31
454.633	85.31
454.853	84.31
455.073	104.31
455.294	93.31
455.514	96.31
455.734	101.31
455.955	80.31
456.175	91.31
456.395	93.31
456.616	88.31
456.836	85.31
457.056	82.31
457.276	79.31
457.497	81.31
457.717	98.31
457.937	95.31
458.157	81.31
458.377	72.31
458.598	70.31
458.818	86.31
459.038	92.31
459.258	93.31
459.478	74.31
459.698	91.31
459.918	86.31
460.138	93.31
460.358	98.31
460.578	91.31
460.798	81.31
461.018	72.31
461.238	86.31
461.458	81.31
461.678	84.31
461.898	79.31
462.118	106.31
462.338	85.31
462.558	94.31
462.777	98.31
462.997	97.31
463.217	82.31
463.437	95.31
463.657	85.31
463.876	79.31
464.096	96.31
464.316	77.31
464.536	91.31
464.755	95.31
464.975	97.31
465.195	90.31
465.414	87.31
465.634	85.31
465.854	89.31
466.073	94.31
466.293	97.31
466.512	96.31
466.732	98.31
466.951	88.31
467.171	84.31
467.391	93.31
467.61	85.31
467.829	95.31
468.049	85.31
468.268	98.31
468.488	91.31
468.707	91.31
468.927	91.31
469.146	94.31
469.365	89.31
469.585	92.31
469.804	97.31
470.023	98.31
470.243	96.31
470.462	97.31
470.681	106.31
470.901	93.31
471.12	97.31
471.339	102.31
471.558	93.31
471.777	93.31
471.997	99.31
472.216	91.31
472.435	100.31
472.654	67.31
472.873	90.31
473.092	85.31
473.311	89.31
473.53	106.31
473.749	104.31
473.968	85.31
474.187	101.31
474.406	91.31
474.625	88.31
474.844	84.31
475.063	104.31
475.282	102.31
475.501	98.31
475.72	105.31
475.939	87.31
476.158	96.31
476.377	81.31
476.596	92.31
476.814	85.31
477.033	96.31
477.252	88.31
477.471	91.31
477.69	88.31
477.908	83.31
478.127	105.31
478.346	97.31
478.564	99.31
478.783	93.31
479.002	93.31
479.22	101.31
479.439	96.31
479.658	92.31
479.876	83.31
480.095	101.31
480.313	79.31
480.532	93.31
480.751	89.31
480.969	86.31
481.188	81.31
481.406	79.31
481.624	70.31
481.843	87.31
482.061	85.31
482.28	97.31
482.498	103.31
482.717	69.31
482.935	83.31
483.153	95.31
483.372	89.31
483.59	91.31
483.808	105.31
484.027	101.31
484.245	98.31
484.463	94.31
484.681	99.31
484.9	89.31
485.118	95.31
485.336	83.31
485.554	80.31
485.772	106.31
485.99	85.31
486.209	88.31
486.427	75.31
486.645	85.31
486.863	86.31
487.081	90.31
487.299	97.31
487.517	101.31
487.735	108.31
487.953	103.31
488.171	124.31
488.389	102.31
488.607	107.31
488.825	95.31
489.043	91.31
489.261	93.31
489.479	96.31
489.696	105.31
489.914	98.31
490.132	99.31
490.35	101.31
490.568	99.31
490.786	113.31
491.003	106.31
491.221	90.31
491.439	98.31
491.657	102.31
491.874	117.31
492.092	109.31
492.31	126.31
492.527	114.31
492.745	98.31
492.963	126.31
493.18	116.31
493.398	116.31
493.615	126.31
493.833	100.31
494.05	108.31
494.268	115.31
494.485	113.31
494.703	105.31
494.92	121.31
495.138	103.31
495.355	106.31
495.573	116.31
495.79	111.31
496.008	102.31
496.225	97.31
496.442	105.31
496.66	96.31
496.877	98.31
497.094	111.31
497.312	117.31
497.529	94.31
497.746	94.31
497.963	94.31
498.181	82.31
498.398	92.31
498.615	98.31
498.832	80.31
499.049	72.31
499.267	94.31
499.484	97.31
499.701	89.31
499.918	93.31
500.135	100.31
500.352	107.31
500.569	82.31
500.786	103.31
501.003	94.31
501.22	77.31
501.437	102.31
501.654	89.31
501.871	91.31
502.088	104.31
502.305	102.31
502.522	85.31
502.739	95.31
502.956	95.31
503.172	93.31
503.389	87.31
503.606	85.31
503.823	88.31
504.04	101.31
504.256	96.31
504.473	90.31
504.69	93.31
504.907	96.31
505.123	89.31
505.34	93.31
505.557	97.31
505.773	86.31
505.99	77.31
506.207	89.31
506.423	85.31
506.64	97.31
506.856	80.31
507.073	90.31
507.289	99.31
507.506	94.31
507.722	102.31
507.939	83.31
508.155	93.31
508.372	82.31
508.588	95.31
508.805	94.31
509.021	93.31
509.238	87.31
509.454	82.31
509.67	93.31
509.887	92.31
510.103	91.31
510.319	87.31
510.536	89.31
510.752	80.31
510.968	88.31
511.184	97.31
511.401	87.31
511.617	85.31
511.833	86.31
512.049	93.31
512.265	94.31
512.481	86.31
512.698	79.31
512.914	89.31
513.13	81.31
513.346	86.31
513.562	74.31
513.778	74.31
513.994	88.31
514.21	95.31
514.426	88.31
514.642	86.31
514.858	89.31
515.074	86.31
515.29	69.31
515.506	76.31
515.721	70.31
515.937	77.31
516.153	84.31
516.369	84.31
516.585	86.31
516.801	80.31
517.016	80.31
517.232	90.31
517.448	90.31
517.664	82.31
517.879	84.31
