Data from Location5.07152019.Energy5.Lamp.07192019.3%Agarose_HRD10591_15-37-54-387.txt Node
Date: Fri Jul 19 15:37:54 EDT 2019
User: cochatt
Spectrometer: HR+D1059
Trigger mode: 1
Integration Time (sec): 1.000000E-1
Scans to average: 1
Electric dark correction enabled: true
Nonlinearity correction enabled: false
Boxcar width: 0
XAxis mode: Wavelengths
Number of Pixels in Spectrum: 2048
>>>>>Begin Spectral Data<<<<<
223.165	-8.31
223.4	-8.31
223.635	-8.31
223.869	-14.31
224.104	-20.31
224.338	-10.31
224.573	-0.31
224.808	-10.31
225.042	-10.31
225.277	8.69
225.511	-4.31
225.746	-12.31
225.98	3.69
226.215	5.69
226.449	8.69
226.683	22.69
226.918	12.69
227.152	28.69
227.387	35.69
227.621	42.69
227.856	30.69
228.09	48.69
228.324	65.69
228.559	49.69
228.793	53.69
229.027	53.69
229.262	58.69
229.496	61.69
229.73	59.69
229.964	67.69
230.199	72.69
230.433	80.69
230.667	82.69
230.901	77.69
231.136	78.69
231.37	77.69
231.604	74.69
231.838	71.69
232.072	77.69
232.306	82.69
232.541	88.69
232.775	89.69
233.009	77.69
233.243	85.69
233.477	76.69
233.711	85.69
233.945	72.69
234.179	63.69
234.413	67.69
234.647	80.69
234.881	92.69
235.115	80.69
235.349	71.69
235.583	82.69
235.817	73.69
236.051	67.69
236.285	72.69
236.519	77.69
236.753	81.69
236.987	81.69
237.221	69.69
237.455	86.69
237.689	85.69
237.922	79.69
238.156	84.69
238.39	66.69
238.624	75.69
238.858	80.69
239.091	73.69
239.325	72.69
239.559	86.69
239.793	87.69
240.027	75.69
240.26	75.69
240.494	71.69
240.728	83.69
240.961	81.69
241.195	87.69
241.429	74.69
241.662	65.69
241.896	76.69
242.13	89.69
242.363	75.69
242.597	63.69
242.83	74.69
243.064	86.69
243.298	91.69
243.531	73.69
243.765	76.69
243.998	80.69
244.232	78.69
244.465	91.69
244.699	75.69
244.932	83.69
245.166	78.69
245.399	76.69
245.633	70.69
245.866	73.69
246.099	65.69
246.333	75.69
246.566	73.69
246.8	68.69
247.033	73.69
247.266	79.69
247.5	76.69
247.733	75.69
247.966	89.69
248.2	70.69
248.433	73.69
248.666	77.69
248.899	60.69
249.133	85.69
249.366	84.69
249.599	87.69
249.832	80.69
250.066	88.69
250.299	86.69
250.532	73.69
250.765	70.69
250.998	84.69
251.231	74.69
251.465	83.69
251.698	86.69
251.931	72.69
252.164	74.69
252.397	76.69
252.63	67.69
252.863	83.69
253.096	87.69
253.329	90.69
253.562	90.69
253.795	83.69
254.028	91.69
254.261	82.69
254.494	80.69
254.727	67.69
254.96	88.69
255.193	81.69
255.426	80.69
255.659	73.69
255.892	91.69
256.124	82.69
256.357	71.69
256.59	90.69
256.823	84.69
257.056	81.69
257.289	82.69
257.521	75.69
257.754	74.69
257.987	79.69
258.22	83.69
258.452	74.69
258.685	73.69
258.918	89.69
259.151	81.69
259.383	90.69
259.616	85.69
259.849	80.69
260.081	87.69
260.314	74.69
260.547	91.69
260.779	101.69
261.012	97.69
261.244	94.69
261.477	87.69
261.71	90.69
261.942	70.69
262.175	79.69
262.407	68.69
262.64	73.69
262.872	86.69
263.105	86.69
263.337	108.69
263.57	68.69
263.802	82.69
264.035	77.69
264.267	79.69
264.499	77.69
264.732	80.69
264.964	92.69
265.197	85.69
265.429	83.69
265.661	97.69
265.894	72.69
266.126	91.69
266.358	85.69
266.591	88.69
266.823	83.69
267.055	71.69
267.287	75.69
267.52	88.69
267.752	83.69
267.984	77.69
268.216	74.69
268.448	83.69
268.681	81.69
268.913	80.69
269.145	85.69
269.377	81.69
269.609	85.69
269.841	91.69
270.073	82.69
270.306	84.69
270.538	91.69
270.77	81.69
271.002	89.69
271.234	83.69
271.466	103.69
271.698	89.69
271.93	92.69
272.162	83.69
272.394	88.69
272.626	85.69
272.858	88.69
273.09	98.69
273.322	88.69
273.553	76.69
273.785	90.69
274.017	90.69
274.249	85.69
274.481	77.69
274.713	77.69
274.945	88.69
275.176	81.69
275.408	89.69
275.64	78.69
275.872	81.69
276.104	79.69
276.335	82.69
276.567	70.69
276.799	99.69
277.031	93.69
277.262	83.69
277.494	74.69
277.726	79.69
277.957	87.69
278.189	85.69
278.421	85.69
278.652	85.69
278.884	76.69
279.115	80.69
279.347	90.69
279.579	80.69
279.81	93.69
280.042	75.69
280.273	91.69
280.505	99.69
280.736	79.69
280.968	93.69
281.199	82.69
281.431	73.69
281.662	87.69
281.894	82.69
282.125	94.69
282.356	99.69
282.588	88.69
282.819	84.69
283.051	96.69
283.282	75.69
283.513	77.69
283.745	84.69
283.976	97.69
284.207	97.69
284.439	83.69
284.67	71.69
284.901	89.69
285.132	103.69
285.364	85.69
285.595	88.69
285.826	79.69
286.057	96.69
286.288	91.69
286.52	91.69
286.751	75.69
286.982	80.69
287.213	81.69
287.444	84.69
287.675	84.69
287.906	91.69
288.138	69.69
288.369	100.69
288.6	90.69
288.831	72.69
289.062	89.69
289.293	87.69
289.524	93.69
289.755	80.69
289.986	91.69
290.217	89.69
290.448	98.69
290.679	76.69
290.91	89.69
291.141	92.69
291.371	92.69
291.602	89.69
291.833	77.69
292.064	81.69
292.295	87.69
292.526	100.69
292.757	99.69
292.987	90.69
293.218	81.69
293.449	86.69
293.68	85.69
293.91	88.69
294.141	79.69
294.372	75.69
294.603	82.69
294.833	75.69
295.064	82.69
295.295	73.69
295.525	83.69
295.756	89.69
295.987	79.69
296.217	93.69
296.448	94.69
296.679	98.69
296.909	91.69
297.14	90.69
297.37	77.69
297.601	83.69
297.831	93.69
298.062	86.69
298.292	75.69
298.523	84.69
298.753	73.69
298.984	85.69
299.214	91.69
299.445	83.69
299.675	88.69
299.905	86.69
300.136	73.69
300.366	73.69
300.597	77.69
300.827	97.69
301.057	83.69
301.288	90.69
301.518	80.69
301.748	88.69
301.979	101.69
302.209	85.69
302.439	102.69
302.669	84.69
302.9	92.69
303.13	88.69
303.36	76.69
303.59	94.69
303.82	73.69
304.051	96.69
304.281	83.69
304.511	90.69
304.741	86.69
304.971	92.69
305.201	98.69
305.431	92.69
305.661	80.69
305.891	89.69
306.121	81.69
306.352	90.69
306.582	79.69
306.812	70.69
307.042	83.69
307.272	83.69
307.502	80.69
307.731	82.69
307.961	84.69
308.191	79.69
308.421	99.69
308.651	87.69
308.881	91.69
309.111	93.69
309.341	83.69
309.571	93.69
309.8	82.69
310.03	81.69
310.26	71.69
310.49	73.69
310.72	72.69
310.949	88.69
311.179	88.69
311.409	74.69
311.639	95.69
311.868	81.69
312.098	80.69
312.328	83.69
312.557	90.69
312.787	79.69
313.017	87.69
313.246	95.69
313.476	85.69
313.706	76.69
313.935	89.69
314.165	87.69
314.394	82.69
314.624	75.69
314.853	89.69
315.083	95.69
315.312	76.69
315.542	84.69
315.771	83.69
316.001	98.69
316.23	76.69
316.46	81.69
316.689	82.69
316.919	91.69
317.148	89.69
317.377	85.69
317.607	82.69
317.836	83.69
318.065	92.69
318.295	89.69
318.524	88.69
318.753	91.69
318.983	85.69
319.212	75.69
319.441	72.69
319.67	81.69
319.9	83.69
320.129	92.69
320.358	83.69
320.587	71.69
320.816	96.69
321.046	82.69
321.275	84.69
321.504	87.69
321.733	86.69
321.962	90.69
322.191	85.69
322.42	88.69
322.649	92.69
322.878	72.69
323.108	91.69
323.337	84.69
323.566	81.69
323.795	71.69
324.024	90.69
324.253	94.69
324.482	91.69
324.71	91.69
324.939	99.69
325.168	84.69
325.397	87.69
325.626	75.69
325.855	89.69
326.084	79.69
326.313	81.69
326.542	74.69
326.77	89.69
326.999	77.69
327.228	88.69
327.457	80.69
327.686	83.69
327.914	97.69
328.143	85.69
328.372	83.69
328.6	90.69
328.829	83.69
329.058	92.69
329.287	80.69
329.515	98.69
329.744	91.69
329.972	87.69
330.201	83.69
330.43	88.69
330.658	91.69
330.887	78.69
331.115	95.69
331.344	83.69
331.572	87.69
331.801	89.69
332.03	93.69
332.258	81.69
332.486	89.69
332.715	87.69
332.943	72.69
333.172	84.69
333.4	79.69
333.629	87.69
333.857	67.69
334.085	69.69
334.314	82.69
334.542	89.69
334.771	103.69
334.999	92.69
335.227	76.69
335.455	94.69
335.684	90.69
335.912	87.69
336.14	100.69
336.369	92.69
336.597	88.69
336.825	76.69
337.053	86.69
337.281	100.69
337.51	98.69
337.738	83.69
337.966	79.69
338.194	75.69
338.422	83.69
338.65	87.69
338.878	86.69
339.106	88.69
339.334	99.69
339.562	92.69
339.79	90.69
340.018	90.69
340.246	92.69
340.474	91.69
340.702	72.69
340.93	72.69
341.158	92.69
341.386	65.69
341.614	97.69
341.842	83.69
342.07	88.69
342.298	101.69
342.526	97.69
342.754	85.69
342.981	89.69
343.209	85.69
343.437	92.69
343.665	80.69
343.893	93.69
344.12	92.69
344.348	77.69
344.576	84.69
344.804	72.69
345.031	86.69
345.259	88.69
345.487	85.69
345.714	87.69
345.942	92.69
346.17	86.69
346.397	95.69
346.625	77.69
346.853	88.69
347.08	80.69
347.308	88.69
347.535	82.69
347.763	92.69
347.99	75.69
348.218	81.69
348.445	94.69
348.673	89.69
348.9	88.69
349.128	98.69
349.355	76.69
349.583	77.69
349.81	79.69
350.037	82.69
350.265	75.69
350.492	87.69
350.72	71.69
350.947	77.69
351.174	89.69
351.402	96.69
351.629	81.69
351.856	68.69
352.083	92.69
352.311	94.69
352.538	88.69
352.765	83.69
352.992	81.69
353.22	91.69
353.447	79.69
353.674	93.69
353.901	83.69
354.128	90.69
354.355	94.69
354.583	83.69
354.81	92.69
355.037	90.69
355.264	86.69
355.491	85.69
355.718	92.69
355.945	89.69
356.172	89.69
356.399	82.69
356.626	75.69
356.853	73.69
357.08	87.69
357.307	87.69
357.534	90.69
357.761	82.69
357.988	84.69
358.215	84.69
358.441	69.69
358.668	80.69
358.895	72.69
359.122	85.69
359.349	83.69
359.576	74.69
359.802	86.69
360.029	80.69
360.256	85.69
360.483	87.69
360.709	69.69
360.936	76.69
361.163	72.69
361.39	87.69
361.616	80.69
361.843	75.69
362.07	88.69
362.296	86.69
362.523	88.69
362.749	105.69
362.976	80.69
363.203	93.69
363.429	89.69
363.656	83.69
363.882	71.69
364.109	96.69
364.335	101.69
364.562	85.69
364.788	78.69
365.015	86.69
365.241	86.69
365.468	95.69
365.694	78.69
365.92	82.69
366.147	85.69
366.373	92.69
366.599	77.69
366.826	86.69
367.052	87.69
367.278	88.69
367.505	74.69
367.731	85.69
367.957	89.69
368.184	75.69
368.41	89.69
368.636	87.69
368.862	87.69
369.089	92.69
369.315	84.69
369.541	92.69
369.767	84.69
369.993	82.69
370.219	91.69
370.445	102.69
370.672	91.69
370.898	102.69
371.124	72.69
371.35	79.69
371.576	74.69
371.802	91.69
372.028	85.69
372.254	78.69
372.48	99.69
372.706	91.69
372.932	86.69
373.158	89.69
373.384	77.69
373.61	98.69
373.835	90.69
374.061	81.69
374.287	82.69
374.513	82.69
374.739	92.69
374.965	81.69
375.191	86.69
375.416	82.69
375.642	82.69
375.868	79.69
376.094	91.69
376.319	93.69
376.545	83.69
376.771	88.69
376.997	83.69
377.222	85.69
377.448	83.69
377.674	93.69
377.899	90.69
378.125	84.69
378.35	88.69
378.576	83.69
378.802	98.69
379.027	97.69
379.253	77.69
379.478	88.69
379.704	78.69
379.929	74.69
380.155	70.69
380.38	78.69
380.606	89.69
380.831	87.69
381.057	91.69
381.282	98.69
381.507	92.69
381.733	90.69
381.958	79.69
382.184	81.69
382.409	84.69
382.634	84.69
382.86	85.69
383.085	88.69
383.31	83.69
383.535	92.69
383.761	91.69
383.986	89.69
384.211	80.69
384.436	89.69
384.662	81.69
384.887	93.69
385.112	86.69
385.337	88.69
385.562	75.69
385.787	100.69
386.013	108.69
386.238	94.69
386.463	89.69
386.688	87.69
386.913	80.69
387.138	89.69
387.363	96.69
387.588	83.69
387.813	86.69
388.038	83.69
388.263	72.69
388.488	87.69
388.713	81.69
388.938	83.69
389.163	61.69
389.387	95.69
389.612	96.69
389.837	77.69
390.062	87.69
390.287	81.69
390.512	88.69
390.736	75.69
390.961	81.69
391.186	95.69
391.411	93.69
391.636	89.69
391.86	92.69
392.085	88.69
392.31	89.69
392.534	89.69
392.759	80.69
392.984	85.69
393.208	73.69
393.433	83.69
393.658	86.69
393.882	79.69
394.107	94.69
394.331	100.69
394.556	72.69
394.78	81.69
395.005	99.69
395.229	104.69
395.454	88.69
395.678	75.69
395.903	88.69
396.127	92.69
396.352	76.69
396.576	91.69
396.801	92.69
397.025	87.69
397.249	87.69
397.474	85.69
397.698	92.69
397.922	94.69
398.147	76.69
398.371	96.69
398.595	87.69
398.82	95.69
399.044	105.69
399.268	95.69
399.492	94.69
399.717	101.69
399.941	88.69
400.165	88.69
400.389	105.69
400.613	85.69
400.837	91.69
401.062	97.69
401.286	74.69
401.51	90.69
401.734	85.69
401.958	94.69
402.182	86.69
402.406	107.69
402.63	97.69
402.854	100.69
403.078	83.69
403.302	90.69
403.526	80.69
403.75	88.69
403.974	91.69
404.198	74.69
404.422	88.69
404.645	105.69
404.869	77.69
405.093	92.69
405.317	89.69
405.541	95.69
405.765	89.69
405.988	96.69
406.212	75.69
406.436	86.69
406.66	92.69
406.883	97.69
407.107	94.69
407.331	95.69
407.555	109.69
407.778	87.69
408.002	91.69
408.226	96.69
408.449	101.69
408.673	90.69
408.896	88.69
409.12	100.69
409.344	87.69
409.567	81.69
409.791	95.69
410.014	86.69
410.238	96.69
410.461	95.69
410.685	88.69
410.908	89.69
411.132	85.69
411.355	97.69
411.578	104.69
411.802	93.69
412.025	89.69
412.249	78.69
412.472	81.69
412.695	75.69
412.919	95.69
413.142	101.69
413.365	78.69
413.589	94.69
413.812	99.69
414.035	88.69
414.258	93.69
414.482	103.69
414.705	90.69
414.928	97.69
415.151	85.69
415.374	87.69
415.597	101.69
415.821	97.69
416.044	89.69
416.267	81.69
416.49	75.69
416.713	87.69
416.936	99.69
417.159	89.69
417.382	82.69
417.605	78.69
417.828	87.69
418.051	102.69
418.274	104.69
418.497	98.69
418.72	82.69
418.943	93.69
419.166	96.69
419.389	91.69
419.611	92.69
419.834	89.69
420.057	93.69
420.28	80.69
420.503	97.69
420.726	93.69
420.948	83.69
421.171	92.69
421.394	93.69
421.617	103.69
421.839	104.69
422.062	103.69
422.285	80.69
422.507	82.69
422.73	111.69
422.953	89.69
423.175	90.69
423.398	98.69
423.621	84.69
423.843	95.69
424.066	98.69
424.288	83.69
424.511	108.69
424.733	98.69
424.956	88.69
425.178	104.69
425.401	83.69
425.623	94.69
425.846	97.69
426.068	90.69
426.291	100.69
426.513	89.69
426.735	100.69
426.958	88.69
427.18	102.69
427.402	111.69
427.625	84.69
427.847	97.69
428.069	96.69
428.292	84.69
428.514	96.69
428.736	91.69
428.958	101.69
429.181	100.69
429.403	76.69
429.625	90.69
429.847	88.69
430.069	98.69
430.292	95.69
430.514	96.69
430.736	86.69
430.958	112.69
431.18	92.69
431.402	95.69
431.624	95.69
431.846	88.69
432.068	86.69
432.29	89.69
432.512	91.69
432.734	86.69
432.956	98.69
433.178	109.69
433.4	104.69
433.622	109.69
433.844	88.69
434.066	96.69
434.287	95.69
434.509	78.69
434.731	77.69
434.953	90.69
435.175	91.69
435.397	95.69
435.618	107.69
435.84	99.69
436.062	93.69
436.284	91.69
436.505	102.69
436.727	95.69
436.949	89.69
437.17	85.69
437.392	102.69
437.614	91.69
437.835	93.69
438.057	83.69
438.278	96.69
438.5	87.69
438.721	106.69
438.943	90.69
439.165	89.69
439.386	86.69
439.608	90.69
439.829	113.69
440.05	96.69
440.272	102.69
440.493	97.69
440.715	84.69
440.936	101.69
441.158	92.69
441.379	94.69
441.6	96.69
441.822	91.69
442.043	96.69
442.264	91.69
442.486	105.69
442.707	87.69
442.928	92.69
443.149	102.69
443.371	89.69
443.592	96.69
443.813	101.69
444.034	106.69
444.255	98.69
444.476	94.69
444.698	92.69
444.919	83.69
445.14	217.69
445.361	155.69
445.582	111.69
445.803	103.69
446.024	99.69
446.245	91.69
446.466	94.69
446.687	107.69
446.908	102.69
447.129	104.69
447.35	92.69
447.571	99.69
447.792	98.69
448.013	83.69
448.234	107.69
448.455	111.69
448.675	105.69
448.896	101.69
449.117	80.69
449.338	85.69
449.559	108.69
449.779	92.69
450	89.69
450.221	93.69
450.442	92.69
450.662	94.69
450.883	88.69
451.104	105.69
451.324	96.69
451.545	99.69
451.766	96.69
451.986	103.69
452.207	87.69
452.428	89.69
452.648	96.69
452.869	103.69
453.089	101.69
453.31	91.69
453.53	83.69
453.751	88.69
453.971	81.69
454.192	78.69
454.412	80.69
454.633	100.69
454.853	93.69
455.073	92.69
455.294	96.69
455.514	100.69
455.734	85.69
455.955	100.69
456.175	86.69
456.395	105.69
456.616	88.69
456.836	87.69
457.056	87.69
457.276	73.69
457.497	98.69
457.717	90.69
457.937	93.69
458.157	75.69
458.377	85.69
458.598	92.69
458.818	81.69
459.038	90.69
459.258	87.69
459.478	93.69
459.698	91.69
459.918	77.69
460.138	75.69
460.358	97.69
460.578	83.69
460.798	85.69
461.018	91.69
461.238	90.69
461.458	104.69
461.678	90.69
461.898	97.69
462.118	91.69
462.338	100.69
462.558	98.69
462.777	95.69
462.997	96.69
463.217	82.69
463.437	74.69
463.657	79.69
463.876	93.69
464.096	93.69
464.316	84.69
464.536	99.69
464.755	99.69
464.975	80.69
465.195	92.69
465.414	80.69
465.634	80.69
465.854	85.69
466.073	86.69
466.293	91.69
466.512	89.69
466.732	96.69
466.951	98.69
467.171	90.69
467.391	104.69
467.61	100.69
467.829	103.69
468.049	94.69
468.268	95.69
468.488	95.69
468.707	94.69
468.927	96.69
469.146	88.69
469.365	90.69
469.585	96.69
469.804	92.69
470.023	91.69
470.243	95.69
470.462	102.69
470.681	82.69
470.901	89.69
471.12	110.69
471.339	96.69
471.558	90.69
471.777	98.69
471.997	79.69
472.216	107.69
472.435	99.69
472.654	87.69
472.873	86.69
473.092	98.69
473.311	84.69
473.53	92.69
473.749	87.69
473.968	74.69
474.187	87.69
474.406	81.69
474.625	83.69
474.844	95.69
475.063	91.69
475.282	90.69
475.501	91.69
475.72	100.69
475.939	98.69
476.158	90.69
476.377	94.69
476.596	95.69
476.814	89.69
477.033	74.69
477.252	89.69
477.471	93.69
477.69	81.69
477.908	98.69
478.127	106.69
478.346	91.69
478.564	102.69
478.783	100.69
479.002	113.69
479.22	84.69
479.439	94.69
479.658	97.69
479.876	89.69
480.095	88.69
480.313	84.69
480.532	103.69
480.751	88.69
480.969	80.69
481.188	86.69
481.406	89.69
481.624	89.69
481.843	83.69
482.061	75.69
482.28	67.69
482.498	73.69
482.717	83.69
482.935	86.69
483.153	98.69
483.372	101.69
483.59	97.69
483.808	105.69
484.027	100.69
484.245	99.69
484.463	90.69
484.681	112.69
484.9	101.69
485.118	93.69
485.336	92.69
485.554	88.69
485.772	84.69
485.99	87.69
486.209	92.69
486.427	93.69
486.645	103.69
486.863	88.69
487.081	111.69
487.299	90.69
487.517	95.69
487.735	111.69
487.953	108.69
488.171	106.69
488.389	99.69
488.607	98.69
488.825	93.69
489.043	96.69
489.261	90.69
489.479	92.69
489.696	103.69
489.914	108.69
490.132	102.69
490.35	92.69
490.568	103.69
490.786	99.69
491.003	103.69
491.221	102.69
491.439	117.69
491.657	123.69
491.874	120.69
492.092	119.69
492.31	137.69
492.527	116.69
492.745	115.69
492.963	106.69
493.18	102.69
493.398	118.69
493.615	108.69
493.833	104.69
494.05	97.69
494.268	105.69
494.485	114.69
494.703	113.69
494.92	106.69
495.138	96.69
495.355	119.69
495.573	91.69
495.79	102.69
496.008	106.69
496.225	112.69
496.442	111.69
496.66	97.69
496.877	100.69
497.094	92.69
497.312	92.69
497.529	103.69
497.746	113.69
497.963	101.69
498.181	86.69
498.398	99.69
498.615	104.69
498.832	92.69
499.049	89.69
499.267	93.69
499.484	87.69
499.701	95.69
499.918	80.69
500.135	89.69
500.352	89.69
500.569	96.69
500.786	101.69
501.003	106.69
501.22	101.69
501.437	104.69
501.654	98.69
501.871	98.69
502.088	69.69
502.305	96.69
502.522	91.69
502.739	96.69
502.956	95.69
503.172	90.69
503.389	89.69
503.606	81.69
503.823	91.69
504.04	76.69
504.256	103.69
504.473	100.69
504.69	103.69
504.907	93.69
505.123	87.69
505.34	110.69
505.557	85.69
505.773	88.69
505.99	92.69
506.207	101.69
506.423	84.69
506.64	89.69
506.856	92.69
507.073	91.69
507.289	88.69
507.506	107.69
507.722	66.69
507.939	88.69
508.155	99.69
508.372	83.69
508.588	86.69
508.805	90.69
509.021	89.69
509.238	102.69
509.454	83.69
509.67	98.69
509.887	98.69
510.103	84.69
510.319	85.69
510.536	87.69
510.752	75.69
510.968	83.69
511.184	80.69
511.401	81.69
511.617	87.69
511.833	76.69
512.049	87.69
512.265	92.69
512.481	92.69
512.698	97.69
512.914	79.69
513.13	96.69
513.346	95.69
513.562	76.69
513.778	82.69
513.994	93.69
514.21	77.69
514.426	77.69
514.642	82.69
514.858	89.69
515.074	68.69
515.29	95.69
515.506	85.69
515.721	88.69
515.937	83.69
516.153	77.69
516.369	96.69
516.585	88.69
516.801	81.69
517.016	94.69
517.232	92.69
517.448	97.69
