Data from Location5.07152019.Energy5.Lamp.07192019.3%Agarose_HRD10591_15-37-12-387.txt Node
Date: Fri Jul 19 15:37:12 EDT 2019
User: cochatt
Spectrometer: HR+D1059
Trigger mode: 1
Integration Time (sec): 1.000000E-1
Scans to average: 1
Electric dark correction enabled: true
Nonlinearity correction enabled: false
Boxcar width: 0
XAxis mode: Wavelengths
Number of Pixels in Spectrum: 2048
>>>>>Begin Spectral Data<<<<<
223.165	-8.81
223.4	-8.81
223.635	-8.81
223.869	-12.81
224.104	-33.81
224.338	-14.81
224.573	-18.81
224.808	3.19
225.042	-1.81
225.277	-0.81
225.511	-11.81
225.746	-9.81
225.98	10.19
226.215	12.19
226.449	8.19
226.683	28.19
226.918	27.19
227.152	24.19
227.387	40.19
227.621	35.19
227.856	44.19
228.09	35.19
228.324	44.19
228.559	47.19
228.793	50.19
229.027	56.19
229.262	64.19
229.496	68.19
229.73	70.19
229.964	71.19
230.199	71.19
230.433	83.19
230.667	76.19
230.901	81.19
231.136	59.19
231.37	74.19
231.604	80.19
231.838	81.19
232.072	67.19
232.306	73.19
232.541	91.19
232.775	87.19
233.009	68.19
233.243	80.19
233.477	86.19
233.711	69.19
233.945	81.19
234.179	83.19
234.413	75.19
234.647	71.19
234.881	77.19
235.115	82.19
235.349	75.19
235.583	88.19
235.817	71.19
236.051	79.19
236.285	71.19
236.519	88.19
236.753	78.19
236.987	82.19
237.221	64.19
237.455	77.19
237.689	79.19
237.922	87.19
238.156	86.19
238.39	74.19
238.624	65.19
238.858	84.19
239.091	80.19
239.325	76.19
239.559	79.19
239.793	68.19
240.027	73.19
240.26	76.19
240.494	87.19
240.728	73.19
240.961	82.19
241.195	80.19
241.429	74.19
241.662	66.19
241.896	65.19
242.13	73.19
242.363	75.19
242.597	71.19
242.83	64.19
243.064	70.19
243.298	70.19
243.531	79.19
243.765	73.19
243.998	80.19
244.232	80.19
244.465	87.19
244.699	64.19
244.932	92.19
245.166	79.19
245.399	79.19
245.633	74.19
245.866	65.19
246.099	84.19
246.333	70.19
246.566	68.19
246.8	61.19
247.033	84.19
247.266	62.19
247.5	90.19
247.733	81.19
247.966	79.19
248.2	70.19
248.433	71.19
248.666	68.19
248.899	78.19
249.133	81.19
249.366	95.19
249.599	75.19
249.832	77.19
250.066	75.19
250.299	81.19
250.532	79.19
250.765	76.19
250.998	82.19
251.231	87.19
251.465	85.19
251.698	88.19
251.931	87.19
252.164	76.19
252.397	89.19
252.63	91.19
252.863	69.19
253.096	76.19
253.329	77.19
253.562	78.19
253.795	85.19
254.028	75.19
254.261	68.19
254.494	85.19
254.727	84.19
254.96	78.19
255.193	66.19
255.426	90.19
255.659	79.19
255.892	89.19
256.124	80.19
256.357	77.19
256.59	78.19
256.823	81.19
257.056	83.19
257.289	74.19
257.521	80.19
257.754	79.19
257.987	76.19
258.22	81.19
258.452	88.19
258.685	73.19
258.918	86.19
259.151	84.19
259.383	80.19
259.616	93.19
259.849	77.19
260.081	71.19
260.314	71.19
260.547	73.19
260.779	71.19
261.012	82.19
261.244	81.19
261.477	82.19
261.71	73.19
261.942	77.19
262.175	85.19
262.407	88.19
262.64	72.19
262.872	100.19
263.105	71.19
263.337	78.19
263.57	77.19
263.802	75.19
264.035	84.19
264.267	97.19
264.499	87.19
264.732	97.19
264.964	76.19
265.197	84.19
265.429	79.19
265.661	76.19
265.894	85.19
266.126	78.19
266.358	69.19
266.591	91.19
266.823	90.19
267.055	91.19
267.287	75.19
267.52	85.19
267.752	94.19
267.984	82.19
268.216	78.19
268.448	85.19
268.681	71.19
268.913	82.19
269.145	92.19
269.377	81.19
269.609	90.19
269.841	84.19
270.073	81.19
270.306	87.19
270.538	74.19
270.77	79.19
271.002	70.19
271.234	85.19
271.466	82.19
271.698	84.19
271.93	85.19
272.162	89.19
272.394	93.19
272.626	80.19
272.858	89.19
273.09	94.19
273.322	75.19
273.553	78.19
273.785	88.19
274.017	91.19
274.249	90.19
274.481	99.19
274.713	85.19
274.945	87.19
275.176	83.19
275.408	83.19
275.64	89.19
275.872	78.19
276.104	86.19
276.335	95.19
276.567	82.19
276.799	86.19
277.031	80.19
277.262	86.19
277.494	89.19
277.726	86.19
277.957	78.19
278.189	71.19
278.421	92.19
278.652	88.19
278.884	80.19
279.115	88.19
279.347	80.19
279.579	92.19
279.81	86.19
280.042	89.19
280.273	82.19
280.505	82.19
280.736	72.19
280.968	78.19
281.199	87.19
281.431	77.19
281.662	77.19
281.894	83.19
282.125	86.19
282.356	76.19
282.588	92.19
282.819	81.19
283.051	73.19
283.282	97.19
283.513	94.19
283.745	70.19
283.976	78.19
284.207	79.19
284.439	90.19
284.67	82.19
284.901	75.19
285.132	87.19
285.364	83.19
285.595	89.19
285.826	91.19
286.057	75.19
286.288	76.19
286.52	87.19
286.751	79.19
286.982	82.19
287.213	79.19
287.444	87.19
287.675	93.19
287.906	76.19
288.138	81.19
288.369	83.19
288.6	73.19
288.831	82.19
289.062	85.19
289.293	93.19
289.524	86.19
289.755	89.19
289.986	81.19
290.217	82.19
290.448	99.19
290.679	87.19
290.91	80.19
291.141	82.19
291.371	73.19
291.602	87.19
291.833	88.19
292.064	101.19
292.295	77.19
292.526	83.19
292.757	77.19
292.987	88.19
293.218	81.19
293.449	75.19
293.68	101.19
293.91	88.19
294.141	90.19
294.372	76.19
294.603	89.19
294.833	91.19
295.064	71.19
295.295	78.19
295.525	87.19
295.756	82.19
295.987	84.19
296.217	102.19
296.448	68.19
296.679	88.19
296.909	94.19
297.14	88.19
297.37	73.19
297.601	85.19
297.831	83.19
298.062	81.19
298.292	99.19
298.523	97.19
298.753	76.19
298.984	99.19
299.214	85.19
299.445	88.19
299.675	87.19
299.905	95.19
300.136	83.19
300.366	87.19
300.597	83.19
300.827	89.19
301.057	91.19
301.288	76.19
301.518	76.19
301.748	87.19
301.979	91.19
302.209	89.19
302.439	82.19
302.669	80.19
302.9	75.19
303.13	77.19
303.36	94.19
303.59	91.19
303.82	96.19
304.051	87.19
304.281	85.19
304.511	84.19
304.741	84.19
304.971	85.19
305.201	97.19
305.431	84.19
305.661	92.19
305.891	93.19
306.121	82.19
306.352	79.19
306.582	85.19
306.812	92.19
307.042	82.19
307.272	83.19
307.502	92.19
307.731	74.19
307.961	97.19
308.191	100.19
308.421	100.19
308.651	90.19
308.881	85.19
309.111	71.19
309.341	69.19
309.571	82.19
309.8	75.19
310.03	83.19
310.26	79.19
310.49	83.19
310.72	83.19
310.949	119.19
311.179	86.19
311.409	106.19
311.639	77.19
311.868	95.19
312.098	89.19
312.328	79.19
312.557	93.19
312.787	96.19
313.017	97.19
313.246	87.19
313.476	70.19
313.706	80.19
313.935	93.19
314.165	82.19
314.394	89.19
314.624	84.19
314.853	89.19
315.083	83.19
315.312	77.19
315.542	94.19
315.771	80.19
316.001	82.19
316.23	87.19
316.46	83.19
316.689	92.19
316.919	72.19
317.148	92.19
317.377	83.19
317.607	93.19
317.836	86.19
318.065	90.19
318.295	92.19
318.524	78.19
318.753	78.19
318.983	81.19
319.212	85.19
319.441	75.19
319.67	86.19
319.9	89.19
320.129	81.19
320.358	81.19
320.587	87.19
320.816	90.19
321.046	84.19
321.275	97.19
321.504	100.19
321.733	75.19
321.962	86.19
322.191	83.19
322.42	86.19
322.649	79.19
322.878	92.19
323.108	88.19
323.337	93.19
323.566	76.19
323.795	81.19
324.024	84.19
324.253	72.19
324.482	105.19
324.71	91.19
324.939	88.19
325.168	75.19
325.397	79.19
325.626	85.19
325.855	84.19
326.084	72.19
326.313	102.19
326.542	77.19
326.77	75.19
326.999	96.19
327.228	98.19
327.457	90.19
327.686	73.19
327.914	92.19
328.143	99.19
328.372	80.19
328.6	80.19
328.829	86.19
329.058	82.19
329.287	69.19
329.515	83.19
329.744	73.19
329.972	82.19
330.201	103.19
330.43	82.19
330.658	75.19
330.887	87.19
331.115	76.19
331.344	81.19
331.572	101.19
331.801	86.19
332.03	77.19
332.258	94.19
332.486	72.19
332.715	84.19
332.943	87.19
333.172	90.19
333.4	89.19
333.629	89.19
333.857	89.19
334.085	85.19
334.314	81.19
334.542	86.19
334.771	96.19
334.999	81.19
335.227	88.19
335.455	92.19
335.684	72.19
335.912	98.19
336.14	82.19
336.369	90.19
336.597	83.19
336.825	80.19
337.053	81.19
337.281	90.19
337.51	81.19
337.738	93.19
337.966	89.19
338.194	68.19
338.422	88.19
338.65	82.19
338.878	81.19
339.106	90.19
339.334	94.19
339.562	81.19
339.79	83.19
340.018	80.19
340.246	93.19
340.474	89.19
340.702	83.19
340.93	76.19
341.158	86.19
341.386	80.19
341.614	70.19
341.842	74.19
342.07	76.19
342.298	87.19
342.526	81.19
342.754	69.19
342.981	77.19
343.209	78.19
343.437	87.19
343.665	82.19
343.893	96.19
344.12	73.19
344.348	95.19
344.576	101.19
344.804	73.19
345.031	87.19
345.259	76.19
345.487	94.19
345.714	78.19
345.942	92.19
346.17	82.19
346.397	84.19
346.625	95.19
346.853	76.19
347.08	77.19
347.308	88.19
347.535	60.19
347.763	87.19
347.99	84.19
348.218	92.19
348.445	75.19
348.673	103.19
348.9	92.19
349.128	70.19
349.355	73.19
349.583	88.19
349.81	78.19
350.037	76.19
350.265	83.19
350.492	76.19
350.72	83.19
350.947	76.19
351.174	79.19
351.402	74.19
351.629	65.19
351.856	75.19
352.083	79.19
352.311	84.19
352.538	81.19
352.765	81.19
352.992	91.19
353.22	91.19
353.447	90.19
353.674	89.19
353.901	84.19
354.128	71.19
354.355	74.19
354.583	86.19
354.81	83.19
355.037	90.19
355.264	81.19
355.491	83.19
355.718	76.19
355.945	79.19
356.172	91.19
356.399	85.19
356.626	66.19
356.853	77.19
357.08	84.19
357.307	90.19
357.534	84.19
357.761	80.19
357.988	83.19
358.215	100.19
358.441	81.19
358.668	76.19
358.895	83.19
359.122	79.19
359.349	87.19
359.576	91.19
359.802	89.19
360.029	87.19
360.256	84.19
360.483	89.19
360.709	80.19
360.936	81.19
361.163	89.19
361.39	83.19
361.616	83.19
361.843	70.19
362.07	82.19
362.296	79.19
362.523	83.19
362.749	77.19
362.976	82.19
363.203	91.19
363.429	85.19
363.656	87.19
363.882	81.19
364.109	75.19
364.335	91.19
364.562	85.19
364.788	84.19
365.015	83.19
365.241	86.19
365.468	89.19
365.694	96.19
365.92	78.19
366.147	83.19
366.373	86.19
366.599	93.19
366.826	95.19
367.052	87.19
367.278	88.19
367.505	79.19
367.731	86.19
367.957	97.19
368.184	75.19
368.41	86.19
368.636	85.19
368.862	102.19
369.089	88.19
369.315	83.19
369.541	85.19
369.767	87.19
369.993	85.19
370.219	89.19
370.445	87.19
370.672	82.19
370.898	84.19
371.124	77.19
371.35	86.19
371.576	80.19
371.802	81.19
372.028	88.19
372.254	90.19
372.48	92.19
372.706	92.19
372.932	102.19
373.158	95.19
373.384	86.19
373.61	111.19
373.835	87.19
374.061	83.19
374.287	86.19
374.513	77.19
374.739	78.19
374.965	82.19
375.191	80.19
375.416	92.19
375.642	98.19
375.868	79.19
376.094	90.19
376.319	83.19
376.545	58.19
376.771	82.19
376.997	92.19
377.222	82.19
377.448	70.19
377.674	76.19
377.899	90.19
378.125	89.19
378.35	71.19
378.576	94.19
378.802	91.19
379.027	73.19
379.253	86.19
379.478	79.19
379.704	79.19
379.929	85.19
380.155	85.19
380.38	75.19
380.606	88.19
380.831	82.19
381.057	87.19
381.282	82.19
381.507	94.19
381.733	85.19
381.958	84.19
382.184	90.19
382.409	105.19
382.634	101.19
382.86	88.19
383.085	87.19
383.31	89.19
383.535	78.19
383.761	91.19
383.986	79.19
384.211	91.19
384.436	84.19
384.662	76.19
384.887	80.19
385.112	92.19
385.337	89.19
385.562	77.19
385.787	85.19
386.013	89.19
386.238	60.19
386.463	96.19
386.688	93.19
386.913	90.19
387.138	72.19
387.363	100.19
387.588	91.19
387.813	89.19
388.038	89.19
388.263	79.19
388.488	86.19
388.713	93.19
388.938	74.19
389.163	89.19
389.387	79.19
389.612	76.19
389.837	97.19
390.062	79.19
390.287	85.19
390.512	92.19
390.736	79.19
390.961	84.19
391.186	80.19
391.411	95.19
391.636	88.19
391.86	89.19
392.085	91.19
392.31	99.19
392.534	78.19
392.759	86.19
392.984	98.19
393.208	83.19
393.433	91.19
393.658	91.19
393.882	90.19
394.107	89.19
394.331	88.19
394.556	95.19
394.78	92.19
395.005	90.19
395.229	84.19
395.454	101.19
395.678	86.19
395.903	82.19
396.127	91.19
396.352	81.19
396.576	85.19
396.801	95.19
397.025	89.19
397.249	92.19
397.474	80.19
397.698	92.19
397.922	91.19
398.147	107.19
398.371	94.19
398.595	89.19
398.82	81.19
399.044	90.19
399.268	99.19
399.492	90.19
399.717	95.19
399.941	85.19
400.165	89.19
400.389	80.19
400.613	99.19
400.837	88.19
401.062	80.19
401.286	88.19
401.51	77.19
401.734	107.19
401.958	81.19
402.182	101.19
402.406	81.19
402.63	79.19
402.854	88.19
403.078	83.19
403.302	88.19
403.526	83.19
403.75	87.19
403.974	86.19
404.198	90.19
404.422	79.19
404.645	75.19
404.869	88.19
405.093	91.19
405.317	88.19
405.541	87.19
405.765	91.19
405.988	81.19
406.212	82.19
406.436	86.19
406.66	96.19
406.883	92.19
407.107	82.19
407.331	105.19
407.555	96.19
407.778	93.19
408.002	83.19
408.226	92.19
408.449	87.19
408.673	88.19
408.896	81.19
409.12	89.19
409.344	88.19
409.567	92.19
409.791	90.19
410.014	83.19
410.238	74.19
410.461	92.19
410.685	98.19
410.908	92.19
411.132	101.19
411.355	91.19
411.578	91.19
411.802	83.19
412.025	95.19
412.249	86.19
412.472	100.19
412.695	99.19
412.919	95.19
413.142	83.19
413.365	86.19
413.589	103.19
413.812	94.19
414.035	94.19
414.258	78.19
414.482	89.19
414.705	96.19
414.928	91.19
415.151	80.19
415.374	82.19
415.597	84.19
415.821	83.19
416.044	93.19
416.267	95.19
416.49	95.19
416.713	89.19
416.936	89.19
417.159	83.19
417.382	101.19
417.605	91.19
417.828	81.19
418.051	88.19
418.274	94.19
418.497	84.19
418.72	86.19
418.943	91.19
419.166	90.19
419.389	91.19
419.611	82.19
419.834	99.19
420.057	95.19
420.28	99.19
420.503	94.19
420.726	90.19
420.948	110.19
421.171	93.19
421.394	80.19
421.617	102.19
421.839	98.19
422.062	101.19
422.285	92.19
422.507	82.19
422.73	89.19
422.953	83.19
423.175	92.19
423.398	89.19
423.621	95.19
423.843	98.19
424.066	88.19
424.288	97.19
424.511	91.19
424.733	88.19
424.956	95.19
425.178	97.19
425.401	90.19
425.623	91.19
425.846	86.19
426.068	77.19
426.291	93.19
426.513	107.19
426.735	100.19
426.958	97.19
427.18	86.19
427.402	105.19
427.625	81.19
427.847	89.19
428.069	97.19
428.292	102.19
428.514	95.19
428.736	86.19
428.958	99.19
429.181	85.19
429.403	89.19
429.625	76.19
429.847	95.19
430.069	91.19
430.292	93.19
430.514	94.19
430.736	84.19
430.958	97.19
431.18	85.19
431.402	95.19
431.624	97.19
431.846	90.19
432.068	87.19
432.29	76.19
432.512	88.19
432.734	102.19
432.956	98.19
433.178	103.19
433.4	91.19
433.622	103.19
433.844	87.19
434.066	87.19
434.287	86.19
434.509	87.19
434.731	72.19
434.953	88.19
435.175	99.19
435.397	90.19
435.618	83.19
435.84	88.19
436.062	100.19
436.284	82.19
436.505	98.19
436.727	90.19
436.949	91.19
437.17	82.19
437.392	82.19
437.614	89.19
437.835	86.19
438.057	92.19
438.278	89.19
438.5	96.19
438.721	87.19
438.943	99.19
439.165	92.19
439.386	95.19
439.608	87.19
439.829	107.19
440.05	91.19
440.272	94.19
440.493	89.19
440.715	79.19
440.936	101.19
441.158	86.19
441.379	96.19
441.6	107.19
441.822	114.19
442.043	101.19
442.264	100.19
442.486	81.19
442.707	88.19
442.928	107.19
443.149	83.19
443.371	90.19
443.592	93.19
443.813	88.19
444.034	110.19
444.255	99.19
444.476	74.19
444.698	82.19
444.919	96.19
445.14	195.19
445.361	143.19
445.582	107.19
445.803	98.19
446.024	97.19
446.245	109.19
446.466	111.19
446.687	104.19
446.908	94.19
447.129	85.19
447.35	104.19
447.571	89.19
447.792	95.19
448.013	98.19
448.234	99.19
448.455	84.19
448.675	103.19
448.896	94.19
449.117	80.19
449.338	94.19
449.559	86.19
449.779	87.19
450	95.19
450.221	96.19
450.442	95.19
450.662	92.19
450.883	87.19
451.104	98.19
451.324	86.19
451.545	88.19
451.766	88.19
451.986	102.19
452.207	84.19
452.428	75.19
452.648	78.19
452.869	104.19
453.089	83.19
453.31	95.19
453.53	96.19
453.751	97.19
453.971	91.19
454.192	96.19
454.412	89.19
454.633	105.19
454.853	91.19
455.073	90.19
455.294	97.19
455.514	96.19
455.734	90.19
455.955	86.19
456.175	95.19
456.395	86.19
456.616	100.19
456.836	89.19
457.056	78.19
457.276	93.19
457.497	94.19
457.717	86.19
457.937	85.19
458.157	84.19
458.377	87.19
458.598	65.19
458.818	76.19
459.038	85.19
459.258	73.19
459.478	88.19
459.698	100.19
459.918	75.19
460.138	86.19
460.358	98.19
460.578	79.19
460.798	87.19
461.018	94.19
461.238	88.19
461.458	82.19
461.678	83.19
461.898	81.19
462.118	84.19
462.338	84.19
462.558	91.19
462.777	90.19
462.997	67.19
463.217	95.19
463.437	94.19
463.657	77.19
463.876	94.19
464.096	87.19
464.316	81.19
464.536	101.19
464.755	86.19
464.975	73.19
465.195	93.19
465.414	94.19
465.634	81.19
465.854	84.19
466.073	86.19
466.293	95.19
466.512	95.19
466.732	91.19
466.951	81.19
467.171	96.19
467.391	91.19
467.61	99.19
467.829	88.19
468.049	90.19
468.268	90.19
468.488	95.19
468.707	91.19
468.927	91.19
469.146	98.19
469.365	97.19
469.585	97.19
469.804	111.19
470.023	92.19
470.243	97.19
470.462	103.19
470.681	100.19
470.901	86.19
471.12	87.19
471.339	98.19
471.558	89.19
471.777	88.19
471.997	83.19
472.216	109.19
472.435	94.19
472.654	93.19
472.873	85.19
473.092	90.19
473.311	73.19
473.53	83.19
473.749	88.19
473.968	95.19
474.187	89.19
474.406	83.19
474.625	98.19
474.844	90.19
475.063	84.19
475.282	97.19
475.501	75.19
475.72	75.19
475.939	90.19
476.158	87.19
476.377	94.19
476.596	87.19
476.814	92.19
477.033	105.19
477.252	85.19
477.471	91.19
477.69	86.19
477.908	103.19
478.127	95.19
478.346	90.19
478.564	93.19
478.783	97.19
479.002	87.19
479.22	90.19
479.439	87.19
479.658	90.19
479.876	98.19
480.095	81.19
480.313	102.19
480.532	76.19
480.751	83.19
480.969	78.19
481.188	79.19
481.406	91.19
481.624	71.19
481.843	89.19
482.061	101.19
482.28	101.19
482.498	101.19
482.717	92.19
482.935	94.19
483.153	110.19
483.372	89.19
483.59	91.19
483.808	85.19
484.027	83.19
484.245	87.19
484.463	83.19
484.681	106.19
484.9	94.19
485.118	98.19
485.336	88.19
485.554	76.19
485.772	78.19
485.99	84.19
486.209	81.19
486.427	95.19
486.645	98.19
486.863	108.19
487.081	88.19
487.299	100.19
487.517	87.19
487.735	110.19
487.953	110.19
488.171	104.19
488.389	92.19
488.607	80.19
488.825	90.19
489.043	80.19
489.261	94.19
489.479	95.19
489.696	90.19
489.914	94.19
490.132	98.19
490.35	99.19
490.568	82.19
490.786	111.19
491.003	97.19
491.221	113.19
491.439	105.19
491.657	102.19
491.874	99.19
492.092	109.19
492.31	131.19
492.527	126.19
492.745	111.19
492.963	120.19
493.18	119.19
493.398	119.19
493.615	100.19
493.833	96.19
494.05	102.19
494.268	94.19
494.485	98.19
494.703	101.19
494.92	105.19
495.138	111.19
495.355	106.19
495.573	108.19
495.79	110.19
496.008	106.19
496.225	95.19
496.442	110.19
496.66	112.19
496.877	103.19
497.094	97.19
497.312	117.19
497.529	102.19
497.746	86.19
497.963	89.19
498.181	103.19
498.398	109.19
498.615	80.19
498.832	82.19
499.049	90.19
499.267	91.19
499.484	90.19
499.701	96.19
499.918	96.19
500.135	100.19
500.352	104.19
500.569	96.19
500.786	91.19
501.003	100.19
501.22	107.19
501.437	92.19
501.654	100.19
501.871	95.19
502.088	92.19
502.305	92.19
502.522	85.19
502.739	81.19
502.956	98.19
503.172	94.19
503.389	83.19
503.606	87.19
503.823	99.19
504.04	101.19
504.256	93.19
504.473	84.19
504.69	97.19
504.907	92.19
505.123	87.19
505.34	97.19
505.557	105.19
505.773	89.19
505.99	73.19
506.207	96.19
506.423	98.19
506.64	100.19
506.856	91.19
507.073	85.19
507.289	96.19
507.506	87.19
507.722	79.19
507.939	94.19
508.155	83.19
508.372	89.19
508.588	89.19
508.805	78.19
509.021	104.19
509.238	88.19
509.454	88.19
509.67	74.19
509.887	80.19
510.103	80.19
510.319	79.19
510.536	92.19
510.752	88.19
510.968	73.19
511.184	84.19
511.401	84.19
511.617	89.19
511.833	79.19
512.049	79.19
512.265	89.19
512.481	80.19
512.698	76.19
512.914	92.19
513.13	96.19
513.346	78.19
513.562	78.19
513.778	87.19
513.994	82.19
514.21	82.19
514.426	90.19
514.642	89.19
514.858	75.19
515.074	77.19
515.29	95.19
515.506	100.19
515.721	86.19
515.937	83.19
516.153	80.19
516.369	89.19
516.585	75.19
516.801	78.19
517.016	90.19
517.232	79.19
517.448	80.19
517.664	73.19
517.879	90.19
