Data from Location5.07152019.Energy5.Lamp.07192019.3%Agarose_HRD10591_16-04-47-629.txt Node
Date: Fri Jul 19 16:04:47 EDT 2019
User: cochatt
Spectrometer: HR+D1059
Trigger mode: 1
Integration Time (sec): 1.000000E-1
Scans to average: 1
Electric dark correction enabled: true
Nonlinearity correction enabled: false
Boxcar width: 0
XAxis mode: Wavelengths
Number of Pixels in Spectrum: 2048
>>>>>Begin Spectral Data<<<<<
223.165	-25.56
223.4	-25.56
223.635	-25.56
223.869	-16.56
224.104	-28.56
224.338	-27.56
224.573	-8.56
224.808	-10.56
225.042	-2.56
225.277	4.44
225.511	2.44
225.746	16.44
225.98	12.44
226.215	2.44
226.449	17.44
226.683	27.44
226.918	10.44
227.152	26.44
227.387	33.44
227.621	32.44
227.856	47.44
228.09	39.44
228.324	57.44
228.559	54.44
228.793	53.44
229.027	60.44
229.262	72.44
229.496	63.44
229.73	66.44
229.964	75.44
230.199	71.44
230.433	64.44
230.667	75.44
230.901	88.44
231.136	82.44
231.37	76.44
231.604	74.44
231.838	80.44
232.072	75.44
232.306	86.44
232.541	93.44
232.775	93.44
233.009	75.44
233.243	84.44
233.477	89.44
233.711	81.44
233.945	81.44
234.179	70.44
234.413	81.44
234.647	76.44
234.881	86.44
235.115	85.44
235.349	75.44
235.583	81.44
235.817	77.44
236.051	78.44
236.285	76.44
236.519	67.44
236.753	68.44
236.987	77.44
237.221	79.44
237.455	94.44
237.689	69.44
237.922	63.44
238.156	69.44
238.39	64.44
238.624	57.44
238.858	83.44
239.091	75.44
239.325	79.44
239.559	73.44
239.793	85.44
240.027	68.44
240.26	65.44
240.494	77.44
240.728	69.44
240.961	81.44
241.195	78.44
241.429	75.44
241.662	80.44
241.896	95.44
242.13	79.44
242.363	72.44
242.597	78.44
242.83	78.44
243.064	74.44
243.298	68.44
243.531	69.44
243.765	86.44
243.998	73.44
244.232	82.44
244.465	79.44
244.699	74.44
244.932	79.44
245.166	67.44
245.399	85.44
245.633	66.44
245.866	77.44
246.099	71.44
246.333	70.44
246.566	75.44
246.8	86.44
247.033	87.44
247.266	77.44
247.5	79.44
247.733	78.44
247.966	83.44
248.2	84.44
248.433	86.44
248.666	71.44
248.899	77.44
249.133	70.44
249.366	81.44
249.599	68.44
249.832	84.44
250.066	75.44
250.299	78.44
250.532	68.44
250.765	75.44
250.998	77.44
251.231	79.44
251.465	71.44
251.698	76.44
251.931	79.44
252.164	86.44
252.397	72.44
252.63	82.44
252.863	75.44
253.096	61.44
253.329	76.44
253.562	83.44
253.795	93.44
254.028	87.44
254.261	88.44
254.494	80.44
254.727	82.44
254.96	81.44
255.193	86.44
255.426	76.44
255.659	78.44
255.892	77.44
256.124	84.44
256.357	85.44
256.59	84.44
256.823	81.44
257.056	72.44
257.289	82.44
257.521	71.44
257.754	94.44
257.987	93.44
258.22	85.44
258.452	82.44
258.685	87.44
258.918	80.44
259.151	81.44
259.383	79.44
259.616	80.44
259.849	87.44
260.081	98.44
260.314	78.44
260.547	90.44
260.779	81.44
261.012	83.44
261.244	75.44
261.477	86.44
261.71	65.44
261.942	69.44
262.175	86.44
262.407	82.44
262.64	86.44
262.872	91.44
263.105	74.44
263.337	90.44
263.57	75.44
263.802	76.44
264.035	65.44
264.267	94.44
264.499	93.44
264.732	90.44
264.964	94.44
265.197	84.44
265.429	76.44
265.661	82.44
265.894	83.44
266.126	81.44
266.358	87.44
266.591	93.44
266.823	77.44
267.055	83.44
267.287	71.44
267.52	96.44
267.752	79.44
267.984	86.44
268.216	83.44
268.448	87.44
268.681	79.44
268.913	86.44
269.145	79.44
269.377	81.44
269.609	85.44
269.841	94.44
270.073	85.44
270.306	90.44
270.538	97.44
270.77	80.44
271.002	85.44
271.234	88.44
271.466	88.44
271.698	78.44
271.93	77.44
272.162	79.44
272.394	89.44
272.626	95.44
272.858	85.44
273.09	95.44
273.322	89.44
273.553	73.44
273.785	69.44
274.017	76.44
274.249	80.44
274.481	86.44
274.713	85.44
274.945	80.44
275.176	86.44
275.408	96.44
275.64	81.44
275.872	72.44
276.104	83.44
276.335	98.44
276.567	88.44
276.799	82.44
277.031	96.44
277.262	84.44
277.494	81.44
277.726	91.44
277.957	86.44
278.189	82.44
278.421	90.44
278.652	90.44
278.884	87.44
279.115	86.44
279.347	90.44
279.579	75.44
279.81	88.44
280.042	68.44
280.273	89.44
280.505	87.44
280.736	87.44
280.968	78.44
281.199	69.44
281.431	85.44
281.662	80.44
281.894	83.44
282.125	86.44
282.356	82.44
282.588	85.44
282.819	100.44
283.051	87.44
283.282	92.44
283.513	90.44
283.745	90.44
283.976	86.44
284.207	90.44
284.439	97.44
284.67	85.44
284.901	89.44
285.132	81.44
285.364	72.44
285.595	89.44
285.826	85.44
286.057	88.44
286.288	87.44
286.52	85.44
286.751	94.44
286.982	91.44
287.213	78.44
287.444	89.44
287.675	82.44
287.906	96.44
288.138	91.44
288.369	89.44
288.6	78.44
288.831	97.44
289.062	87.44
289.293	102.44
289.524	90.44
289.755	75.44
289.986	96.44
290.217	89.44
290.448	87.44
290.679	95.44
290.91	101.44
291.141	101.44
291.371	86.44
291.602	82.44
291.833	78.44
292.064	94.44
292.295	86.44
292.526	78.44
292.757	90.44
292.987	98.44
293.218	89.44
293.449	83.44
293.68	88.44
293.91	94.44
294.141	92.44
294.372	99.44
294.603	93.44
294.833	88.44
295.064	83.44
295.295	93.44
295.525	75.44
295.756	91.44
295.987	86.44
296.217	86.44
296.448	90.44
296.679	80.44
296.909	93.44
297.14	82.44
297.37	93.44
297.601	88.44
297.831	89.44
298.062	84.44
298.292	82.44
298.523	94.44
298.753	81.44
298.984	96.44
299.214	94.44
299.445	100.44
299.675	84.44
299.905	91.44
300.136	96.44
300.366	79.44
300.597	75.44
300.827	95.44
301.057	104.44
301.288	97.44
301.518	102.44
301.748	103.44
301.979	101.44
302.209	79.44
302.439	84.44
302.669	86.44
302.9	93.44
303.13	96.44
303.36	84.44
303.59	103.44
303.82	100.44
304.051	84.44
304.281	82.44
304.511	103.44
304.741	73.44
304.971	81.44
305.201	80.44
305.431	79.44
305.661	90.44
305.891	91.44
306.121	99.44
306.352	94.44
306.582	81.44
306.812	85.44
307.042	82.44
307.272	81.44
307.502	81.44
307.731	96.44
307.961	102.44
308.191	85.44
308.421	84.44
308.651	101.44
308.881	91.44
309.111	92.44
309.341	85.44
309.571	98.44
309.8	86.44
310.03	72.44
310.26	95.44
310.49	91.44
310.72	94.44
310.949	92.44
311.179	80.44
311.409	76.44
311.639	96.44
311.868	94.44
312.098	72.44
312.328	81.44
312.557	85.44
312.787	86.44
313.017	92.44
313.246	98.44
313.476	91.44
313.706	91.44
313.935	96.44
314.165	88.44
314.394	105.44
314.624	94.44
314.853	96.44
315.083	89.44
315.312	99.44
315.542	88.44
315.771	96.44
316.001	91.44
316.23	87.44
316.46	79.44
316.689	87.44
316.919	89.44
317.148	95.44
317.377	97.44
317.607	88.44
317.836	99.44
318.065	85.44
318.295	98.44
318.524	87.44
318.753	84.44
318.983	84.44
319.212	85.44
319.441	90.44
319.67	91.44
319.9	81.44
320.129	71.44
320.358	90.44
320.587	85.44
320.816	87.44
321.046	92.44
321.275	107.44
321.504	95.44
321.733	104.44
321.962	81.44
322.191	84.44
322.42	101.44
322.649	90.44
322.878	95.44
323.108	93.44
323.337	80.44
323.566	83.44
323.795	85.44
324.024	85.44
324.253	102.44
324.482	79.44
324.71	86.44
324.939	89.44
325.168	94.44
325.397	77.44
325.626	90.44
325.855	97.44
326.084	78.44
326.313	91.44
326.542	90.44
326.77	85.44
326.999	106.44
327.228	78.44
327.457	98.44
327.686	91.44
327.914	96.44
328.143	86.44
328.372	87.44
328.6	93.44
328.829	95.44
329.058	85.44
329.287	77.44
329.515	90.44
329.744	95.44
329.972	98.44
330.201	74.44
330.43	93.44
330.658	82.44
330.887	87.44
331.115	102.44
331.344	91.44
331.572	99.44
331.801	92.44
332.03	92.44
332.258	102.44
332.486	83.44
332.715	89.44
332.943	97.44
333.172	91.44
333.4	94.44
333.629	90.44
333.857	91.44
334.085	98.44
334.314	88.44
334.542	93.44
334.771	102.44
334.999	95.44
335.227	98.44
335.455	85.44
335.684	91.44
335.912	85.44
336.14	90.44
336.369	88.44
336.597	105.44
336.825	98.44
337.053	75.44
337.281	93.44
337.51	96.44
337.738	84.44
337.966	96.44
338.194	95.44
338.422	82.44
338.65	95.44
338.878	97.44
339.106	80.44
339.334	80.44
339.562	93.44
339.79	81.44
340.018	94.44
340.246	95.44
340.474	103.44
340.702	77.44
340.93	91.44
341.158	82.44
341.386	81.44
341.614	86.44
341.842	89.44
342.07	81.44
342.298	88.44
342.526	81.44
342.754	97.44
342.981	90.44
343.209	94.44
343.437	82.44
343.665	94.44
343.893	76.44
344.12	102.44
344.348	75.44
344.576	84.44
344.804	77.44
345.031	91.44
345.259	95.44
345.487	91.44
345.714	93.44
345.942	97.44
346.17	86.44
346.397	93.44
346.625	97.44
346.853	100.44
347.08	102.44
347.308	87.44
347.535	80.44
347.763	100.44
347.99	91.44
348.218	110.44
348.445	95.44
348.673	95.44
348.9	93.44
349.128	103.44
349.355	96.44
349.583	66.44
349.81	102.44
350.037	101.44
350.265	99.44
350.492	72.44
350.72	94.44
350.947	99.44
351.174	99.44
351.402	84.44
351.629	75.44
351.856	86.44
352.083	84.44
352.311	91.44
352.538	95.44
352.765	81.44
352.992	92.44
353.22	100.44
353.447	96.44
353.674	98.44
353.901	81.44
354.128	68.44
354.355	93.44
354.583	99.44
354.81	84.44
355.037	85.44
355.264	94.44
355.491	81.44
355.718	88.44
355.945	96.44
356.172	86.44
356.399	102.44
356.626	88.44
356.853	88.44
357.08	82.44
357.307	90.44
357.534	82.44
357.761	92.44
357.988	85.44
358.215	92.44
358.441	101.44
358.668	90.44
358.895	95.44
359.122	91.44
359.349	91.44
359.576	94.44
359.802	78.44
360.029	82.44
360.256	90.44
360.483	94.44
360.709	94.44
360.936	86.44
361.163	73.44
361.39	83.44
361.616	91.44
361.843	74.44
362.07	94.44
362.296	98.44
362.523	80.44
362.749	87.44
362.976	84.44
363.203	97.44
363.429	95.44
363.656	102.44
363.882	95.44
364.109	101.44
364.335	94.44
364.562	88.44
364.788	84.44
365.015	103.44
365.241	94.44
365.468	94.44
365.694	79.44
365.92	83.44
366.147	83.44
366.373	82.44
366.599	79.44
366.826	99.44
367.052	90.44
367.278	85.44
367.505	71.44
367.731	101.44
367.957	102.44
368.184	88.44
368.41	82.44
368.636	83.44
368.862	90.44
369.089	86.44
369.315	99.44
369.541	90.44
369.767	101.44
369.993	88.44
370.219	89.44
370.445	91.44
370.672	90.44
370.898	88.44
371.124	95.44
371.35	89.44
371.576	90.44
371.802	98.44
372.028	99.44
372.254	86.44
372.48	81.44
372.706	73.44
372.932	80.44
373.158	86.44
373.384	90.44
373.61	87.44
373.835	89.44
374.061	99.44
374.287	93.44
374.513	88.44
374.739	97.44
374.965	85.44
375.191	104.44
375.416	81.44
375.642	98.44
375.868	103.44
376.094	77.44
376.319	88.44
376.545	88.44
376.771	76.44
376.997	100.44
377.222	94.44
377.448	84.44
377.674	91.44
377.899	96.44
378.125	78.44
378.35	86.44
378.576	80.44
378.802	92.44
379.027	91.44
379.253	108.44
379.478	101.44
379.704	99.44
379.929	90.44
380.155	87.44
380.38	93.44
380.606	87.44
380.831	79.44
381.057	101.44
381.282	86.44
381.507	109.44
381.733	96.44
381.958	85.44
382.184	85.44
382.409	86.44
382.634	93.44
382.86	86.44
383.085	87.44
383.31	83.44
383.535	102.44
383.761	95.44
383.986	82.44
384.211	92.44
384.436	84.44
384.662	97.44
384.887	109.44
385.112	81.44
385.337	75.44
385.562	91.44
385.787	97.44
386.013	86.44
386.238	99.44
386.463	75.44
386.688	77.44
386.913	73.44
387.138	98.44
387.363	91.44
387.588	103.44
387.813	96.44
388.038	93.44
388.263	81.44
388.488	105.44
388.713	88.44
388.938	87.44
389.163	74.44
389.387	76.44
389.612	84.44
389.837	95.44
390.062	107.44
390.287	97.44
390.512	88.44
390.736	93.44
390.961	90.44
391.186	98.44
391.411	78.44
391.636	87.44
391.86	93.44
392.085	102.44
392.31	97.44
392.534	95.44
392.759	91.44
392.984	101.44
393.208	82.44
393.433	90.44
393.658	95.44
393.882	77.44
394.107	93.44
394.331	92.44
394.556	97.44
394.78	101.44
395.005	92.44
395.229	83.44
395.454	101.44
395.678	91.44
395.903	93.44
396.127	102.44
396.352	90.44
396.576	88.44
396.801	94.44
397.025	101.44
397.249	94.44
397.474	105.44
397.698	78.44
397.922	93.44
398.147	87.44
398.371	96.44
398.595	108.44
398.82	103.44
399.044	90.44
399.268	100.44
399.492	92.44
399.717	96.44
399.941	97.44
400.165	95.44
400.389	96.44
400.613	95.44
400.837	82.44
401.062	85.44
401.286	93.44
401.51	95.44
401.734	93.44
401.958	80.44
402.182	70.44
402.406	88.44
402.63	95.44
402.854	102.44
403.078	101.44
403.302	95.44
403.526	108.44
403.75	89.44
403.974	101.44
404.198	87.44
404.422	93.44
404.645	88.44
404.869	103.44
405.093	99.44
405.317	86.44
405.541	100.44
405.765	73.44
405.988	80.44
406.212	84.44
406.436	97.44
406.66	107.44
406.883	110.44
407.107	90.44
407.331	95.44
407.555	107.44
407.778	93.44
408.002	101.44
408.226	94.44
408.449	113.44
408.673	87.44
408.896	96.44
409.12	100.44
409.344	98.44
409.567	90.44
409.791	106.44
410.014	103.44
410.238	96.44
410.461	83.44
410.685	93.44
410.908	103.44
411.132	98.44
411.355	95.44
411.578	92.44
411.802	93.44
412.025	84.44
412.249	90.44
412.472	108.44
412.695	85.44
412.919	86.44
413.142	96.44
413.365	90.44
413.589	96.44
413.812	102.44
414.035	91.44
414.258	99.44
414.482	91.44
414.705	81.44
414.928	91.44
415.151	109.44
415.374	87.44
415.597	93.44
415.821	85.44
416.044	90.44
416.267	90.44
416.49	87.44
416.713	81.44
416.936	93.44
417.159	83.44
417.382	75.44
417.605	101.44
417.828	110.44
418.051	98.44
418.274	101.44
418.497	92.44
418.72	90.44
418.943	106.44
419.166	101.44
419.389	102.44
419.611	86.44
419.834	81.44
420.057	90.44
420.28	82.44
420.503	93.44
420.726	86.44
420.948	88.44
421.171	97.44
421.394	75.44
421.617	88.44
421.839	90.44
422.062	90.44
422.285	102.44
422.507	90.44
422.73	87.44
422.953	100.44
423.175	102.44
423.398	87.44
423.621	88.44
423.843	91.44
424.066	93.44
424.288	86.44
424.511	97.44
424.733	96.44
424.956	87.44
425.178	87.44
425.401	90.44
425.623	98.44
425.846	87.44
426.068	97.44
426.291	91.44
426.513	85.44
426.735	91.44
426.958	96.44
427.18	86.44
427.402	114.44
427.625	95.44
427.847	102.44
428.069	98.44
428.292	81.44
428.514	89.44
428.736	90.44
428.958	95.44
429.181	86.44
429.403	91.44
429.625	102.44
429.847	97.44
430.069	86.44
430.292	89.44
430.514	79.44
430.736	88.44
430.958	84.44
431.18	88.44
431.402	96.44
431.624	93.44
431.846	81.44
432.068	95.44
432.29	90.44
432.512	84.44
432.734	81.44
432.956	97.44
433.178	104.44
433.4	86.44
433.622	110.44
433.844	81.44
434.066	85.44
434.287	101.44
434.509	100.44
434.731	83.44
434.953	84.44
435.175	96.44
435.397	95.44
435.618	97.44
435.84	90.44
436.062	94.44
436.284	94.44
436.505	83.44
436.727	82.44
436.949	88.44
437.17	86.44
437.392	86.44
437.614	102.44
437.835	88.44
438.057	97.44
438.278	89.44
438.5	94.44
438.721	97.44
438.943	98.44
439.165	96.44
439.386	82.44
439.608	82.44
439.829	83.44
440.05	91.44
440.272	82.44
440.493	96.44
440.715	96.44
440.936	75.44
441.158	89.44
441.379	109.44
441.6	75.44
441.822	85.44
442.043	90.44
442.264	89.44
442.486	90.44
442.707	96.44
442.928	89.44
443.149	89.44
443.371	100.44
443.592	90.44
443.813	82.44
444.034	87.44
444.255	91.44
444.476	93.44
444.698	101.44
444.919	97.44
445.14	221.44
445.361	160.44
445.582	103.44
445.803	87.44
446.024	101.44
446.245	106.44
446.466	95.44
446.687	89.44
446.908	96.44
447.129	100.44
447.35	85.44
447.571	86.44
447.792	86.44
448.013	86.44
448.234	82.44
448.455	88.44
448.675	86.44
448.896	78.44
449.117	79.44
449.338	71.44
449.559	103.44
449.779	82.44
450	83.44
450.221	91.44
450.442	96.44
450.662	87.44
450.883	88.44
451.104	88.44
451.324	102.44
451.545	89.44
451.766	99.44
451.986	90.44
452.207	87.44
452.428	96.44
452.648	94.44
452.869	92.44
453.089	90.44
453.31	90.44
453.53	100.44
453.751	97.44
453.971	80.44
454.192	88.44
454.412	88.44
454.633	86.44
454.853	85.44
455.073	78.44
455.294	97.44
455.514	98.44
455.734	78.44
455.955	78.44
456.175	95.44
456.395	91.44
456.616	87.44
456.836	81.44
457.056	89.44
457.276	83.44
457.497	84.44
457.717	74.44
457.937	94.44
458.157	91.44
458.377	85.44
458.598	86.44
458.818	96.44
459.038	103.44
459.258	89.44
459.478	90.44
459.698	92.44
459.918	102.44
460.138	100.44
460.358	105.44
460.578	93.44
460.798	98.44
461.018	97.44
461.238	84.44
461.458	87.44
461.678	99.44
461.898	73.44
462.118	103.44
462.338	105.44
462.558	104.44
462.777	88.44
462.997	87.44
463.217	91.44
463.437	87.44
463.657	105.44
463.876	106.44
464.096	91.44
464.316	90.44
464.536	81.44
464.755	97.44
464.975	87.44
465.195	112.44
465.414	97.44
465.634	82.44
465.854	102.44
466.073	100.44
466.293	90.44
466.512	86.44
466.732	88.44
466.951	86.44
467.171	101.44
467.391	99.44
467.61	85.44
467.829	93.44
468.049	101.44
468.268	87.44
468.488	98.44
468.707	85.44
468.927	91.44
469.146	95.44
469.365	93.44
469.585	103.44
469.804	115.44
470.023	95.44
470.243	111.44
470.462	87.44
470.681	88.44
470.901	99.44
471.12	103.44
471.339	93.44
471.558	91.44
471.777	93.44
471.997	101.44
472.216	88.44
472.435	88.44
472.654	97.44
472.873	100.44
473.092	102.44
473.311	81.44
473.53	83.44
473.749	83.44
473.968	103.44
474.187	112.44
474.406	81.44
474.625	94.44
474.844	93.44
475.063	83.44
475.282	95.44
475.501	106.44
475.72	96.44
475.939	90.44
476.158	88.44
476.377	96.44
476.596	97.44
476.814	93.44
477.033	90.44
477.252	92.44
477.471	93.44
477.69	107.44
477.908	102.44
478.127	106.44
478.346	97.44
478.564	90.44
478.783	84.44
479.002	94.44
479.22	95.44
479.439	103.44
479.658	98.44
479.876	86.44
480.095	94.44
480.313	114.44
480.532	104.44
480.751	71.44
480.969	110.44
481.188	102.44
481.406	95.44
481.624	91.44
481.843	89.44
482.061	106.44
482.28	90.44
482.498	99.44
482.717	98.44
482.935	107.44
483.153	94.44
483.372	118.44
483.59	102.44
483.808	91.44
484.027	105.44
484.245	111.44
484.463	83.44
484.681	105.44
484.9	104.44
485.118	112.44
485.336	100.44
485.554	89.44
485.772	99.44
485.99	101.44
486.209	106.44
486.427	108.44
486.645	104.44
486.863	100.44
487.081	87.44
487.299	115.44
487.517	94.44
487.735	108.44
487.953	104.44
488.171	103.44
488.389	92.44
488.607	128.44
488.825	95.44
489.043	86.44
489.261	91.44
489.479	100.44
489.696	99.44
489.914	104.44
490.132	104.44
490.35	94.44
490.568	103.44
490.786	85.44
491.003	98.44
491.221	102.44
491.439	104.44
491.657	101.44
491.874	101.44
492.092	100.44
492.31	113.44
492.527	97.44
492.745	107.44
492.963	120.44
493.18	97.44
493.398	99.44
493.615	117.44
493.833	107.44
494.05	106.44
494.268	96.44
494.485	105.44
494.703	110.44
494.92	111.44
495.138	102.44
495.355	113.44
495.573	114.44
495.79	118.44
496.008	105.44
496.225	92.44
496.442	105.44
496.66	114.44
496.877	113.44
497.094	111.44
497.312	111.44
497.529	102.44
497.746	96.44
497.963	102.44
498.181	97.44
498.398	104.44
498.615	100.44
498.832	125.44
499.049	113.44
499.267	123.44
499.484	117.44
499.701	125.44
499.918	134.44
500.135	121.44
500.352	160.44
500.569	136.44
500.786	145.44
501.003	149.44
501.22	143.44
501.437	135.44
501.654	123.44
501.871	116.44
502.088	116.44
502.305	109.44
502.522	112.44
502.739	119.44
502.956	109.44
503.172	105.44
503.389	106.44
503.606	114.44
503.823	107.44
504.04	123.44
504.256	110.44
504.473	109.44
504.69	111.44
504.907	123.44
505.123	96.44
505.34	100.44
505.557	105.44
505.773	126.44
505.99	100.44
506.207	98.44
506.423	95.44
506.64	102.44
506.856	96.44
507.073	86.44
507.289	99.44
507.506	101.44
507.722	100.44
507.939	107.44
508.155	85.44
508.372	105.44
508.588	88.44
508.805	95.44
509.021	96.44
509.238	97.44
509.454	94.44
509.67	103.44
509.887	113.44
510.103	100.44
510.319	100.44
510.536	99.44
510.752	102.44
510.968	104.44
511.184	83.44
511.401	92.44
511.617	98.44
511.833	95.44
512.049	94.44
512.265	89.44
512.481	99.44
512.698	88.44
512.914	113.44
513.13	78.44
513.346	97.44
513.562	107.44
513.778	105.44
513.994	86.44
514.21	104.44
514.426	96.44
514.642	110.44
514.858	113.44
515.074	86.44
515.29	93.44
515.506	90.44
515.721	96.44
515.937	101.44
