Data from Location5.07152019.Energy5.Lamp.07192019.3%Agarose_HRD10591_16-03-12-630.txt Node
Date: Fri Jul 19 16:03:12 EDT 2019
User: cochatt
Spectrometer: HR+D1059
Trigger mode: 1
Integration Time (sec): 1.000000E-1
Scans to average: 1
Electric dark correction enabled: true
Nonlinearity correction enabled: false
Boxcar width: 0
XAxis mode: Wavelengths
Number of Pixels in Spectrum: 2048
>>>>>Begin Spectral Data<<<<<
223.165	-17.81
223.4	-17.81
223.635	-17.81
223.869	-18.81
224.104	-9.81
224.338	-23.81
224.573	-4.81
224.808	-11.81
225.042	-12.81
225.277	-0.81
225.511	8.19
225.746	10.19
225.98	4.19
226.215	6.19
226.449	2.19
226.683	15.19
226.918	23.19
227.152	31.19
227.387	47.19
227.621	30.19
227.856	46.19
228.09	38.19
228.324	55.19
228.559	55.19
228.793	62.19
229.027	45.19
229.262	65.19
229.496	64.19
229.73	71.19
229.964	80.19
230.199	74.19
230.433	80.19
230.667	79.19
230.901	71.19
231.136	77.19
231.37	66.19
231.604	66.19
231.838	71.19
232.072	91.19
232.306	65.19
232.541	73.19
232.775	86.19
233.009	90.19
233.243	78.19
233.477	87.19
233.711	103.19
233.945	97.19
234.179	76.19
234.413	89.19
234.647	71.19
234.881	77.19
235.115	81.19
235.349	79.19
235.583	92.19
235.817	61.19
236.051	83.19
236.285	91.19
236.519	87.19
236.753	84.19
236.987	75.19
237.221	69.19
237.455	78.19
237.689	86.19
237.922	76.19
238.156	71.19
238.39	92.19
238.624	75.19
238.858	74.19
239.091	70.19
239.325	79.19
239.559	81.19
239.793	76.19
240.027	80.19
240.26	69.19
240.494	72.19
240.728	67.19
240.961	77.19
241.195	77.19
241.429	77.19
241.662	71.19
241.896	63.19
242.13	91.19
242.363	75.19
242.597	78.19
242.83	83.19
243.064	83.19
243.298	67.19
243.531	79.19
243.765	73.19
243.998	73.19
244.232	91.19
244.465	77.19
244.699	88.19
244.932	90.19
245.166	81.19
245.399	91.19
245.633	72.19
245.866	78.19
246.099	73.19
246.333	86.19
246.566	83.19
246.8	75.19
247.033	94.19
247.266	75.19
247.5	97.19
247.733	83.19
247.966	70.19
248.2	89.19
248.433	78.19
248.666	78.19
248.899	80.19
249.133	69.19
249.366	84.19
249.599	79.19
249.832	78.19
250.066	98.19
250.299	87.19
250.532	70.19
250.765	80.19
250.998	79.19
251.231	83.19
251.465	79.19
251.698	83.19
251.931	74.19
252.164	72.19
252.397	72.19
252.63	74.19
252.863	75.19
253.096	82.19
253.329	84.19
253.562	88.19
253.795	81.19
254.028	87.19
254.261	80.19
254.494	73.19
254.727	74.19
254.96	70.19
255.193	74.19
255.426	77.19
255.659	91.19
255.892	81.19
256.124	77.19
256.357	74.19
256.59	87.19
256.823	86.19
257.056	90.19
257.289	70.19
257.521	81.19
257.754	65.19
257.987	88.19
258.22	94.19
258.452	69.19
258.685	90.19
258.918	86.19
259.151	75.19
259.383	90.19
259.616	86.19
259.849	94.19
260.081	89.19
260.314	83.19
260.547	83.19
260.779	94.19
261.012	83.19
261.244	75.19
261.477	91.19
261.71	90.19
261.942	93.19
262.175	80.19
262.407	71.19
262.64	95.19
262.872	76.19
263.105	90.19
263.337	81.19
263.57	83.19
263.802	84.19
264.035	100.19
264.267	98.19
264.499	83.19
264.732	87.19
264.964	97.19
265.197	79.19
265.429	86.19
265.661	79.19
265.894	91.19
266.126	87.19
266.358	94.19
266.591	90.19
266.823	80.19
267.055	74.19
267.287	90.19
267.52	76.19
267.752	80.19
267.984	86.19
268.216	82.19
268.448	80.19
268.681	80.19
268.913	101.19
269.145	86.19
269.377	73.19
269.609	79.19
269.841	87.19
270.073	92.19
270.306	84.19
270.538	87.19
270.77	82.19
271.002	85.19
271.234	102.19
271.466	90.19
271.698	95.19
271.93	73.19
272.162	99.19
272.394	82.19
272.626	72.19
272.858	77.19
273.09	79.19
273.322	74.19
273.553	94.19
273.785	85.19
274.017	90.19
274.249	84.19
274.481	83.19
274.713	84.19
274.945	79.19
275.176	88.19
275.408	87.19
275.64	83.19
275.872	86.19
276.104	83.19
276.335	92.19
276.567	83.19
276.799	84.19
277.031	89.19
277.262	93.19
277.494	89.19
277.726	79.19
277.957	86.19
278.189	94.19
278.421	98.19
278.652	84.19
278.884	81.19
279.115	92.19
279.347	87.19
279.579	90.19
279.81	86.19
280.042	103.19
280.273	81.19
280.505	90.19
280.736	82.19
280.968	86.19
281.199	86.19
281.431	87.19
281.662	83.19
281.894	86.19
282.125	83.19
282.356	102.19
282.588	98.19
282.819	87.19
283.051	94.19
283.282	90.19
283.513	103.19
283.745	85.19
283.976	88.19
284.207	88.19
284.439	89.19
284.67	96.19
284.901	97.19
285.132	89.19
285.364	79.19
285.595	74.19
285.826	96.19
286.057	87.19
286.288	103.19
286.52	94.19
286.751	95.19
286.982	75.19
287.213	94.19
287.444	97.19
287.675	81.19
287.906	82.19
288.138	79.19
288.369	89.19
288.6	91.19
288.831	77.19
289.062	116.19
289.293	79.19
289.524	85.19
289.755	94.19
289.986	105.19
290.217	97.19
290.448	88.19
290.679	88.19
290.91	78.19
291.141	79.19
291.371	89.19
291.602	82.19
291.833	82.19
292.064	77.19
292.295	102.19
292.526	94.19
292.757	87.19
292.987	90.19
293.218	102.19
293.449	106.19
293.68	75.19
293.91	93.19
294.141	99.19
294.372	87.19
294.603	94.19
294.833	97.19
295.064	101.19
295.295	99.19
295.525	96.19
295.756	89.19
295.987	78.19
296.217	94.19
296.448	86.19
296.679	96.19
296.909	79.19
297.14	93.19
297.37	96.19
297.601	87.19
297.831	86.19
298.062	91.19
298.292	83.19
298.523	84.19
298.753	98.19
298.984	96.19
299.214	95.19
299.445	94.19
299.675	91.19
299.905	92.19
300.136	82.19
300.366	73.19
300.597	93.19
300.827	83.19
301.057	98.19
301.288	102.19
301.518	96.19
301.748	96.19
301.979	101.19
302.209	75.19
302.439	93.19
302.669	73.19
302.9	84.19
303.13	106.19
303.36	81.19
303.59	93.19
303.82	82.19
304.051	106.19
304.281	97.19
304.511	91.19
304.741	96.19
304.971	91.19
305.201	96.19
305.431	99.19
305.661	88.19
305.891	84.19
306.121	92.19
306.352	103.19
306.582	93.19
306.812	91.19
307.042	80.19
307.272	95.19
307.502	94.19
307.731	95.19
307.961	71.19
308.191	93.19
308.421	82.19
308.651	79.19
308.881	92.19
309.111	97.19
309.341	98.19
309.571	94.19
309.8	99.19
310.03	90.19
310.26	75.19
310.49	75.19
310.72	90.19
310.949	94.19
311.179	84.19
311.409	93.19
311.639	81.19
311.868	96.19
312.098	96.19
312.328	89.19
312.557	102.19
312.787	93.19
313.017	89.19
313.246	84.19
313.476	91.19
313.706	101.19
313.935	103.19
314.165	92.19
314.394	85.19
314.624	92.19
314.853	92.19
315.083	92.19
315.312	106.19
315.542	83.19
315.771	85.19
316.001	81.19
316.23	86.19
316.46	89.19
316.689	88.19
316.919	88.19
317.148	91.19
317.377	99.19
317.607	86.19
317.836	72.19
318.065	84.19
318.295	87.19
318.524	113.19
318.753	88.19
318.983	90.19
319.212	92.19
319.441	89.19
319.67	85.19
319.9	87.19
320.129	82.19
320.358	89.19
320.587	91.19
320.816	91.19
321.046	84.19
321.275	94.19
321.504	97.19
321.733	90.19
321.962	114.19
322.191	84.19
322.42	87.19
322.649	96.19
322.878	92.19
323.108	93.19
323.337	87.19
323.566	85.19
323.795	90.19
324.024	87.19
324.253	86.19
324.482	87.19
324.71	80.19
324.939	95.19
325.168	91.19
325.397	97.19
325.626	101.19
325.855	110.19
326.084	93.19
326.313	74.19
326.542	83.19
326.77	109.19
326.999	94.19
327.228	88.19
327.457	84.19
327.686	99.19
327.914	87.19
328.143	100.19
328.372	80.19
328.6	101.19
328.829	85.19
329.058	87.19
329.287	88.19
329.515	87.19
329.744	85.19
329.972	89.19
330.201	82.19
330.43	104.19
330.658	93.19
330.887	111.19
331.115	92.19
331.344	80.19
331.572	100.19
331.801	97.19
332.03	93.19
332.258	92.19
332.486	104.19
332.715	86.19
332.943	96.19
333.172	99.19
333.4	116.19
333.629	101.19
333.857	106.19
334.085	83.19
334.314	92.19
334.542	79.19
334.771	100.19
334.999	100.19
335.227	97.19
335.455	87.19
335.684	104.19
335.912	93.19
336.14	86.19
336.369	87.19
336.597	85.19
336.825	105.19
337.053	86.19
337.281	93.19
337.51	85.19
337.738	100.19
337.966	94.19
338.194	86.19
338.422	98.19
338.65	86.19
338.878	93.19
339.106	89.19
339.334	107.19
339.562	91.19
339.79	88.19
340.018	104.19
340.246	99.19
340.474	96.19
340.702	101.19
340.93	105.19
341.158	93.19
341.386	94.19
341.614	102.19
341.842	103.19
342.07	97.19
342.298	85.19
342.526	89.19
342.754	90.19
342.981	96.19
343.209	96.19
343.437	91.19
343.665	93.19
343.893	92.19
344.12	104.19
344.348	90.19
344.576	93.19
344.804	82.19
345.031	100.19
345.259	85.19
345.487	74.19
345.714	100.19
345.942	87.19
346.17	94.19
346.397	81.19
346.625	81.19
346.853	86.19
347.08	102.19
347.308	97.19
347.535	88.19
347.763	94.19
347.99	106.19
348.218	109.19
348.445	85.19
348.673	85.19
348.9	99.19
349.128	96.19
349.355	85.19
349.583	99.19
349.81	92.19
350.037	86.19
350.265	81.19
350.492	94.19
350.72	89.19
350.947	77.19
351.174	87.19
351.402	82.19
351.629	93.19
351.856	86.19
352.083	86.19
352.311	85.19
352.538	86.19
352.765	96.19
352.992	100.19
353.22	81.19
353.447	103.19
353.674	83.19
353.901	84.19
354.128	79.19
354.355	90.19
354.583	88.19
354.81	98.19
355.037	101.19
355.264	103.19
355.491	89.19
355.718	95.19
355.945	97.19
356.172	95.19
356.399	85.19
356.626	93.19
356.853	97.19
357.08	99.19
357.307	92.19
357.534	77.19
357.761	83.19
357.988	106.19
358.215	93.19
358.441	98.19
358.668	82.19
358.895	83.19
359.122	97.19
359.349	91.19
359.576	99.19
359.802	87.19
360.029	89.19
360.256	98.19
360.483	86.19
360.709	82.19
360.936	91.19
361.163	81.19
361.39	90.19
361.616	95.19
361.843	87.19
362.07	90.19
362.296	87.19
362.523	96.19
362.749	89.19
362.976	76.19
363.203	105.19
363.429	101.19
363.656	94.19
363.882	116.19
364.109	102.19
364.335	99.19
364.562	99.19
364.788	82.19
365.015	81.19
365.241	96.19
365.468	101.19
365.694	85.19
365.92	95.19
366.147	80.19
366.373	86.19
366.599	91.19
366.826	89.19
367.052	95.19
367.278	98.19
367.505	94.19
367.731	95.19
367.957	91.19
368.184	85.19
368.41	85.19
368.636	79.19
368.862	81.19
369.089	98.19
369.315	80.19
369.541	93.19
369.767	73.19
369.993	84.19
370.219	89.19
370.445	90.19
370.672	97.19
370.898	90.19
371.124	91.19
371.35	97.19
371.576	100.19
371.802	98.19
372.028	74.19
372.254	98.19
372.48	102.19
372.706	85.19
372.932	88.19
373.158	94.19
373.384	88.19
373.61	101.19
373.835	104.19
374.061	91.19
374.287	94.19
374.513	73.19
374.739	84.19
374.965	87.19
375.191	94.19
375.416	86.19
375.642	74.19
375.868	88.19
376.094	98.19
376.319	86.19
376.545	98.19
376.771	93.19
376.997	93.19
377.222	87.19
377.448	103.19
377.674	102.19
377.899	104.19
378.125	87.19
378.35	88.19
378.576	95.19
378.802	84.19
379.027	82.19
379.253	78.19
379.478	89.19
379.704	96.19
379.929	83.19
380.155	94.19
380.38	89.19
380.606	90.19
380.831	80.19
381.057	93.19
381.282	102.19
381.507	91.19
381.733	102.19
381.958	93.19
382.184	85.19
382.409	98.19
382.634	81.19
382.86	82.19
383.085	87.19
383.31	107.19
383.535	76.19
383.761	95.19
383.986	84.19
384.211	81.19
384.436	90.19
384.662	91.19
384.887	95.19
385.112	112.19
385.337	101.19
385.562	86.19
385.787	88.19
386.013	90.19
386.238	90.19
386.463	79.19
386.688	86.19
386.913	95.19
387.138	94.19
387.363	96.19
387.588	98.19
387.813	90.19
388.038	81.19
388.263	90.19
388.488	100.19
388.713	91.19
388.938	103.19
389.163	79.19
389.387	91.19
389.612	86.19
389.837	87.19
390.062	81.19
390.287	95.19
390.512	90.19
390.736	86.19
390.961	84.19
391.186	88.19
391.411	101.19
391.636	91.19
391.86	95.19
392.085	103.19
392.31	93.19
392.534	110.19
392.759	94.19
392.984	93.19
393.208	75.19
393.433	101.19
393.658	102.19
393.882	96.19
394.107	97.19
394.331	99.19
394.556	82.19
394.78	96.19
395.005	104.19
395.229	86.19
395.454	91.19
395.678	94.19
395.903	111.19
396.127	83.19
396.352	95.19
396.576	94.19
396.801	82.19
397.025	101.19
397.249	114.19
397.474	99.19
397.698	96.19
397.922	105.19
398.147	79.19
398.371	103.19
398.595	98.19
398.82	99.19
399.044	88.19
399.268	102.19
399.492	109.19
399.717	120.19
399.941	104.19
400.165	101.19
400.389	88.19
400.613	105.19
400.837	90.19
401.062	102.19
401.286	91.19
401.51	104.19
401.734	107.19
401.958	95.19
402.182	90.19
402.406	102.19
402.63	94.19
402.854	97.19
403.078	102.19
403.302	100.19
403.526	91.19
403.75	117.19
403.974	89.19
404.198	98.19
404.422	102.19
404.645	103.19
404.869	113.19
405.093	94.19
405.317	103.19
405.541	92.19
405.765	98.19
405.988	90.19
406.212	92.19
406.436	102.19
406.66	106.19
406.883	79.19
407.107	89.19
407.331	106.19
407.555	104.19
407.778	101.19
408.002	104.19
408.226	96.19
408.449	91.19
408.673	100.19
408.896	96.19
409.12	87.19
409.344	90.19
409.567	97.19
409.791	104.19
410.014	96.19
410.238	111.19
410.461	98.19
410.685	85.19
410.908	113.19
411.132	120.19
411.355	100.19
411.578	90.19
411.802	92.19
412.025	77.19
412.249	106.19
412.472	109.19
412.695	88.19
412.919	84.19
413.142	96.19
413.365	97.19
413.589	105.19
413.812	102.19
414.035	90.19
414.258	86.19
414.482	73.19
414.705	98.19
414.928	92.19
415.151	95.19
415.374	104.19
415.597	84.19
415.821	81.19
416.044	84.19
416.267	101.19
416.49	92.19
416.713	106.19
416.936	95.19
417.159	90.19
417.382	102.19
417.605	88.19
417.828	97.19
418.051	100.19
418.274	100.19
418.497	102.19
418.72	100.19
418.943	98.19
419.166	114.19
419.389	114.19
419.611	108.19
419.834	101.19
420.057	98.19
420.28	98.19
420.503	100.19
420.726	118.19
420.948	87.19
421.171	83.19
421.394	96.19
421.617	95.19
421.839	101.19
422.062	86.19
422.285	95.19
422.507	99.19
422.73	95.19
422.953	106.19
423.175	100.19
423.398	101.19
423.621	102.19
423.843	106.19
424.066	93.19
424.288	95.19
424.511	109.19
424.733	86.19
424.956	100.19
425.178	96.19
425.401	98.19
425.623	91.19
425.846	97.19
426.068	90.19
426.291	83.19
426.513	107.19
426.735	102.19
426.958	109.19
427.18	98.19
427.402	85.19
427.625	93.19
427.847	89.19
428.069	86.19
428.292	84.19
428.514	95.19
428.736	100.19
428.958	93.19
429.181	91.19
429.403	89.19
429.625	83.19
429.847	90.19
430.069	110.19
430.292	101.19
430.514	104.19
430.736	97.19
430.958	87.19
431.18	82.19
431.402	95.19
431.624	86.19
431.846	86.19
432.068	108.19
432.29	95.19
432.512	89.19
432.734	96.19
432.956	102.19
433.178	91.19
433.4	98.19
433.622	98.19
433.844	88.19
434.066	107.19
434.287	98.19
434.509	95.19
434.731	75.19
434.953	93.19
435.175	103.19
435.397	106.19
435.618	104.19
435.84	97.19
436.062	106.19
436.284	109.19
436.505	90.19
436.727	89.19
436.949	89.19
437.17	106.19
437.392	87.19
437.614	97.19
437.835	90.19
438.057	94.19
438.278	93.19
438.5	98.19
438.721	95.19
438.943	98.19
439.165	109.19
439.386	94.19
439.608	95.19
439.829	88.19
440.05	91.19
440.272	85.19
440.493	86.19
440.715	102.19
440.936	87.19
441.158	89.19
441.379	96.19
441.6	90.19
441.822	99.19
442.043	107.19
442.264	111.19
442.486	82.19
442.707	98.19
442.928	94.19
443.149	99.19
443.371	90.19
443.592	86.19
443.813	91.19
444.034	95.19
444.255	82.19
444.476	99.19
444.698	96.19
444.919	95.19
445.14	201.19
445.361	147.19
445.582	98.19
445.803	106.19
446.024	93.19
446.245	102.19
446.466	87.19
446.687	96.19
446.908	98.19
447.129	79.19
447.35	107.19
447.571	93.19
447.792	102.19
448.013	101.19
448.234	110.19
448.455	91.19
448.675	88.19
448.896	97.19
449.117	105.19
449.338	94.19
449.559	92.19
449.779	86.19
450	96.19
450.221	86.19
450.442	95.19
450.662	90.19
450.883	95.19
451.104	91.19
451.324	85.19
451.545	102.19
451.766	89.19
451.986	100.19
452.207	100.19
452.428	90.19
452.648	96.19
452.869	86.19
453.089	87.19
453.31	100.19
453.53	101.19
453.751	99.19
453.971	80.19
454.192	81.19
454.412	85.19
454.633	97.19
454.853	106.19
455.073	102.19
455.294	87.19
455.514	85.19
455.734	102.19
455.955	82.19
456.175	92.19
456.395	96.19
456.616	91.19
456.836	104.19
457.056	82.19
457.276	85.19
457.497	96.19
457.717	91.19
457.937	96.19
458.157	109.19
458.377	88.19
458.598	100.19
458.818	89.19
459.038	94.19
459.258	90.19
459.478	89.19
459.698	76.19
459.918	110.19
460.138	84.19
460.358	94.19
460.578	98.19
460.798	103.19
461.018	90.19
461.238	99.19
461.458	96.19
461.678	101.19
461.898	97.19
462.118	98.19
462.338	102.19
462.558	104.19
462.777	104.19
462.997	132.19
463.217	99.19
463.437	103.19
463.657	101.19
463.876	104.19
464.096	97.19
464.316	119.19
464.536	105.19
464.755	105.19
464.975	109.19
465.195	106.19
465.414	103.19
465.634	117.19
465.854	95.19
466.073	95.19
466.293	105.19
466.512	97.19
466.732	102.19
466.951	104.19
467.171	87.19
467.391	101.19
467.61	98.19
467.829	83.19
468.049	97.19
468.268	100.19
468.488	93.19
468.707	101.19
468.927	93.19
469.146	87.19
469.365	92.19
469.585	85.19
469.804	99.19
470.023	115.19
470.243	104.19
470.462	88.19
470.681	111.19
470.901	96.19
471.12	92.19
471.339	87.19
471.558	101.19
471.777	110.19
471.997	94.19
472.216	106.19
472.435	103.19
472.654	99.19
472.873	81.19
473.092	97.19
473.311	98.19
473.53	105.19
473.749	102.19
473.968	98.19
474.187	91.19
474.406	99.19
474.625	109.19
474.844	111.19
475.063	101.19
475.282	106.19
475.501	89.19
475.72	89.19
475.939	93.19
476.158	95.19
476.377	99.19
476.596	93.19
476.814	100.19
477.033	106.19
477.252	92.19
477.471	99.19
477.69	95.19
477.908	91.19
478.127	113.19
478.346	100.19
478.564	98.19
478.783	101.19
479.002	106.19
479.22	90.19
479.439	96.19
479.658	105.19
479.876	91.19
480.095	97.19
480.313	107.19
480.532	112.19
480.751	106.19
480.969	109.19
481.188	113.19
481.406	104.19
481.624	101.19
481.843	97.19
482.061	95.19
482.28	94.19
482.498	97.19
482.717	99.19
482.935	102.19
483.153	113.19
483.372	113.19
483.59	116.19
483.808	105.19
484.027	109.19
484.245	95.19
484.463	97.19
484.681	110.19
484.9	90.19
485.118	103.19
485.336	102.19
485.554	105.19
485.772	112.19
485.99	93.19
486.209	99.19
486.427	98.19
486.645	90.19
486.863	106.19
487.081	98.19
487.299	102.19
487.517	106.19
487.735	105.19
487.953	115.19
488.171	98.19
488.389	107.19
488.607	105.19
488.825	113.19
489.043	104.19
489.261	101.19
489.479	120.19
489.696	100.19
489.914	106.19
490.132	105.19
490.35	109.19
490.568	105.19
490.786	107.19
491.003	100.19
491.221	117.19
491.439	122.19
491.657	106.19
491.874	108.19
492.092	104.19
492.31	112.19
492.527	113.19
492.745	103.19
492.963	108.19
493.18	109.19
493.398	104.19
493.615	103.19
493.833	113.19
494.05	113.19
494.268	111.19
494.485	108.19
494.703	107.19
494.92	109.19
495.138	106.19
495.355	117.19
495.573	132.19
495.79	104.19
496.008	122.19
496.225	93.19
496.442	102.19
496.66	103.19
496.877	110.19
497.094	109.19
497.312	118.19
497.529	105.19
497.746	121.19
497.963	110.19
498.181	125.19
498.398	115.19
498.615	126.19
498.832	109.19
499.049	123.19
499.267	124.19
499.484	135.19
499.701	134.19
499.918	150.19
500.135	146.19
500.352	158.19
500.569	158.19
500.786	163.19
501.003	153.19
501.22	143.19
501.437	143.19
501.654	118.19
501.871	130.19
502.088	117.19
502.305	111.19
502.522	119.19
502.739	122.19
502.956	121.19
503.172	124.19
503.389	115.19
503.606	115.19
503.823	114.19
504.04	100.19
504.256	105.19
504.473	106.19
504.69	119.19
504.907	121.19
505.123	106.19
505.34	103.19
505.557	125.19
505.773	101.19
505.99	87.19
506.207	109.19
506.423	115.19
506.64	103.19
506.856	107.19
507.073	110.19
507.289	100.19
507.506	111.19
507.722	99.19
507.939	107.19
508.155	100.19
508.372	103.19
508.588	110.19
508.805	111.19
509.021	104.19
509.238	104.19
509.454	101.19
509.67	103.19
509.887	94.19
510.103	96.19
510.319	94.19
510.536	109.19
510.752	95.19
510.968	88.19
511.184	113.19
511.401	108.19
511.617	96.19
511.833	124.19
512.049	87.19
512.265	89.19
512.481	94.19
512.698	89.19
512.914	81.19
513.13	108.19
513.346	109.19
513.562	107.19
513.778	121.19
513.994	103.19
514.21	118.19
514.426	97.19
