Data from Location5.07152019.Energy5.Lamp.07192019.3%Agarose_HRD10591_15-37-42-388.txt Node
Date: Fri Jul 19 15:37:42 EDT 2019
User: cochatt
Spectrometer: HR+D1059
Trigger mode: 1
Integration Time (sec): 1.000000E-1
Scans to average: 1
Electric dark correction enabled: true
Nonlinearity correction enabled: false
Boxcar width: 0
XAxis mode: Wavelengths
Number of Pixels in Spectrum: 2048
>>>>>Begin Spectral Data<<<<<
223.165	0.62
223.4	0.62
223.635	0.62
223.869	-16.38
224.104	-18.38
224.338	-3.38
224.573	-14.38
224.808	-2.38
225.042	-21.38
225.277	-12.38
225.511	1.62
225.746	7.62
225.98	-3.38
226.215	7.62
226.449	6.62
226.683	10.62
226.918	23.62
227.152	33.62
227.387	52.62
227.621	26.62
227.856	40.62
228.09	56.62
228.324	38.62
228.559	54.62
228.793	49.62
229.027	58.62
229.262	64.62
229.496	74.62
229.73	72.62
229.964	70.62
230.199	83.62
230.433	87.62
230.667	78.62
230.901	79.62
231.136	88.62
231.37	66.62
231.604	89.62
231.838	82.62
232.072	71.62
232.306	79.62
232.541	76.62
232.775	88.62
233.009	71.62
233.243	79.62
233.477	79.62
233.711	79.62
233.945	82.62
234.179	83.62
234.413	80.62
234.647	78.62
234.881	82.62
235.115	81.62
235.349	80.62
235.583	93.62
235.817	77.62
236.051	79.62
236.285	80.62
236.519	72.62
236.753	78.62
236.987	72.62
237.221	84.62
237.455	81.62
237.689	82.62
237.922	74.62
238.156	85.62
238.39	84.62
238.624	76.62
238.858	79.62
239.091	82.62
239.325	70.62
239.559	70.62
239.793	80.62
240.027	68.62
240.26	76.62
240.494	94.62
240.728	70.62
240.961	75.62
241.195	68.62
241.429	64.62
241.662	71.62
241.896	65.62
242.13	64.62
242.363	72.62
242.597	78.62
242.83	76.62
243.064	82.62
243.298	77.62
243.531	79.62
243.765	79.62
243.998	66.62
244.232	80.62
244.465	69.62
244.699	83.62
244.932	87.62
245.166	86.62
245.399	79.62
245.633	85.62
245.866	86.62
246.099	80.62
246.333	66.62
246.566	66.62
246.8	84.62
247.033	78.62
247.266	90.62
247.5	79.62
247.733	71.62
247.966	75.62
248.2	71.62
248.433	86.62
248.666	71.62
248.899	70.62
249.133	94.62
249.366	75.62
249.599	93.62
249.832	89.62
250.066	74.62
250.299	66.62
250.532	96.62
250.765	84.62
250.998	83.62
251.231	83.62
251.465	74.62
251.698	73.62
251.931	82.62
252.164	77.62
252.397	74.62
252.63	87.62
252.863	69.62
253.096	74.62
253.329	85.62
253.562	87.62
253.795	89.62
254.028	77.62
254.261	75.62
254.494	80.62
254.727	71.62
254.96	73.62
255.193	75.62
255.426	93.62
255.659	78.62
255.892	90.62
256.124	81.62
256.357	81.62
256.59	79.62
256.823	77.62
257.056	75.62
257.289	73.62
257.521	75.62
257.754	84.62
257.987	79.62
258.22	81.62
258.452	90.62
258.685	93.62
258.918	72.62
259.151	70.62
259.383	71.62
259.616	66.62
259.849	74.62
260.081	80.62
260.314	79.62
260.547	82.62
260.779	67.62
261.012	75.62
261.244	85.62
261.477	75.62
261.71	86.62
261.942	88.62
262.175	77.62
262.407	83.62
262.64	80.62
262.872	84.62
263.105	64.62
263.337	85.62
263.57	82.62
263.802	97.62
264.035	80.62
264.267	86.62
264.499	93.62
264.732	79.62
264.964	76.62
265.197	85.62
265.429	81.62
265.661	84.62
265.894	75.62
266.126	75.62
266.358	87.62
266.591	81.62
266.823	91.62
267.055	78.62
267.287	81.62
267.52	69.62
267.752	76.62
267.984	73.62
268.216	87.62
268.448	93.62
268.681	86.62
268.913	90.62
269.145	78.62
269.377	71.62
269.609	87.62
269.841	89.62
270.073	72.62
270.306	59.62
270.538	82.62
270.77	70.62
271.002	81.62
271.234	86.62
271.466	97.62
271.698	84.62
271.93	81.62
272.162	82.62
272.394	77.62
272.626	84.62
272.858	81.62
273.09	83.62
273.322	104.62
273.553	78.62
273.785	80.62
274.017	75.62
274.249	76.62
274.481	86.62
274.713	99.62
274.945	86.62
275.176	73.62
275.408	89.62
275.64	78.62
275.872	85.62
276.104	73.62
276.335	80.62
276.567	87.62
276.799	82.62
277.031	82.62
277.262	72.62
277.494	86.62
277.726	90.62
277.957	90.62
278.189	82.62
278.421	73.62
278.652	81.62
278.884	92.62
279.115	83.62
279.347	86.62
279.579	93.62
279.81	85.62
280.042	79.62
280.273	89.62
280.505	76.62
280.736	87.62
280.968	85.62
281.199	86.62
281.431	86.62
281.662	72.62
281.894	90.62
282.125	82.62
282.356	74.62
282.588	92.62
282.819	83.62
283.051	82.62
283.282	77.62
283.513	94.62
283.745	86.62
283.976	89.62
284.207	77.62
284.439	87.62
284.67	85.62
284.901	82.62
285.132	77.62
285.364	81.62
285.595	89.62
285.826	86.62
286.057	86.62
286.288	73.62
286.52	95.62
286.751	85.62
286.982	74.62
287.213	74.62
287.444	79.62
287.675	83.62
287.906	90.62
288.138	78.62
288.369	77.62
288.6	86.62
288.831	88.62
289.062	77.62
289.293	80.62
289.524	81.62
289.755	93.62
289.986	96.62
290.217	87.62
290.448	83.62
290.679	96.62
290.91	89.62
291.141	79.62
291.371	69.62
291.602	79.62
291.833	80.62
292.064	87.62
292.295	77.62
292.526	74.62
292.757	87.62
292.987	71.62
293.218	85.62
293.449	64.62
293.68	84.62
293.91	87.62
294.141	79.62
294.372	66.62
294.603	80.62
294.833	76.62
295.064	78.62
295.295	61.62
295.525	71.62
295.756	84.62
295.987	93.62
296.217	79.62
296.448	93.62
296.679	87.62
296.909	95.62
297.14	89.62
297.37	83.62
297.601	85.62
297.831	89.62
298.062	73.62
298.292	83.62
298.523	95.62
298.753	85.62
298.984	66.62
299.214	82.62
299.445	90.62
299.675	86.62
299.905	87.62
300.136	75.62
300.366	69.62
300.597	74.62
300.827	76.62
301.057	95.62
301.288	89.62
301.518	78.62
301.748	82.62
301.979	83.62
302.209	80.62
302.439	82.62
302.669	81.62
302.9	87.62
303.13	98.62
303.36	86.62
303.59	73.62
303.82	79.62
304.051	86.62
304.281	88.62
304.511	99.62
304.741	85.62
304.971	80.62
305.201	92.62
305.431	87.62
305.661	90.62
305.891	82.62
306.121	70.62
306.352	71.62
306.582	74.62
306.812	75.62
307.042	75.62
307.272	82.62
307.502	74.62
307.731	89.62
307.961	86.62
308.191	74.62
308.421	91.62
308.651	77.62
308.881	82.62
309.111	86.62
309.341	85.62
309.571	75.62
309.8	82.62
310.03	87.62
310.26	71.62
310.49	87.62
310.72	90.62
310.949	71.62
311.179	85.62
311.409	87.62
311.639	81.62
311.868	78.62
312.098	79.62
312.328	81.62
312.557	101.62
312.787	80.62
313.017	85.62
313.246	79.62
313.476	92.62
313.706	86.62
313.935	92.62
314.165	96.62
314.394	91.62
314.624	85.62
314.853	76.62
315.083	77.62
315.312	86.62
315.542	92.62
315.771	78.62
316.001	67.62
316.23	69.62
316.46	85.62
316.689	89.62
316.919	83.62
317.148	90.62
317.377	89.62
317.607	74.62
317.836	74.62
318.065	69.62
318.295	73.62
318.524	74.62
318.753	85.62
318.983	90.62
319.212	94.62
319.441	84.62
319.67	60.62
319.9	79.62
320.129	77.62
320.358	87.62
320.587	100.62
320.816	78.62
321.046	72.62
321.275	82.62
321.504	75.62
321.733	93.62
321.962	87.62
322.191	89.62
322.42	80.62
322.649	97.62
322.878	90.62
323.108	90.62
323.337	94.62
323.566	87.62
323.795	81.62
324.024	77.62
324.253	75.62
324.482	78.62
324.71	79.62
324.939	81.62
325.168	93.62
325.397	91.62
325.626	88.62
325.855	83.62
326.084	78.62
326.313	79.62
326.542	69.62
326.77	80.62
326.999	85.62
327.228	63.62
327.457	74.62
327.686	73.62
327.914	79.62
328.143	89.62
328.372	90.62
328.6	96.62
328.829	79.62
329.058	78.62
329.287	86.62
329.515	90.62
329.744	97.62
329.972	96.62
330.201	89.62
330.43	91.62
330.658	81.62
330.887	81.62
331.115	70.62
331.344	87.62
331.572	79.62
331.801	85.62
332.03	76.62
332.258	74.62
332.486	65.62
332.715	88.62
332.943	74.62
333.172	94.62
333.4	90.62
333.629	83.62
333.857	85.62
334.085	78.62
334.314	74.62
334.542	85.62
334.771	81.62
334.999	80.62
335.227	85.62
335.455	74.62
335.684	73.62
335.912	84.62
336.14	84.62
336.369	81.62
336.597	88.62
336.825	90.62
337.053	83.62
337.281	87.62
337.51	80.62
337.738	76.62
337.966	84.62
338.194	78.62
338.422	71.62
338.65	94.62
338.878	80.62
339.106	89.62
339.334	93.62
339.562	79.62
339.79	84.62
340.018	63.62
340.246	79.62
340.474	64.62
340.702	101.62
340.93	84.62
341.158	80.62
341.386	86.62
341.614	65.62
341.842	88.62
342.07	93.62
342.298	82.62
342.526	82.62
342.754	97.62
342.981	84.62
343.209	82.62
343.437	97.62
343.665	90.62
343.893	75.62
344.12	77.62
344.348	70.62
344.576	83.62
344.804	98.62
345.031	75.62
345.259	86.62
345.487	80.62
345.714	85.62
345.942	88.62
346.17	74.62
346.397	86.62
346.625	77.62
346.853	66.62
347.08	99.62
347.308	83.62
347.535	76.62
347.763	87.62
347.99	77.62
348.218	81.62
348.445	76.62
348.673	78.62
348.9	86.62
349.128	86.62
349.355	80.62
349.583	75.62
349.81	79.62
350.037	61.62
350.265	87.62
350.492	85.62
350.72	93.62
350.947	68.62
351.174	81.62
351.402	72.62
351.629	80.62
351.856	76.62
352.083	71.62
352.311	95.62
352.538	95.62
352.765	95.62
352.992	84.62
353.22	83.62
353.447	83.62
353.674	79.62
353.901	98.62
354.128	81.62
354.355	90.62
354.583	68.62
354.81	81.62
355.037	88.62
355.264	103.62
355.491	76.62
355.718	78.62
355.945	75.62
356.172	78.62
356.399	78.62
356.626	89.62
356.853	89.62
357.08	82.62
357.307	72.62
357.534	69.62
357.761	94.62
357.988	65.62
358.215	83.62
358.441	84.62
358.668	89.62
358.895	83.62
359.122	102.62
359.349	92.62
359.576	90.62
359.802	92.62
360.029	88.62
360.256	78.62
360.483	81.62
360.709	76.62
360.936	79.62
361.163	67.62
361.39	84.62
361.616	89.62
361.843	80.62
362.07	89.62
362.296	94.62
362.523	71.62
362.749	87.62
362.976	84.62
363.203	86.62
363.429	90.62
363.656	90.62
363.882	79.62
364.109	94.62
364.335	95.62
364.562	89.62
364.788	80.62
365.015	91.62
365.241	84.62
365.468	94.62
365.694	90.62
365.92	83.62
366.147	82.62
366.373	76.62
366.599	76.62
366.826	75.62
367.052	85.62
367.278	78.62
367.505	83.62
367.731	81.62
367.957	71.62
368.184	89.62
368.41	72.62
368.636	86.62
368.862	84.62
369.089	90.62
369.315	95.62
369.541	88.62
369.767	74.62
369.993	75.62
370.219	93.62
370.445	92.62
370.672	101.62
370.898	94.62
371.124	86.62
371.35	78.62
371.576	88.62
371.802	90.62
372.028	81.62
372.254	74.62
372.48	84.62
372.706	80.62
372.932	80.62
373.158	97.62
373.384	89.62
373.61	83.62
373.835	75.62
374.061	91.62
374.287	83.62
374.513	85.62
374.739	91.62
374.965	85.62
375.191	89.62
375.416	94.62
375.642	91.62
375.868	73.62
376.094	86.62
376.319	91.62
376.545	80.62
376.771	97.62
376.997	80.62
377.222	98.62
377.448	88.62
377.674	69.62
377.899	84.62
378.125	86.62
378.35	77.62
378.576	87.62
378.802	84.62
379.027	81.62
379.253	87.62
379.478	96.62
379.704	81.62
379.929	81.62
380.155	83.62
380.38	80.62
380.606	90.62
380.831	73.62
381.057	88.62
381.282	67.62
381.507	73.62
381.733	99.62
381.958	89.62
382.184	97.62
382.409	90.62
382.634	87.62
382.86	84.62
383.085	82.62
383.31	101.62
383.535	104.62
383.761	94.62
383.986	87.62
384.211	87.62
384.436	80.62
384.662	86.62
384.887	94.62
385.112	95.62
385.337	89.62
385.562	83.62
385.787	73.62
386.013	91.62
386.238	98.62
386.463	83.62
386.688	90.62
386.913	78.62
387.138	73.62
387.363	72.62
387.588	91.62
387.813	90.62
388.038	82.62
388.263	83.62
388.488	80.62
388.713	92.62
388.938	77.62
389.163	71.62
389.387	59.62
389.612	80.62
389.837	80.62
390.062	84.62
390.287	92.62
390.512	85.62
390.736	80.62
390.961	89.62
391.186	84.62
391.411	91.62
391.636	92.62
391.86	82.62
392.085	71.62
392.31	81.62
392.534	96.62
392.759	82.62
392.984	92.62
393.208	79.62
393.433	98.62
393.658	83.62
393.882	90.62
394.107	110.62
394.331	102.62
394.556	85.62
394.78	80.62
395.005	93.62
395.229	74.62
395.454	97.62
395.678	83.62
395.903	86.62
396.127	87.62
396.352	91.62
396.576	83.62
396.801	90.62
397.025	86.62
397.249	102.62
397.474	98.62
397.698	88.62
397.922	95.62
398.147	93.62
398.371	96.62
398.595	80.62
398.82	75.62
399.044	88.62
399.268	100.62
399.492	81.62
399.717	80.62
399.941	95.62
400.165	87.62
400.389	84.62
400.613	94.62
400.837	79.62
401.062	103.62
401.286	84.62
401.51	77.62
401.734	85.62
401.958	93.62
402.182	100.62
402.406	79.62
402.63	72.62
402.854	86.62
403.078	87.62
403.302	77.62
403.526	79.62
403.75	92.62
403.974	81.62
404.198	92.62
404.422	84.62
404.645	88.62
404.869	80.62
405.093	90.62
405.317	83.62
405.541	97.62
405.765	97.62
405.988	89.62
406.212	79.62
406.436	102.62
406.66	101.62
406.883	75.62
407.107	81.62
407.331	80.62
407.555	94.62
407.778	74.62
408.002	88.62
408.226	91.62
408.449	91.62
408.673	87.62
408.896	83.62
409.12	81.62
409.344	99.62
409.567	88.62
409.791	87.62
410.014	95.62
410.238	87.62
410.461	85.62
410.685	74.62
410.908	79.62
411.132	87.62
411.355	101.62
411.578	85.62
411.802	90.62
412.025	83.62
412.249	84.62
412.472	103.62
412.695	102.62
412.919	110.62
413.142	95.62
413.365	91.62
413.589	94.62
413.812	86.62
414.035	102.62
414.258	81.62
414.482	88.62
414.705	91.62
414.928	83.62
415.151	82.62
415.374	106.62
415.597	90.62
415.821	72.62
416.044	75.62
416.267	88.62
416.49	88.62
416.713	95.62
416.936	89.62
417.159	94.62
417.382	98.62
417.605	102.62
417.828	96.62
418.051	97.62
418.274	89.62
418.497	78.62
418.72	84.62
418.943	93.62
419.166	107.62
419.389	106.62
419.611	95.62
419.834	86.62
420.057	102.62
420.28	91.62
420.503	91.62
420.726	87.62
420.948	80.62
421.171	92.62
421.394	98.62
421.617	101.62
421.839	89.62
422.062	99.62
422.285	95.62
422.507	102.62
422.73	80.62
422.953	87.62
423.175	96.62
423.398	101.62
423.621	93.62
423.843	83.62
424.066	82.62
424.288	113.62
424.511	90.62
424.733	82.62
424.956	87.62
425.178	84.62
425.401	81.62
425.623	93.62
425.846	96.62
426.068	98.62
426.291	111.62
426.513	100.62
426.735	98.62
426.958	98.62
427.18	85.62
427.402	92.62
427.625	87.62
427.847	91.62
428.069	87.62
428.292	86.62
428.514	86.62
428.736	99.62
428.958	77.62
429.181	89.62
429.403	101.62
429.625	80.62
429.847	88.62
430.069	89.62
430.292	110.62
430.514	100.62
430.736	92.62
430.958	88.62
431.18	104.62
431.402	97.62
431.624	93.62
431.846	89.62
432.068	79.62
432.29	97.62
432.512	97.62
432.734	90.62
432.956	94.62
433.178	86.62
433.4	82.62
433.622	101.62
433.844	92.62
434.066	88.62
434.287	68.62
434.509	91.62
434.731	91.62
434.953	86.62
435.175	98.62
435.397	98.62
435.618	83.62
435.84	105.62
436.062	87.62
436.284	96.62
436.505	109.62
436.727	94.62
436.949	92.62
437.17	90.62
437.392	88.62
437.614	92.62
437.835	90.62
438.057	93.62
438.278	97.62
438.5	90.62
438.721	95.62
438.943	94.62
439.165	95.62
439.386	98.62
439.608	116.62
439.829	86.62
440.05	96.62
440.272	79.62
440.493	91.62
440.715	94.62
440.936	102.62
441.158	117.62
441.379	93.62
441.6	101.62
441.822	103.62
442.043	104.62
442.264	80.62
442.486	99.62
442.707	96.62
442.928	101.62
443.149	90.62
443.371	92.62
443.592	108.62
443.813	100.62
444.034	103.62
444.255	102.62
444.476	108.62
444.698	89.62
444.919	94.62
445.14	227.62
445.361	179.62
445.582	111.62
445.803	105.62
446.024	106.62
446.245	98.62
446.466	108.62
446.687	100.62
446.908	95.62
447.129	88.62
447.35	88.62
447.571	99.62
447.792	85.62
448.013	99.62
448.234	93.62
448.455	80.62
448.675	85.62
448.896	97.62
449.117	101.62
449.338	114.62
449.559	112.62
449.779	95.62
450	90.62
450.221	87.62
450.442	94.62
450.662	94.62
450.883	86.62
451.104	88.62
451.324	76.62
451.545	87.62
451.766	86.62
451.986	86.62
452.207	82.62
452.428	102.62
452.648	80.62
452.869	104.62
453.089	93.62
453.31	78.62
453.53	95.62
453.751	100.62
453.971	86.62
454.192	82.62
454.412	90.62
454.633	95.62
454.853	85.62
455.073	78.62
455.294	83.62
455.514	87.62
455.734	77.62
455.955	83.62
456.175	97.62
456.395	81.62
456.616	83.62
456.836	88.62
457.056	89.62
457.276	87.62
457.497	81.62
457.717	77.62
457.937	83.62
458.157	97.62
458.377	66.62
458.598	73.62
458.818	74.62
459.038	70.62
459.258	78.62
459.478	94.62
459.698	91.62
459.918	87.62
460.138	79.62
460.358	82.62
460.578	91.62
460.798	88.62
461.018	93.62
461.238	84.62
461.458	81.62
461.678	99.62
461.898	78.62
462.118	96.62
462.338	98.62
462.558	103.62
462.777	94.62
462.997	118.62
463.217	83.62
463.437	77.62
463.657	80.62
463.876	72.62
464.096	86.62
464.316	83.62
464.536	75.62
464.755	93.62
464.975	80.62
465.195	97.62
465.414	96.62
465.634	90.62
465.854	85.62
466.073	102.62
466.293	94.62
466.512	106.62
466.732	94.62
466.951	85.62
467.171	95.62
467.391	97.62
467.61	89.62
467.829	89.62
468.049	84.62
468.268	95.62
468.488	97.62
468.707	95.62
468.927	88.62
469.146	102.62
469.365	101.62
469.585	90.62
469.804	93.62
470.023	101.62
470.243	102.62
470.462	104.62
470.681	98.62
470.901	90.62
471.12	93.62
471.339	79.62
471.558	97.62
471.777	111.62
471.997	94.62
472.216	101.62
472.435	95.62
472.654	93.62
472.873	89.62
473.092	100.62
473.311	91.62
473.53	91.62
473.749	88.62
473.968	93.62
474.187	85.62
474.406	97.62
474.625	91.62
474.844	93.62
475.063	102.62
475.282	88.62
475.501	86.62
475.72	96.62
475.939	89.62
476.158	99.62
476.377	101.62
476.596	105.62
476.814	88.62
477.033	86.62
477.252	89.62
477.471	96.62
477.69	92.62
477.908	93.62
478.127	99.62
478.346	103.62
478.564	90.62
478.783	100.62
479.002	96.62
479.22	103.62
479.439	92.62
479.658	93.62
479.876	97.62
480.095	101.62
480.313	92.62
480.532	95.62
480.751	90.62
480.969	87.62
481.188	81.62
481.406	77.62
481.624	86.62
481.843	78.62
482.061	93.62
482.28	81.62
482.498	85.62
482.717	83.62
482.935	88.62
483.153	89.62
483.372	109.62
483.59	115.62
483.808	95.62
484.027	96.62
484.245	90.62
484.463	106.62
484.681	103.62
484.9	101.62
485.118	99.62
485.336	84.62
485.554	87.62
485.772	86.62
485.99	81.62
486.209	82.62
486.427	97.62
486.645	100.62
486.863	100.62
487.081	102.62
487.299	105.62
487.517	100.62
487.735	104.62
487.953	107.62
488.171	105.62
488.389	97.62
488.607	98.62
488.825	96.62
489.043	94.62
489.261	81.62
489.479	91.62
489.696	90.62
489.914	77.62
490.132	81.62
490.35	101.62
490.568	115.62
490.786	99.62
491.003	103.62
491.221	111.62
491.439	100.62
491.657	121.62
491.874	120.62
492.092	116.62
492.31	121.62
492.527	109.62
492.745	104.62
492.963	104.62
493.18	109.62
493.398	115.62
493.615	110.62
493.833	99.62
494.05	110.62
494.268	117.62
494.485	108.62
494.703	105.62
494.92	101.62
495.138	103.62
495.355	116.62
495.573	103.62
495.79	113.62
496.008	101.62
496.225	98.62
496.442	102.62
496.66	99.62
496.877	96.62
497.094	102.62
497.312	93.62
497.529	82.62
497.746	109.62
497.963	93.62
498.181	89.62
498.398	81.62
498.615	98.62
498.832	97.62
499.049	90.62
499.267	88.62
499.484	98.62
499.701	103.62
499.918	99.62
500.135	98.62
500.352	84.62
500.569	94.62
500.786	92.62
501.003	112.62
501.22	105.62
501.437	97.62
501.654	101.62
501.871	106.62
502.088	91.62
502.305	101.62
502.522	86.62
502.739	85.62
502.956	97.62
503.172	97.62
503.389	95.62
503.606	84.62
503.823	92.62
504.04	120.62
504.256	88.62
504.473	91.62
504.69	97.62
504.907	103.62
505.123	96.62
505.34	73.62
505.557	94.62
505.773	82.62
505.99	88.62
506.207	106.62
506.423	90.62
506.64	86.62
506.856	96.62
507.073	98.62
507.289	97.62
507.506	97.62
507.722	72.62
507.939	76.62
508.155	91.62
508.372	95.62
508.588	101.62
508.805	88.62
509.021	82.62
509.238	92.62
509.454	99.62
509.67	90.62
509.887	96.62
510.103	88.62
510.319	95.62
510.536	103.62
510.752	81.62
510.968	87.62
511.184	76.62
511.401	74.62
511.617	67.62
511.833	79.62
512.049	84.62
512.265	81.62
512.481	88.62
512.698	95.62
512.914	85.62
513.13	83.62
513.346	83.62
513.562	78.62
513.778	90.62
513.994	80.62
514.21	89.62
514.426	91.62
514.642	86.62
514.858	101.62
515.074	101.62
515.29	78.62
515.506	79.62
515.721	85.62
515.937	76.62
516.153	81.62
516.369	84.62
516.585	81.62
516.801	85.62
517.016	90.62
517.232	103.62
517.448	76.62
517.664	82.62
