Data from Location5.07152019.Energy5.Lamp.07192019.3%Agarose_HRD10591_15-36-30-386.txt Node
Date: Fri Jul 19 15:36:30 EDT 2019
User: cochatt
Spectrometer: HR+D1059
Trigger mode: 1
Integration Time (sec): 1.000000E-1
Scans to average: 1
Electric dark correction enabled: true
Nonlinearity correction enabled: false
Boxcar width: 0
XAxis mode: Wavelengths
Number of Pixels in Spectrum: 2048
>>>>>Begin Spectral Data<<<<<
223.165	-15.25
223.4	-15.25
223.635	-15.25
223.869	-21.25
224.104	-9.25
224.338	-13.25
224.573	-12.25
224.808	-20.25
225.042	-22.25
225.277	-3.25
225.511	8.75
225.746	-15.25
225.98	-0.25
226.215	24.75
226.449	15.75
226.683	21.75
226.918	30.75
227.152	30.75
227.387	51.75
227.621	46.75
227.856	42.75
228.09	46.75
228.324	55.75
228.559	39.75
228.793	62.75
229.027	50.75
229.262	64.75
229.496	71.75
229.73	64.75
229.964	79.75
230.199	76.75
230.433	87.75
230.667	69.75
230.901	73.75
231.136	77.75
231.37	62.75
231.604	79.75
231.838	78.75
232.072	82.75
232.306	76.75
232.541	85.75
232.775	86.75
233.009	68.75
233.243	91.75
233.477	83.75
233.711	70.75
233.945	78.75
234.179	98.75
234.413	86.75
234.647	82.75
234.881	87.75
235.115	80.75
235.349	82.75
235.583	81.75
235.817	74.75
236.051	71.75
236.285	75.75
236.519	83.75
236.753	90.75
236.987	81.75
237.221	77.75
237.455	81.75
237.689	79.75
237.922	81.75
238.156	80.75
238.39	70.75
238.624	70.75
238.858	66.75
239.091	72.75
239.325	76.75
239.559	83.75
239.793	84.75
240.027	63.75
240.26	79.75
240.494	71.75
240.728	77.75
240.961	76.75
241.195	90.75
241.429	70.75
241.662	71.75
241.896	81.75
242.13	82.75
242.363	68.75
242.597	73.75
242.83	91.75
243.064	70.75
243.298	79.75
243.531	76.75
243.765	81.75
243.998	74.75
244.232	81.75
244.465	71.75
244.699	73.75
244.932	74.75
245.166	75.75
245.399	76.75
245.633	77.75
245.866	68.75
246.099	85.75
246.333	71.75
246.566	74.75
246.8	69.75
247.033	76.75
247.266	64.75
247.5	80.75
247.733	68.75
247.966	70.75
248.2	78.75
248.433	79.75
248.666	81.75
248.899	76.75
249.133	86.75
249.366	65.75
249.599	83.75
249.832	65.75
250.066	73.75
250.299	64.75
250.532	76.75
250.765	80.75
250.998	92.75
251.231	80.75
251.465	72.75
251.698	84.75
251.931	70.75
252.164	87.75
252.397	82.75
252.63	71.75
252.863	63.75
253.096	79.75
253.329	81.75
253.562	79.75
253.795	95.75
254.028	63.75
254.261	67.75
254.494	78.75
254.727	88.75
254.96	85.75
255.193	83.75
255.426	72.75
255.659	87.75
255.892	74.75
256.124	86.75
256.357	81.75
256.59	76.75
256.823	84.75
257.056	70.75
257.289	82.75
257.521	78.75
257.754	85.75
257.987	76.75
258.22	79.75
258.452	76.75
258.685	83.75
258.918	80.75
259.151	81.75
259.383	89.75
259.616	84.75
259.849	84.75
260.081	90.75
260.314	87.75
260.547	71.75
260.779	76.75
261.012	87.75
261.244	76.75
261.477	83.75
261.71	76.75
261.942	76.75
262.175	66.75
262.407	83.75
262.64	96.75
262.872	81.75
263.105	75.75
263.337	86.75
263.57	81.75
263.802	80.75
264.035	88.75
264.267	84.75
264.499	83.75
264.732	71.75
264.964	81.75
265.197	93.75
265.429	83.75
265.661	89.75
265.894	67.75
266.126	79.75
266.358	91.75
266.591	95.75
266.823	93.75
267.055	89.75
267.287	80.75
267.52	74.75
267.752	91.75
267.984	101.75
268.216	82.75
268.448	84.75
268.681	74.75
268.913	74.75
269.145	90.75
269.377	77.75
269.609	92.75
269.841	91.75
270.073	83.75
270.306	75.75
270.538	83.75
270.77	70.75
271.002	77.75
271.234	87.75
271.466	94.75
271.698	88.75
271.93	100.75
272.162	80.75
272.394	89.75
272.626	83.75
272.858	90.75
273.09	67.75
273.322	96.75
273.553	91.75
273.785	86.75
274.017	87.75
274.249	82.75
274.481	80.75
274.713	78.75
274.945	89.75
275.176	93.75
275.408	72.75
275.64	89.75
275.872	79.75
276.104	79.75
276.335	73.75
276.567	80.75
276.799	86.75
277.031	80.75
277.262	89.75
277.494	74.75
277.726	91.75
277.957	96.75
278.189	80.75
278.421	84.75
278.652	85.75
278.884	80.75
279.115	91.75
279.347	67.75
279.579	89.75
279.81	69.75
280.042	76.75
280.273	84.75
280.505	87.75
280.736	74.75
280.968	84.75
281.199	91.75
281.431	83.75
281.662	91.75
281.894	81.75
282.125	84.75
282.356	74.75
282.588	94.75
282.819	89.75
283.051	96.75
283.282	90.75
283.513	73.75
283.745	81.75
283.976	85.75
284.207	89.75
284.439	98.75
284.67	89.75
284.901	88.75
285.132	87.75
285.364	96.75
285.595	77.75
285.826	89.75
286.057	86.75
286.288	97.75
286.52	90.75
286.751	94.75
286.982	94.75
287.213	86.75
287.444	69.75
287.675	86.75
287.906	82.75
288.138	74.75
288.369	87.75
288.6	66.75
288.831	80.75
289.062	94.75
289.293	88.75
289.524	91.75
289.755	90.75
289.986	74.75
290.217	94.75
290.448	81.75
290.679	84.75
290.91	88.75
291.141	87.75
291.371	92.75
291.602	89.75
291.833	85.75
292.064	96.75
292.295	88.75
292.526	85.75
292.757	82.75
292.987	91.75
293.218	88.75
293.449	70.75
293.68	77.75
293.91	88.75
294.141	87.75
294.372	97.75
294.603	89.75
294.833	98.75
295.064	88.75
295.295	82.75
295.525	91.75
295.756	79.75
295.987	88.75
296.217	101.75
296.448	95.75
296.679	76.75
296.909	87.75
297.14	84.75
297.37	89.75
297.601	96.75
297.831	86.75
298.062	84.75
298.292	88.75
298.523	82.75
298.753	104.75
298.984	110.75
299.214	87.75
299.445	75.75
299.675	90.75
299.905	93.75
300.136	91.75
300.366	95.75
300.597	87.75
300.827	83.75
301.057	86.75
301.288	82.75
301.518	88.75
301.748	90.75
301.979	87.75
302.209	87.75
302.439	76.75
302.669	76.75
302.9	98.75
303.13	79.75
303.36	75.75
303.59	86.75
303.82	94.75
304.051	79.75
304.281	91.75
304.511	85.75
304.741	80.75
304.971	74.75
305.201	74.75
305.431	95.75
305.661	95.75
305.891	76.75
306.121	83.75
306.352	88.75
306.582	82.75
306.812	94.75
307.042	94.75
307.272	89.75
307.502	88.75
307.731	99.75
307.961	83.75
308.191	82.75
308.421	95.75
308.651	90.75
308.881	81.75
309.111	83.75
309.341	89.75
309.571	93.75
309.8	102.75
310.03	73.75
310.26	83.75
310.49	95.75
310.72	90.75
310.949	92.75
311.179	72.75
311.409	93.75
311.639	80.75
311.868	88.75
312.098	83.75
312.328	83.75
312.557	81.75
312.787	96.75
313.017	90.75
313.246	90.75
313.476	92.75
313.706	85.75
313.935	88.75
314.165	77.75
314.394	78.75
314.624	83.75
314.853	81.75
315.083	97.75
315.312	84.75
315.542	90.75
315.771	71.75
316.001	78.75
316.23	76.75
316.46	102.75
316.689	94.75
316.919	85.75
317.148	77.75
317.377	82.75
317.607	88.75
317.836	76.75
318.065	92.75
318.295	99.75
318.524	95.75
318.753	89.75
318.983	92.75
319.212	95.75
319.441	90.75
319.67	88.75
319.9	68.75
320.129	91.75
320.358	78.75
320.587	97.75
320.816	84.75
321.046	83.75
321.275	96.75
321.504	93.75
321.733	82.75
321.962	74.75
322.191	90.75
322.42	67.75
322.649	99.75
322.878	90.75
323.108	91.75
323.337	86.75
323.566	87.75
323.795	84.75
324.024	88.75
324.253	88.75
324.482	86.75
324.71	70.75
324.939	77.75
325.168	92.75
325.397	84.75
325.626	103.75
325.855	90.75
326.084	84.75
326.313	92.75
326.542	79.75
326.77	88.75
326.999	84.75
327.228	75.75
327.457	69.75
327.686	90.75
327.914	89.75
328.143	93.75
328.372	77.75
328.6	84.75
328.829	82.75
329.058	68.75
329.287	77.75
329.515	77.75
329.744	83.75
329.972	89.75
330.201	82.75
330.43	89.75
330.658	95.75
330.887	81.75
331.115	90.75
331.344	82.75
331.572	93.75
331.801	97.75
332.03	101.75
332.258	74.75
332.486	86.75
332.715	79.75
332.943	76.75
333.172	93.75
333.4	75.75
333.629	89.75
333.857	85.75
334.085	79.75
334.314	92.75
334.542	95.75
334.771	81.75
334.999	80.75
335.227	76.75
335.455	80.75
335.684	84.75
335.912	88.75
336.14	86.75
336.369	99.75
336.597	91.75
336.825	97.75
337.053	90.75
337.281	84.75
337.51	89.75
337.738	76.75
337.966	82.75
338.194	78.75
338.422	91.75
338.65	82.75
338.878	87.75
339.106	82.75
339.334	90.75
339.562	86.75
339.79	88.75
340.018	83.75
340.246	86.75
340.474	82.75
340.702	87.75
340.93	88.75
341.158	91.75
341.386	90.75
341.614	90.75
341.842	81.75
342.07	84.75
342.298	91.75
342.526	86.75
342.754	88.75
342.981	90.75
343.209	81.75
343.437	89.75
343.665	71.75
343.893	88.75
344.12	94.75
344.348	79.75
344.576	85.75
344.804	82.75
345.031	92.75
345.259	95.75
345.487	81.75
345.714	86.75
345.942	91.75
346.17	90.75
346.397	70.75
346.625	81.75
346.853	96.75
347.08	100.75
347.308	78.75
347.535	83.75
347.763	88.75
347.99	108.75
348.218	82.75
348.445	77.75
348.673	82.75
348.9	88.75
349.128	84.75
349.355	82.75
349.583	95.75
349.81	89.75
350.037	73.75
350.265	92.75
350.492	89.75
350.72	63.75
350.947	99.75
351.174	88.75
351.402	86.75
351.629	89.75
351.856	60.75
352.083	74.75
352.311	81.75
352.538	86.75
352.765	89.75
352.992	81.75
353.22	87.75
353.447	91.75
353.674	84.75
353.901	95.75
354.128	79.75
354.355	67.75
354.583	86.75
354.81	85.75
355.037	89.75
355.264	93.75
355.491	76.75
355.718	77.75
355.945	98.75
356.172	76.75
356.399	85.75
356.626	93.75
356.853	89.75
357.08	78.75
357.307	86.75
357.534	86.75
357.761	95.75
357.988	89.75
358.215	83.75
358.441	75.75
358.668	94.75
358.895	84.75
359.122	96.75
359.349	82.75
359.576	85.75
359.802	72.75
360.029	90.75
360.256	73.75
360.483	73.75
360.709	92.75
360.936	83.75
361.163	84.75
361.39	75.75
361.616	82.75
361.843	88.75
362.07	91.75
362.296	73.75
362.523	87.75
362.749	80.75
362.976	86.75
363.203	89.75
363.429	94.75
363.656	109.75
363.882	86.75
364.109	80.75
364.335	83.75
364.562	92.75
364.788	85.75
365.015	82.75
365.241	82.75
365.468	80.75
365.694	78.75
365.92	97.75
366.147	84.75
366.373	75.75
366.599	88.75
366.826	81.75
367.052	84.75
367.278	81.75
367.505	65.75
367.731	90.75
367.957	77.75
368.184	98.75
368.41	76.75
368.636	67.75
368.862	79.75
369.089	82.75
369.315	81.75
369.541	82.75
369.767	85.75
369.993	78.75
370.219	90.75
370.445	82.75
370.672	79.75
370.898	80.75
371.124	83.75
371.35	84.75
371.576	88.75
371.802	82.75
372.028	80.75
372.254	69.75
372.48	93.75
372.706	82.75
372.932	85.75
373.158	78.75
373.384	84.75
373.61	91.75
373.835	75.75
374.061	84.75
374.287	94.75
374.513	88.75
374.739	80.75
374.965	83.75
375.191	94.75
375.416	80.75
375.642	83.75
375.868	86.75
376.094	86.75
376.319	88.75
376.545	81.75
376.771	92.75
376.997	93.75
377.222	72.75
377.448	87.75
377.674	95.75
377.899	89.75
378.125	84.75
378.35	89.75
378.576	82.75
378.802	93.75
379.027	68.75
379.253	86.75
379.478	75.75
379.704	79.75
379.929	88.75
380.155	99.75
380.38	84.75
380.606	80.75
380.831	88.75
381.057	83.75
381.282	77.75
381.507	91.75
381.733	87.75
381.958	93.75
382.184	84.75
382.409	83.75
382.634	97.75
382.86	87.75
383.085	86.75
383.31	84.75
383.535	74.75
383.761	90.75
383.986	84.75
384.211	90.75
384.436	75.75
384.662	73.75
384.887	65.75
385.112	64.75
385.337	76.75
385.562	88.75
385.787	105.75
386.013	88.75
386.238	80.75
386.463	93.75
386.688	82.75
386.913	86.75
387.138	76.75
387.363	68.75
387.588	89.75
387.813	85.75
388.038	84.75
388.263	81.75
388.488	88.75
388.713	88.75
388.938	79.75
389.163	87.75
389.387	79.75
389.612	99.75
389.837	85.75
390.062	81.75
390.287	76.75
390.512	96.75
390.736	78.75
390.961	88.75
391.186	96.75
391.411	94.75
391.636	79.75
391.86	81.75
392.085	84.75
392.31	76.75
392.534	80.75
392.759	82.75
392.984	94.75
393.208	86.75
393.433	88.75
393.658	93.75
393.882	91.75
394.107	93.75
394.331	101.75
394.556	91.75
394.78	99.75
395.005	82.75
395.229	85.75
395.454	78.75
395.678	73.75
395.903	71.75
396.127	84.75
396.352	96.75
396.576	88.75
396.801	85.75
397.025	97.75
397.249	103.75
397.474	78.75
397.698	87.75
397.922	83.75
398.147	97.75
398.371	86.75
398.595	87.75
398.82	85.75
399.044	90.75
399.268	78.75
399.492	83.75
399.717	91.75
399.941	92.75
400.165	85.75
400.389	78.75
400.613	77.75
400.837	81.75
401.062	79.75
401.286	87.75
401.51	86.75
401.734	97.75
401.958	103.75
402.182	92.75
402.406	94.75
402.63	91.75
402.854	86.75
403.078	92.75
403.302	100.75
403.526	65.75
403.75	92.75
403.974	79.75
404.198	83.75
404.422	88.75
404.645	92.75
404.869	81.75
405.093	106.75
405.317	85.75
405.541	96.75
405.765	98.75
405.988	77.75
406.212	97.75
406.436	94.75
406.66	82.75
406.883	68.75
407.107	90.75
407.331	81.75
407.555	79.75
407.778	101.75
408.002	89.75
408.226	83.75
408.449	77.75
408.673	97.75
408.896	93.75
409.12	83.75
409.344	76.75
409.567	82.75
409.791	92.75
410.014	95.75
410.238	86.75
410.461	84.75
410.685	96.75
410.908	98.75
411.132	87.75
411.355	91.75
411.578	90.75
411.802	87.75
412.025	84.75
412.249	83.75
412.472	101.75
412.695	89.75
412.919	82.75
413.142	86.75
413.365	97.75
413.589	94.75
413.812	84.75
414.035	91.75
414.258	88.75
414.482	83.75
414.705	72.75
414.928	94.75
415.151	99.75
415.374	82.75
415.597	91.75
415.821	92.75
416.044	80.75
416.267	88.75
416.49	90.75
416.713	84.75
416.936	76.75
417.159	88.75
417.382	82.75
417.605	94.75
417.828	90.75
418.051	95.75
418.274	102.75
418.497	81.75
418.72	97.75
418.943	97.75
419.166	79.75
419.389	99.75
419.611	85.75
419.834	100.75
420.057	107.75
420.28	92.75
420.503	90.75
420.726	91.75
420.948	91.75
421.171	87.75
421.394	84.75
421.617	76.75
421.839	103.75
422.062	94.75
422.285	85.75
422.507	94.75
422.73	81.75
422.953	89.75
423.175	82.75
423.398	98.75
423.621	77.75
423.843	90.75
424.066	89.75
424.288	108.75
424.511	101.75
424.733	87.75
424.956	90.75
425.178	91.75
425.401	81.75
425.623	107.75
425.846	101.75
426.068	109.75
426.291	107.75
426.513	97.75
426.735	86.75
426.958	97.75
427.18	83.75
427.402	100.75
427.625	87.75
427.847	94.75
428.069	104.75
428.292	105.75
428.514	105.75
428.736	100.75
428.958	104.75
429.181	99.75
429.403	88.75
429.625	92.75
429.847	91.75
430.069	106.75
430.292	97.75
430.514	90.75
430.736	94.75
430.958	92.75
431.18	84.75
431.402	101.75
431.624	91.75
431.846	92.75
432.068	71.75
432.29	91.75
432.512	84.75
432.734	96.75
432.956	82.75
433.178	86.75
433.4	84.75
433.622	99.75
433.844	96.75
434.066	100.75
434.287	88.75
434.509	82.75
434.731	94.75
434.953	83.75
435.175	87.75
435.397	103.75
435.618	93.75
435.84	72.75
436.062	87.75
436.284	80.75
436.505	87.75
436.727	83.75
436.949	82.75
437.17	86.75
437.392	86.75
437.614	83.75
437.835	89.75
438.057	83.75
438.278	81.75
438.5	90.75
438.721	98.75
438.943	94.75
439.165	89.75
439.386	97.75
439.608	105.75
439.829	93.75
440.05	111.75
440.272	95.75
440.493	90.75
440.715	92.75
440.936	97.75
441.158	85.75
441.379	106.75
441.6	97.75
441.822	80.75
442.043	81.75
442.264	95.75
442.486	104.75
442.707	102.75
442.928	91.75
443.149	87.75
443.371	93.75
443.592	97.75
443.813	95.75
444.034	97.75
444.255	99.75
444.476	75.75
444.698	90.75
444.919	98.75
445.14	235.75
445.361	153.75
445.582	107.75
445.803	101.75
446.024	100.75
446.245	100.75
446.466	109.75
446.687	96.75
446.908	112.75
447.129	97.75
447.35	90.75
447.571	82.75
447.792	86.75
448.013	94.75
448.234	98.75
448.455	102.75
448.675	95.75
448.896	95.75
449.117	99.75
449.338	99.75
449.559	95.75
449.779	90.75
450	89.75
450.221	84.75
450.442	100.75
450.662	89.75
450.883	75.75
451.104	94.75
451.324	87.75
451.545	85.75
451.766	78.75
451.986	98.75
452.207	87.75
452.428	96.75
452.648	90.75
452.869	83.75
453.089	93.75
453.31	84.75
453.53	84.75
453.751	95.75
453.971	86.75
454.192	83.75
454.412	91.75
454.633	79.75
454.853	103.75
455.073	81.75
455.294	87.75
455.514	90.75
455.734	91.75
455.955	87.75
456.175	95.75
456.395	84.75
456.616	99.75
456.836	84.75
457.056	100.75
457.276	79.75
457.497	88.75
457.717	95.75
457.937	96.75
458.157	88.75
458.377	86.75
458.598	80.75
458.818	91.75
459.038	83.75
459.258	87.75
459.478	87.75
459.698	92.75
459.918	96.75
460.138	92.75
460.358	83.75
460.578	80.75
460.798	80.75
461.018	71.75
461.238	93.75
461.458	75.75
461.678	97.75
461.898	92.75
462.118	88.75
462.338	81.75
462.558	88.75
462.777	75.75
462.997	87.75
463.217	95.75
463.437	86.75
463.657	94.75
463.876	87.75
464.096	87.75
464.316	101.75
464.536	88.75
464.755	87.75
464.975	95.75
465.195	88.75
465.414	91.75
465.634	87.75
465.854	99.75
466.073	96.75
466.293	88.75
466.512	92.75
466.732	101.75
466.951	95.75
467.171	93.75
467.391	97.75
467.61	95.75
467.829	87.75
468.049	100.75
468.268	83.75
468.488	88.75
468.707	89.75
468.927	101.75
469.146	84.75
469.365	103.75
469.585	96.75
469.804	79.75
470.023	97.75
470.243	91.75
470.462	100.75
470.681	103.75
470.901	95.75
471.12	89.75
471.339	83.75
471.558	92.75
471.777	95.75
471.997	88.75
472.216	98.75
472.435	84.75
472.654	91.75
472.873	90.75
473.092	83.75
473.311	96.75
473.53	82.75
473.749	89.75
473.968	100.75
474.187	96.75
474.406	81.75
474.625	107.75
474.844	87.75
475.063	97.75
475.282	95.75
475.501	98.75
475.72	98.75
475.939	92.75
476.158	87.75
476.377	88.75
476.596	96.75
476.814	105.75
477.033	90.75
477.252	78.75
477.471	79.75
477.69	104.75
477.908	83.75
478.127	115.75
478.346	99.75
478.564	91.75
478.783	74.75
479.002	99.75
479.22	103.75
479.439	106.75
479.658	81.75
479.876	94.75
480.095	87.75
480.313	89.75
480.532	97.75
480.751	99.75
480.969	88.75
481.188	74.75
481.406	84.75
481.624	92.75
481.843	79.75
482.061	90.75
482.28	87.75
482.498	77.75
482.717	96.75
482.935	105.75
483.153	91.75
483.372	94.75
483.59	89.75
483.808	96.75
484.027	92.75
484.245	89.75
484.463	107.75
484.681	86.75
484.9	86.75
485.118	85.75
485.336	92.75
485.554	89.75
485.772	91.75
485.99	90.75
486.209	91.75
486.427	76.75
486.645	87.75
486.863	101.75
487.081	93.75
487.299	87.75
487.517	92.75
487.735	86.75
487.953	110.75
488.171	109.75
488.389	111.75
488.607	97.75
488.825	85.75
489.043	80.75
489.261	89.75
489.479	102.75
489.696	103.75
489.914	88.75
490.132	98.75
490.35	106.75
490.568	85.75
490.786	104.75
491.003	101.75
491.221	107.75
491.439	113.75
491.657	117.75
491.874	107.75
492.092	122.75
492.31	113.75
492.527	113.75
492.745	108.75
492.963	114.75
493.18	114.75
493.398	99.75
493.615	104.75
493.833	89.75
494.05	93.75
494.268	120.75
494.485	92.75
494.703	112.75
494.92	103.75
495.138	116.75
495.355	118.75
495.573	102.75
495.79	114.75
496.008	105.75
496.225	104.75
496.442	100.75
496.66	112.75
496.877	107.75
497.094	109.75
497.312	101.75
497.529	89.75
497.746	102.75
497.963	87.75
498.181	104.75
498.398	104.75
498.615	75.75
498.832	86.75
499.049	90.75
499.267	93.75
499.484	84.75
499.701	90.75
499.918	90.75
500.135	97.75
500.352	93.75
500.569	104.75
500.786	84.75
501.003	107.75
501.22	86.75
501.437	104.75
501.654	111.75
501.871	100.75
502.088	87.75
502.305	109.75
502.522	108.75
502.739	103.75
502.956	98.75
503.172	97.75
503.389	91.75
503.606	81.75
503.823	91.75
504.04	96.75
504.256	100.75
504.473	82.75
504.69	100.75
504.907	91.75
505.123	99.75
505.34	96.75
505.557	89.75
505.773	86.75
505.99	107.75
506.207	90.75
506.423	88.75
506.64	87.75
506.856	81.75
507.073	87.75
507.289	93.75
507.506	62.75
507.722	97.75
507.939	87.75
508.155	93.75
508.372	87.75
508.588	97.75
508.805	83.75
509.021	98.75
509.238	90.75
509.454	82.75
509.67	87.75
509.887	97.75
510.103	79.75
510.319	84.75
510.536	82.75
510.752	89.75
510.968	96.75
511.184	73.75
511.401	83.75
511.617	99.75
511.833	75.75
512.049	76.75
512.265	79.75
512.481	85.75
512.698	91.75
512.914	96.75
513.13	85.75
513.346	76.75
513.562	87.75
513.778	82.75
513.994	85.75
514.21	92.75
514.426	84.75
514.642	88.75
514.858	93.75
515.074	78.75
515.29	87.75
515.506	99.75
515.721	99.75
515.937	96.75
516.153	74.75
516.369	73.75
516.585	82.75
516.801	91.75
517.016	85.75
517.232	91.75
517.448	82.75
517.664	104.75
