Data from Location5.07152019.Energy5.Lamp.07192019.3%Agarose_HRD10591_16-03-45-628.txt Node
Date: Fri Jul 19 16:03:45 EDT 2019
User: cochatt
Spectrometer: HR+D1059
Trigger mode: 1
Integration Time (sec): 1.000000E-1
Scans to average: 1
Electric dark correction enabled: true
Nonlinearity correction enabled: false
Boxcar width: 0
XAxis mode: Wavelengths
Number of Pixels in Spectrum: 2048
>>>>>Begin Spectral Data<<<<<
223.165	-14.94
223.4	-14.94
223.635	-14.94
223.869	-6.94
224.104	-11.94
224.338	-22.94
224.573	-20.94
224.808	-2.94
225.042	-14.94
225.277	-1.94
225.511	-14.94
225.746	0.06
225.98	9.06
226.215	21.06
226.449	22.06
226.683	5.06
226.918	28.06
227.152	27.06
227.387	37.06
227.621	32.06
227.856	50.06
228.09	39.06
228.324	60.06
228.559	42.06
228.793	61.06
229.027	70.06
229.262	56.06
229.496	54.06
229.73	65.06
229.964	69.06
230.199	84.06
230.433	80.06
230.667	77.06
230.901	88.06
231.136	75.06
231.37	69.06
231.604	77.06
231.838	93.06
232.072	76.06
232.306	85.06
232.541	78.06
232.775	86.06
233.009	76.06
233.243	84.06
233.477	81.06
233.711	75.06
233.945	85.06
234.179	85.06
234.413	87.06
234.647	90.06
234.881	81.06
235.115	87.06
235.349	93.06
235.583	78.06
235.817	65.06
236.051	86.06
236.285	92.06
236.519	78.06
236.753	79.06
236.987	74.06
237.221	68.06
237.455	88.06
237.689	74.06
237.922	85.06
238.156	88.06
238.39	83.06
238.624	87.06
238.858	78.06
239.091	83.06
239.325	86.06
239.559	82.06
239.793	86.06
240.027	86.06
240.26	90.06
240.494	75.06
240.728	85.06
240.961	84.06
241.195	64.06
241.429	60.06
241.662	86.06
241.896	94.06
242.13	70.06
242.363	82.06
242.597	78.06
242.83	72.06
243.064	69.06
243.298	84.06
243.531	95.06
243.765	93.06
243.998	73.06
244.232	77.06
244.465	77.06
244.699	96.06
244.932	86.06
245.166	87.06
245.399	87.06
245.633	93.06
245.866	78.06
246.099	67.06
246.333	70.06
246.566	82.06
246.8	77.06
247.033	62.06
247.266	89.06
247.5	88.06
247.733	74.06
247.966	78.06
248.2	92.06
248.433	78.06
248.666	76.06
248.899	81.06
249.133	86.06
249.366	97.06
249.599	88.06
249.832	79.06
250.066	79.06
250.299	90.06
250.532	76.06
250.765	80.06
250.998	86.06
251.231	85.06
251.465	81.06
251.698	86.06
251.931	86.06
252.164	83.06
252.397	91.06
252.63	64.06
252.863	74.06
253.096	113.06
253.329	89.06
253.562	96.06
253.795	79.06
254.028	69.06
254.261	89.06
254.494	85.06
254.727	82.06
254.96	77.06
255.193	78.06
255.426	74.06
255.659	96.06
255.892	83.06
256.124	90.06
256.357	96.06
256.59	81.06
256.823	86.06
257.056	81.06
257.289	81.06
257.521	92.06
257.754	93.06
257.987	84.06
258.22	79.06
258.452	89.06
258.685	87.06
258.918	97.06
259.151	87.06
259.383	68.06
259.616	93.06
259.849	88.06
260.081	77.06
260.314	85.06
260.547	97.06
260.779	81.06
261.012	65.06
261.244	74.06
261.477	91.06
261.71	81.06
261.942	91.06
262.175	83.06
262.407	98.06
262.64	80.06
262.872	101.06
263.105	91.06
263.337	85.06
263.57	91.06
263.802	86.06
264.035	84.06
264.267	83.06
264.499	101.06
264.732	92.06
264.964	71.06
265.197	98.06
265.429	89.06
265.661	83.06
265.894	76.06
266.126	92.06
266.358	83.06
266.591	93.06
266.823	86.06
267.055	89.06
267.287	89.06
267.52	81.06
267.752	94.06
267.984	76.06
268.216	94.06
268.448	94.06
268.681	89.06
268.913	77.06
269.145	101.06
269.377	82.06
269.609	95.06
269.841	94.06
270.073	85.06
270.306	92.06
270.538	94.06
270.77	88.06
271.002	88.06
271.234	93.06
271.466	96.06
271.698	95.06
271.93	77.06
272.162	84.06
272.394	105.06
272.626	92.06
272.858	98.06
273.09	104.06
273.322	84.06
273.553	93.06
273.785	87.06
274.017	91.06
274.249	88.06
274.481	76.06
274.713	87.06
274.945	97.06
275.176	82.06
275.408	89.06
275.64	97.06
275.872	87.06
276.104	97.06
276.335	102.06
276.567	91.06
276.799	83.06
277.031	83.06
277.262	98.06
277.494	91.06
277.726	89.06
277.957	91.06
278.189	89.06
278.421	91.06
278.652	80.06
278.884	81.06
279.115	78.06
279.347	111.06
279.579	97.06
279.81	86.06
280.042	100.06
280.273	86.06
280.505	90.06
280.736	94.06
280.968	87.06
281.199	89.06
281.431	93.06
281.662	101.06
281.894	92.06
282.125	83.06
282.356	82.06
282.588	89.06
282.819	96.06
283.051	97.06
283.282	85.06
283.513	93.06
283.745	107.06
283.976	89.06
284.207	90.06
284.439	82.06
284.67	73.06
284.901	94.06
285.132	93.06
285.364	80.06
285.595	96.06
285.826	76.06
286.057	104.06
286.288	90.06
286.52	79.06
286.751	79.06
286.982	92.06
287.213	96.06
287.444	101.06
287.675	84.06
287.906	88.06
288.138	96.06
288.369	101.06
288.6	90.06
288.831	86.06
289.062	102.06
289.293	96.06
289.524	93.06
289.755	98.06
289.986	88.06
290.217	86.06
290.448	99.06
290.679	94.06
290.91	97.06
291.141	85.06
291.371	90.06
291.602	92.06
291.833	84.06
292.064	86.06
292.295	96.06
292.526	87.06
292.757	96.06
292.987	98.06
293.218	76.06
293.449	102.06
293.68	102.06
293.91	83.06
294.141	80.06
294.372	94.06
294.603	85.06
294.833	92.06
295.064	91.06
295.295	87.06
295.525	97.06
295.756	84.06
295.987	94.06
296.217	92.06
296.448	97.06
296.679	90.06
296.909	80.06
297.14	93.06
297.37	98.06
297.601	86.06
297.831	81.06
298.062	88.06
298.292	89.06
298.523	96.06
298.753	98.06
298.984	99.06
299.214	89.06
299.445	93.06
299.675	99.06
299.905	90.06
300.136	90.06
300.366	86.06
300.597	88.06
300.827	85.06
301.057	83.06
301.288	97.06
301.518	98.06
301.748	96.06
301.979	83.06
302.209	82.06
302.439	102.06
302.669	89.06
302.9	87.06
303.13	108.06
303.36	90.06
303.59	96.06
303.82	107.06
304.051	102.06
304.281	88.06
304.511	97.06
304.741	105.06
304.971	102.06
305.201	89.06
305.431	100.06
305.661	97.06
305.891	84.06
306.121	93.06
306.352	91.06
306.582	105.06
306.812	101.06
307.042	103.06
307.272	96.06
307.502	82.06
307.731	109.06
307.961	98.06
308.191	82.06
308.421	98.06
308.651	94.06
308.881	94.06
309.111	90.06
309.341	90.06
309.571	86.06
309.8	103.06
310.03	98.06
310.26	98.06
310.49	92.06
310.72	89.06
310.949	95.06
311.179	96.06
311.409	77.06
311.639	83.06
311.868	88.06
312.098	87.06
312.328	85.06
312.557	82.06
312.787	83.06
313.017	90.06
313.246	86.06
313.476	105.06
313.706	88.06
313.935	98.06
314.165	90.06
314.394	91.06
314.624	85.06
314.853	96.06
315.083	91.06
315.312	92.06
315.542	96.06
315.771	77.06
316.001	81.06
316.23	105.06
316.46	82.06
316.689	112.06
316.919	92.06
317.148	83.06
317.377	94.06
317.607	97.06
317.836	81.06
318.065	89.06
318.295	92.06
318.524	89.06
318.753	94.06
318.983	90.06
319.212	93.06
319.441	72.06
319.67	96.06
319.9	93.06
320.129	98.06
320.358	75.06
320.587	84.06
320.816	93.06
321.046	105.06
321.275	104.06
321.504	102.06
321.733	84.06
321.962	81.06
322.191	98.06
322.42	96.06
322.649	99.06
322.878	87.06
323.108	84.06
323.337	88.06
323.566	86.06
323.795	105.06
324.024	89.06
324.253	92.06
324.482	92.06
324.71	93.06
324.939	83.06
325.168	100.06
325.397	86.06
325.626	82.06
325.855	91.06
326.084	97.06
326.313	90.06
326.542	88.06
326.77	96.06
326.999	98.06
327.228	95.06
327.457	96.06
327.686	107.06
327.914	89.06
328.143	104.06
328.372	112.06
328.6	90.06
328.829	106.06
329.058	78.06
329.287	79.06
329.515	86.06
329.744	97.06
329.972	86.06
330.201	101.06
330.43	80.06
330.658	88.06
330.887	92.06
331.115	98.06
331.344	106.06
331.572	97.06
331.801	96.06
332.03	96.06
332.258	83.06
332.486	109.06
332.715	103.06
332.943	111.06
333.172	96.06
333.4	101.06
333.629	99.06
333.857	97.06
334.085	88.06
334.314	92.06
334.542	94.06
334.771	86.06
334.999	102.06
335.227	98.06
335.455	104.06
335.684	96.06
335.912	105.06
336.14	92.06
336.369	96.06
336.597	86.06
336.825	73.06
337.053	93.06
337.281	86.06
337.51	94.06
337.738	97.06
337.966	90.06
338.194	96.06
338.422	104.06
338.65	96.06
338.878	115.06
339.106	96.06
339.334	95.06
339.562	99.06
339.79	91.06
340.018	98.06
340.246	101.06
340.474	94.06
340.702	89.06
340.93	97.06
341.158	89.06
341.386	85.06
341.614	91.06
341.842	82.06
342.07	80.06
342.298	95.06
342.526	95.06
342.754	97.06
342.981	103.06
343.209	92.06
343.437	90.06
343.665	101.06
343.893	90.06
344.12	90.06
344.348	96.06
344.576	95.06
344.804	78.06
345.031	96.06
345.259	99.06
345.487	92.06
345.714	83.06
345.942	91.06
346.17	100.06
346.397	92.06
346.625	91.06
346.853	85.06
347.08	100.06
347.308	85.06
347.535	79.06
347.763	93.06
347.99	118.06
348.218	91.06
348.445	92.06
348.673	84.06
348.9	91.06
349.128	108.06
349.355	91.06
349.583	86.06
349.81	104.06
350.037	104.06
350.265	91.06
350.492	74.06
350.72	91.06
350.947	97.06
351.174	94.06
351.402	102.06
351.629	102.06
351.856	89.06
352.083	87.06
352.311	73.06
352.538	111.06
352.765	86.06
352.992	88.06
353.22	106.06
353.447	88.06
353.674	101.06
353.901	90.06
354.128	101.06
354.355	93.06
354.583	101.06
354.81	90.06
355.037	78.06
355.264	94.06
355.491	82.06
355.718	84.06
355.945	92.06
356.172	89.06
356.399	94.06
356.626	101.06
356.853	89.06
357.08	100.06
357.307	93.06
357.534	64.06
357.761	86.06
357.988	101.06
358.215	85.06
358.441	96.06
358.668	90.06
358.895	87.06
359.122	90.06
359.349	81.06
359.576	93.06
359.802	88.06
360.029	84.06
360.256	91.06
360.483	85.06
360.709	94.06
360.936	98.06
361.163	94.06
361.39	85.06
361.616	86.06
361.843	83.06
362.07	94.06
362.296	96.06
362.523	98.06
362.749	99.06
362.976	100.06
363.203	105.06
363.429	93.06
363.656	89.06
363.882	104.06
364.109	96.06
364.335	93.06
364.562	97.06
364.788	88.06
365.015	116.06
365.241	109.06
365.468	100.06
365.694	88.06
365.92	98.06
366.147	83.06
366.373	94.06
366.599	85.06
366.826	97.06
367.052	89.06
367.278	95.06
367.505	92.06
367.731	91.06
367.957	89.06
368.184	98.06
368.41	106.06
368.636	99.06
368.862	77.06
369.089	100.06
369.315	84.06
369.541	93.06
369.767	93.06
369.993	89.06
370.219	90.06
370.445	94.06
370.672	85.06
370.898	97.06
371.124	100.06
371.35	83.06
371.576	84.06
371.802	92.06
372.028	99.06
372.254	109.06
372.48	102.06
372.706	97.06
372.932	97.06
373.158	91.06
373.384	97.06
373.61	94.06
373.835	94.06
374.061	90.06
374.287	84.06
374.513	99.06
374.739	101.06
374.965	98.06
375.191	94.06
375.416	83.06
375.642	95.06
375.868	116.06
376.094	100.06
376.319	98.06
376.545	98.06
376.771	96.06
376.997	89.06
377.222	84.06
377.448	96.06
377.674	92.06
377.899	85.06
378.125	105.06
378.35	96.06
378.576	99.06
378.802	92.06
379.027	93.06
379.253	109.06
379.478	101.06
379.704	95.06
379.929	94.06
380.155	92.06
380.38	98.06
380.606	75.06
380.831	88.06
381.057	98.06
381.282	79.06
381.507	90.06
381.733	87.06
381.958	81.06
382.184	94.06
382.409	84.06
382.634	90.06
382.86	102.06
383.085	93.06
383.31	99.06
383.535	96.06
383.761	104.06
383.986	97.06
384.211	96.06
384.436	105.06
384.662	95.06
384.887	97.06
385.112	90.06
385.337	93.06
385.562	87.06
385.787	106.06
386.013	94.06
386.238	105.06
386.463	91.06
386.688	91.06
386.913	90.06
387.138	109.06
387.363	106.06
387.588	88.06
387.813	102.06
388.038	108.06
388.263	86.06
388.488	92.06
388.713	103.06
388.938	96.06
389.163	87.06
389.387	93.06
389.612	91.06
389.837	93.06
390.062	97.06
390.287	91.06
390.512	96.06
390.736	86.06
390.961	100.06
391.186	101.06
391.411	112.06
391.636	109.06
391.86	105.06
392.085	108.06
392.31	103.06
392.534	100.06
392.759	93.06
392.984	94.06
393.208	101.06
393.433	87.06
393.658	93.06
393.882	89.06
394.107	90.06
394.331	96.06
394.556	100.06
394.78	87.06
395.005	101.06
395.229	90.06
395.454	90.06
395.678	109.06
395.903	102.06
396.127	85.06
396.352	108.06
396.576	93.06
396.801	97.06
397.025	84.06
397.249	99.06
397.474	115.06
397.698	90.06
397.922	109.06
398.147	100.06
398.371	100.06
398.595	99.06
398.82	104.06
399.044	95.06
399.268	105.06
399.492	118.06
399.717	124.06
399.941	110.06
400.165	97.06
400.389	89.06
400.613	98.06
400.837	86.06
401.062	100.06
401.286	105.06
401.51	71.06
401.734	96.06
401.958	104.06
402.182	100.06
402.406	90.06
402.63	115.06
402.854	112.06
403.078	100.06
403.302	85.06
403.526	93.06
403.75	100.06
403.974	102.06
404.198	100.06
404.422	99.06
404.645	97.06
404.869	101.06
405.093	106.06
405.317	91.06
405.541	106.06
405.765	105.06
405.988	101.06
406.212	73.06
406.436	100.06
406.66	117.06
406.883	110.06
407.107	97.06
407.331	95.06
407.555	103.06
407.778	115.06
408.002	116.06
408.226	104.06
408.449	114.06
408.673	102.06
408.896	98.06
409.12	94.06
409.344	106.06
409.567	109.06
409.791	104.06
410.014	101.06
410.238	100.06
410.461	96.06
410.685	89.06
410.908	95.06
411.132	93.06
411.355	101.06
411.578	95.06
411.802	98.06
412.025	99.06
412.249	84.06
412.472	116.06
412.695	100.06
412.919	90.06
413.142	96.06
413.365	101.06
413.589	103.06
413.812	107.06
414.035	106.06
414.258	116.06
414.482	98.06
414.705	103.06
414.928	94.06
415.151	104.06
415.374	99.06
415.597	97.06
415.821	93.06
416.044	98.06
416.267	102.06
416.49	97.06
416.713	83.06
416.936	94.06
417.159	102.06
417.382	88.06
417.605	101.06
417.828	110.06
418.051	93.06
418.274	87.06
418.497	99.06
418.72	108.06
418.943	114.06
419.166	101.06
419.389	94.06
419.611	103.06
419.834	86.06
420.057	101.06
420.28	82.06
420.503	102.06
420.726	101.06
420.948	115.06
421.171	110.06
421.394	99.06
421.617	91.06
421.839	97.06
422.062	96.06
422.285	86.06
422.507	112.06
422.73	109.06
422.953	91.06
423.175	107.06
423.398	85.06
423.621	104.06
423.843	103.06
424.066	90.06
424.288	91.06
424.511	101.06
424.733	105.06
424.956	120.06
425.178	100.06
425.401	117.06
425.623	107.06
425.846	93.06
426.068	94.06
426.291	106.06
426.513	80.06
426.735	98.06
426.958	95.06
427.18	108.06
427.402	94.06
427.625	97.06
427.847	89.06
428.069	86.06
428.292	98.06
428.514	83.06
428.736	86.06
428.958	100.06
429.181	100.06
429.403	97.06
429.625	94.06
429.847	91.06
430.069	103.06
430.292	91.06
430.514	98.06
430.736	91.06
430.958	104.06
431.18	96.06
431.402	96.06
431.624	83.06
431.846	90.06
432.068	92.06
432.29	99.06
432.512	88.06
432.734	102.06
432.956	101.06
433.178	95.06
433.4	96.06
433.622	106.06
433.844	89.06
434.066	83.06
434.287	103.06
434.509	99.06
434.731	104.06
434.953	79.06
435.175	91.06
435.397	106.06
435.618	93.06
435.84	99.06
436.062	104.06
436.284	102.06
436.505	105.06
436.727	99.06
436.949	80.06
437.17	92.06
437.392	95.06
437.614	89.06
437.835	97.06
438.057	103.06
438.278	91.06
438.5	99.06
438.721	81.06
438.943	97.06
439.165	107.06
439.386	101.06
439.608	101.06
439.829	98.06
440.05	104.06
440.272	81.06
440.493	109.06
440.715	93.06
440.936	106.06
441.158	105.06
441.379	82.06
441.6	107.06
441.822	108.06
442.043	92.06
442.264	88.06
442.486	106.06
442.707	108.06
442.928	97.06
443.149	91.06
443.371	104.06
443.592	94.06
443.813	109.06
444.034	101.06
444.255	108.06
444.476	106.06
444.698	102.06
444.919	96.06
445.14	207.06
445.361	152.06
445.582	115.06
445.803	87.06
446.024	110.06
446.245	100.06
446.466	104.06
446.687	115.06
446.908	92.06
447.129	98.06
447.35	97.06
447.571	101.06
447.792	95.06
448.013	79.06
448.234	100.06
448.455	102.06
448.675	96.06
448.896	108.06
449.117	106.06
449.338	101.06
449.559	104.06
449.779	88.06
450	93.06
450.221	92.06
450.442	101.06
450.662	90.06
450.883	86.06
451.104	101.06
451.324	101.06
451.545	103.06
451.766	103.06
451.986	99.06
452.207	108.06
452.428	93.06
452.648	104.06
452.869	97.06
453.089	100.06
453.31	104.06
453.53	100.06
453.751	90.06
453.971	90.06
454.192	98.06
454.412	95.06
454.633	85.06
454.853	98.06
455.073	91.06
455.294	101.06
455.514	90.06
455.734	100.06
455.955	97.06
456.175	100.06
456.395	72.06
456.616	82.06
456.836	93.06
457.056	99.06
457.276	101.06
457.497	96.06
457.717	74.06
457.937	93.06
458.157	82.06
458.377	89.06
458.598	102.06
458.818	101.06
459.038	95.06
459.258	83.06
459.478	97.06
459.698	106.06
459.918	106.06
460.138	97.06
460.358	93.06
460.578	116.06
460.798	109.06
461.018	88.06
461.238	97.06
461.458	103.06
461.678	114.06
461.898	113.06
462.118	98.06
462.338	97.06
462.558	102.06
462.777	98.06
462.997	83.06
463.217	98.06
463.437	102.06
463.657	104.06
463.876	92.06
464.096	114.06
464.316	109.06
464.536	108.06
464.755	110.06
464.975	111.06
465.195	94.06
465.414	116.06
465.634	104.06
465.854	89.06
466.073	95.06
466.293	105.06
466.512	99.06
466.732	100.06
466.951	105.06
467.171	112.06
467.391	97.06
467.61	105.06
467.829	93.06
468.049	103.06
468.268	94.06
468.488	95.06
468.707	107.06
468.927	112.06
469.146	90.06
469.365	89.06
469.585	91.06
469.804	95.06
470.023	98.06
470.243	87.06
470.462	99.06
470.681	108.06
470.901	102.06
471.12	111.06
471.339	98.06
471.558	102.06
471.777	104.06
471.997	107.06
472.216	94.06
472.435	101.06
472.654	101.06
472.873	106.06
473.092	93.06
473.311	102.06
473.53	97.06
473.749	85.06
473.968	93.06
474.187	84.06
474.406	101.06
474.625	100.06
474.844	102.06
475.063	95.06
475.282	98.06
475.501	112.06
475.72	107.06
475.939	102.06
476.158	84.06
476.377	98.06
476.596	110.06
476.814	109.06
477.033	98.06
477.252	100.06
477.471	102.06
477.69	106.06
477.908	97.06
478.127	116.06
478.346	115.06
478.564	100.06
478.783	94.06
479.002	92.06
479.22	106.06
479.439	119.06
479.658	105.06
479.876	108.06
480.095	101.06
480.313	103.06
480.532	91.06
480.751	105.06
480.969	108.06
481.188	104.06
481.406	115.06
481.624	112.06
481.843	102.06
482.061	110.06
482.28	101.06
482.498	101.06
482.717	100.06
482.935	95.06
483.153	112.06
483.372	85.06
483.59	103.06
483.808	109.06
484.027	109.06
484.245	113.06
484.463	106.06
484.681	116.06
484.9	107.06
485.118	117.06
485.336	94.06
485.554	103.06
485.772	103.06
485.99	94.06
486.209	105.06
486.427	100.06
486.645	107.06
486.863	119.06
487.081	101.06
487.299	105.06
487.517	105.06
487.735	138.06
487.953	124.06
488.171	110.06
488.389	114.06
488.607	100.06
488.825	94.06
489.043	120.06
489.261	112.06
489.479	100.06
489.696	103.06
489.914	100.06
490.132	101.06
490.35	97.06
490.568	109.06
490.786	109.06
491.003	101.06
491.221	106.06
491.439	108.06
491.657	115.06
491.874	120.06
492.092	123.06
492.31	117.06
492.527	129.06
492.745	117.06
492.963	125.06
493.18	119.06
493.398	113.06
493.615	121.06
493.833	113.06
494.05	109.06
494.268	107.06
494.485	117.06
494.703	126.06
494.92	120.06
495.138	112.06
495.355	125.06
495.573	116.06
495.79	112.06
496.008	132.06
496.225	122.06
496.442	110.06
496.66	120.06
496.877	118.06
497.094	136.06
497.312	114.06
497.529	119.06
497.746	116.06
497.963	103.06
498.181	103.06
498.398	128.06
498.615	106.06
498.832	115.06
499.049	125.06
499.267	116.06
499.484	125.06
499.701	135.06
499.918	144.06
500.135	144.06
500.352	170.06
500.569	155.06
500.786	169.06
501.003	149.06
501.22	138.06
501.437	131.06
501.654	138.06
501.871	136.06
502.088	116.06
502.305	125.06
502.522	112.06
502.739	120.06
502.956	114.06
503.172	114.06
503.389	120.06
503.606	109.06
503.823	124.06
504.04	116.06
504.256	112.06
504.473	110.06
504.69	107.06
504.907	128.06
505.123	117.06
505.34	114.06
505.557	126.06
505.773	121.06
505.99	107.06
506.207	103.06
506.423	119.06
506.64	94.06
506.856	95.06
507.073	115.06
507.289	96.06
507.506	95.06
507.722	95.06
507.939	114.06
508.155	120.06
508.372	119.06
508.588	101.06
508.805	90.06
509.021	102.06
509.238	91.06
509.454	99.06
509.67	92.06
509.887	104.06
510.103	118.06
510.319	98.06
510.536	101.06
510.752	107.06
510.968	94.06
511.184	101.06
511.401	108.06
511.617	125.06
511.833	102.06
512.049	105.06
512.265	110.06
512.481	110.06
512.698	102.06
512.914	100.06
513.13	114.06
513.346	95.06
