Data from Location5.07152019.Energy5.Lamp.07192019.3%Agarose_HRD10591_15-36-54-386.txt Node
Date: Fri Jul 19 15:36:54 EDT 2019
User: cochatt
Spectrometer: HR+D1059
Trigger mode: 1
Integration Time (sec): 1.000000E-1
Scans to average: 1
Electric dark correction enabled: true
Nonlinearity correction enabled: false
Boxcar width: 0
XAxis mode: Wavelengths
Number of Pixels in Spectrum: 2048
>>>>>Begin Spectral Data<<<<<
223.165	-18.81
223.4	-18.81
223.635	-18.81
223.869	-14.81
224.104	-23.81
224.338	-23.81
224.573	-34.81
224.808	7.19
225.042	1.19
225.277	-2.81
225.511	0.19
225.746	2.19
225.98	8.19
226.215	12.19
226.449	13.19
226.683	25.19
226.918	29.19
227.152	20.19
227.387	40.19
227.621	29.19
227.856	51.19
228.09	45.19
228.324	36.19
228.559	54.19
228.793	59.19
229.027	58.19
229.262	68.19
229.496	61.19
229.73	67.19
229.964	73.19
230.199	70.19
230.433	55.19
230.667	83.19
230.901	67.19
231.136	85.19
231.37	71.19
231.604	69.19
231.838	76.19
232.072	83.19
232.306	82.19
232.541	78.19
232.775	84.19
233.009	81.19
233.243	81.19
233.477	88.19
233.711	85.19
233.945	77.19
234.179	85.19
234.413	71.19
234.647	72.19
234.881	79.19
235.115	87.19
235.349	85.19
235.583	95.19
235.817	70.19
236.051	79.19
236.285	64.19
236.519	59.19
236.753	85.19
236.987	82.19
237.221	76.19
237.455	80.19
237.689	79.19
237.922	92.19
238.156	83.19
238.39	75.19
238.624	80.19
238.858	75.19
239.091	94.19
239.325	62.19
239.559	88.19
239.793	83.19
240.027	79.19
240.26	83.19
240.494	81.19
240.728	80.19
240.961	71.19
241.195	77.19
241.429	71.19
241.662	77.19
241.896	65.19
242.13	66.19
242.363	85.19
242.597	87.19
242.83	82.19
243.064	74.19
243.298	75.19
243.531	76.19
243.765	73.19
243.998	75.19
244.232	68.19
244.465	70.19
244.699	74.19
244.932	79.19
245.166	77.19
245.399	92.19
245.633	70.19
245.866	85.19
246.099	77.19
246.333	87.19
246.566	65.19
246.8	86.19
247.033	74.19
247.266	77.19
247.5	72.19
247.733	86.19
247.966	64.19
248.2	82.19
248.433	75.19
248.666	75.19
248.899	82.19
249.133	76.19
249.366	93.19
249.599	85.19
249.832	86.19
250.066	75.19
250.299	79.19
250.532	62.19
250.765	76.19
250.998	83.19
251.231	76.19
251.465	82.19
251.698	99.19
251.931	75.19
252.164	76.19
252.397	85.19
252.63	87.19
252.863	73.19
253.096	70.19
253.329	64.19
253.562	74.19
253.795	64.19
254.028	85.19
254.261	67.19
254.494	79.19
254.727	88.19
254.96	70.19
255.193	77.19
255.426	71.19
255.659	89.19
255.892	81.19
256.124	82.19
256.357	67.19
256.59	79.19
256.823	78.19
257.056	74.19
257.289	69.19
257.521	87.19
257.754	80.19
257.987	82.19
258.22	74.19
258.452	93.19
258.685	79.19
258.918	76.19
259.151	73.19
259.383	87.19
259.616	81.19
259.849	65.19
260.081	83.19
260.314	86.19
260.547	70.19
260.779	74.19
261.012	81.19
261.244	65.19
261.477	73.19
261.71	76.19
261.942	69.19
262.175	80.19
262.407	74.19
262.64	78.19
262.872	71.19
263.105	64.19
263.337	75.19
263.57	65.19
263.802	95.19
264.035	83.19
264.267	91.19
264.499	83.19
264.732	75.19
264.964	78.19
265.197	79.19
265.429	83.19
265.661	72.19
265.894	68.19
266.126	79.19
266.358	70.19
266.591	85.19
266.823	93.19
267.055	85.19
267.287	80.19
267.52	100.19
267.752	78.19
267.984	82.19
268.216	57.19
268.448	83.19
268.681	85.19
268.913	75.19
269.145	79.19
269.377	88.19
269.609	73.19
269.841	81.19
270.073	86.19
270.306	83.19
270.538	75.19
270.77	80.19
271.002	67.19
271.234	80.19
271.466	75.19
271.698	86.19
271.93	81.19
272.162	87.19
272.394	81.19
272.626	85.19
272.858	86.19
273.09	81.19
273.322	90.19
273.553	85.19
273.785	85.19
274.017	81.19
274.249	82.19
274.481	84.19
274.713	92.19
274.945	77.19
275.176	73.19
275.408	74.19
275.64	75.19
275.872	85.19
276.104	80.19
276.335	81.19
276.567	87.19
276.799	75.19
277.031	66.19
277.262	79.19
277.494	91.19
277.726	82.19
277.957	79.19
278.189	86.19
278.421	89.19
278.652	78.19
278.884	86.19
279.115	80.19
279.347	70.19
279.579	83.19
279.81	76.19
280.042	89.19
280.273	82.19
280.505	85.19
280.736	74.19
280.968	81.19
281.199	93.19
281.431	75.19
281.662	62.19
281.894	85.19
282.125	84.19
282.356	78.19
282.588	74.19
282.819	98.19
283.051	85.19
283.282	78.19
283.513	87.19
283.745	73.19
283.976	80.19
284.207	82.19
284.439	69.19
284.67	94.19
284.901	86.19
285.132	93.19
285.364	84.19
285.595	84.19
285.826	83.19
286.057	86.19
286.288	83.19
286.52	74.19
286.751	82.19
286.982	86.19
287.213	88.19
287.444	78.19
287.675	88.19
287.906	99.19
288.138	97.19
288.369	73.19
288.6	72.19
288.831	72.19
289.062	81.19
289.293	84.19
289.524	101.19
289.755	79.19
289.986	81.19
290.217	90.19
290.448	85.19
290.679	81.19
290.91	81.19
291.141	85.19
291.371	76.19
291.602	78.19
291.833	70.19
292.064	93.19
292.295	86.19
292.526	84.19
292.757	97.19
292.987	79.19
293.218	80.19
293.449	82.19
293.68	94.19
293.91	95.19
294.141	72.19
294.372	77.19
294.603	101.19
294.833	84.19
295.064	88.19
295.295	77.19
295.525	83.19
295.756	86.19
295.987	88.19
296.217	79.19
296.448	79.19
296.679	80.19
296.909	77.19
297.14	77.19
297.37	96.19
297.601	85.19
297.831	66.19
298.062	78.19
298.292	75.19
298.523	81.19
298.753	80.19
298.984	82.19
299.214	77.19
299.445	89.19
299.675	85.19
299.905	99.19
300.136	84.19
300.366	77.19
300.597	71.19
300.827	79.19
301.057	88.19
301.288	84.19
301.518	77.19
301.748	93.19
301.979	82.19
302.209	81.19
302.439	83.19
302.669	89.19
302.9	80.19
303.13	66.19
303.36	73.19
303.59	86.19
303.82	91.19
304.051	80.19
304.281	92.19
304.511	83.19
304.741	84.19
304.971	90.19
305.201	95.19
305.431	84.19
305.661	84.19
305.891	83.19
306.121	83.19
306.352	84.19
306.582	74.19
306.812	71.19
307.042	78.19
307.272	94.19
307.502	86.19
307.731	75.19
307.961	82.19
308.191	68.19
308.421	83.19
308.651	84.19
308.881	89.19
309.111	77.19
309.341	78.19
309.571	84.19
309.8	85.19
310.03	83.19
310.26	89.19
310.49	86.19
310.72	97.19
310.949	80.19
311.179	84.19
311.409	73.19
311.639	79.19
311.868	69.19
312.098	85.19
312.328	85.19
312.557	91.19
312.787	99.19
313.017	78.19
313.246	90.19
313.476	80.19
313.706	77.19
313.935	94.19
314.165	91.19
314.394	86.19
314.624	93.19
314.853	89.19
315.083	82.19
315.312	88.19
315.542	90.19
315.771	76.19
316.001	94.19
316.23	67.19
316.46	75.19
316.689	82.19
316.919	85.19
317.148	86.19
317.377	83.19
317.607	71.19
317.836	76.19
318.065	99.19
318.295	98.19
318.524	73.19
318.753	81.19
318.983	71.19
319.212	83.19
319.441	84.19
319.67	81.19
319.9	82.19
320.129	82.19
320.358	80.19
320.587	91.19
320.816	66.19
321.046	81.19
321.275	92.19
321.504	78.19
321.733	76.19
321.962	70.19
322.191	97.19
322.42	76.19
322.649	80.19
322.878	83.19
323.108	87.19
323.337	83.19
323.566	88.19
323.795	87.19
324.024	88.19
324.253	71.19
324.482	79.19
324.71	85.19
324.939	84.19
325.168	81.19
325.397	64.19
325.626	76.19
325.855	72.19
326.084	70.19
326.313	73.19
326.542	89.19
326.77	86.19
326.999	88.19
327.228	91.19
327.457	82.19
327.686	97.19
327.914	93.19
328.143	91.19
328.372	103.19
328.6	91.19
328.829	88.19
329.058	81.19
329.287	72.19
329.515	77.19
329.744	85.19
329.972	86.19
330.201	88.19
330.43	81.19
330.658	64.19
330.887	83.19
331.115	80.19
331.344	63.19
331.572	78.19
331.801	75.19
332.03	68.19
332.258	75.19
332.486	99.19
332.715	94.19
332.943	85.19
333.172	81.19
333.4	83.19
333.629	79.19
333.857	83.19
334.085	86.19
334.314	87.19
334.542	90.19
334.771	82.19
334.999	81.19
335.227	76.19
335.455	87.19
335.684	91.19
335.912	82.19
336.14	86.19
336.369	67.19
336.597	81.19
336.825	69.19
337.053	86.19
337.281	103.19
337.51	99.19
337.738	78.19
337.966	78.19
338.194	87.19
338.422	82.19
338.65	84.19
338.878	89.19
339.106	86.19
339.334	81.19
339.562	75.19
339.79	81.19
340.018	85.19
340.246	85.19
340.474	82.19
340.702	62.19
340.93	82.19
341.158	91.19
341.386	79.19
341.614	87.19
341.842	83.19
342.07	79.19
342.298	90.19
342.526	84.19
342.754	91.19
342.981	84.19
343.209	89.19
343.437	91.19
343.665	73.19
343.893	87.19
344.12	92.19
344.348	73.19
344.576	79.19
344.804	88.19
345.031	80.19
345.259	88.19
345.487	98.19
345.714	82.19
345.942	76.19
346.17	89.19
346.397	81.19
346.625	83.19
346.853	90.19
347.08	94.19
347.308	84.19
347.535	78.19
347.763	72.19
347.99	86.19
348.218	99.19
348.445	104.19
348.673	80.19
348.9	78.19
349.128	81.19
349.355	80.19
349.583	99.19
349.81	77.19
350.037	81.19
350.265	89.19
350.492	92.19
350.72	88.19
350.947	91.19
351.174	92.19
351.402	78.19
351.629	79.19
351.856	85.19
352.083	88.19
352.311	85.19
352.538	90.19
352.765	95.19
352.992	81.19
353.22	77.19
353.447	81.19
353.674	72.19
353.901	80.19
354.128	83.19
354.355	78.19
354.583	81.19
354.81	82.19
355.037	107.19
355.264	83.19
355.491	86.19
355.718	74.19
355.945	79.19
356.172	66.19
356.399	75.19
356.626	74.19
356.853	61.19
357.08	92.19
357.307	65.19
357.534	82.19
357.761	81.19
357.988	82.19
358.215	81.19
358.441	80.19
358.668	82.19
358.895	87.19
359.122	86.19
359.349	84.19
359.576	80.19
359.802	71.19
360.029	77.19
360.256	85.19
360.483	89.19
360.709	81.19
360.936	66.19
361.163	81.19
361.39	71.19
361.616	89.19
361.843	89.19
362.07	73.19
362.296	76.19
362.523	72.19
362.749	72.19
362.976	75.19
363.203	83.19
363.429	72.19
363.656	74.19
363.882	95.19
364.109	80.19
364.335	79.19
364.562	84.19
364.788	93.19
365.015	84.19
365.241	85.19
365.468	72.19
365.694	93.19
365.92	81.19
366.147	78.19
366.373	80.19
366.599	98.19
366.826	76.19
367.052	75.19
367.278	94.19
367.505	91.19
367.731	82.19
367.957	85.19
368.184	71.19
368.41	83.19
368.636	85.19
368.862	76.19
369.089	78.19
369.315	78.19
369.541	73.19
369.767	88.19
369.993	89.19
370.219	78.19
370.445	83.19
370.672	89.19
370.898	75.19
371.124	89.19
371.35	81.19
371.576	86.19
371.802	71.19
372.028	79.19
372.254	82.19
372.48	67.19
372.706	94.19
372.932	97.19
373.158	79.19
373.384	69.19
373.61	84.19
373.835	86.19
374.061	77.19
374.287	92.19
374.513	85.19
374.739	64.19
374.965	77.19
375.191	84.19
375.416	99.19
375.642	93.19
375.868	93.19
376.094	90.19
376.319	81.19
376.545	66.19
376.771	88.19
376.997	81.19
377.222	78.19
377.448	79.19
377.674	83.19
377.899	73.19
378.125	76.19
378.35	81.19
378.576	82.19
378.802	85.19
379.027	67.19
379.253	79.19
379.478	83.19
379.704	89.19
379.929	77.19
380.155	91.19
380.38	83.19
380.606	72.19
380.831	88.19
381.057	90.19
381.282	93.19
381.507	89.19
381.733	97.19
381.958	87.19
382.184	94.19
382.409	95.19
382.634	74.19
382.86	76.19
383.085	98.19
383.31	78.19
383.535	87.19
383.761	91.19
383.986	82.19
384.211	81.19
384.436	71.19
384.662	80.19
384.887	97.19
385.112	74.19
385.337	75.19
385.562	78.19
385.787	85.19
386.013	76.19
386.238	83.19
386.463	75.19
386.688	70.19
386.913	85.19
387.138	93.19
387.363	95.19
387.588	77.19
387.813	74.19
388.038	74.19
388.263	85.19
388.488	88.19
388.713	85.19
388.938	89.19
389.163	82.19
389.387	97.19
389.612	88.19
389.837	94.19
390.062	89.19
390.287	95.19
390.512	89.19
390.736	81.19
390.961	98.19
391.186	90.19
391.411	89.19
391.636	86.19
391.86	84.19
392.085	79.19
392.31	77.19
392.534	89.19
392.759	88.19
392.984	81.19
393.208	80.19
393.433	75.19
393.658	92.19
393.882	91.19
394.107	88.19
394.331	78.19
394.556	72.19
394.78	69.19
395.005	102.19
395.229	87.19
395.454	98.19
395.678	108.19
395.903	75.19
396.127	92.19
396.352	96.19
396.576	82.19
396.801	86.19
397.025	98.19
397.249	83.19
397.474	85.19
397.698	67.19
397.922	93.19
398.147	85.19
398.371	81.19
398.595	78.19
398.82	82.19
399.044	80.19
399.268	94.19
399.492	85.19
399.717	75.19
399.941	89.19
400.165	98.19
400.389	92.19
400.613	98.19
400.837	80.19
401.062	93.19
401.286	91.19
401.51	68.19
401.734	87.19
401.958	84.19
402.182	94.19
402.406	91.19
402.63	91.19
402.854	97.19
403.078	81.19
403.302	84.19
403.526	81.19
403.75	83.19
403.974	95.19
404.198	84.19
404.422	99.19
404.645	83.19
404.869	81.19
405.093	77.19
405.317	84.19
405.541	80.19
405.765	98.19
405.988	99.19
406.212	69.19
406.436	91.19
406.66	101.19
406.883	88.19
407.107	95.19
407.331	82.19
407.555	99.19
407.778	88.19
408.002	103.19
408.226	92.19
408.449	79.19
408.673	74.19
408.896	95.19
409.12	98.19
409.344	91.19
409.567	91.19
409.791	83.19
410.014	75.19
410.238	103.19
410.461	85.19
410.685	93.19
410.908	85.19
411.132	90.19
411.355	97.19
411.578	95.19
411.802	95.19
412.025	93.19
412.249	93.19
412.472	82.19
412.695	90.19
412.919	75.19
413.142	92.19
413.365	92.19
413.589	98.19
413.812	97.19
414.035	96.19
414.258	90.19
414.482	84.19
414.705	82.19
414.928	97.19
415.151	83.19
415.374	111.19
415.597	80.19
415.821	89.19
416.044	105.19
416.267	81.19
416.49	78.19
416.713	100.19
416.936	85.19
417.159	72.19
417.382	84.19
417.605	96.19
417.828	80.19
418.051	98.19
418.274	96.19
418.497	115.19
418.72	89.19
418.943	90.19
419.166	81.19
419.389	101.19
419.611	98.19
419.834	87.19
420.057	87.19
420.28	91.19
420.503	98.19
420.726	94.19
420.948	93.19
421.171	92.19
421.394	92.19
421.617	104.19
421.839	86.19
422.062	102.19
422.285	103.19
422.507	103.19
422.73	84.19
422.953	93.19
423.175	84.19
423.398	81.19
423.621	90.19
423.843	107.19
424.066	100.19
424.288	102.19
424.511	89.19
424.733	94.19
424.956	101.19
425.178	97.19
425.401	98.19
425.623	92.19
425.846	95.19
426.068	102.19
426.291	93.19
426.513	85.19
426.735	85.19
426.958	83.19
427.18	95.19
427.402	95.19
427.625	97.19
427.847	92.19
428.069	98.19
428.292	89.19
428.514	96.19
428.736	77.19
428.958	95.19
429.181	100.19
429.403	110.19
429.625	87.19
429.847	77.19
430.069	88.19
430.292	98.19
430.514	84.19
430.736	113.19
430.958	96.19
431.18	98.19
431.402	94.19
431.624	95.19
431.846	72.19
432.068	86.19
432.29	79.19
432.512	94.19
432.734	83.19
432.956	98.19
433.178	94.19
433.4	98.19
433.622	105.19
433.844	76.19
434.066	86.19
434.287	69.19
434.509	77.19
434.731	91.19
434.953	94.19
435.175	96.19
435.397	85.19
435.618	77.19
435.84	80.19
436.062	81.19
436.284	90.19
436.505	89.19
436.727	100.19
436.949	86.19
437.17	92.19
437.392	91.19
437.614	101.19
437.835	81.19
438.057	89.19
438.278	73.19
438.5	90.19
438.721	85.19
438.943	89.19
439.165	97.19
439.386	89.19
439.608	96.19
439.829	90.19
440.05	96.19
440.272	96.19
440.493	104.19
440.715	91.19
440.936	104.19
441.158	102.19
441.379	88.19
441.6	90.19
441.822	98.19
442.043	94.19
442.264	82.19
442.486	95.19
442.707	88.19
442.928	93.19
443.149	84.19
443.371	101.19
443.592	86.19
443.813	81.19
444.034	100.19
444.255	96.19
444.476	94.19
444.698	109.19
444.919	94.19
445.14	189.19
445.361	126.19
445.582	89.19
445.803	92.19
446.024	105.19
446.245	90.19
446.466	98.19
446.687	85.19
446.908	81.19
447.129	88.19
447.35	94.19
447.571	94.19
447.792	83.19
448.013	91.19
448.234	84.19
448.455	96.19
448.675	83.19
448.896	94.19
449.117	87.19
449.338	89.19
449.559	85.19
449.779	101.19
450	93.19
450.221	96.19
450.442	98.19
450.662	91.19
450.883	79.19
451.104	91.19
451.324	89.19
451.545	96.19
451.766	94.19
451.986	93.19
452.207	92.19
452.428	99.19
452.648	89.19
452.869	84.19
453.089	90.19
453.31	81.19
453.53	89.19
453.751	82.19
453.971	80.19
454.192	79.19
454.412	73.19
454.633	94.19
454.853	85.19
455.073	89.19
455.294	97.19
455.514	91.19
455.734	89.19
455.955	85.19
456.175	85.19
456.395	78.19
456.616	82.19
456.836	87.19
457.056	95.19
457.276	82.19
457.497	79.19
457.717	74.19
457.937	72.19
458.157	90.19
458.377	86.19
458.598	85.19
458.818	81.19
459.038	91.19
459.258	75.19
459.478	89.19
459.698	81.19
459.918	76.19
460.138	82.19
460.358	93.19
460.578	90.19
460.798	82.19
461.018	86.19
461.238	100.19
461.458	80.19
461.678	91.19
461.898	78.19
462.118	80.19
462.338	90.19
462.558	78.19
462.777	84.19
462.997	91.19
463.217	88.19
463.437	97.19
463.657	90.19
463.876	96.19
464.096	96.19
464.316	94.19
464.536	72.19
464.755	82.19
464.975	93.19
465.195	107.19
465.414	87.19
465.634	93.19
465.854	90.19
466.073	82.19
466.293	106.19
466.512	98.19
466.732	100.19
466.951	83.19
467.171	91.19
467.391	100.19
467.61	111.19
467.829	102.19
468.049	100.19
468.268	95.19
468.488	84.19
468.707	100.19
468.927	94.19
469.146	92.19
469.365	89.19
469.585	95.19
469.804	110.19
470.023	93.19
470.243	104.19
470.462	93.19
470.681	96.19
470.901	87.19
471.12	81.19
471.339	80.19
471.558	86.19
471.777	100.19
471.997	98.19
472.216	89.19
472.435	88.19
472.654	96.19
472.873	102.19
473.092	98.19
473.311	94.19
473.53	88.19
473.749	96.19
473.968	97.19
474.187	85.19
474.406	105.19
474.625	103.19
474.844	94.19
475.063	94.19
475.282	86.19
475.501	87.19
475.72	103.19
475.939	88.19
476.158	100.19
476.377	104.19
476.596	70.19
476.814	82.19
477.033	106.19
477.252	81.19
477.471	88.19
477.69	83.19
477.908	93.19
478.127	102.19
478.346	91.19
478.564	93.19
478.783	91.19
479.002	103.19
479.22	95.19
479.439	96.19
479.658	77.19
479.876	86.19
480.095	83.19
480.313	81.19
480.532	90.19
480.751	79.19
480.969	76.19
481.188	77.19
481.406	90.19
481.624	78.19
481.843	96.19
482.061	67.19
482.28	96.19
482.498	84.19
482.717	97.19
482.935	93.19
483.153	89.19
483.372	97.19
483.59	96.19
483.808	86.19
484.027	91.19
484.245	97.19
484.463	117.19
484.681	96.19
484.9	98.19
485.118	101.19
485.336	99.19
485.554	95.19
485.772	88.19
485.99	89.19
486.209	98.19
486.427	82.19
486.645	90.19
486.863	86.19
487.081	97.19
487.299	103.19
487.517	97.19
487.735	105.19
487.953	100.19
488.171	85.19
488.389	107.19
488.607	93.19
488.825	102.19
489.043	98.19
489.261	90.19
489.479	99.19
489.696	94.19
489.914	100.19
490.132	90.19
490.35	104.19
490.568	98.19
490.786	107.19
491.003	117.19
491.221	117.19
491.439	111.19
491.657	118.19
491.874	116.19
492.092	121.19
492.31	116.19
492.527	115.19
492.745	115.19
492.963	101.19
493.18	118.19
493.398	116.19
493.615	106.19
493.833	90.19
494.05	106.19
494.268	104.19
494.485	103.19
494.703	122.19
494.92	106.19
495.138	101.19
495.355	101.19
495.573	116.19
495.79	100.19
496.008	95.19
496.225	88.19
496.442	102.19
496.66	126.19
496.877	97.19
497.094	90.19
497.312	78.19
497.529	108.19
497.746	106.19
497.963	94.19
498.181	106.19
498.398	105.19
498.615	87.19
498.832	92.19
499.049	91.19
499.267	84.19
499.484	86.19
499.701	93.19
499.918	80.19
500.135	89.19
500.352	103.19
500.569	77.19
500.786	90.19
501.003	95.19
501.22	89.19
501.437	102.19
501.654	106.19
501.871	94.19
502.088	97.19
502.305	98.19
502.522	95.19
502.739	94.19
502.956	97.19
503.172	93.19
503.389	84.19
503.606	77.19
503.823	81.19
504.04	91.19
504.256	100.19
504.473	99.19
504.69	89.19
504.907	100.19
505.123	91.19
505.34	95.19
505.557	98.19
505.773	88.19
505.99	92.19
506.207	79.19
506.423	80.19
506.64	91.19
506.856	105.19
507.073	86.19
507.289	84.19
507.506	73.19
507.722	97.19
507.939	86.19
508.155	99.19
508.372	94.19
508.588	85.19
508.805	87.19
509.021	89.19
509.238	90.19
509.454	96.19
509.67	86.19
509.887	79.19
510.103	80.19
510.319	73.19
510.536	77.19
510.752	95.19
510.968	88.19
511.184	78.19
511.401	70.19
511.617	76.19
511.833	89.19
512.049	86.19
512.265	68.19
512.481	80.19
512.698	85.19
512.914	90.19
513.13	84.19
513.346	91.19
513.562	87.19
513.778	90.19
513.994	68.19
514.21	75.19
514.426	80.19
514.642	93.19
514.858	93.19
515.074	83.19
515.29	88.19
515.506	93.19
515.721	87.19
515.937	89.19
516.153	80.19
516.369	73.19
516.585	90.19
516.801	83.19
517.016	84.19
517.232	85.19
517.448	84.19
517.664	99.19
517.879	75.19
518.095	83.19
