Data from Location5.07152019.Energy5.Lamp.07192019.3%Agarose_HRD10591_16-02-41-628.txt Node
Date: Fri Jul 19 16:02:41 EDT 2019
User: cochatt
Spectrometer: HR+D1059
Trigger mode: 1
Integration Time (sec): 1.000000E-1
Scans to average: 1
Electric dark correction enabled: true
Nonlinearity correction enabled: false
Boxcar width: 0
XAxis mode: Wavelengths
Number of Pixels in Spectrum: 2048
>>>>>Begin Spectral Data<<<<<
223.165	-4.81
223.4	-4.81
223.635	-4.81
223.869	-15.81
224.104	-14.81
224.338	-5.81
224.573	-13.81
224.808	-3.81
225.042	-6.81
225.277	8.19
225.511	-4.81
225.746	-10.81
225.98	-3.81
226.215	11.19
226.449	12.19
226.683	14.19
226.918	13.19
227.152	26.19
227.387	29.19
227.621	36.19
227.856	41.19
228.09	45.19
228.324	56.19
228.559	49.19
228.793	63.19
229.027	68.19
229.262	65.19
229.496	72.19
229.73	75.19
229.964	60.19
230.199	72.19
230.433	79.19
230.667	88.19
230.901	88.19
231.136	73.19
231.37	77.19
231.604	87.19
231.838	77.19
232.072	66.19
232.306	72.19
232.541	86.19
232.775	67.19
233.009	95.19
233.243	87.19
233.477	61.19
233.711	75.19
233.945	75.19
234.179	76.19
234.413	90.19
234.647	71.19
234.881	89.19
235.115	89.19
235.349	75.19
235.583	99.19
235.817	76.19
236.051	78.19
236.285	64.19
236.519	72.19
236.753	87.19
236.987	80.19
237.221	75.19
237.455	70.19
237.689	70.19
237.922	87.19
238.156	75.19
238.39	71.19
238.624	83.19
238.858	79.19
239.091	74.19
239.325	79.19
239.559	77.19
239.793	83.19
240.027	84.19
240.26	82.19
240.494	82.19
240.728	74.19
240.961	78.19
241.195	73.19
241.429	85.19
241.662	76.19
241.896	62.19
242.13	87.19
242.363	72.19
242.597	71.19
242.83	71.19
243.064	79.19
243.298	69.19
243.531	80.19
243.765	95.19
243.998	78.19
244.232	80.19
244.465	88.19
244.699	78.19
244.932	71.19
245.166	80.19
245.399	83.19
245.633	85.19
245.866	73.19
246.099	88.19
246.333	93.19
246.566	87.19
246.8	71.19
247.033	73.19
247.266	70.19
247.5	60.19
247.733	77.19
247.966	74.19
248.2	78.19
248.433	72.19
248.666	75.19
248.899	78.19
249.133	85.19
249.366	83.19
249.599	75.19
249.832	74.19
250.066	85.19
250.299	78.19
250.532	90.19
250.765	92.19
250.998	78.19
251.231	86.19
251.465	83.19
251.698	84.19
251.931	95.19
252.164	84.19
252.397	84.19
252.63	71.19
252.863	87.19
253.096	83.19
253.329	86.19
253.562	70.19
253.795	87.19
254.028	77.19
254.261	97.19
254.494	93.19
254.727	85.19
254.96	81.19
255.193	95.19
255.426	86.19
255.659	88.19
255.892	92.19
256.124	77.19
256.357	88.19
256.59	80.19
256.823	75.19
257.056	80.19
257.289	86.19
257.521	88.19
257.754	85.19
257.987	78.19
258.22	104.19
258.452	98.19
258.685	81.19
258.918	69.19
259.151	84.19
259.383	79.19
259.616	81.19
259.849	90.19
260.081	79.19
260.314	82.19
260.547	96.19
260.779	87.19
261.012	94.19
261.244	78.19
261.477	81.19
261.71	75.19
261.942	67.19
262.175	78.19
262.407	91.19
262.64	88.19
262.872	82.19
263.105	88.19
263.337	82.19
263.57	70.19
263.802	85.19
264.035	80.19
264.267	91.19
264.499	86.19
264.732	90.19
264.964	86.19
265.197	86.19
265.429	73.19
265.661	81.19
265.894	71.19
266.126	87.19
266.358	89.19
266.591	75.19
266.823	85.19
267.055	80.19
267.287	89.19
267.52	84.19
267.752	89.19
267.984	88.19
268.216	88.19
268.448	93.19
268.681	82.19
268.913	89.19
269.145	79.19
269.377	72.19
269.609	81.19
269.841	91.19
270.073	75.19
270.306	96.19
270.538	89.19
270.77	74.19
271.002	91.19
271.234	81.19
271.466	91.19
271.698	71.19
271.93	77.19
272.162	87.19
272.394	92.19
272.626	88.19
272.858	78.19
273.09	79.19
273.322	93.19
273.553	85.19
273.785	83.19
274.017	81.19
274.249	94.19
274.481	86.19
274.713	80.19
274.945	83.19
275.176	82.19
275.408	82.19
275.64	90.19
275.872	91.19
276.104	81.19
276.335	83.19
276.567	76.19
276.799	89.19
277.031	86.19
277.262	83.19
277.494	86.19
277.726	84.19
277.957	100.19
278.189	86.19
278.421	89.19
278.652	88.19
278.884	100.19
279.115	92.19
279.347	88.19
279.579	97.19
279.81	89.19
280.042	93.19
280.273	80.19
280.505	92.19
280.736	84.19
280.968	79.19
281.199	79.19
281.431	88.19
281.662	91.19
281.894	92.19
282.125	96.19
282.356	98.19
282.588	87.19
282.819	85.19
283.051	91.19
283.282	85.19
283.513	94.19
283.745	92.19
283.976	98.19
284.207	80.19
284.439	91.19
284.67	84.19
284.901	75.19
285.132	80.19
285.364	69.19
285.595	84.19
285.826	94.19
286.057	92.19
286.288	92.19
286.52	92.19
286.751	78.19
286.982	94.19
287.213	87.19
287.444	94.19
287.675	78.19
287.906	88.19
288.138	92.19
288.369	98.19
288.6	90.19
288.831	104.19
289.062	92.19
289.293	82.19
289.524	97.19
289.755	96.19
289.986	87.19
290.217	88.19
290.448	94.19
290.679	88.19
290.91	95.19
291.141	85.19
291.371	95.19
291.602	96.19
291.833	106.19
292.064	75.19
292.295	95.19
292.526	97.19
292.757	103.19
292.987	101.19
293.218	90.19
293.449	79.19
293.68	88.19
293.91	95.19
294.141	87.19
294.372	85.19
294.603	85.19
294.833	78.19
295.064	76.19
295.295	86.19
295.525	96.19
295.756	96.19
295.987	89.19
296.217	92.19
296.448	87.19
296.679	89.19
296.909	99.19
297.14	83.19
297.37	88.19
297.601	98.19
297.831	101.19
298.062	95.19
298.292	105.19
298.523	93.19
298.753	81.19
298.984	100.19
299.214	96.19
299.445	89.19
299.675	94.19
299.905	102.19
300.136	99.19
300.366	95.19
300.597	77.19
300.827	99.19
301.057	98.19
301.288	90.19
301.518	97.19
301.748	100.19
301.979	92.19
302.209	83.19
302.439	101.19
302.669	86.19
302.9	74.19
303.13	87.19
303.36	98.19
303.59	94.19
303.82	97.19
304.051	97.19
304.281	94.19
304.511	94.19
304.741	99.19
304.971	98.19
305.201	102.19
305.431	86.19
305.661	99.19
305.891	107.19
306.121	82.19
306.352	92.19
306.582	73.19
306.812	89.19
307.042	96.19
307.272	83.19
307.502	97.19
307.731	102.19
307.961	88.19
308.191	97.19
308.421	90.19
308.651	91.19
308.881	91.19
309.111	86.19
309.341	89.19
309.571	97.19
309.8	94.19
310.03	89.19
310.26	102.19
310.49	87.19
310.72	81.19
310.949	98.19
311.179	83.19
311.409	87.19
311.639	91.19
311.868	101.19
312.098	101.19
312.328	107.19
312.557	111.19
312.787	93.19
313.017	95.19
313.246	97.19
313.476	96.19
313.706	101.19
313.935	85.19
314.165	91.19
314.394	82.19
314.624	92.19
314.853	91.19
315.083	111.19
315.312	101.19
315.542	81.19
315.771	91.19
316.001	71.19
316.23	98.19
316.46	83.19
316.689	89.19
316.919	110.19
317.148	96.19
317.377	111.19
317.607	101.19
317.836	95.19
318.065	99.19
318.295	95.19
318.524	97.19
318.753	100.19
318.983	75.19
319.212	86.19
319.441	100.19
319.67	103.19
319.9	88.19
320.129	87.19
320.358	96.19
320.587	89.19
320.816	106.19
321.046	104.19
321.275	105.19
321.504	108.19
321.733	91.19
321.962	91.19
322.191	100.19
322.42	84.19
322.649	86.19
322.878	88.19
323.108	87.19
323.337	79.19
323.566	99.19
323.795	90.19
324.024	88.19
324.253	93.19
324.482	87.19
324.71	104.19
324.939	84.19
325.168	86.19
325.397	89.19
325.626	91.19
325.855	89.19
326.084	85.19
326.313	101.19
326.542	100.19
326.77	96.19
326.999	107.19
327.228	99.19
327.457	102.19
327.686	98.19
327.914	90.19
328.143	93.19
328.372	106.19
328.6	92.19
328.829	94.19
329.058	87.19
329.287	91.19
329.515	99.19
329.744	96.19
329.972	87.19
330.201	98.19
330.43	102.19
330.658	94.19
330.887	96.19
331.115	91.19
331.344	103.19
331.572	84.19
331.801	91.19
332.03	84.19
332.258	101.19
332.486	86.19
332.715	108.19
332.943	97.19
333.172	93.19
333.4	106.19
333.629	99.19
333.857	94.19
334.085	92.19
334.314	90.19
334.542	85.19
334.771	103.19
334.999	90.19
335.227	104.19
335.455	103.19
335.684	100.19
335.912	90.19
336.14	92.19
336.369	104.19
336.597	105.19
336.825	95.19
337.053	107.19
337.281	91.19
337.51	88.19
337.738	92.19
337.966	103.19
338.194	90.19
338.422	98.19
338.65	83.19
338.878	102.19
339.106	98.19
339.334	90.19
339.562	82.19
339.79	99.19
340.018	99.19
340.246	100.19
340.474	85.19
340.702	108.19
340.93	73.19
341.158	95.19
341.386	97.19
341.614	98.19
341.842	102.19
342.07	90.19
342.298	93.19
342.526	101.19
342.754	90.19
342.981	82.19
343.209	93.19
343.437	77.19
343.665	103.19
343.893	88.19
344.12	103.19
344.348	94.19
344.576	97.19
344.804	89.19
345.031	91.19
345.259	92.19
345.487	96.19
345.714	103.19
345.942	97.19
346.17	102.19
346.397	85.19
346.625	86.19
346.853	100.19
347.08	103.19
347.308	95.19
347.535	83.19
347.763	85.19
347.99	89.19
348.218	90.19
348.445	87.19
348.673	107.19
348.9	107.19
349.128	108.19
349.355	91.19
349.583	92.19
349.81	95.19
350.037	83.19
350.265	89.19
350.492	96.19
350.72	101.19
350.947	100.19
351.174	101.19
351.402	85.19
351.629	89.19
351.856	91.19
352.083	92.19
352.311	93.19
352.538	99.19
352.765	91.19
352.992	99.19
353.22	96.19
353.447	96.19
353.674	85.19
353.901	93.19
354.128	96.19
354.355	90.19
354.583	99.19
354.81	87.19
355.037	94.19
355.264	90.19
355.491	89.19
355.718	85.19
355.945	85.19
356.172	107.19
356.399	108.19
356.626	85.19
356.853	85.19
357.08	93.19
357.307	87.19
357.534	98.19
357.761	89.19
357.988	96.19
358.215	100.19
358.441	93.19
358.668	75.19
358.895	89.19
359.122	116.19
359.349	89.19
359.576	87.19
359.802	76.19
360.029	91.19
360.256	85.19
360.483	96.19
360.709	83.19
360.936	91.19
361.163	81.19
361.39	102.19
361.616	91.19
361.843	107.19
362.07	90.19
362.296	89.19
362.523	97.19
362.749	93.19
362.976	86.19
363.203	84.19
363.429	96.19
363.656	89.19
363.882	99.19
364.109	89.19
364.335	103.19
364.562	86.19
364.788	87.19
365.015	90.19
365.241	88.19
365.468	90.19
365.694	81.19
365.92	101.19
366.147	102.19
366.373	85.19
366.599	112.19
366.826	93.19
367.052	95.19
367.278	89.19
367.505	95.19
367.731	91.19
367.957	95.19
368.184	98.19
368.41	87.19
368.636	107.19
368.862	87.19
369.089	105.19
369.315	100.19
369.541	97.19
369.767	94.19
369.993	87.19
370.219	106.19
370.445	89.19
370.672	93.19
370.898	97.19
371.124	95.19
371.35	91.19
371.576	92.19
371.802	100.19
372.028	97.19
372.254	83.19
372.48	91.19
372.706	94.19
372.932	85.19
373.158	88.19
373.384	105.19
373.61	93.19
373.835	93.19
374.061	92.19
374.287	100.19
374.513	86.19
374.739	87.19
374.965	102.19
375.191	83.19
375.416	87.19
375.642	96.19
375.868	97.19
376.094	97.19
376.319	98.19
376.545	90.19
376.771	87.19
376.997	92.19
377.222	106.19
377.448	104.19
377.674	105.19
377.899	96.19
378.125	105.19
378.35	98.19
378.576	98.19
378.802	100.19
379.027	89.19
379.253	97.19
379.478	93.19
379.704	86.19
379.929	84.19
380.155	74.19
380.38	86.19
380.606	91.19
380.831	93.19
381.057	98.19
381.282	94.19
381.507	94.19
381.733	96.19
381.958	98.19
382.184	90.19
382.409	102.19
382.634	98.19
382.86	120.19
383.085	95.19
383.31	100.19
383.535	104.19
383.761	91.19
383.986	105.19
384.211	96.19
384.436	114.19
384.662	95.19
384.887	92.19
385.112	97.19
385.337	76.19
385.562	81.19
385.787	100.19
386.013	98.19
386.238	85.19
386.463	92.19
386.688	87.19
386.913	94.19
387.138	97.19
387.363	98.19
387.588	106.19
387.813	94.19
388.038	93.19
388.263	101.19
388.488	96.19
388.713	106.19
388.938	97.19
389.163	99.19
389.387	87.19
389.612	104.19
389.837	92.19
390.062	95.19
390.287	100.19
390.512	83.19
390.736	95.19
390.961	109.19
391.186	102.19
391.411	89.19
391.636	85.19
391.86	92.19
392.085	107.19
392.31	101.19
392.534	102.19
392.759	104.19
392.984	98.19
393.208	95.19
393.433	106.19
393.658	99.19
393.882	104.19
394.107	83.19
394.331	91.19
394.556	89.19
394.78	99.19
395.005	86.19
395.229	92.19
395.454	95.19
395.678	102.19
395.903	113.19
396.127	98.19
396.352	100.19
396.576	100.19
396.801	97.19
397.025	90.19
397.249	116.19
397.474	83.19
397.698	89.19
397.922	107.19
398.147	96.19
398.371	92.19
398.595	104.19
398.82	100.19
399.044	106.19
399.268	96.19
399.492	88.19
399.717	104.19
399.941	114.19
400.165	108.19
400.389	105.19
400.613	89.19
400.837	107.19
401.062	98.19
401.286	97.19
401.51	105.19
401.734	102.19
401.958	102.19
402.182	91.19
402.406	102.19
402.63	86.19
402.854	93.19
403.078	93.19
403.302	91.19
403.526	110.19
403.75	94.19
403.974	109.19
404.198	112.19
404.422	97.19
404.645	106.19
404.869	100.19
405.093	93.19
405.317	95.19
405.541	87.19
405.765	110.19
405.988	97.19
406.212	97.19
406.436	100.19
406.66	103.19
406.883	111.19
407.107	93.19
407.331	107.19
407.555	114.19
407.778	106.19
408.002	104.19
408.226	116.19
408.449	101.19
408.673	105.19
408.896	105.19
409.12	100.19
409.344	97.19
409.567	106.19
409.791	110.19
410.014	101.19
410.238	97.19
410.461	92.19
410.685	90.19
410.908	119.19
411.132	88.19
411.355	102.19
411.578	103.19
411.802	106.19
412.025	105.19
412.249	107.19
412.472	90.19
412.695	89.19
412.919	102.19
413.142	105.19
413.365	106.19
413.589	92.19
413.812	99.19
414.035	104.19
414.258	99.19
414.482	117.19
414.705	111.19
414.928	112.19
415.151	99.19
415.374	89.19
415.597	88.19
415.821	102.19
416.044	96.19
416.267	83.19
416.49	85.19
416.713	107.19
416.936	85.19
417.159	93.19
417.382	91.19
417.605	103.19
417.828	101.19
418.051	100.19
418.274	102.19
418.497	98.19
418.72	87.19
418.943	94.19
419.166	104.19
419.389	92.19
419.611	90.19
419.834	101.19
420.057	90.19
420.28	100.19
420.503	101.19
420.726	96.19
420.948	91.19
421.171	106.19
421.394	91.19
421.617	92.19
421.839	83.19
422.062	97.19
422.285	110.19
422.507	90.19
422.73	107.19
422.953	104.19
423.175	97.19
423.398	87.19
423.621	93.19
423.843	111.19
424.066	106.19
424.288	103.19
424.511	114.19
424.733	107.19
424.956	89.19
425.178	93.19
425.401	101.19
425.623	102.19
425.846	95.19
426.068	111.19
426.291	95.19
426.513	102.19
426.735	111.19
426.958	99.19
427.18	103.19
427.402	92.19
427.625	96.19
427.847	114.19
428.069	85.19
428.292	96.19
428.514	107.19
428.736	107.19
428.958	107.19
429.181	104.19
429.403	86.19
429.625	100.19
429.847	103.19
430.069	102.19
430.292	100.19
430.514	101.19
430.736	99.19
430.958	92.19
431.18	106.19
431.402	100.19
431.624	105.19
431.846	105.19
432.068	98.19
432.29	101.19
432.512	93.19
432.734	113.19
432.956	92.19
433.178	97.19
433.4	89.19
433.622	93.19
433.844	91.19
434.066	79.19
434.287	98.19
434.509	89.19
434.731	98.19
434.953	103.19
435.175	92.19
435.397	102.19
435.618	108.19
435.84	108.19
436.062	104.19
436.284	97.19
436.505	106.19
436.727	97.19
436.949	98.19
437.17	100.19
437.392	104.19
437.614	100.19
437.835	103.19
438.057	94.19
438.278	97.19
438.5	88.19
438.721	104.19
438.943	104.19
439.165	105.19
439.386	94.19
439.608	89.19
439.829	106.19
440.05	106.19
440.272	92.19
440.493	95.19
440.715	91.19
440.936	105.19
441.158	96.19
441.379	100.19
441.6	108.19
441.822	104.19
442.043	106.19
442.264	93.19
442.486	104.19
442.707	104.19
442.928	90.19
443.149	104.19
443.371	105.19
443.592	86.19
443.813	92.19
444.034	93.19
444.255	108.19
444.476	96.19
444.698	102.19
444.919	103.19
445.14	234.19
445.361	147.19
445.582	107.19
445.803	104.19
446.024	96.19
446.245	94.19
446.466	102.19
446.687	98.19
446.908	105.19
447.129	100.19
447.35	97.19
447.571	93.19
447.792	94.19
448.013	95.19
448.234	85.19
448.455	98.19
448.675	96.19
448.896	99.19
449.117	88.19
449.338	95.19
449.559	101.19
449.779	92.19
450	98.19
450.221	81.19
450.442	99.19
450.662	91.19
450.883	93.19
451.104	100.19
451.324	109.19
451.545	97.19
451.766	100.19
451.986	107.19
452.207	101.19
452.428	103.19
452.648	99.19
452.869	103.19
453.089	100.19
453.31	91.19
453.53	95.19
453.751	82.19
453.971	99.19
454.192	98.19
454.412	92.19
454.633	86.19
454.853	91.19
455.073	102.19
455.294	94.19
455.514	92.19
455.734	90.19
455.955	95.19
456.175	108.19
456.395	109.19
456.616	93.19
456.836	91.19
457.056	100.19
457.276	99.19
457.497	104.19
457.717	103.19
457.937	95.19
458.157	107.19
458.377	84.19
458.598	87.19
458.818	99.19
459.038	83.19
459.258	97.19
459.478	116.19
459.698	97.19
459.918	92.19
460.138	99.19
460.358	99.19
460.578	97.19
460.798	88.19
461.018	100.19
461.238	111.19
461.458	88.19
461.678	91.19
461.898	95.19
462.118	107.19
462.338	96.19
462.558	97.19
462.777	105.19
462.997	108.19
463.217	116.19
463.437	108.19
463.657	105.19
463.876	115.19
464.096	99.19
464.316	102.19
464.536	103.19
464.755	108.19
464.975	121.19
465.195	113.19
465.414	96.19
465.634	86.19
465.854	94.19
466.073	97.19
466.293	89.19
466.512	100.19
466.732	107.19
466.951	90.19
467.171	98.19
467.391	94.19
467.61	77.19
467.829	111.19
468.049	88.19
468.268	89.19
468.488	87.19
468.707	107.19
468.927	90.19
469.146	89.19
469.365	106.19
469.585	104.19
469.804	91.19
470.023	100.19
470.243	95.19
470.462	99.19
470.681	93.19
470.901	99.19
471.12	106.19
471.339	97.19
471.558	109.19
471.777	93.19
471.997	96.19
472.216	93.19
472.435	96.19
472.654	90.19
472.873	105.19
473.092	94.19
473.311	97.19
473.53	86.19
473.749	95.19
473.968	98.19
474.187	82.19
474.406	94.19
474.625	95.19
474.844	100.19
475.063	101.19
475.282	121.19
475.501	104.19
475.72	89.19
475.939	96.19
476.158	100.19
476.377	109.19
476.596	104.19
476.814	121.19
477.033	96.19
477.252	91.19
477.471	97.19
477.69	95.19
477.908	112.19
478.127	115.19
478.346	101.19
478.564	102.19
478.783	103.19
479.002	104.19
479.22	107.19
479.439	109.19
479.658	106.19
479.876	104.19
480.095	91.19
480.313	129.19
480.532	106.19
480.751	100.19
480.969	113.19
481.188	118.19
481.406	115.19
481.624	116.19
481.843	103.19
482.061	109.19
482.28	108.19
482.498	97.19
482.717	99.19
482.935	109.19
483.153	113.19
483.372	95.19
483.59	100.19
483.808	103.19
484.027	98.19
484.245	98.19
484.463	101.19
484.681	101.19
484.9	120.19
485.118	119.19
485.336	97.19
485.554	97.19
485.772	84.19
485.99	90.19
486.209	107.19
486.427	109.19
486.645	107.19
486.863	126.19
487.081	120.19
487.299	118.19
487.517	118.19
487.735	106.19
487.953	125.19
488.171	121.19
488.389	106.19
488.607	111.19
488.825	115.19
489.043	109.19
489.261	106.19
489.479	105.19
489.696	96.19
489.914	123.19
490.132	112.19
490.35	121.19
490.568	116.19
490.786	116.19
491.003	106.19
491.221	127.19
491.439	123.19
491.657	121.19
491.874	114.19
492.092	123.19
492.31	137.19
492.527	117.19
492.745	107.19
492.963	128.19
493.18	111.19
493.398	100.19
493.615	119.19
493.833	113.19
494.05	119.19
494.268	112.19
494.485	99.19
494.703	107.19
494.92	113.19
495.138	108.19
495.355	96.19
495.573	113.19
495.79	127.19
496.008	123.19
496.225	106.19
496.442	127.19
496.66	123.19
496.877	124.19
497.094	121.19
497.312	115.19
497.529	104.19
497.746	103.19
497.963	123.19
498.181	115.19
498.398	119.19
498.615	128.19
498.832	129.19
499.049	128.19
499.267	131.19
499.484	122.19
499.701	136.19
499.918	141.19
500.135	156.19
500.352	157.19
500.569	167.19
500.786	176.19
501.003	155.19
501.22	150.19
501.437	150.19
501.654	140.19
501.871	140.19
502.088	124.19
502.305	131.19
502.522	130.19
502.739	134.19
502.956	121.19
503.172	113.19
503.389	114.19
503.606	116.19
503.823	106.19
504.04	121.19
504.256	111.19
504.473	113.19
504.69	121.19
504.907	135.19
505.123	119.19
505.34	114.19
505.557	117.19
505.773	115.19
505.99	111.19
506.207	100.19
506.423	99.19
506.64	110.19
506.856	108.19
507.073	106.19
507.289	104.19
507.506	112.19
507.722	102.19
507.939	92.19
508.155	104.19
508.372	114.19
508.588	120.19
508.805	119.19
509.021	102.19
509.238	97.19
509.454	94.19
509.67	83.19
509.887	97.19
510.103	92.19
510.319	104.19
510.536	102.19
510.752	95.19
510.968	103.19
511.184	106.19
511.401	97.19
511.617	111.19
511.833	103.19
512.049	101.19
512.265	88.19
512.481	99.19
512.698	102.19
512.914	110.19
513.13	109.19
513.346	101.19
