Data from Location5.07152019.Energy5.Lamp.07192019.3%Agarose_HRD10591_16-03-05-630.txt Node
Date: Fri Jul 19 16:03:05 EDT 2019
User: cochatt
Spectrometer: HR+D1059
Trigger mode: 1
Integration Time (sec): 1.000000E-1
Scans to average: 1
Electric dark correction enabled: true
Nonlinearity correction enabled: false
Boxcar width: 0
XAxis mode: Wavelengths
Number of Pixels in Spectrum: 2048
>>>>>Begin Spectral Data<<<<<
223.165	-18.56
223.4	-18.56
223.635	-18.56
223.869	-22.56
224.104	-16.56
224.338	-4.56
224.573	-13.56
224.808	-14.56
225.042	-11.56
225.277	-11.56
225.511	-8.56
225.746	15.44
225.98	-3.56
226.215	14.44
226.449	19.44
226.683	25.44
226.918	30.44
227.152	20.44
227.387	34.44
227.621	52.44
227.856	44.44
228.09	55.44
228.324	54.44
228.559	60.44
228.793	59.44
229.027	72.44
229.262	77.44
229.496	85.44
229.73	78.44
229.964	76.44
230.199	65.44
230.433	75.44
230.667	72.44
230.901	86.44
231.136	100.44
231.37	79.44
231.604	80.44
231.838	81.44
232.072	80.44
232.306	83.44
232.541	88.44
232.775	91.44
233.009	84.44
233.243	75.44
233.477	85.44
233.711	60.44
233.945	82.44
234.179	76.44
234.413	87.44
234.647	88.44
234.881	86.44
235.115	91.44
235.349	94.44
235.583	89.44
235.817	89.44
236.051	79.44
236.285	82.44
236.519	87.44
236.753	78.44
236.987	82.44
237.221	77.44
237.455	73.44
237.689	93.44
237.922	90.44
238.156	78.44
238.39	55.44
238.624	90.44
238.858	81.44
239.091	85.44
239.325	72.44
239.559	71.44
239.793	81.44
240.027	74.44
240.26	75.44
240.494	82.44
240.728	73.44
240.961	65.44
241.195	72.44
241.429	75.44
241.662	84.44
241.896	88.44
242.13	74.44
242.363	73.44
242.597	85.44
242.83	71.44
243.064	74.44
243.298	74.44
243.531	77.44
243.765	88.44
243.998	72.44
244.232	68.44
244.465	73.44
244.699	80.44
244.932	85.44
245.166	81.44
245.399	78.44
245.633	74.44
245.866	99.44
246.099	86.44
246.333	92.44
246.566	79.44
246.8	78.44
247.033	82.44
247.266	65.44
247.5	92.44
247.733	76.44
247.966	82.44
248.2	90.44
248.433	79.44
248.666	82.44
248.899	80.44
249.133	83.44
249.366	83.44
249.599	67.44
249.832	84.44
250.066	89.44
250.299	81.44
250.532	88.44
250.765	89.44
250.998	80.44
251.231	72.44
251.465	86.44
251.698	87.44
251.931	88.44
252.164	80.44
252.397	97.44
252.63	93.44
252.863	78.44
253.096	84.44
253.329	82.44
253.562	98.44
253.795	82.44
254.028	76.44
254.261	83.44
254.494	86.44
254.727	89.44
254.96	83.44
255.193	100.44
255.426	95.44
255.659	66.44
255.892	84.44
256.124	70.44
256.357	83.44
256.59	84.44
256.823	87.44
257.056	92.44
257.289	82.44
257.521	90.44
257.754	89.44
257.987	92.44
258.22	86.44
258.452	88.44
258.685	87.44
258.918	86.44
259.151	79.44
259.383	75.44
259.616	108.44
259.849	94.44
260.081	79.44
260.314	73.44
260.547	81.44
260.779	96.44
261.012	84.44
261.244	93.44
261.477	69.44
261.71	92.44
261.942	89.44
262.175	75.44
262.407	80.44
262.64	82.44
262.872	88.44
263.105	82.44
263.337	87.44
263.57	94.44
263.802	88.44
264.035	92.44
264.267	91.44
264.499	77.44
264.732	95.44
264.964	83.44
265.197	86.44
265.429	86.44
265.661	69.44
265.894	75.44
266.126	97.44
266.358	79.44
266.591	96.44
266.823	83.44
267.055	63.44
267.287	84.44
267.52	80.44
267.752	90.44
267.984	85.44
268.216	96.44
268.448	84.44
268.681	70.44
268.913	90.44
269.145	90.44
269.377	92.44
269.609	65.44
269.841	85.44
270.073	82.44
270.306	100.44
270.538	67.44
270.77	94.44
271.002	72.44
271.234	97.44
271.466	92.44
271.698	87.44
271.93	97.44
272.162	81.44
272.394	77.44
272.626	89.44
272.858	88.44
273.09	88.44
273.322	93.44
273.553	91.44
273.785	94.44
274.017	96.44
274.249	80.44
274.481	85.44
274.713	77.44
274.945	97.44
275.176	98.44
275.408	76.44
275.64	95.44
275.872	90.44
276.104	86.44
276.335	88.44
276.567	98.44
276.799	90.44
277.031	97.44
277.262	96.44
277.494	91.44
277.726	80.44
277.957	93.44
278.189	99.44
278.421	92.44
278.652	100.44
278.884	95.44
279.115	96.44
279.347	85.44
279.579	81.44
279.81	94.44
280.042	91.44
280.273	87.44
280.505	77.44
280.736	89.44
280.968	82.44
281.199	76.44
281.431	77.44
281.662	83.44
281.894	89.44
282.125	88.44
282.356	106.44
282.588	93.44
282.819	83.44
283.051	87.44
283.282	81.44
283.513	99.44
283.745	94.44
283.976	81.44
284.207	81.44
284.439	82.44
284.67	95.44
284.901	102.44
285.132	83.44
285.364	86.44
285.595	97.44
285.826	90.44
286.057	99.44
286.288	92.44
286.52	95.44
286.751	83.44
286.982	86.44
287.213	96.44
287.444	99.44
287.675	96.44
287.906	101.44
288.138	83.44
288.369	88.44
288.6	74.44
288.831	93.44
289.062	104.44
289.293	105.44
289.524	82.44
289.755	94.44
289.986	85.44
290.217	87.44
290.448	95.44
290.679	88.44
290.91	82.44
291.141	95.44
291.371	101.44
291.602	88.44
291.833	88.44
292.064	98.44
292.295	99.44
292.526	93.44
292.757	91.44
292.987	102.44
293.218	103.44
293.449	92.44
293.68	90.44
293.91	87.44
294.141	93.44
294.372	89.44
294.603	95.44
294.833	109.44
295.064	82.44
295.295	91.44
295.525	93.44
295.756	95.44
295.987	86.44
296.217	84.44
296.448	86.44
296.679	85.44
296.909	89.44
297.14	88.44
297.37	96.44
297.601	92.44
297.831	88.44
298.062	112.44
298.292	79.44
298.523	98.44
298.753	96.44
298.984	111.44
299.214	90.44
299.445	93.44
299.675	96.44
299.905	95.44
300.136	80.44
300.366	100.44
300.597	104.44
300.827	87.44
301.057	95.44
301.288	93.44
301.518	104.44
301.748	101.44
301.979	100.44
302.209	87.44
302.439	95.44
302.669	88.44
302.9	93.44
303.13	93.44
303.36	98.44
303.59	94.44
303.82	83.44
304.051	90.44
304.281	89.44
304.511	94.44
304.741	83.44
304.971	85.44
305.201	94.44
305.431	107.44
305.661	102.44
305.891	81.44
306.121	89.44
306.352	86.44
306.582	82.44
306.812	97.44
307.042	91.44
307.272	91.44
307.502	76.44
307.731	91.44
307.961	96.44
308.191	83.44
308.421	83.44
308.651	94.44
308.881	87.44
309.111	86.44
309.341	85.44
309.571	88.44
309.8	86.44
310.03	90.44
310.26	90.44
310.49	96.44
310.72	99.44
310.949	93.44
311.179	95.44
311.409	87.44
311.639	87.44
311.868	85.44
312.098	88.44
312.328	90.44
312.557	87.44
312.787	88.44
313.017	91.44
313.246	64.44
313.476	96.44
313.706	88.44
313.935	97.44
314.165	98.44
314.394	97.44
314.624	91.44
314.853	95.44
315.083	92.44
315.312	89.44
315.542	99.44
315.771	94.44
316.001	93.44
316.23	100.44
316.46	89.44
316.689	97.44
316.919	95.44
317.148	99.44
317.377	95.44
317.607	98.44
317.836	96.44
318.065	103.44
318.295	91.44
318.524	94.44
318.753	83.44
318.983	89.44
319.212	103.44
319.441	102.44
319.67	89.44
319.9	79.44
320.129	92.44
320.358	102.44
320.587	93.44
320.816	91.44
321.046	86.44
321.275	101.44
321.504	90.44
321.733	81.44
321.962	82.44
322.191	97.44
322.42	82.44
322.649	100.44
322.878	96.44
323.108	99.44
323.337	93.44
323.566	103.44
323.795	84.44
324.024	97.44
324.253	97.44
324.482	95.44
324.71	97.44
324.939	80.44
325.168	90.44
325.397	92.44
325.626	98.44
325.855	85.44
326.084	94.44
326.313	96.44
326.542	89.44
326.77	87.44
326.999	95.44
327.228	88.44
327.457	91.44
327.686	94.44
327.914	91.44
328.143	103.44
328.372	99.44
328.6	96.44
328.829	91.44
329.058	111.44
329.287	103.44
329.515	100.44
329.744	92.44
329.972	78.44
330.201	99.44
330.43	88.44
330.658	90.44
330.887	87.44
331.115	89.44
331.344	101.44
331.572	87.44
331.801	100.44
332.03	78.44
332.258	83.44
332.486	97.44
332.715	93.44
332.943	110.44
333.172	99.44
333.4	109.44
333.629	105.44
333.857	109.44
334.085	90.44
334.314	105.44
334.542	95.44
334.771	82.44
334.999	87.44
335.227	97.44
335.455	90.44
335.684	87.44
335.912	96.44
336.14	89.44
336.369	96.44
336.597	101.44
336.825	98.44
337.053	82.44
337.281	104.44
337.51	97.44
337.738	96.44
337.966	85.44
338.194	91.44
338.422	102.44
338.65	88.44
338.878	98.44
339.106	97.44
339.334	107.44
339.562	68.44
339.79	100.44
340.018	95.44
340.246	81.44
340.474	92.44
340.702	106.44
340.93	91.44
341.158	91.44
341.386	102.44
341.614	88.44
341.842	93.44
342.07	109.44
342.298	94.44
342.526	81.44
342.754	89.44
342.981	98.44
343.209	86.44
343.437	92.44
343.665	98.44
343.893	105.44
344.12	101.44
344.348	109.44
344.576	91.44
344.804	96.44
345.031	89.44
345.259	80.44
345.487	95.44
345.714	100.44
345.942	96.44
346.17	87.44
346.397	87.44
346.625	93.44
346.853	80.44
347.08	75.44
347.308	79.44
347.535	84.44
347.763	81.44
347.99	85.44
348.218	85.44
348.445	92.44
348.673	108.44
348.9	85.44
349.128	101.44
349.355	86.44
349.583	97.44
349.81	100.44
350.037	97.44
350.265	80.44
350.492	93.44
350.72	90.44
350.947	99.44
351.174	90.44
351.402	89.44
351.629	99.44
351.856	90.44
352.083	93.44
352.311	92.44
352.538	85.44
352.765	93.44
352.992	101.44
353.22	72.44
353.447	91.44
353.674	98.44
353.901	77.44
354.128	96.44
354.355	86.44
354.583	95.44
354.81	92.44
355.037	90.44
355.264	84.44
355.491	89.44
355.718	95.44
355.945	84.44
356.172	90.44
356.399	87.44
356.626	85.44
356.853	102.44
357.08	92.44
357.307	102.44
357.534	100.44
357.761	104.44
357.988	101.44
358.215	89.44
358.441	86.44
358.668	103.44
358.895	81.44
359.122	81.44
359.349	96.44
359.576	106.44
359.802	87.44
360.029	107.44
360.256	94.44
360.483	88.44
360.709	87.44
360.936	95.44
361.163	91.44
361.39	105.44
361.616	99.44
361.843	95.44
362.07	88.44
362.296	75.44
362.523	101.44
362.749	89.44
362.976	81.44
363.203	89.44
363.429	84.44
363.656	96.44
363.882	83.44
364.109	102.44
364.335	93.44
364.562	88.44
364.788	88.44
365.015	112.44
365.241	100.44
365.468	99.44
365.694	84.44
365.92	97.44
366.147	98.44
366.373	94.44
366.599	96.44
366.826	84.44
367.052	97.44
367.278	95.44
367.505	91.44
367.731	94.44
367.957	88.44
368.184	85.44
368.41	84.44
368.636	100.44
368.862	98.44
369.089	91.44
369.315	94.44
369.541	77.44
369.767	97.44
369.993	85.44
370.219	88.44
370.445	99.44
370.672	96.44
370.898	83.44
371.124	97.44
371.35	97.44
371.576	95.44
371.802	102.44
372.028	84.44
372.254	109.44
372.48	92.44
372.706	85.44
372.932	103.44
373.158	95.44
373.384	94.44
373.61	102.44
373.835	96.44
374.061	99.44
374.287	87.44
374.513	87.44
374.739	97.44
374.965	96.44
375.191	103.44
375.416	96.44
375.642	85.44
375.868	99.44
376.094	92.44
376.319	90.44
376.545	91.44
376.771	80.44
376.997	101.44
377.222	86.44
377.448	85.44
377.674	103.44
377.899	86.44
378.125	90.44
378.35	99.44
378.576	84.44
378.802	79.44
379.027	92.44
379.253	104.44
379.478	94.44
379.704	89.44
379.929	80.44
380.155	96.44
380.38	96.44
380.606	87.44
380.831	96.44
381.057	86.44
381.282	98.44
381.507	83.44
381.733	82.44
381.958	86.44
382.184	81.44
382.409	90.44
382.634	120.44
382.86	94.44
383.085	100.44
383.31	92.44
383.535	96.44
383.761	99.44
383.986	96.44
384.211	95.44
384.436	99.44
384.662	85.44
384.887	91.44
385.112	84.44
385.337	105.44
385.562	93.44
385.787	97.44
386.013	96.44
386.238	81.44
386.463	97.44
386.688	90.44
386.913	101.44
387.138	91.44
387.363	96.44
387.588	87.44
387.813	92.44
388.038	104.44
388.263	99.44
388.488	96.44
388.713	93.44
388.938	91.44
389.163	101.44
389.387	104.44
389.612	90.44
389.837	95.44
390.062	88.44
390.287	97.44
390.512	99.44
390.736	89.44
390.961	88.44
391.186	96.44
391.411	102.44
391.636	96.44
391.86	98.44
392.085	113.44
392.31	111.44
392.534	88.44
392.759	97.44
392.984	98.44
393.208	90.44
393.433	100.44
393.658	97.44
393.882	99.44
394.107	83.44
394.331	86.44
394.556	100.44
394.78	97.44
395.005	107.44
395.229	101.44
395.454	102.44
395.678	94.44
395.903	103.44
396.127	91.44
396.352	83.44
396.576	102.44
396.801	94.44
397.025	91.44
397.249	85.44
397.474	99.44
397.698	115.44
397.922	109.44
398.147	95.44
398.371	94.44
398.595	106.44
398.82	111.44
399.044	99.44
399.268	82.44
399.492	115.44
399.717	111.44
399.941	119.44
400.165	84.44
400.389	83.44
400.613	95.44
400.837	109.44
401.062	92.44
401.286	105.44
401.51	94.44
401.734	98.44
401.958	97.44
402.182	120.44
402.406	103.44
402.63	103.44
402.854	103.44
403.078	91.44
403.302	103.44
403.526	97.44
403.75	97.44
403.974	115.44
404.198	114.44
404.422	109.44
404.645	103.44
404.869	102.44
405.093	105.44
405.317	107.44
405.541	98.44
405.765	121.44
405.988	100.44
406.212	109.44
406.436	111.44
406.66	115.44
406.883	106.44
407.107	118.44
407.331	120.44
407.555	112.44
407.778	107.44
408.002	104.44
408.226	101.44
408.449	97.44
408.673	97.44
408.896	105.44
409.12	89.44
409.344	100.44
409.567	101.44
409.791	112.44
410.014	93.44
410.238	98.44
410.461	92.44
410.685	96.44
410.908	103.44
411.132	101.44
411.355	102.44
411.578	108.44
411.802	114.44
412.025	104.44
412.249	96.44
412.472	105.44
412.695	104.44
412.919	96.44
413.142	100.44
413.365	104.44
413.589	102.44
413.812	99.44
414.035	90.44
414.258	101.44
414.482	89.44
414.705	91.44
414.928	105.44
415.151	105.44
415.374	86.44
415.597	82.44
415.821	98.44
416.044	106.44
416.267	98.44
416.49	109.44
416.713	105.44
416.936	102.44
417.159	107.44
417.382	100.44
417.605	94.44
417.828	95.44
418.051	113.44
418.274	112.44
418.497	80.44
418.72	84.44
418.943	102.44
419.166	85.44
419.389	88.44
419.611	97.44
419.834	101.44
420.057	90.44
420.28	91.44
420.503	93.44
420.726	95.44
420.948	107.44
421.171	93.44
421.394	99.44
421.617	108.44
421.839	103.44
422.062	104.44
422.285	91.44
422.507	89.44
422.73	91.44
422.953	95.44
423.175	86.44
423.398	97.44
423.621	86.44
423.843	100.44
424.066	108.44
424.288	109.44
424.511	104.44
424.733	91.44
424.956	99.44
425.178	95.44
425.401	92.44
425.623	100.44
425.846	103.44
426.068	81.44
426.291	87.44
426.513	105.44
426.735	114.44
426.958	95.44
427.18	88.44
427.402	105.44
427.625	86.44
427.847	100.44
428.069	99.44
428.292	106.44
428.514	91.44
428.736	97.44
428.958	109.44
429.181	97.44
429.403	97.44
429.625	95.44
429.847	90.44
430.069	85.44
430.292	120.44
430.514	86.44
430.736	79.44
430.958	113.44
431.18	108.44
431.402	95.44
431.624	72.44
431.846	90.44
432.068	91.44
432.29	97.44
432.512	99.44
432.734	101.44
432.956	95.44
433.178	96.44
433.4	91.44
433.622	100.44
433.844	81.44
434.066	107.44
434.287	100.44
434.509	99.44
434.731	107.44
434.953	90.44
435.175	99.44
435.397	85.44
435.618	90.44
435.84	88.44
436.062	92.44
436.284	94.44
436.505	106.44
436.727	99.44
436.949	105.44
437.17	93.44
437.392	98.44
437.614	87.44
437.835	81.44
438.057	107.44
438.278	104.44
438.5	86.44
438.721	104.44
438.943	97.44
439.165	117.44
439.386	99.44
439.608	104.44
439.829	115.44
440.05	110.44
440.272	97.44
440.493	84.44
440.715	95.44
440.936	100.44
441.158	100.44
441.379	108.44
441.6	100.44
441.822	108.44
442.043	100.44
442.264	104.44
442.486	111.44
442.707	101.44
442.928	100.44
443.149	98.44
443.371	96.44
443.592	104.44
443.813	88.44
444.034	105.44
444.255	106.44
444.476	98.44
444.698	101.44
444.919	101.44
445.14	215.44
445.361	152.44
445.582	105.44
445.803	100.44
446.024	101.44
446.245	105.44
446.466	93.44
446.687	104.44
446.908	106.44
447.129	100.44
447.35	88.44
447.571	87.44
447.792	89.44
448.013	92.44
448.234	108.44
448.455	113.44
448.675	116.44
448.896	94.44
449.117	107.44
449.338	101.44
449.559	90.44
449.779	88.44
450	83.44
450.221	111.44
450.442	96.44
450.662	107.44
450.883	83.44
451.104	95.44
451.324	89.44
451.545	99.44
451.766	92.44
451.986	94.44
452.207	87.44
452.428	83.44
452.648	106.44
452.869	102.44
453.089	82.44
453.31	100.44
453.53	100.44
453.751	96.44
453.971	83.44
454.192	92.44
454.412	95.44
454.633	108.44
454.853	114.44
455.073	95.44
455.294	101.44
455.514	92.44
455.734	97.44
455.955	112.44
456.175	99.44
456.395	88.44
456.616	99.44
456.836	86.44
457.056	103.44
457.276	84.44
457.497	85.44
457.717	87.44
457.937	77.44
458.157	93.44
458.377	93.44
458.598	88.44
458.818	87.44
459.038	87.44
459.258	99.44
459.478	92.44
459.698	91.44
459.918	85.44
460.138	80.44
460.358	103.44
460.578	109.44
460.798	92.44
461.018	107.44
461.238	98.44
461.458	106.44
461.678	92.44
461.898	91.44
462.118	100.44
462.338	107.44
462.558	107.44
462.777	98.44
462.997	98.44
463.217	111.44
463.437	97.44
463.657	99.44
463.876	91.44
464.096	102.44
464.316	91.44
464.536	108.44
464.755	95.44
464.975	101.44
465.195	97.44
465.414	100.44
465.634	100.44
465.854	104.44
466.073	103.44
466.293	91.44
466.512	99.44
466.732	93.44
466.951	100.44
467.171	102.44
467.391	98.44
467.61	95.44
467.829	96.44
468.049	90.44
468.268	108.44
468.488	109.44
468.707	98.44
468.927	88.44
469.146	97.44
469.365	98.44
469.585	107.44
469.804	92.44
470.023	108.44
470.243	97.44
470.462	92.44
470.681	92.44
470.901	99.44
471.12	102.44
471.339	109.44
471.558	103.44
471.777	96.44
471.997	116.44
472.216	107.44
472.435	106.44
472.654	91.44
472.873	98.44
473.092	99.44
473.311	98.44
473.53	95.44
473.749	99.44
473.968	101.44
474.187	87.44
474.406	96.44
474.625	100.44
474.844	102.44
475.063	99.44
475.282	104.44
475.501	94.44
475.72	88.44
475.939	97.44
476.158	97.44
476.377	107.44
476.596	100.44
476.814	105.44
477.033	101.44
477.252	101.44
477.471	85.44
477.69	104.44
477.908	87.44
478.127	101.44
478.346	122.44
478.564	105.44
478.783	98.44
479.002	106.44
479.22	105.44
479.439	99.44
479.658	105.44
479.876	103.44
480.095	97.44
480.313	109.44
480.532	109.44
480.751	120.44
480.969	111.44
481.188	104.44
481.406	100.44
481.624	100.44
481.843	102.44
482.061	100.44
482.28	93.44
482.498	98.44
482.717	93.44
482.935	107.44
483.153	115.44
483.372	97.44
483.59	96.44
483.808	92.44
484.027	101.44
484.245	87.44
484.463	101.44
484.681	111.44
484.9	111.44
485.118	107.44
485.336	117.44
485.554	107.44
485.772	107.44
485.99	93.44
486.209	107.44
486.427	99.44
486.645	111.44
486.863	92.44
487.081	113.44
487.299	106.44
487.517	122.44
487.735	118.44
487.953	105.44
488.171	108.44
488.389	117.44
488.607	108.44
488.825	101.44
489.043	107.44
489.261	100.44
489.479	108.44
489.696	95.44
489.914	114.44
490.132	103.44
490.35	124.44
490.568	98.44
490.786	112.44
491.003	104.44
491.221	110.44
491.439	120.44
491.657	119.44
491.874	120.44
492.092	127.44
492.31	140.44
492.527	120.44
492.745	111.44
492.963	121.44
493.18	121.44
493.398	132.44
493.615	113.44
493.833	114.44
494.05	103.44
494.268	107.44
494.485	109.44
494.703	116.44
494.92	119.44
495.138	103.44
495.355	115.44
495.573	121.44
495.79	115.44
496.008	115.44
496.225	114.44
496.442	104.44
496.66	122.44
496.877	100.44
497.094	125.44
497.312	100.44
497.529	121.44
497.746	118.44
497.963	122.44
498.181	104.44
498.398	120.44
498.615	113.44
498.832	118.44
499.049	121.44
499.267	123.44
499.484	133.44
499.701	139.44
499.918	148.44
500.135	163.44
500.352	151.44
500.569	162.44
500.786	165.44
501.003	144.44
501.22	145.44
501.437	145.44
501.654	130.44
501.871	124.44
502.088	123.44
502.305	107.44
502.522	119.44
502.739	123.44
502.956	103.44
503.172	129.44
503.389	125.44
503.606	125.44
503.823	105.44
504.04	115.44
504.256	124.44
504.473	108.44
504.69	131.44
504.907	125.44
505.123	115.44
505.34	116.44
505.557	91.44
505.773	113.44
505.99	113.44
506.207	119.44
506.423	110.44
506.64	98.44
506.856	117.44
507.073	108.44
507.289	90.44
507.506	127.44
507.722	100.44
507.939	100.44
508.155	96.44
508.372	113.44
508.588	109.44
508.805	106.44
509.021	91.44
509.238	98.44
509.454	111.44
509.67	97.44
509.887	105.44
510.103	91.44
510.319	108.44
510.536	99.44
510.752	97.44
510.968	105.44
511.184	84.44
511.401	113.44
511.617	91.44
511.833	97.44
512.049	75.44
512.265	88.44
512.481	100.44
512.698	107.44
512.914	107.44
513.13	107.44
513.346	105.44
513.562	109.44
