Data from Location5.07152019.Energy5.Lamp.07192019.3%Agarose_HRD10591_16-03-17-632.txt Node
Date: Fri Jul 19 16:03:17 EDT 2019
User: cochatt
Spectrometer: HR+D1059
Trigger mode: 1
Integration Time (sec): 1.000000E-1
Scans to average: 1
Electric dark correction enabled: true
Nonlinearity correction enabled: false
Boxcar width: 0
XAxis mode: Wavelengths
Number of Pixels in Spectrum: 2048
>>>>>Begin Spectral Data<<<<<
223.165	-21.12
223.4	-21.12
223.635	-21.12
223.869	-14.12
224.104	-21.12
224.338	-23.12
224.573	-25.12
224.808	-16.12
225.042	-17.12
225.277	4.88
225.511	-3.12
225.746	14.88
225.98	8.88
226.215	16.88
226.449	18.88
226.683	20.88
226.918	22.88
227.152	32.88
227.387	20.88
227.621	26.88
227.856	39.88
228.09	48.88
228.324	43.88
228.559	62.88
228.793	52.88
229.027	78.88
229.262	56.88
229.496	70.88
229.73	65.88
229.964	75.88
230.199	79.88
230.433	78.88
230.667	65.88
230.901	77.88
231.136	74.88
231.37	71.88
231.604	71.88
231.838	80.88
232.072	69.88
232.306	79.88
232.541	84.88
232.775	83.88
233.009	83.88
233.243	81.88
233.477	80.88
233.711	83.88
233.945	83.88
234.179	92.88
234.413	76.88
234.647	79.88
234.881	75.88
235.115	61.88
235.349	74.88
235.583	99.88
235.817	75.88
236.051	80.88
236.285	62.88
236.519	69.88
236.753	82.88
236.987	77.88
237.221	78.88
237.455	84.88
237.689	73.88
237.922	70.88
238.156	76.88
238.39	77.88
238.624	78.88
238.858	67.88
239.091	77.88
239.325	68.88
239.559	86.88
239.793	77.88
240.027	99.88
240.26	79.88
240.494	73.88
240.728	76.88
240.961	65.88
241.195	61.88
241.429	69.88
241.662	86.88
241.896	79.88
242.13	73.88
242.363	72.88
242.597	72.88
242.83	77.88
243.064	80.88
243.298	60.88
243.531	83.88
243.765	88.88
243.998	86.88
244.232	71.88
244.465	78.88
244.699	68.88
244.932	84.88
245.166	78.88
245.399	77.88
245.633	77.88
245.866	69.88
246.099	85.88
246.333	77.88
246.566	90.88
246.8	85.88
247.033	68.88
247.266	81.88
247.5	81.88
247.733	92.88
247.966	88.88
248.2	86.88
248.433	83.88
248.666	82.88
248.899	89.88
249.133	82.88
249.366	82.88
249.599	75.88
249.832	84.88
250.066	77.88
250.299	72.88
250.532	88.88
250.765	73.88
250.998	80.88
251.231	59.88
251.465	79.88
251.698	82.88
251.931	91.88
252.164	85.88
252.397	83.88
252.63	80.88
252.863	82.88
253.096	82.88
253.329	87.88
253.562	82.88
253.795	81.88
254.028	90.88
254.261	74.88
254.494	76.88
254.727	81.88
254.96	44.88
255.193	68.88
255.426	75.88
255.659	81.88
255.892	89.88
256.124	85.88
256.357	90.88
256.59	81.88
256.823	85.88
257.056	74.88
257.289	96.88
257.521	96.88
257.754	87.88
257.987	78.88
258.22	87.88
258.452	71.88
258.685	86.88
258.918	69.88
259.151	71.88
259.383	72.88
259.616	75.88
259.849	86.88
260.081	76.88
260.314	82.88
260.547	75.88
260.779	81.88
261.012	82.88
261.244	59.88
261.477	90.88
261.71	68.88
261.942	84.88
262.175	81.88
262.407	78.88
262.64	81.88
262.872	83.88
263.105	83.88
263.337	84.88
263.57	67.88
263.802	84.88
264.035	86.88
264.267	95.88
264.499	80.88
264.732	75.88
264.964	86.88
265.197	96.88
265.429	81.88
265.661	90.88
265.894	84.88
266.126	91.88
266.358	89.88
266.591	78.88
266.823	104.88
267.055	87.88
267.287	81.88
267.52	85.88
267.752	98.88
267.984	80.88
268.216	90.88
268.448	83.88
268.681	92.88
268.913	75.88
269.145	87.88
269.377	94.88
269.609	95.88
269.841	77.88
270.073	98.88
270.306	81.88
270.538	90.88
270.77	84.88
271.002	76.88
271.234	90.88
271.466	89.88
271.698	81.88
271.93	89.88
272.162	87.88
272.394	94.88
272.626	97.88
272.858	90.88
273.09	95.88
273.322	85.88
273.553	90.88
273.785	80.88
274.017	98.88
274.249	82.88
274.481	94.88
274.713	82.88
274.945	87.88
275.176	68.88
275.408	78.88
275.64	91.88
275.872	90.88
276.104	81.88
276.335	81.88
276.567	75.88
276.799	91.88
277.031	96.88
277.262	70.88
277.494	82.88
277.726	84.88
277.957	78.88
278.189	80.88
278.421	100.88
278.652	97.88
278.884	94.88
279.115	73.88
279.347	85.88
279.579	95.88
279.81	96.88
280.042	86.88
280.273	91.88
280.505	80.88
280.736	104.88
280.968	98.88
281.199	92.88
281.431	87.88
281.662	79.88
281.894	88.88
282.125	88.88
282.356	96.88
282.588	81.88
282.819	95.88
283.051	87.88
283.282	101.88
283.513	90.88
283.745	101.88
283.976	92.88
284.207	89.88
284.439	73.88
284.67	79.88
284.901	87.88
285.132	91.88
285.364	97.88
285.595	104.88
285.826	97.88
286.057	75.88
286.288	87.88
286.52	87.88
286.751	85.88
286.982	82.88
287.213	63.88
287.444	94.88
287.675	99.88
287.906	94.88
288.138	83.88
288.369	88.88
288.6	98.88
288.831	87.88
289.062	94.88
289.293	90.88
289.524	78.88
289.755	100.88
289.986	95.88
290.217	98.88
290.448	92.88
290.679	92.88
290.91	82.88
291.141	70.88
291.371	72.88
291.602	87.88
291.833	83.88
292.064	82.88
292.295	88.88
292.526	81.88
292.757	94.88
292.987	87.88
293.218	98.88
293.449	88.88
293.68	80.88
293.91	85.88
294.141	92.88
294.372	101.88
294.603	94.88
294.833	94.88
295.064	91.88
295.295	84.88
295.525	100.88
295.756	93.88
295.987	81.88
296.217	83.88
296.448	99.88
296.679	88.88
296.909	90.88
297.14	83.88
297.37	91.88
297.601	99.88
297.831	89.88
298.062	93.88
298.292	82.88
298.523	83.88
298.753	83.88
298.984	91.88
299.214	88.88
299.445	85.88
299.675	99.88
299.905	95.88
300.136	88.88
300.366	97.88
300.597	99.88
300.827	88.88
301.057	87.88
301.288	110.88
301.518	96.88
301.748	99.88
301.979	89.88
302.209	82.88
302.439	88.88
302.669	101.88
302.9	94.88
303.13	98.88
303.36	98.88
303.59	84.88
303.82	99.88
304.051	88.88
304.281	95.88
304.511	95.88
304.741	95.88
304.971	70.88
305.201	101.88
305.431	98.88
305.661	95.88
305.891	95.88
306.121	103.88
306.352	87.88
306.582	89.88
306.812	91.88
307.042	98.88
307.272	91.88
307.502	86.88
307.731	71.88
307.961	78.88
308.191	99.88
308.421	93.88
308.651	102.88
308.881	99.88
309.111	96.88
309.341	87.88
309.571	78.88
309.8	84.88
310.03	86.88
310.26	90.88
310.49	83.88
310.72	107.88
310.949	104.88
311.179	92.88
311.409	97.88
311.639	105.88
311.868	93.88
312.098	87.88
312.328	99.88
312.557	102.88
312.787	91.88
313.017	92.88
313.246	95.88
313.476	79.88
313.706	94.88
313.935	83.88
314.165	90.88
314.394	87.88
314.624	85.88
314.853	82.88
315.083	92.88
315.312	78.88
315.542	96.88
315.771	97.88
316.001	79.88
316.23	102.88
316.46	95.88
316.689	79.88
316.919	90.88
317.148	87.88
317.377	99.88
317.607	79.88
317.836	94.88
318.065	99.88
318.295	101.88
318.524	99.88
318.753	94.88
318.983	101.88
319.212	96.88
319.441	103.88
319.67	99.88
319.9	104.88
320.129	99.88
320.358	84.88
320.587	105.88
320.816	96.88
321.046	99.88
321.275	99.88
321.504	89.88
321.733	112.88
321.962	97.88
322.191	108.88
322.42	99.88
322.649	100.88
322.878	80.88
323.108	96.88
323.337	91.88
323.566	89.88
323.795	84.88
324.024	84.88
324.253	96.88
324.482	89.88
324.71	88.88
324.939	115.88
325.168	83.88
325.397	90.88
325.626	100.88
325.855	89.88
326.084	100.88
326.313	99.88
326.542	101.88
326.77	82.88
326.999	89.88
327.228	92.88
327.457	98.88
327.686	92.88
327.914	87.88
328.143	105.88
328.372	91.88
328.6	92.88
328.829	105.88
329.058	90.88
329.287	82.88
329.515	85.88
329.744	94.88
329.972	103.88
330.201	96.88
330.43	92.88
330.658	95.88
330.887	101.88
331.115	82.88
331.344	106.88
331.572	95.88
331.801	99.88
332.03	96.88
332.258	99.88
332.486	84.88
332.715	85.88
332.943	97.88
333.172	104.88
333.4	93.88
333.629	91.88
333.857	103.88
334.085	107.88
334.314	102.88
334.542	82.88
334.771	101.88
334.999	108.88
335.227	104.88
335.455	92.88
335.684	102.88
335.912	101.88
336.14	87.88
336.369	94.88
336.597	71.88
336.825	82.88
337.053	99.88
337.281	98.88
337.51	98.88
337.738	90.88
337.966	96.88
338.194	106.88
338.422	89.88
338.65	107.88
338.878	94.88
339.106	105.88
339.334	110.88
339.562	92.88
339.79	97.88
340.018	86.88
340.246	95.88
340.474	90.88
340.702	107.88
340.93	87.88
341.158	87.88
341.386	89.88
341.614	98.88
341.842	89.88
342.07	100.88
342.298	95.88
342.526	97.88
342.754	89.88
342.981	86.88
343.209	82.88
343.437	92.88
343.665	89.88
343.893	94.88
344.12	82.88
344.348	104.88
344.576	105.88
344.804	99.88
345.031	88.88
345.259	96.88
345.487	101.88
345.714	93.88
345.942	98.88
346.17	90.88
346.397	92.88
346.625	91.88
346.853	97.88
347.08	95.88
347.308	87.88
347.535	87.88
347.763	88.88
347.99	86.88
348.218	107.88
348.445	88.88
348.673	101.88
348.9	83.88
349.128	92.88
349.355	88.88
349.583	90.88
349.81	94.88
350.037	98.88
350.265	96.88
350.492	97.88
350.72	96.88
350.947	104.88
351.174	81.88
351.402	110.88
351.629	84.88
351.856	83.88
352.083	103.88
352.311	103.88
352.538	93.88
352.765	105.88
352.992	101.88
353.22	89.88
353.447	88.88
353.674	108.88
353.901	89.88
354.128	98.88
354.355	93.88
354.583	87.88
354.81	83.88
355.037	84.88
355.264	81.88
355.491	92.88
355.718	97.88
355.945	96.88
356.172	81.88
356.399	82.88
356.626	101.88
356.853	76.88
357.08	97.88
357.307	85.88
357.534	82.88
357.761	82.88
357.988	99.88
358.215	99.88
358.441	88.88
358.668	93.88
358.895	96.88
359.122	98.88
359.349	89.88
359.576	100.88
359.802	96.88
360.029	94.88
360.256	80.88
360.483	81.88
360.709	91.88
360.936	98.88
361.163	98.88
361.39	91.88
361.616	94.88
361.843	95.88
362.07	100.88
362.296	87.88
362.523	105.88
362.749	92.88
362.976	85.88
363.203	81.88
363.429	97.88
363.656	92.88
363.882	87.88
364.109	98.88
364.335	98.88
364.562	102.88
364.788	105.88
365.015	90.88
365.241	94.88
365.468	93.88
365.694	97.88
365.92	94.88
366.147	112.88
366.373	86.88
366.599	103.88
366.826	92.88
367.052	86.88
367.278	81.88
367.505	82.88
367.731	75.88
367.957	92.88
368.184	78.88
368.41	69.88
368.636	95.88
368.862	100.88
369.089	94.88
369.315	96.88
369.541	108.88
369.767	88.88
369.993	93.88
370.219	86.88
370.445	78.88
370.672	92.88
370.898	83.88
371.124	95.88
371.35	94.88
371.576	90.88
371.802	104.88
372.028	100.88
372.254	98.88
372.48	89.88
372.706	87.88
372.932	75.88
373.158	82.88
373.384	117.88
373.61	98.88
373.835	97.88
374.061	98.88
374.287	82.88
374.513	94.88
374.739	88.88
374.965	91.88
375.191	97.88
375.416	84.88
375.642	86.88
375.868	104.88
376.094	96.88
376.319	94.88
376.545	98.88
376.771	96.88
376.997	93.88
377.222	97.88
377.448	93.88
377.674	94.88
377.899	92.88
378.125	93.88
378.35	99.88
378.576	97.88
378.802	91.88
379.027	92.88
379.253	96.88
379.478	98.88
379.704	89.88
379.929	92.88
380.155	85.88
380.38	90.88
380.606	95.88
380.831	96.88
381.057	105.88
381.282	100.88
381.507	91.88
381.733	80.88
381.958	91.88
382.184	94.88
382.409	99.88
382.634	88.88
382.86	95.88
383.085	104.88
383.31	95.88
383.535	100.88
383.761	95.88
383.986	83.88
384.211	81.88
384.436	83.88
384.662	83.88
384.887	92.88
385.112	101.88
385.337	75.88
385.562	92.88
385.787	86.88
386.013	93.88
386.238	108.88
386.463	98.88
386.688	92.88
386.913	116.88
387.138	91.88
387.363	89.88
387.588	86.88
387.813	92.88
388.038	97.88
388.263	99.88
388.488	103.88
388.713	100.88
388.938	93.88
389.163	95.88
389.387	87.88
389.612	84.88
389.837	89.88
390.062	87.88
390.287	94.88
390.512	79.88
390.736	88.88
390.961	84.88
391.186	95.88
391.411	98.88
391.636	95.88
391.86	107.88
392.085	96.88
392.31	98.88
392.534	99.88
392.759	92.88
392.984	99.88
393.208	91.88
393.433	99.88
393.658	97.88
393.882	95.88
394.107	97.88
394.331	95.88
394.556	98.88
394.78	90.88
395.005	84.88
395.229	95.88
395.454	98.88
395.678	90.88
395.903	91.88
396.127	88.88
396.352	99.88
396.576	94.88
396.801	96.88
397.025	102.88
397.249	96.88
397.474	106.88
397.698	115.88
397.922	88.88
398.147	103.88
398.371	99.88
398.595	96.88
398.82	113.88
399.044	99.88
399.268	98.88
399.492	102.88
399.717	102.88
399.941	95.88
400.165	103.88
400.389	94.88
400.613	102.88
400.837	99.88
401.062	91.88
401.286	98.88
401.51	95.88
401.734	91.88
401.958	104.88
402.182	93.88
402.406	105.88
402.63	100.88
402.854	104.88
403.078	92.88
403.302	94.88
403.526	92.88
403.75	104.88
403.974	93.88
404.198	111.88
404.422	106.88
404.645	104.88
404.869	104.88
405.093	102.88
405.317	98.88
405.541	94.88
405.765	97.88
405.988	100.88
406.212	119.88
406.436	113.88
406.66	116.88
406.883	121.88
407.107	113.88
407.331	113.88
407.555	111.88
407.778	100.88
408.002	94.88
408.226	102.88
408.449	95.88
408.673	103.88
408.896	107.88
409.12	101.88
409.344	103.88
409.567	106.88
409.791	110.88
410.014	103.88
410.238	105.88
410.461	92.88
410.685	91.88
410.908	94.88
411.132	109.88
411.355	103.88
411.578	103.88
411.802	104.88
412.025	111.88
412.249	94.88
412.472	100.88
412.695	96.88
412.919	85.88
413.142	94.88
413.365	102.88
413.589	104.88
413.812	103.88
414.035	106.88
414.258	87.88
414.482	105.88
414.705	89.88
414.928	95.88
415.151	88.88
415.374	102.88
415.597	106.88
415.821	103.88
416.044	116.88
416.267	107.88
416.49	119.88
416.713	111.88
416.936	91.88
417.159	88.88
417.382	109.88
417.605	103.88
417.828	97.88
418.051	99.88
418.274	101.88
418.497	112.88
418.72	95.88
418.943	110.88
419.166	97.88
419.389	100.88
419.611	90.88
419.834	101.88
420.057	103.88
420.28	102.88
420.503	102.88
420.726	79.88
420.948	101.88
421.171	95.88
421.394	82.88
421.617	103.88
421.839	94.88
422.062	101.88
422.285	97.88
422.507	108.88
422.73	99.88
422.953	100.88
423.175	99.88
423.398	101.88
423.621	100.88
423.843	84.88
424.066	85.88
424.288	112.88
424.511	115.88
424.733	109.88
424.956	108.88
425.178	104.88
425.401	96.88
425.623	102.88
425.846	96.88
426.068	103.88
426.291	103.88
426.513	96.88
426.735	101.88
426.958	93.88
427.18	99.88
427.402	113.88
427.625	93.88
427.847	92.88
428.069	95.88
428.292	96.88
428.514	91.88
428.736	87.88
428.958	85.88
429.181	84.88
429.403	101.88
429.625	83.88
429.847	92.88
430.069	96.88
430.292	86.88
430.514	100.88
430.736	97.88
430.958	104.88
431.18	100.88
431.402	102.88
431.624	96.88
431.846	91.88
432.068	92.88
432.29	112.88
432.512	95.88
432.734	99.88
432.956	99.88
433.178	98.88
433.4	85.88
433.622	91.88
433.844	89.88
434.066	106.88
434.287	94.88
434.509	99.88
434.731	97.88
434.953	101.88
435.175	97.88
435.397	99.88
435.618	90.88
435.84	90.88
436.062	102.88
436.284	108.88
436.505	100.88
436.727	104.88
436.949	103.88
437.17	92.88
437.392	101.88
437.614	87.88
437.835	107.88
438.057	103.88
438.278	88.88
438.5	99.88
438.721	81.88
438.943	110.88
439.165	86.88
439.386	86.88
439.608	95.88
439.829	96.88
440.05	110.88
440.272	98.88
440.493	101.88
440.715	81.88
440.936	107.88
441.158	106.88
441.379	106.88
441.6	95.88
441.822	112.88
442.043	91.88
442.264	93.88
442.486	111.88
442.707	87.88
442.928	85.88
443.149	92.88
443.371	104.88
443.592	99.88
443.813	104.88
444.034	96.88
444.255	96.88
444.476	94.88
444.698	102.88
444.919	101.88
445.14	210.88
445.361	151.88
445.582	93.88
445.803	87.88
446.024	105.88
446.245	114.88
446.466	101.88
446.687	102.88
446.908	113.88
447.129	94.88
447.35	91.88
447.571	97.88
447.792	96.88
448.013	88.88
448.234	82.88
448.455	83.88
448.675	108.88
448.896	114.88
449.117	70.88
449.338	87.88
449.559	106.88
449.779	82.88
450	80.88
450.221	102.88
450.442	90.88
450.662	84.88
450.883	92.88
451.104	101.88
451.324	92.88
451.545	103.88
451.766	90.88
451.986	90.88
452.207	89.88
452.428	95.88
452.648	90.88
452.869	103.88
453.089	80.88
453.31	80.88
453.53	87.88
453.751	102.88
453.971	105.88
454.192	105.88
454.412	98.88
454.633	100.88
454.853	110.88
455.073	87.88
455.294	86.88
455.514	75.88
455.734	107.88
455.955	95.88
456.175	91.88
456.395	100.88
456.616	88.88
456.836	96.88
457.056	95.88
457.276	99.88
457.497	87.88
457.717	88.88
457.937	98.88
458.157	106.88
458.377	89.88
458.598	98.88
458.818	89.88
459.038	90.88
459.258	115.88
459.478	96.88
459.698	104.88
459.918	101.88
460.138	108.88
460.358	106.88
460.578	102.88
460.798	84.88
461.018	107.88
461.238	97.88
461.458	96.88
461.678	96.88
461.898	100.88
462.118	111.88
462.338	102.88
462.558	89.88
462.777	108.88
462.997	122.88
463.217	103.88
463.437	108.88
463.657	114.88
463.876	120.88
464.096	110.88
464.316	104.88
464.536	106.88
464.755	119.88
464.975	98.88
465.195	103.88
465.414	110.88
465.634	96.88
465.854	100.88
466.073	106.88
466.293	99.88
466.512	88.88
466.732	97.88
466.951	107.88
467.171	115.88
467.391	103.88
467.61	94.88
467.829	79.88
468.049	102.88
468.268	90.88
468.488	87.88
468.707	102.88
468.927	107.88
469.146	107.88
469.365	92.88
469.585	84.88
469.804	93.88
470.023	118.88
470.243	108.88
470.462	103.88
470.681	97.88
470.901	96.88
471.12	90.88
471.339	115.88
471.558	98.88
471.777	97.88
471.997	91.88
472.216	89.88
472.435	101.88
472.654	89.88
472.873	105.88
473.092	117.88
473.311	101.88
473.53	98.88
473.749	99.88
473.968	85.88
474.187	96.88
474.406	108.88
474.625	109.88
474.844	100.88
475.063	96.88
475.282	117.88
475.501	100.88
475.72	112.88
475.939	103.88
476.158	100.88
476.377	95.88
476.596	96.88
476.814	86.88
477.033	87.88
477.252	90.88
477.471	90.88
477.69	116.88
477.908	114.88
478.127	113.88
478.346	79.88
478.564	118.88
478.783	114.88
479.002	120.88
479.22	99.88
479.439	103.88
479.658	104.88
479.876	108.88
480.095	104.88
480.313	97.88
480.532	99.88
480.751	115.88
480.969	97.88
481.188	91.88
481.406	102.88
481.624	105.88
481.843	104.88
482.061	113.88
482.28	110.88
482.498	109.88
482.717	95.88
482.935	118.88
483.153	102.88
483.372	101.88
483.59	111.88
483.808	112.88
484.027	101.88
484.245	100.88
484.463	88.88
484.681	113.88
484.9	100.88
485.118	105.88
485.336	104.88
485.554	99.88
485.772	111.88
485.99	111.88
486.209	119.88
486.427	105.88
486.645	111.88
486.863	104.88
487.081	94.88
487.299	93.88
487.517	110.88
487.735	106.88
487.953	114.88
488.171	107.88
488.389	122.88
488.607	101.88
488.825	111.88
489.043	115.88
489.261	107.88
489.479	96.88
489.696	96.88
489.914	103.88
490.132	105.88
490.35	120.88
490.568	100.88
490.786	103.88
491.003	122.88
491.221	122.88
491.439	107.88
491.657	112.88
491.874	109.88
492.092	119.88
492.31	124.88
492.527	125.88
492.745	100.88
492.963	121.88
493.18	102.88
493.398	110.88
493.615	113.88
493.833	116.88
494.05	121.88
494.268	118.88
494.485	125.88
494.703	118.88
494.92	100.88
495.138	125.88
495.355	120.88
495.573	112.88
495.79	98.88
496.008	124.88
496.225	118.88
496.442	114.88
496.66	117.88
496.877	120.88
497.094	131.88
497.312	126.88
497.529	102.88
497.746	121.88
497.963	106.88
498.181	112.88
498.398	116.88
498.615	123.88
498.832	127.88
499.049	118.88
499.267	139.88
499.484	137.88
499.701	134.88
499.918	143.88
500.135	144.88
500.352	174.88
500.569	162.88
500.786	179.88
501.003	169.88
501.22	155.88
501.437	150.88
501.654	136.88
501.871	114.88
502.088	119.88
502.305	138.88
502.522	114.88
502.739	117.88
502.956	120.88
503.172	98.88
503.389	129.88
503.606	123.88
503.823	122.88
504.04	122.88
504.256	118.88
504.473	113.88
504.69	115.88
504.907	106.88
505.123	120.88
505.34	119.88
505.557	115.88
505.773	119.88
505.99	113.88
506.207	103.88
506.423	107.88
506.64	109.88
506.856	115.88
507.073	104.88
507.289	114.88
507.506	119.88
507.722	99.88
507.939	102.88
508.155	114.88
508.372	110.88
508.588	96.88
508.805	90.88
509.021	105.88
509.238	116.88
509.454	106.88
509.67	99.88
509.887	107.88
510.103	101.88
510.319	110.88
510.536	107.88
510.752	88.88
510.968	114.88
511.184	97.88
511.401	100.88
511.617	117.88
511.833	100.88
512.049	105.88
512.265	103.88
512.481	93.88
512.698	108.88
512.914	106.88
513.13	107.88
513.346	100.88
513.562	89.88
