Data from Location5.07152019.Energy5.Lamp.07192019.3%Agarose_HRD10591_16-03-56-628.txt Node
Date: Fri Jul 19 16:03:56 EDT 2019
User: cochatt
Spectrometer: HR+D1059
Trigger mode: 1
Integration Time (sec): 1.000000E-1
Scans to average: 1
Electric dark correction enabled: true
Nonlinearity correction enabled: false
Boxcar width: 0
XAxis mode: Wavelengths
Number of Pixels in Spectrum: 2048
>>>>>Begin Spectral Data<<<<<
223.165	-21.06
223.4	-21.06
223.635	-21.06
223.869	-17.06
224.104	-21.06
224.338	-11.06
224.573	-13.06
224.808	-5.06
225.042	-17.06
225.277	-3.06
225.511	-3.06
225.746	-0.06
225.98	18.94
226.215	5.94
226.449	14.94
226.683	24.94
226.918	19.94
227.152	26.94
227.387	29.94
227.621	30.94
227.856	48.94
228.09	47.94
228.324	45.94
228.559	58.94
228.793	62.94
229.027	63.94
229.262	76.94
229.496	63.94
229.73	67.94
229.964	75.94
230.199	76.94
230.433	85.94
230.667	79.94
230.901	86.94
231.136	80.94
231.37	79.94
231.604	96.94
231.838	73.94
232.072	84.94
232.306	91.94
232.541	81.94
232.775	85.94
233.009	80.94
233.243	93.94
233.477	81.94
233.711	86.94
233.945	76.94
234.179	81.94
234.413	83.94
234.647	82.94
234.881	87.94
235.115	96.94
235.349	78.94
235.583	75.94
235.817	75.94
236.051	79.94
236.285	74.94
236.519	82.94
236.753	93.94
236.987	71.94
237.221	91.94
237.455	90.94
237.689	73.94
237.922	85.94
238.156	82.94
238.39	68.94
238.624	71.94
238.858	67.94
239.091	75.94
239.325	67.94
239.559	78.94
239.793	75.94
240.027	58.94
240.26	72.94
240.494	83.94
240.728	100.94
240.961	65.94
241.195	90.94
241.429	75.94
241.662	88.94
241.896	73.94
242.13	78.94
242.363	71.94
242.597	78.94
242.83	86.94
243.064	82.94
243.298	65.94
243.531	78.94
243.765	89.94
243.998	90.94
244.232	81.94
244.465	81.94
244.699	78.94
244.932	82.94
245.166	73.94
245.399	86.94
245.633	79.94
245.866	81.94
246.099	70.94
246.333	82.94
246.566	77.94
246.8	80.94
247.033	77.94
247.266	86.94
247.5	88.94
247.733	72.94
247.966	86.94
248.2	95.94
248.433	72.94
248.666	78.94
248.899	82.94
249.133	85.94
249.366	86.94
249.599	78.94
249.832	71.94
250.066	88.94
250.299	81.94
250.532	101.94
250.765	89.94
250.998	87.94
251.231	80.94
251.465	86.94
251.698	71.94
251.931	82.94
252.164	84.94
252.397	95.94
252.63	72.94
252.863	76.94
253.096	76.94
253.329	94.94
253.562	77.94
253.795	79.94
254.028	84.94
254.261	82.94
254.494	89.94
254.727	86.94
254.96	90.94
255.193	78.94
255.426	79.94
255.659	77.94
255.892	90.94
256.124	95.94
256.357	86.94
256.59	78.94
256.823	90.94
257.056	96.94
257.289	88.94
257.521	82.94
257.754	79.94
257.987	80.94
258.22	79.94
258.452	69.94
258.685	97.94
258.918	80.94
259.151	74.94
259.383	89.94
259.616	84.94
259.849	95.94
260.081	90.94
260.314	89.94
260.547	87.94
260.779	90.94
261.012	81.94
261.244	73.94
261.477	82.94
261.71	75.94
261.942	82.94
262.175	70.94
262.407	92.94
262.64	83.94
262.872	94.94
263.105	82.94
263.337	88.94
263.57	86.94
263.802	83.94
264.035	74.94
264.267	83.94
264.499	101.94
264.732	82.94
264.964	78.94
265.197	90.94
265.429	82.94
265.661	67.94
265.894	83.94
266.126	88.94
266.358	89.94
266.591	92.94
266.823	89.94
267.055	93.94
267.287	92.94
267.52	86.94
267.752	92.94
267.984	78.94
268.216	94.94
268.448	96.94
268.681	81.94
268.913	76.94
269.145	95.94
269.377	98.94
269.609	87.94
269.841	89.94
270.073	92.94
270.306	83.94
270.538	90.94
270.77	90.94
271.002	80.94
271.234	98.94
271.466	93.94
271.698	82.94
271.93	66.94
272.162	87.94
272.394	97.94
272.626	89.94
272.858	71.94
273.09	82.94
273.322	96.94
273.553	95.94
273.785	79.94
274.017	81.94
274.249	74.94
274.481	81.94
274.713	96.94
274.945	92.94
275.176	72.94
275.408	87.94
275.64	84.94
275.872	98.94
276.104	90.94
276.335	100.94
276.567	86.94
276.799	93.94
277.031	85.94
277.262	68.94
277.494	102.94
277.726	90.94
277.957	95.94
278.189	93.94
278.421	95.94
278.652	102.94
278.884	88.94
279.115	92.94
279.347	95.94
279.579	86.94
279.81	94.94
280.042	98.94
280.273	96.94
280.505	94.94
280.736	99.94
280.968	88.94
281.199	87.94
281.431	98.94
281.662	90.94
281.894	94.94
282.125	71.94
282.356	84.94
282.588	92.94
282.819	98.94
283.051	84.94
283.282	89.94
283.513	92.94
283.745	79.94
283.976	103.94
284.207	82.94
284.439	88.94
284.67	89.94
284.901	98.94
285.132	66.94
285.364	79.94
285.595	94.94
285.826	90.94
286.057	84.94
286.288	82.94
286.52	73.94
286.751	100.94
286.982	108.94
287.213	83.94
287.444	94.94
287.675	83.94
287.906	79.94
288.138	86.94
288.369	86.94
288.6	90.94
288.831	89.94
289.062	83.94
289.293	84.94
289.524	85.94
289.755	86.94
289.986	86.94
290.217	84.94
290.448	96.94
290.679	93.94
290.91	87.94
291.141	104.94
291.371	92.94
291.602	89.94
291.833	93.94
292.064	82.94
292.295	87.94
292.526	91.94
292.757	90.94
292.987	97.94
293.218	99.94
293.449	87.94
293.68	88.94
293.91	102.94
294.141	83.94
294.372	86.94
294.603	83.94
294.833	96.94
295.064	97.94
295.295	92.94
295.525	93.94
295.756	90.94
295.987	84.94
296.217	87.94
296.448	81.94
296.679	100.94
296.909	88.94
297.14	90.94
297.37	98.94
297.601	75.94
297.831	86.94
298.062	77.94
298.292	88.94
298.523	85.94
298.753	88.94
298.984	89.94
299.214	94.94
299.445	95.94
299.675	105.94
299.905	98.94
300.136	82.94
300.366	85.94
300.597	74.94
300.827	107.94
301.057	92.94
301.288	103.94
301.518	87.94
301.748	91.94
301.979	84.94
302.209	93.94
302.439	88.94
302.669	83.94
302.9	108.94
303.13	86.94
303.36	98.94
303.59	86.94
303.82	92.94
304.051	94.94
304.281	94.94
304.511	97.94
304.741	94.94
304.971	102.94
305.201	79.94
305.431	104.94
305.661	91.94
305.891	98.94
306.121	89.94
306.352	103.94
306.582	85.94
306.812	89.94
307.042	95.94
307.272	98.94
307.502	88.94
307.731	95.94
307.961	91.94
308.191	88.94
308.421	91.94
308.651	89.94
308.881	83.94
309.111	98.94
309.341	94.94
309.571	101.94
309.8	92.94
310.03	93.94
310.26	98.94
310.49	84.94
310.72	89.94
310.949	87.94
311.179	89.94
311.409	93.94
311.639	110.94
311.868	79.94
312.098	80.94
312.328	99.94
312.557	93.94
312.787	97.94
313.017	103.94
313.246	97.94
313.476	91.94
313.706	75.94
313.935	85.94
314.165	85.94
314.394	86.94
314.624	89.94
314.853	92.94
315.083	94.94
315.312	84.94
315.542	103.94
315.771	97.94
316.001	87.94
316.23	81.94
316.46	87.94
316.689	82.94
316.919	84.94
317.148	95.94
317.377	106.94
317.607	94.94
317.836	88.94
318.065	83.94
318.295	100.94
318.524	98.94
318.753	95.94
318.983	92.94
319.212	92.94
319.441	96.94
319.67	100.94
319.9	97.94
320.129	94.94
320.358	88.94
320.587	100.94
320.816	87.94
321.046	102.94
321.275	96.94
321.504	91.94
321.733	88.94
321.962	82.94
322.191	87.94
322.42	89.94
322.649	87.94
322.878	96.94
323.108	75.94
323.337	83.94
323.566	102.94
323.795	89.94
324.024	86.94
324.253	95.94
324.482	92.94
324.71	96.94
324.939	87.94
325.168	85.94
325.397	91.94
325.626	101.94
325.855	96.94
326.084	97.94
326.313	85.94
326.542	89.94
326.77	101.94
326.999	112.94
327.228	96.94
327.457	101.94
327.686	99.94
327.914	88.94
328.143	97.94
328.372	93.94
328.6	76.94
328.829	101.94
329.058	92.94
329.287	94.94
329.515	85.94
329.744	94.94
329.972	79.94
330.201	104.94
330.43	102.94
330.658	97.94
330.887	96.94
331.115	97.94
331.344	81.94
331.572	95.94
331.801	87.94
332.03	99.94
332.258	102.94
332.486	99.94
332.715	76.94
332.943	99.94
333.172	108.94
333.4	94.94
333.629	107.94
333.857	96.94
334.085	102.94
334.314	106.94
334.542	96.94
334.771	101.94
334.999	108.94
335.227	82.94
335.455	94.94
335.684	111.94
335.912	88.94
336.14	95.94
336.369	87.94
336.597	77.94
336.825	91.94
337.053	90.94
337.281	91.94
337.51	97.94
337.738	95.94
337.966	83.94
338.194	100.94
338.422	98.94
338.65	95.94
338.878	94.94
339.106	101.94
339.334	91.94
339.562	97.94
339.79	99.94
340.018	106.94
340.246	98.94
340.474	82.94
340.702	95.94
340.93	106.94
341.158	94.94
341.386	97.94
341.614	99.94
341.842	96.94
342.07	91.94
342.298	82.94
342.526	91.94
342.754	90.94
342.981	99.94
343.209	91.94
343.437	98.94
343.665	88.94
343.893	94.94
344.12	103.94
344.348	81.94
344.576	104.94
344.804	97.94
345.031	84.94
345.259	85.94
345.487	95.94
345.714	82.94
345.942	95.94
346.17	85.94
346.397	92.94
346.625	91.94
346.853	92.94
347.08	87.94
347.308	86.94
347.535	91.94
347.763	101.94
347.99	99.94
348.218	100.94
348.445	100.94
348.673	95.94
348.9	88.94
349.128	98.94
349.355	88.94
349.583	93.94
349.81	91.94
350.037	83.94
350.265	92.94
350.492	88.94
350.72	78.94
350.947	88.94
351.174	87.94
351.402	87.94
351.629	94.94
351.856	97.94
352.083	96.94
352.311	92.94
352.538	68.94
352.765	97.94
352.992	102.94
353.22	98.94
353.447	87.94
353.674	85.94
353.901	102.94
354.128	98.94
354.355	90.94
354.583	80.94
354.81	86.94
355.037	83.94
355.264	99.94
355.491	75.94
355.718	91.94
355.945	94.94
356.172	97.94
356.399	112.94
356.626	91.94
356.853	85.94
357.08	84.94
357.307	88.94
357.534	97.94
357.761	100.94
357.988	97.94
358.215	92.94
358.441	100.94
358.668	88.94
358.895	91.94
359.122	99.94
359.349	99.94
359.576	83.94
359.802	88.94
360.029	88.94
360.256	92.94
360.483	101.94
360.709	94.94
360.936	99.94
361.163	97.94
361.39	92.94
361.616	88.94
361.843	98.94
362.07	88.94
362.296	99.94
362.523	83.94
362.749	85.94
362.976	83.94
363.203	89.94
363.429	84.94
363.656	94.94
363.882	95.94
364.109	87.94
364.335	90.94
364.562	89.94
364.788	92.94
365.015	91.94
365.241	99.94
365.468	92.94
365.694	91.94
365.92	87.94
366.147	90.94
366.373	83.94
366.599	75.94
366.826	96.94
367.052	110.94
367.278	92.94
367.505	94.94
367.731	84.94
367.957	96.94
368.184	86.94
368.41	103.94
368.636	96.94
368.862	101.94
369.089	86.94
369.315	76.94
369.541	92.94
369.767	85.94
369.993	86.94
370.219	102.94
370.445	98.94
370.672	94.94
370.898	90.94
371.124	99.94
371.35	84.94
371.576	91.94
371.802	98.94
372.028	87.94
372.254	86.94
372.48	82.94
372.706	100.94
372.932	88.94
373.158	90.94
373.384	95.94
373.61	100.94
373.835	92.94
374.061	96.94
374.287	73.94
374.513	104.94
374.739	95.94
374.965	97.94
375.191	99.94
375.416	95.94
375.642	95.94
375.868	95.94
376.094	99.94
376.319	97.94
376.545	101.94
376.771	92.94
376.997	97.94
377.222	95.94
377.448	97.94
377.674	97.94
377.899	87.94
378.125	83.94
378.35	83.94
378.576	97.94
378.802	92.94
379.027	96.94
379.253	107.94
379.478	89.94
379.704	91.94
379.929	100.94
380.155	88.94
380.38	94.94
380.606	101.94
380.831	78.94
381.057	109.94
381.282	108.94
381.507	106.94
381.733	79.94
381.958	90.94
382.184	98.94
382.409	95.94
382.634	109.94
382.86	92.94
383.085	94.94
383.31	100.94
383.535	81.94
383.761	98.94
383.986	100.94
384.211	90.94
384.436	91.94
384.662	104.94
384.887	98.94
385.112	83.94
385.337	96.94
385.562	90.94
385.787	98.94
386.013	97.94
386.238	97.94
386.463	83.94
386.688	103.94
386.913	104.94
387.138	105.94
387.363	88.94
387.588	107.94
387.813	110.94
388.038	96.94
388.263	106.94
388.488	82.94
388.713	99.94
388.938	86.94
389.163	100.94
389.387	85.94
389.612	86.94
389.837	99.94
390.062	98.94
390.287	101.94
390.512	107.94
390.736	94.94
390.961	99.94
391.186	85.94
391.411	89.94
391.636	106.94
391.86	96.94
392.085	102.94
392.31	101.94
392.534	101.94
392.759	99.94
392.984	97.94
393.208	98.94
393.433	102.94
393.658	98.94
393.882	91.94
394.107	83.94
394.331	91.94
394.556	107.94
394.78	89.94
395.005	106.94
395.229	103.94
395.454	95.94
395.678	87.94
395.903	76.94
396.127	108.94
396.352	104.94
396.576	103.94
396.801	99.94
397.025	102.94
397.249	98.94
397.474	97.94
397.698	91.94
397.922	107.94
398.147	102.94
398.371	101.94
398.595	107.94
398.82	102.94
399.044	102.94
399.268	111.94
399.492	88.94
399.717	113.94
399.941	94.94
400.165	102.94
400.389	106.94
400.613	103.94
400.837	97.94
401.062	100.94
401.286	89.94
401.51	90.94
401.734	109.94
401.958	110.94
402.182	102.94
402.406	98.94
402.63	97.94
402.854	100.94
403.078	103.94
403.302	101.94
403.526	101.94
403.75	113.94
403.974	114.94
404.198	108.94
404.422	119.94
404.645	113.94
404.869	99.94
405.093	113.94
405.317	107.94
405.541	97.94
405.765	99.94
405.988	103.94
406.212	111.94
406.436	99.94
406.66	104.94
406.883	90.94
407.107	94.94
407.331	105.94
407.555	106.94
407.778	95.94
408.002	98.94
408.226	109.94
408.449	106.94
408.673	101.94
408.896	103.94
409.12	101.94
409.344	92.94
409.567	103.94
409.791	98.94
410.014	84.94
410.238	103.94
410.461	86.94
410.685	106.94
410.908	99.94
411.132	108.94
411.355	108.94
411.578	90.94
411.802	118.94
412.025	86.94
412.249	106.94
412.472	86.94
412.695	93.94
412.919	99.94
413.142	100.94
413.365	117.94
413.589	91.94
413.812	104.94
414.035	103.94
414.258	84.94
414.482	93.94
414.705	87.94
414.928	85.94
415.151	112.94
415.374	90.94
415.597	97.94
415.821	98.94
416.044	85.94
416.267	95.94
416.49	111.94
416.713	88.94
416.936	95.94
417.159	99.94
417.382	100.94
417.605	104.94
417.828	94.94
418.051	87.94
418.274	101.94
418.497	97.94
418.72	91.94
418.943	90.94
419.166	106.94
419.389	95.94
419.611	102.94
419.834	103.94
420.057	106.94
420.28	97.94
420.503	100.94
420.726	80.94
420.948	100.94
421.171	88.94
421.394	102.94
421.617	105.94
421.839	108.94
422.062	103.94
422.285	99.94
422.507	88.94
422.73	105.94
422.953	91.94
423.175	104.94
423.398	108.94
423.621	100.94
423.843	108.94
424.066	95.94
424.288	92.94
424.511	98.94
424.733	84.94
424.956	98.94
425.178	103.94
425.401	96.94
425.623	105.94
425.846	97.94
426.068	98.94
426.291	100.94
426.513	103.94
426.735	87.94
426.958	102.94
427.18	93.94
427.402	89.94
427.625	104.94
427.847	90.94
428.069	95.94
428.292	86.94
428.514	100.94
428.736	109.94
428.958	101.94
429.181	96.94
429.403	95.94
429.625	97.94
429.847	107.94
430.069	94.94
430.292	99.94
430.514	89.94
430.736	102.94
430.958	94.94
431.18	89.94
431.402	112.94
431.624	106.94
431.846	82.94
432.068	89.94
432.29	96.94
432.512	94.94
432.734	99.94
432.956	88.94
433.178	86.94
433.4	87.94
433.622	84.94
433.844	91.94
434.066	88.94
434.287	93.94
434.509	104.94
434.731	99.94
434.953	96.94
435.175	97.94
435.397	99.94
435.618	88.94
435.84	96.94
436.062	92.94
436.284	107.94
436.505	87.94
436.727	92.94
436.949	102.94
437.17	86.94
437.392	92.94
437.614	90.94
437.835	83.94
438.057	98.94
438.278	86.94
438.5	100.94
438.721	94.94
438.943	93.94
439.165	91.94
439.386	104.94
439.608	109.94
439.829	105.94
440.05	102.94
440.272	82.94
440.493	105.94
440.715	100.94
440.936	119.94
441.158	102.94
441.379	98.94
441.6	98.94
441.822	99.94
442.043	94.94
442.264	96.94
442.486	109.94
442.707	86.94
442.928	101.94
443.149	98.94
443.371	83.94
443.592	107.94
443.813	93.94
444.034	92.94
444.255	103.94
444.476	110.94
444.698	117.94
444.919	98.94
445.14	182.94
445.361	137.94
445.582	100.94
445.803	84.94
446.024	95.94
446.245	110.94
446.466	94.94
446.687	96.94
446.908	94.94
447.129	98.94
447.35	87.94
447.571	87.94
447.792	94.94
448.013	102.94
448.234	113.94
448.455	87.94
448.675	90.94
448.896	98.94
449.117	85.94
449.338	102.94
449.559	104.94
449.779	106.94
450	79.94
450.221	102.94
450.442	96.94
450.662	97.94
450.883	98.94
451.104	98.94
451.324	78.94
451.545	100.94
451.766	110.94
451.986	105.94
452.207	105.94
452.428	94.94
452.648	78.94
452.869	110.94
453.089	94.94
453.31	92.94
453.53	110.94
453.751	103.94
453.971	102.94
454.192	99.94
454.412	104.94
454.633	104.94
454.853	105.94
455.073	86.94
455.294	98.94
455.514	96.94
455.734	96.94
455.955	114.94
456.175	91.94
456.395	82.94
456.616	87.94
456.836	95.94
457.056	97.94
457.276	88.94
457.497	88.94
457.717	92.94
457.937	95.94
458.157	101.94
458.377	94.94
458.598	79.94
458.818	84.94
459.038	93.94
459.258	106.94
459.478	92.94
459.698	98.94
459.918	102.94
460.138	79.94
460.358	87.94
460.578	100.94
460.798	101.94
461.018	86.94
461.238	100.94
461.458	107.94
461.678	101.94
461.898	106.94
462.118	111.94
462.338	100.94
462.558	101.94
462.777	112.94
462.997	96.94
463.217	98.94
463.437	112.94
463.657	99.94
463.876	105.94
464.096	111.94
464.316	102.94
464.536	92.94
464.755	107.94
464.975	103.94
465.195	112.94
465.414	106.94
465.634	100.94
465.854	107.94
466.073	96.94
466.293	103.94
466.512	95.94
466.732	94.94
466.951	91.94
467.171	101.94
467.391	117.94
467.61	102.94
467.829	91.94
468.049	86.94
468.268	107.94
468.488	99.94
468.707	107.94
468.927	76.94
469.146	86.94
469.365	93.94
469.585	99.94
469.804	110.94
470.023	98.94
470.243	104.94
470.462	105.94
470.681	98.94
470.901	81.94
471.12	101.94
471.339	98.94
471.558	102.94
471.777	112.94
471.997	106.94
472.216	102.94
472.435	89.94
472.654	100.94
472.873	90.94
473.092	87.94
473.311	85.94
473.53	96.94
473.749	99.94
473.968	104.94
474.187	93.94
474.406	96.94
474.625	85.94
474.844	113.94
475.063	87.94
475.282	97.94
475.501	111.94
475.72	110.94
475.939	89.94
476.158	92.94
476.377	97.94
476.596	102.94
476.814	93.94
477.033	88.94
477.252	89.94
477.471	99.94
477.69	106.94
477.908	105.94
478.127	106.94
478.346	97.94
478.564	120.94
478.783	105.94
479.002	98.94
479.22	106.94
479.439	103.94
479.658	97.94
479.876	96.94
480.095	104.94
480.313	108.94
480.532	94.94
480.751	102.94
480.969	114.94
481.188	103.94
481.406	75.94
481.624	94.94
481.843	96.94
482.061	105.94
482.28	100.94
482.498	114.94
482.717	90.94
482.935	116.94
483.153	117.94
483.372	124.94
483.59	101.94
483.808	122.94
484.027	108.94
484.245	114.94
484.463	105.94
484.681	114.94
484.9	110.94
485.118	111.94
485.336	110.94
485.554	106.94
485.772	89.94
485.99	110.94
486.209	107.94
486.427	106.94
486.645	100.94
486.863	110.94
487.081	114.94
487.299	108.94
487.517	110.94
487.735	92.94
487.953	115.94
488.171	117.94
488.389	94.94
488.607	108.94
488.825	107.94
489.043	109.94
489.261	112.94
489.479	111.94
489.696	100.94
489.914	102.94
490.132	91.94
490.35	112.94
490.568	116.94
490.786	122.94
491.003	121.94
491.221	112.94
491.439	102.94
491.657	98.94
491.874	122.94
492.092	119.94
492.31	121.94
492.527	112.94
492.745	118.94
492.963	116.94
493.18	110.94
493.398	105.94
493.615	96.94
493.833	120.94
494.05	110.94
494.268	128.94
494.485	121.94
494.703	92.94
494.92	118.94
495.138	108.94
495.355	99.94
495.573	116.94
495.79	104.94
496.008	113.94
496.225	112.94
496.442	107.94
496.66	111.94
496.877	115.94
497.094	124.94
497.312	113.94
497.529	110.94
497.746	103.94
497.963	102.94
498.181	117.94
498.398	107.94
498.615	116.94
498.832	107.94
499.049	114.94
499.267	130.94
499.484	143.94
499.701	130.94
499.918	130.94
500.135	145.94
500.352	150.94
500.569	166.94
500.786	170.94
501.003	154.94
501.22	156.94
501.437	144.94
501.654	140.94
501.871	107.94
502.088	128.94
502.305	123.94
502.522	122.94
502.739	111.94
502.956	104.94
503.172	110.94
503.389	114.94
503.606	109.94
503.823	111.94
504.04	120.94
504.256	96.94
504.473	103.94
504.69	126.94
504.907	130.94
505.123	109.94
505.34	99.94
505.557	91.94
505.773	106.94
505.99	102.94
506.207	110.94
506.423	96.94
506.64	115.94
506.856	112.94
507.073	111.94
507.289	98.94
507.506	100.94
507.722	98.94
507.939	94.94
508.155	110.94
508.372	120.94
508.588	105.94
508.805	111.94
509.021	96.94
509.238	106.94
509.454	101.94
509.67	95.94
509.887	88.94
510.103	94.94
510.319	96.94
510.536	113.94
510.752	94.94
510.968	109.94
511.184	110.94
511.401	106.94
511.617	96.94
511.833	88.94
512.049	88.94
512.265	106.94
512.481	103.94
512.698	101.94
512.914	112.94
513.13	104.94
513.346	106.94
513.562	110.94
513.778	90.94
