Data from Location5.07152019.Energy5.Lamp.07192019.3%Agarose_HRD10591_15-37-44-386.txt Node
Date: Fri Jul 19 15:37:44 EDT 2019
User: cochatt
Spectrometer: HR+D1059
Trigger mode: 1
Integration Time (sec): 1.000000E-1
Scans to average: 1
Electric dark correction enabled: true
Nonlinearity correction enabled: false
Boxcar width: 0
XAxis mode: Wavelengths
Number of Pixels in Spectrum: 2048
>>>>>Begin Spectral Data<<<<<
223.165	-14.81
223.4	-14.81
223.635	-14.81
223.869	-23.81
224.104	-14.81
224.338	-10.81
224.573	-3.81
224.808	-5.81
225.042	-15.81
225.277	-4.81
225.511	1.19
225.746	-4.81
225.98	-2.81
226.215	17.19
226.449	17.19
226.683	21.19
226.918	15.19
227.152	30.19
227.387	21.19
227.621	38.19
227.856	48.19
228.09	47.19
228.324	51.19
228.559	50.19
228.793	46.19
229.027	68.19
229.262	56.19
229.496	73.19
229.73	66.19
229.964	68.19
230.199	71.19
230.433	81.19
230.667	86.19
230.901	81.19
231.136	78.19
231.37	73.19
231.604	72.19
231.838	80.19
232.072	78.19
232.306	83.19
232.541	72.19
232.775	84.19
233.009	80.19
233.243	80.19
233.477	68.19
233.711	80.19
233.945	84.19
234.179	77.19
234.413	70.19
234.647	78.19
234.881	66.19
235.115	92.19
235.349	82.19
235.583	67.19
235.817	84.19
236.051	79.19
236.285	83.19
236.519	81.19
236.753	79.19
236.987	79.19
237.221	72.19
237.455	63.19
237.689	87.19
237.922	78.19
238.156	90.19
238.39	73.19
238.624	76.19
238.858	63.19
239.091	70.19
239.325	72.19
239.559	74.19
239.793	91.19
240.027	76.19
240.26	64.19
240.494	80.19
240.728	70.19
240.961	83.19
241.195	74.19
241.429	69.19
241.662	72.19
241.896	70.19
242.13	58.19
242.363	81.19
242.597	78.19
242.83	82.19
243.064	83.19
243.298	91.19
243.531	83.19
243.765	74.19
243.998	67.19
244.232	90.19
244.465	82.19
244.699	63.19
244.932	85.19
245.166	78.19
245.399	72.19
245.633	64.19
245.866	67.19
246.099	73.19
246.333	74.19
246.566	65.19
246.8	67.19
247.033	72.19
247.266	88.19
247.5	71.19
247.733	71.19
247.966	81.19
248.2	82.19
248.433	76.19
248.666	80.19
248.899	77.19
249.133	79.19
249.366	65.19
249.599	81.19
249.832	72.19
250.066	60.19
250.299	89.19
250.532	64.19
250.765	72.19
250.998	72.19
251.231	78.19
251.465	77.19
251.698	81.19
251.931	73.19
252.164	74.19
252.397	71.19
252.63	69.19
252.863	74.19
253.096	76.19
253.329	87.19
253.562	69.19
253.795	81.19
254.028	86.19
254.261	82.19
254.494	83.19
254.727	78.19
254.96	87.19
255.193	83.19
255.426	83.19
255.659	78.19
255.892	76.19
256.124	78.19
256.357	73.19
256.59	77.19
256.823	63.19
257.056	73.19
257.289	85.19
257.521	80.19
257.754	77.19
257.987	82.19
258.22	88.19
258.452	75.19
258.685	84.19
258.918	73.19
259.151	80.19
259.383	82.19
259.616	86.19
259.849	71.19
260.081	76.19
260.314	86.19
260.547	74.19
260.779	82.19
261.012	91.19
261.244	76.19
261.477	78.19
261.71	79.19
261.942	69.19
262.175	76.19
262.407	85.19
262.64	85.19
262.872	81.19
263.105	81.19
263.337	88.19
263.57	77.19
263.802	73.19
264.035	84.19
264.267	84.19
264.499	80.19
264.732	93.19
264.964	74.19
265.197	74.19
265.429	83.19
265.661	67.19
265.894	84.19
266.126	74.19
266.358	84.19
266.591	82.19
266.823	74.19
267.055	80.19
267.287	88.19
267.52	72.19
267.752	75.19
267.984	83.19
268.216	75.19
268.448	90.19
268.681	86.19
268.913	86.19
269.145	83.19
269.377	80.19
269.609	75.19
269.841	92.19
270.073	78.19
270.306	84.19
270.538	88.19
270.77	84.19
271.002	80.19
271.234	79.19
271.466	77.19
271.698	93.19
271.93	90.19
272.162	93.19
272.394	84.19
272.626	74.19
272.858	80.19
273.09	78.19
273.322	87.19
273.553	78.19
273.785	86.19
274.017	82.19
274.249	82.19
274.481	87.19
274.713	64.19
274.945	68.19
275.176	72.19
275.408	95.19
275.64	82.19
275.872	79.19
276.104	84.19
276.335	87.19
276.567	82.19
276.799	77.19
277.031	82.19
277.262	95.19
277.494	85.19
277.726	87.19
277.957	75.19
278.189	81.19
278.421	91.19
278.652	78.19
278.884	69.19
279.115	88.19
279.347	92.19
279.579	81.19
279.81	72.19
280.042	68.19
280.273	72.19
280.505	82.19
280.736	78.19
280.968	81.19
281.199	78.19
281.431	78.19
281.662	73.19
281.894	95.19
282.125	85.19
282.356	73.19
282.588	82.19
282.819	77.19
283.051	86.19
283.282	82.19
283.513	81.19
283.745	81.19
283.976	75.19
284.207	87.19
284.439	81.19
284.67	80.19
284.901	73.19
285.132	78.19
285.364	76.19
285.595	80.19
285.826	89.19
286.057	87.19
286.288	66.19
286.52	86.19
286.751	71.19
286.982	73.19
287.213	74.19
287.444	78.19
287.675	82.19
287.906	93.19
288.138	62.19
288.369	88.19
288.6	88.19
288.831	90.19
289.062	101.19
289.293	93.19
289.524	74.19
289.755	79.19
289.986	93.19
290.217	77.19
290.448	73.19
290.679	92.19
290.91	78.19
291.141	82.19
291.371	83.19
291.602	81.19
291.833	76.19
292.064	87.19
292.295	79.19
292.526	65.19
292.757	83.19
292.987	106.19
293.218	82.19
293.449	74.19
293.68	70.19
293.91	103.19
294.141	86.19
294.372	89.19
294.603	80.19
294.833	77.19
295.064	82.19
295.295	81.19
295.525	88.19
295.756	91.19
295.987	92.19
296.217	75.19
296.448	84.19
296.679	80.19
296.909	80.19
297.14	80.19
297.37	96.19
297.601	75.19
297.831	74.19
298.062	85.19
298.292	78.19
298.523	80.19
298.753	75.19
298.984	86.19
299.214	80.19
299.445	85.19
299.675	86.19
299.905	79.19
300.136	77.19
300.366	86.19
300.597	84.19
300.827	78.19
301.057	93.19
301.288	89.19
301.518	86.19
301.748	105.19
301.979	89.19
302.209	82.19
302.439	76.19
302.669	81.19
302.9	82.19
303.13	80.19
303.36	97.19
303.59	86.19
303.82	72.19
304.051	80.19
304.281	85.19
304.511	72.19
304.741	79.19
304.971	77.19
305.201	88.19
305.431	87.19
305.661	86.19
305.891	88.19
306.121	70.19
306.352	89.19
306.582	88.19
306.812	77.19
307.042	92.19
307.272	81.19
307.502	87.19
307.731	80.19
307.961	73.19
308.191	90.19
308.421	82.19
308.651	82.19
308.881	79.19
309.111	81.19
309.341	84.19
309.571	86.19
309.8	81.19
310.03	83.19
310.26	84.19
310.49	82.19
310.72	79.19
310.949	88.19
311.179	79.19
311.409	94.19
311.639	82.19
311.868	88.19
312.098	88.19
312.328	72.19
312.557	77.19
312.787	86.19
313.017	80.19
313.246	83.19
313.476	76.19
313.706	88.19
313.935	81.19
314.165	78.19
314.394	77.19
314.624	77.19
314.853	87.19
315.083	90.19
315.312	80.19
315.542	92.19
315.771	97.19
316.001	71.19
316.23	68.19
316.46	75.19
316.689	77.19
316.919	85.19
317.148	82.19
317.377	83.19
317.607	92.19
317.836	88.19
318.065	95.19
318.295	76.19
318.524	75.19
318.753	91.19
318.983	88.19
319.212	81.19
319.441	87.19
319.67	94.19
319.9	74.19
320.129	89.19
320.358	84.19
320.587	89.19
320.816	66.19
321.046	81.19
321.275	77.19
321.504	82.19
321.733	80.19
321.962	80.19
322.191	86.19
322.42	82.19
322.649	104.19
322.878	101.19
323.108	81.19
323.337	84.19
323.566	81.19
323.795	88.19
324.024	74.19
324.253	85.19
324.482	90.19
324.71	89.19
324.939	84.19
325.168	99.19
325.397	85.19
325.626	84.19
325.855	80.19
326.084	79.19
326.313	91.19
326.542	90.19
326.77	86.19
326.999	76.19
327.228	93.19
327.457	88.19
327.686	72.19
327.914	82.19
328.143	89.19
328.372	83.19
328.6	85.19
328.829	72.19
329.058	71.19
329.287	91.19
329.515	83.19
329.744	90.19
329.972	89.19
330.201	81.19
330.43	62.19
330.658	80.19
330.887	82.19
331.115	79.19
331.344	89.19
331.572	97.19
331.801	71.19
332.03	81.19
332.258	75.19
332.486	79.19
332.715	78.19
332.943	91.19
333.172	81.19
333.4	80.19
333.629	75.19
333.857	68.19
334.085	85.19
334.314	91.19
334.542	86.19
334.771	82.19
334.999	92.19
335.227	82.19
335.455	69.19
335.684	94.19
335.912	77.19
336.14	82.19
336.369	72.19
336.597	79.19
336.825	93.19
337.053	78.19
337.281	80.19
337.51	81.19
337.738	93.19
337.966	72.19
338.194	88.19
338.422	85.19
338.65	80.19
338.878	80.19
339.106	75.19
339.334	100.19
339.562	83.19
339.79	84.19
340.018	81.19
340.246	84.19
340.474	82.19
340.702	88.19
340.93	75.19
341.158	70.19
341.386	83.19
341.614	81.19
341.842	85.19
342.07	85.19
342.298	84.19
342.526	88.19
342.754	90.19
342.981	89.19
343.209	87.19
343.437	81.19
343.665	80.19
343.893	83.19
344.12	69.19
344.348	86.19
344.576	84.19
344.804	82.19
345.031	89.19
345.259	92.19
345.487	89.19
345.714	84.19
345.942	81.19
346.17	52.19
346.397	80.19
346.625	83.19
346.853	67.19
347.08	69.19
347.308	79.19
347.535	85.19
347.763	72.19
347.99	98.19
348.218	84.19
348.445	65.19
348.673	88.19
348.9	76.19
349.128	87.19
349.355	84.19
349.583	93.19
349.81	84.19
350.037	74.19
350.265	64.19
350.492	83.19
350.72	82.19
350.947	81.19
351.174	84.19
351.402	93.19
351.629	75.19
351.856	70.19
352.083	82.19
352.311	90.19
352.538	78.19
352.765	83.19
352.992	97.19
353.22	91.19
353.447	85.19
353.674	88.19
353.901	79.19
354.128	95.19
354.355	96.19
354.583	77.19
354.81	79.19
355.037	112.19
355.264	78.19
355.491	77.19
355.718	97.19
355.945	72.19
356.172	80.19
356.399	70.19
356.626	82.19
356.853	84.19
357.08	94.19
357.307	80.19
357.534	81.19
357.761	69.19
357.988	86.19
358.215	81.19
358.441	88.19
358.668	81.19
358.895	88.19
359.122	75.19
359.349	60.19
359.576	85.19
359.802	87.19
360.029	76.19
360.256	90.19
360.483	85.19
360.709	79.19
360.936	84.19
361.163	83.19
361.39	80.19
361.616	78.19
361.843	95.19
362.07	78.19
362.296	70.19
362.523	81.19
362.749	84.19
362.976	77.19
363.203	92.19
363.429	66.19
363.656	83.19
363.882	96.19
364.109	73.19
364.335	74.19
364.562	69.19
364.788	80.19
365.015	81.19
365.241	77.19
365.468	84.19
365.694	71.19
365.92	82.19
366.147	77.19
366.373	86.19
366.599	87.19
366.826	84.19
367.052	75.19
367.278	66.19
367.505	84.19
367.731	87.19
367.957	95.19
368.184	83.19
368.41	79.19
368.636	72.19
368.862	80.19
369.089	79.19
369.315	63.19
369.541	79.19
369.767	81.19
369.993	84.19
370.219	97.19
370.445	89.19
370.672	96.19
370.898	88.19
371.124	90.19
371.35	80.19
371.576	72.19
371.802	81.19
372.028	94.19
372.254	76.19
372.48	72.19
372.706	86.19
372.932	89.19
373.158	95.19
373.384	91.19
373.61	82.19
373.835	90.19
374.061	80.19
374.287	79.19
374.513	81.19
374.739	90.19
374.965	86.19
375.191	68.19
375.416	78.19
375.642	79.19
375.868	104.19
376.094	82.19
376.319	79.19
376.545	80.19
376.771	77.19
376.997	80.19
377.222	87.19
377.448	88.19
377.674	71.19
377.899	82.19
378.125	84.19
378.35	86.19
378.576	82.19
378.802	70.19
379.027	86.19
379.253	92.19
379.478	83.19
379.704	80.19
379.929	86.19
380.155	78.19
380.38	95.19
380.606	71.19
380.831	84.19
381.057	88.19
381.282	102.19
381.507	83.19
381.733	79.19
381.958	95.19
382.184	80.19
382.409	81.19
382.634	78.19
382.86	81.19
383.085	76.19
383.31	95.19
383.535	80.19
383.761	80.19
383.986	79.19
384.211	83.19
384.436	80.19
384.662	71.19
384.887	82.19
385.112	68.19
385.337	75.19
385.562	87.19
385.787	85.19
386.013	81.19
386.238	82.19
386.463	71.19
386.688	85.19
386.913	76.19
387.138	74.19
387.363	78.19
387.588	77.19
387.813	91.19
388.038	85.19
388.263	84.19
388.488	84.19
388.713	89.19
388.938	73.19
389.163	74.19
389.387	98.19
389.612	90.19
389.837	82.19
390.062	95.19
390.287	93.19
390.512	91.19
390.736	90.19
390.961	82.19
391.186	93.19
391.411	80.19
391.636	72.19
391.86	89.19
392.085	74.19
392.31	80.19
392.534	95.19
392.759	78.19
392.984	76.19
393.208	95.19
393.433	74.19
393.658	94.19
393.882	82.19
394.107	98.19
394.331	85.19
394.556	78.19
394.78	85.19
395.005	93.19
395.229	92.19
395.454	76.19
395.678	72.19
395.903	74.19
396.127	91.19
396.352	93.19
396.576	70.19
396.801	82.19
397.025	96.19
397.249	97.19
397.474	93.19
397.698	95.19
397.922	97.19
398.147	89.19
398.371	82.19
398.595	81.19
398.82	69.19
399.044	89.19
399.268	87.19
399.492	66.19
399.717	68.19
399.941	78.19
400.165	75.19
400.389	88.19
400.613	94.19
400.837	92.19
401.062	80.19
401.286	89.19
401.51	83.19
401.734	88.19
401.958	94.19
402.182	76.19
402.406	72.19
402.63	87.19
402.854	103.19
403.078	77.19
403.302	76.19
403.526	74.19
403.75	87.19
403.974	83.19
404.198	80.19
404.422	81.19
404.645	83.19
404.869	89.19
405.093	78.19
405.317	74.19
405.541	70.19
405.765	78.19
405.988	72.19
406.212	85.19
406.436	93.19
406.66	98.19
406.883	81.19
407.107	90.19
407.331	82.19
407.555	87.19
407.778	88.19
408.002	90.19
408.226	80.19
408.449	90.19
408.673	79.19
408.896	72.19
409.12	86.19
409.344	84.19
409.567	86.19
409.791	86.19
410.014	94.19
410.238	89.19
410.461	85.19
410.685	92.19
410.908	78.19
411.132	89.19
411.355	94.19
411.578	89.19
411.802	90.19
412.025	102.19
412.249	81.19
412.472	72.19
412.695	86.19
412.919	82.19
413.142	90.19
413.365	110.19
413.589	90.19
413.812	108.19
414.035	92.19
414.258	89.19
414.482	91.19
414.705	80.19
414.928	81.19
415.151	82.19
415.374	94.19
415.597	86.19
415.821	97.19
416.044	89.19
416.267	94.19
416.49	105.19
416.713	101.19
416.936	87.19
417.159	82.19
417.382	80.19
417.605	97.19
417.828	82.19
418.051	90.19
418.274	89.19
418.497	83.19
418.72	73.19
418.943	80.19
419.166	102.19
419.389	83.19
419.611	84.19
419.834	78.19
420.057	96.19
420.28	87.19
420.503	91.19
420.726	88.19
420.948	101.19
421.171	85.19
421.394	105.19
421.617	84.19
421.839	96.19
422.062	93.19
422.285	88.19
422.507	92.19
422.73	84.19
422.953	78.19
423.175	90.19
423.398	100.19
423.621	87.19
423.843	89.19
424.066	88.19
424.288	89.19
424.511	95.19
424.733	96.19
424.956	92.19
425.178	80.19
425.401	86.19
425.623	94.19
425.846	101.19
426.068	97.19
426.291	88.19
426.513	98.19
426.735	88.19
426.958	90.19
427.18	101.19
427.402	92.19
427.625	81.19
427.847	87.19
428.069	86.19
428.292	80.19
428.514	99.19
428.736	97.19
428.958	93.19
429.181	83.19
429.403	85.19
429.625	84.19
429.847	95.19
430.069	96.19
430.292	103.19
430.514	94.19
430.736	79.19
430.958	86.19
431.18	88.19
431.402	80.19
431.624	85.19
431.846	90.19
432.068	87.19
432.29	85.19
432.512	96.19
432.734	93.19
432.956	83.19
433.178	82.19
433.4	83.19
433.622	108.19
433.844	97.19
434.066	81.19
434.287	77.19
434.509	88.19
434.731	70.19
434.953	89.19
435.175	90.19
435.397	70.19
435.618	76.19
435.84	80.19
436.062	94.19
436.284	84.19
436.505	83.19
436.727	88.19
436.949	85.19
437.17	71.19
437.392	99.19
437.614	93.19
437.835	84.19
438.057	87.19
438.278	90.19
438.5	92.19
438.721	100.19
438.943	80.19
439.165	89.19
439.386	84.19
439.608	93.19
439.829	103.19
440.05	97.19
440.272	77.19
440.493	85.19
440.715	82.19
440.936	101.19
441.158	93.19
441.379	101.19
441.6	103.19
441.822	98.19
442.043	103.19
442.264	90.19
442.486	91.19
442.707	90.19
442.928	92.19
443.149	98.19
443.371	92.19
443.592	86.19
443.813	88.19
444.034	109.19
444.255	86.19
444.476	93.19
444.698	114.19
444.919	92.19
445.14	225.19
445.361	149.19
445.582	95.19
445.803	94.19
446.024	81.19
446.245	97.19
446.466	101.19
446.687	96.19
446.908	90.19
447.129	104.19
447.35	84.19
447.571	93.19
447.792	95.19
448.013	85.19
448.234	104.19
448.455	94.19
448.675	103.19
448.896	109.19
449.117	103.19
449.338	78.19
449.559	101.19
449.779	100.19
450	92.19
450.221	100.19
450.442	90.19
450.662	94.19
450.883	88.19
451.104	88.19
451.324	92.19
451.545	91.19
451.766	93.19
451.986	78.19
452.207	91.19
452.428	90.19
452.648	97.19
452.869	89.19
453.089	97.19
453.31	97.19
453.53	92.19
453.751	95.19
453.971	84.19
454.192	78.19
454.412	83.19
454.633	101.19
454.853	94.19
455.073	82.19
455.294	92.19
455.514	99.19
455.734	90.19
455.955	85.19
456.175	89.19
456.395	89.19
456.616	88.19
456.836	76.19
457.056	89.19
457.276	80.19
457.497	85.19
457.717	78.19
457.937	72.19
458.157	78.19
458.377	78.19
458.598	87.19
458.818	82.19
459.038	84.19
459.258	88.19
459.478	68.19
459.698	74.19
459.918	86.19
460.138	83.19
460.358	95.19
460.578	86.19
460.798	97.19
461.018	95.19
461.238	88.19
461.458	82.19
461.678	78.19
461.898	93.19
462.118	85.19
462.338	82.19
462.558	81.19
462.777	86.19
462.997	88.19
463.217	85.19
463.437	87.19
463.657	81.19
463.876	93.19
464.096	88.19
464.316	88.19
464.536	89.19
464.755	94.19
464.975	83.19
465.195	92.19
465.414	96.19
465.634	85.19
465.854	89.19
466.073	95.19
466.293	92.19
466.512	97.19
466.732	72.19
466.951	91.19
467.171	98.19
467.391	101.19
467.61	96.19
467.829	87.19
468.049	83.19
468.268	97.19
468.488	101.19
468.707	87.19
468.927	83.19
469.146	94.19
469.365	95.19
469.585	101.19
469.804	91.19
470.023	86.19
470.243	88.19
470.462	100.19
470.681	101.19
470.901	93.19
471.12	83.19
471.339	103.19
471.558	86.19
471.777	88.19
471.997	80.19
472.216	88.19
472.435	81.19
472.654	86.19
472.873	84.19
473.092	99.19
473.311	91.19
473.53	89.19
473.749	82.19
473.968	93.19
474.187	94.19
474.406	75.19
474.625	86.19
474.844	102.19
475.063	92.19
475.282	93.19
475.501	98.19
475.72	105.19
475.939	94.19
476.158	83.19
476.377	97.19
476.596	85.19
476.814	89.19
477.033	78.19
477.252	94.19
477.471	92.19
477.69	100.19
477.908	73.19
478.127	95.19
478.346	90.19
478.564	85.19
478.783	98.19
479.002	90.19
479.22	93.19
479.439	85.19
479.658	84.19
479.876	81.19
480.095	97.19
480.313	78.19
480.532	80.19
480.751	69.19
480.969	83.19
481.188	88.19
481.406	74.19
481.624	71.19
481.843	71.19
482.061	79.19
482.28	97.19
482.498	90.19
482.717	100.19
482.935	82.19
483.153	98.19
483.372	97.19
483.59	98.19
483.808	109.19
484.027	98.19
484.245	97.19
484.463	95.19
484.681	97.19
484.9	110.19
485.118	85.19
485.336	92.19
485.554	96.19
485.772	83.19
485.99	73.19
486.209	88.19
486.427	94.19
486.645	89.19
486.863	92.19
487.081	98.19
487.299	102.19
487.517	91.19
487.735	100.19
487.953	120.19
488.171	103.19
488.389	89.19
488.607	107.19
488.825	92.19
489.043	91.19
489.261	100.19
489.479	89.19
489.696	95.19
489.914	89.19
490.132	89.19
490.35	92.19
490.568	92.19
490.786	91.19
491.003	95.19
491.221	106.19
491.439	111.19
491.657	114.19
491.874	118.19
492.092	111.19
492.31	128.19
492.527	112.19
492.745	109.19
492.963	108.19
493.18	90.19
493.398	88.19
493.615	96.19
493.833	99.19
494.05	108.19
494.268	91.19
494.485	109.19
494.703	90.19
494.92	110.19
495.138	103.19
495.355	108.19
495.573	114.19
495.79	92.19
496.008	109.19
496.225	103.19
496.442	99.19
496.66	109.19
496.877	97.19
497.094	100.19
497.312	112.19
497.529	104.19
497.746	90.19
497.963	83.19
498.181	99.19
498.398	81.19
498.615	94.19
498.832	88.19
499.049	90.19
499.267	104.19
499.484	89.19
499.701	100.19
499.918	102.19
500.135	96.19
500.352	93.19
500.569	100.19
500.786	94.19
501.003	100.19
501.22	91.19
501.437	90.19
501.654	94.19
501.871	98.19
502.088	96.19
502.305	84.19
502.522	79.19
502.739	94.19
502.956	82.19
503.172	97.19
503.389	99.19
503.606	89.19
503.823	84.19
504.04	85.19
504.256	93.19
504.473	85.19
504.69	84.19
504.907	101.19
505.123	96.19
505.34	92.19
505.557	90.19
505.773	98.19
505.99	102.19
506.207	91.19
506.423	73.19
506.64	80.19
506.856	74.19
507.073	108.19
507.289	96.19
507.506	88.19
507.722	87.19
507.939	86.19
508.155	100.19
508.372	88.19
508.588	105.19
508.805	80.19
509.021	78.19
509.238	84.19
509.454	93.19
509.67	90.19
509.887	77.19
510.103	94.19
510.319	72.19
510.536	82.19
510.752	83.19
510.968	80.19
511.184	80.19
511.401	83.19
511.617	87.19
511.833	87.19
512.049	87.19
512.265	95.19
512.481	86.19
512.698	80.19
512.914	79.19
513.13	85.19
513.346	74.19
513.562	79.19
513.778	75.19
513.994	87.19
514.21	97.19
514.426	90.19
514.642	85.19
514.858	67.19
515.074	69.19
515.29	99.19
515.506	78.19
515.721	81.19
515.937	86.19
516.153	94.19
516.369	81.19
516.585	90.19
516.801	84.19
517.016	85.19
517.232	73.19
517.448	82.19
517.664	89.19
517.879	87.19
518.095	100.19
