Data from Location5.07152019.Energy5.Lamp.07192019.3%Agarose_HRD10591_15-36-43-386.txt Node
Date: Fri Jul 19 15:36:43 EDT 2019
User: cochatt
Spectrometer: HR+D1059
Trigger mode: 1
Integration Time (sec): 1.000000E-1
Scans to average: 1
Electric dark correction enabled: true
Nonlinearity correction enabled: false
Boxcar width: 0
XAxis mode: Wavelengths
Number of Pixels in Spectrum: 2048
>>>>>Begin Spectral Data<<<<<
223.165	-3.75
223.4	-3.75
223.635	-3.75
223.869	-15.75
224.104	-13.75
224.338	-13.75
224.573	-4.75
224.808	-0.75
225.042	-9.75
225.277	-14.75
225.511	-3.75
225.746	3.25
225.98	3.25
226.215	-3.75
226.449	9.25
226.683	13.25
226.918	35.25
227.152	20.25
227.387	37.25
227.621	40.25
227.856	40.25
228.09	40.25
228.324	49.25
228.559	54.25
228.793	39.25
229.027	71.25
229.262	70.25
229.496	77.25
229.73	62.25
229.964	61.25
230.199	76.25
230.433	73.25
230.667	65.25
230.901	73.25
231.136	74.25
231.37	71.25
231.604	61.25
231.838	84.25
232.072	67.25
232.306	85.25
232.541	72.25
232.775	77.25
233.009	84.25
233.243	76.25
233.477	72.25
233.711	70.25
233.945	81.25
234.179	71.25
234.413	86.25
234.647	82.25
234.881	78.25
235.115	70.25
235.349	66.25
235.583	73.25
235.817	87.25
236.051	85.25
236.285	83.25
236.519	70.25
236.753	81.25
236.987	78.25
237.221	89.25
237.455	81.25
237.689	78.25
237.922	69.25
238.156	75.25
238.39	68.25
238.624	64.25
238.858	69.25
239.091	70.25
239.325	78.25
239.559	73.25
239.793	74.25
240.027	84.25
240.26	73.25
240.494	83.25
240.728	79.25
240.961	66.25
241.195	69.25
241.429	79.25
241.662	70.25
241.896	73.25
242.13	86.25
242.363	67.25
242.597	87.25
242.83	82.25
243.064	76.25
243.298	65.25
243.531	70.25
243.765	77.25
243.998	75.25
244.232	71.25
244.465	66.25
244.699	72.25
244.932	77.25
245.166	77.25
245.399	81.25
245.633	75.25
245.866	68.25
246.099	80.25
246.333	73.25
246.566	77.25
246.8	76.25
247.033	80.25
247.266	70.25
247.5	77.25
247.733	77.25
247.966	79.25
248.2	76.25
248.433	83.25
248.666	71.25
248.899	84.25
249.133	90.25
249.366	75.25
249.599	77.25
249.832	83.25
250.066	81.25
250.299	76.25
250.532	73.25
250.765	96.25
250.998	71.25
251.231	87.25
251.465	75.25
251.698	71.25
251.931	87.25
252.164	67.25
252.397	73.25
252.63	80.25
252.863	83.25
253.096	84.25
253.329	64.25
253.562	75.25
253.795	79.25
254.028	73.25
254.261	78.25
254.494	77.25
254.727	63.25
254.96	82.25
255.193	77.25
255.426	74.25
255.659	78.25
255.892	89.25
256.124	91.25
256.357	81.25
256.59	83.25
256.823	81.25
257.056	77.25
257.289	69.25
257.521	71.25
257.754	64.25
257.987	75.25
258.22	65.25
258.452	72.25
258.685	83.25
258.918	65.25
259.151	72.25
259.383	67.25
259.616	81.25
259.849	70.25
260.081	74.25
260.314	80.25
260.547	76.25
260.779	91.25
261.012	91.25
261.244	76.25
261.477	83.25
261.71	80.25
261.942	81.25
262.175	76.25
262.407	83.25
262.64	57.25
262.872	82.25
263.105	76.25
263.337	81.25
263.57	80.25
263.802	76.25
264.035	81.25
264.267	74.25
264.499	79.25
264.732	77.25
264.964	78.25
265.197	77.25
265.429	74.25
265.661	83.25
265.894	72.25
266.126	72.25
266.358	79.25
266.591	82.25
266.823	90.25
267.055	88.25
267.287	80.25
267.52	70.25
267.752	87.25
267.984	77.25
268.216	70.25
268.448	74.25
268.681	73.25
268.913	85.25
269.145	90.25
269.377	65.25
269.609	83.25
269.841	79.25
270.073	79.25
270.306	75.25
270.538	82.25
270.77	88.25
271.002	81.25
271.234	73.25
271.466	78.25
271.698	76.25
271.93	85.25
272.162	83.25
272.394	67.25
272.626	88.25
272.858	78.25
273.09	83.25
273.322	85.25
273.553	78.25
273.785	73.25
274.017	77.25
274.249	76.25
274.481	90.25
274.713	86.25
274.945	82.25
275.176	97.25
275.408	79.25
275.64	86.25
275.872	67.25
276.104	72.25
276.335	78.25
276.567	87.25
276.799	84.25
277.031	81.25
277.262	80.25
277.494	81.25
277.726	80.25
277.957	78.25
278.189	85.25
278.421	73.25
278.652	75.25
278.884	82.25
279.115	72.25
279.347	82.25
279.579	76.25
279.81	86.25
280.042	85.25
280.273	88.25
280.505	88.25
280.736	73.25
280.968	87.25
281.199	74.25
281.431	73.25
281.662	77.25
281.894	90.25
282.125	89.25
282.356	93.25
282.588	73.25
282.819	93.25
283.051	87.25
283.282	80.25
283.513	81.25
283.745	84.25
283.976	77.25
284.207	73.25
284.439	79.25
284.67	84.25
284.901	81.25
285.132	81.25
285.364	70.25
285.595	92.25
285.826	91.25
286.057	80.25
286.288	82.25
286.52	73.25
286.751	71.25
286.982	79.25
287.213	75.25
287.444	77.25
287.675	80.25
287.906	89.25
288.138	79.25
288.369	79.25
288.6	82.25
288.831	94.25
289.062	82.25
289.293	78.25
289.524	79.25
289.755	76.25
289.986	71.25
290.217	88.25
290.448	75.25
290.679	78.25
290.91	75.25
291.141	90.25
291.371	86.25
291.602	73.25
291.833	78.25
292.064	74.25
292.295	76.25
292.526	89.25
292.757	76.25
292.987	86.25
293.218	86.25
293.449	79.25
293.68	76.25
293.91	84.25
294.141	70.25
294.372	96.25
294.603	71.25
294.833	89.25
295.064	81.25
295.295	92.25
295.525	85.25
295.756	89.25
295.987	82.25
296.217	88.25
296.448	87.25
296.679	75.25
296.909	92.25
297.14	88.25
297.37	90.25
297.601	84.25
297.831	75.25
298.062	83.25
298.292	81.25
298.523	66.25
298.753	89.25
298.984	86.25
299.214	87.25
299.445	79.25
299.675	97.25
299.905	81.25
300.136	80.25
300.366	75.25
300.597	68.25
300.827	89.25
301.057	80.25
301.288	91.25
301.518	87.25
301.748	80.25
301.979	84.25
302.209	76.25
302.439	84.25
302.669	82.25
302.9	83.25
303.13	85.25
303.36	95.25
303.59	78.25
303.82	94.25
304.051	85.25
304.281	81.25
304.511	81.25
304.741	78.25
304.971	72.25
305.201	83.25
305.431	73.25
305.661	82.25
305.891	78.25
306.121	84.25
306.352	92.25
306.582	84.25
306.812	82.25
307.042	85.25
307.272	86.25
307.502	86.25
307.731	81.25
307.961	88.25
308.191	92.25
308.421	91.25
308.651	87.25
308.881	86.25
309.111	83.25
309.341	73.25
309.571	64.25
309.8	64.25
310.03	84.25
310.26	97.25
310.49	84.25
310.72	63.25
310.949	77.25
311.179	82.25
311.409	86.25
311.639	74.25
311.868	80.25
312.098	86.25
312.328	85.25
312.557	91.25
312.787	79.25
313.017	90.25
313.246	74.25
313.476	85.25
313.706	78.25
313.935	65.25
314.165	73.25
314.394	79.25
314.624	75.25
314.853	84.25
315.083	76.25
315.312	88.25
315.542	84.25
315.771	91.25
316.001	85.25
316.23	88.25
316.46	87.25
316.689	88.25
316.919	64.25
317.148	86.25
317.377	89.25
317.607	103.25
317.836	89.25
318.065	91.25
318.295	80.25
318.524	87.25
318.753	87.25
318.983	74.25
319.212	69.25
319.441	77.25
319.67	83.25
319.9	76.25
320.129	95.25
320.358	89.25
320.587	88.25
320.816	79.25
321.046	83.25
321.275	76.25
321.504	71.25
321.733	79.25
321.962	86.25
322.191	87.25
322.42	81.25
322.649	88.25
322.878	88.25
323.108	94.25
323.337	80.25
323.566	79.25
323.795	85.25
324.024	83.25
324.253	86.25
324.482	79.25
324.71	80.25
324.939	72.25
325.168	76.25
325.397	75.25
325.626	77.25
325.855	86.25
326.084	92.25
326.313	83.25
326.542	77.25
326.77	85.25
326.999	82.25
327.228	85.25
327.457	81.25
327.686	77.25
327.914	85.25
328.143	88.25
328.372	71.25
328.6	73.25
328.829	68.25
329.058	70.25
329.287	96.25
329.515	74.25
329.744	70.25
329.972	69.25
330.201	73.25
330.43	85.25
330.658	80.25
330.887	89.25
331.115	99.25
331.344	82.25
331.572	78.25
331.801	84.25
332.03	97.25
332.258	95.25
332.486	67.25
332.715	85.25
332.943	69.25
333.172	78.25
333.4	81.25
333.629	74.25
333.857	85.25
334.085	78.25
334.314	91.25
334.542	93.25
334.771	101.25
334.999	77.25
335.227	69.25
335.455	78.25
335.684	85.25
335.912	82.25
336.14	95.25
336.369	84.25
336.597	86.25
336.825	86.25
337.053	77.25
337.281	86.25
337.51	68.25
337.738	91.25
337.966	91.25
338.194	77.25
338.422	93.25
338.65	82.25
338.878	87.25
339.106	83.25
339.334	88.25
339.562	79.25
339.79	77.25
340.018	76.25
340.246	83.25
340.474	71.25
340.702	85.25
340.93	77.25
341.158	82.25
341.386	74.25
341.614	78.25
341.842	82.25
342.07	79.25
342.298	79.25
342.526	84.25
342.754	64.25
342.981	79.25
343.209	93.25
343.437	73.25
343.665	95.25
343.893	84.25
344.12	95.25
344.348	83.25
344.576	78.25
344.804	79.25
345.031	69.25
345.259	98.25
345.487	73.25
345.714	82.25
345.942	85.25
346.17	88.25
346.397	92.25
346.625	69.25
346.853	78.25
347.08	80.25
347.308	85.25
347.535	82.25
347.763	78.25
347.99	78.25
348.218	73.25
348.445	77.25
348.673	81.25
348.9	73.25
349.128	88.25
349.355	78.25
349.583	81.25
349.81	88.25
350.037	88.25
350.265	74.25
350.492	75.25
350.72	83.25
350.947	67.25
351.174	87.25
351.402	78.25
351.629	73.25
351.856	83.25
352.083	54.25
352.311	80.25
352.538	83.25
352.765	82.25
352.992	71.25
353.22	75.25
353.447	85.25
353.674	87.25
353.901	88.25
354.128	79.25
354.355	76.25
354.583	89.25
354.81	74.25
355.037	72.25
355.264	77.25
355.491	79.25
355.718	72.25
355.945	79.25
356.172	81.25
356.399	80.25
356.626	74.25
356.853	78.25
357.08	67.25
357.307	87.25
357.534	79.25
357.761	77.25
357.988	82.25
358.215	77.25
358.441	75.25
358.668	80.25
358.895	85.25
359.122	84.25
359.349	74.25
359.576	95.25
359.802	87.25
360.029	83.25
360.256	89.25
360.483	76.25
360.709	62.25
360.936	88.25
361.163	87.25
361.39	69.25
361.616	80.25
361.843	99.25
362.07	83.25
362.296	77.25
362.523	89.25
362.749	86.25
362.976	87.25
363.203	77.25
363.429	85.25
363.656	73.25
363.882	77.25
364.109	89.25
364.335	78.25
364.562	83.25
364.788	81.25
365.015	84.25
365.241	86.25
365.468	84.25
365.694	62.25
365.92	84.25
366.147	79.25
366.373	77.25
366.599	87.25
366.826	82.25
367.052	91.25
367.278	88.25
367.505	76.25
367.731	76.25
367.957	84.25
368.184	85.25
368.41	81.25
368.636	80.25
368.862	81.25
369.089	86.25
369.315	65.25
369.541	97.25
369.767	84.25
369.993	87.25
370.219	77.25
370.445	71.25
370.672	68.25
370.898	85.25
371.124	83.25
371.35	72.25
371.576	70.25
371.802	74.25
372.028	89.25
372.254	87.25
372.48	79.25
372.706	76.25
372.932	86.25
373.158	69.25
373.384	73.25
373.61	90.25
373.835	80.25
374.061	71.25
374.287	89.25
374.513	77.25
374.739	81.25
374.965	86.25
375.191	77.25
375.416	80.25
375.642	94.25
375.868	84.25
376.094	80.25
376.319	95.25
376.545	81.25
376.771	74.25
376.997	78.25
377.222	79.25
377.448	91.25
377.674	81.25
377.899	81.25
378.125	83.25
378.35	72.25
378.576	79.25
378.802	82.25
379.027	85.25
379.253	81.25
379.478	82.25
379.704	76.25
379.929	92.25
380.155	88.25
380.38	73.25
380.606	69.25
380.831	80.25
381.057	86.25
381.282	71.25
381.507	89.25
381.733	78.25
381.958	91.25
382.184	81.25
382.409	80.25
382.634	81.25
382.86	76.25
383.085	82.25
383.31	75.25
383.535	76.25
383.761	77.25
383.986	88.25
384.211	95.25
384.436	87.25
384.662	81.25
384.887	71.25
385.112	92.25
385.337	77.25
385.562	82.25
385.787	86.25
386.013	86.25
386.238	80.25
386.463	90.25
386.688	71.25
386.913	76.25
387.138	73.25
387.363	81.25
387.588	90.25
387.813	100.25
388.038	72.25
388.263	88.25
388.488	84.25
388.713	91.25
388.938	71.25
389.163	86.25
389.387	89.25
389.612	68.25
389.837	81.25
390.062	87.25
390.287	94.25
390.512	72.25
390.736	76.25
390.961	82.25
391.186	96.25
391.411	92.25
391.636	78.25
391.86	83.25
392.085	86.25
392.31	90.25
392.534	91.25
392.759	84.25
392.984	74.25
393.208	82.25
393.433	79.25
393.658	72.25
393.882	77.25
394.107	83.25
394.331	96.25
394.556	101.25
394.78	93.25
395.005	72.25
395.229	67.25
395.454	94.25
395.678	91.25
395.903	83.25
396.127	87.25
396.352	80.25
396.576	79.25
396.801	82.25
397.025	88.25
397.249	65.25
397.474	83.25
397.698	78.25
397.922	84.25
398.147	86.25
398.371	90.25
398.595	77.25
398.82	92.25
399.044	80.25
399.268	67.25
399.492	86.25
399.717	83.25
399.941	82.25
400.165	90.25
400.389	62.25
400.613	92.25
400.837	89.25
401.062	87.25
401.286	86.25
401.51	81.25
401.734	82.25
401.958	87.25
402.182	93.25
402.406	92.25
402.63	81.25
402.854	68.25
403.078	86.25
403.302	91.25
403.526	87.25
403.75	87.25
403.974	91.25
404.198	89.25
404.422	87.25
404.645	89.25
404.869	87.25
405.093	71.25
405.317	87.25
405.541	97.25
405.765	80.25
405.988	84.25
406.212	81.25
406.436	91.25
406.66	94.25
406.883	85.25
407.107	94.25
407.331	84.25
407.555	82.25
407.778	89.25
408.002	93.25
408.226	86.25
408.449	97.25
408.673	106.25
408.896	100.25
409.12	84.25
409.344	76.25
409.567	88.25
409.791	92.25
410.014	74.25
410.238	91.25
410.461	89.25
410.685	83.25
410.908	91.25
411.132	91.25
411.355	89.25
411.578	96.25
411.802	78.25
412.025	87.25
412.249	83.25
412.472	79.25
412.695	78.25
412.919	94.25
413.142	98.25
413.365	96.25
413.589	85.25
413.812	84.25
414.035	88.25
414.258	78.25
414.482	74.25
414.705	85.25
414.928	84.25
415.151	98.25
415.374	87.25
415.597	80.25
415.821	82.25
416.044	89.25
416.267	87.25
416.49	88.25
416.713	90.25
416.936	99.25
417.159	95.25
417.382	92.25
417.605	60.25
417.828	70.25
418.051	93.25
418.274	90.25
418.497	73.25
418.72	88.25
418.943	92.25
419.166	91.25
419.389	76.25
419.611	94.25
419.834	88.25
420.057	88.25
420.28	85.25
420.503	84.25
420.726	95.25
420.948	89.25
421.171	89.25
421.394	91.25
421.617	96.25
421.839	75.25
422.062	83.25
422.285	88.25
422.507	86.25
422.73	79.25
422.953	83.25
423.175	85.25
423.398	80.25
423.621	94.25
423.843	87.25
424.066	99.25
424.288	99.25
424.511	94.25
424.733	81.25
424.956	88.25
425.178	95.25
425.401	96.25
425.623	66.25
425.846	88.25
426.068	91.25
426.291	85.25
426.513	83.25
426.735	93.25
426.958	88.25
427.18	93.25
427.402	84.25
427.625	84.25
427.847	91.25
428.069	85.25
428.292	83.25
428.514	92.25
428.736	79.25
428.958	96.25
429.181	98.25
429.403	77.25
429.625	102.25
429.847	88.25
430.069	86.25
430.292	83.25
430.514	92.25
430.736	88.25
430.958	85.25
431.18	94.25
431.402	95.25
431.624	80.25
431.846	89.25
432.068	95.25
432.29	80.25
432.512	97.25
432.734	80.25
432.956	92.25
433.178	99.25
433.4	86.25
433.622	88.25
433.844	95.25
434.066	80.25
434.287	80.25
434.509	77.25
434.731	62.25
434.953	92.25
435.175	77.25
435.397	97.25
435.618	82.25
435.84	91.25
436.062	87.25
436.284	79.25
436.505	78.25
436.727	88.25
436.949	88.25
437.17	80.25
437.392	95.25
437.614	95.25
437.835	83.25
438.057	87.25
438.278	74.25
438.5	91.25
438.721	96.25
438.943	97.25
439.165	101.25
439.386	101.25
439.608	98.25
439.829	79.25
440.05	87.25
440.272	86.25
440.493	101.25
440.715	90.25
440.936	79.25
441.158	97.25
441.379	101.25
441.6	77.25
441.822	79.25
442.043	98.25
442.264	97.25
442.486	97.25
442.707	97.25
442.928	108.25
443.149	86.25
443.371	79.25
443.592	95.25
443.813	83.25
444.034	89.25
444.255	92.25
444.476	81.25
444.698	83.25
444.919	97.25
445.14	211.25
445.361	146.25
445.582	99.25
445.803	93.25
446.024	97.25
446.245	95.25
446.466	91.25
446.687	91.25
446.908	99.25
447.129	97.25
447.35	89.25
447.571	98.25
447.792	87.25
448.013	94.25
448.234	93.25
448.455	96.25
448.675	87.25
448.896	105.25
449.117	111.25
449.338	80.25
449.559	83.25
449.779	81.25
450	100.25
450.221	98.25
450.442	102.25
450.662	91.25
450.883	78.25
451.104	83.25
451.324	88.25
451.545	79.25
451.766	98.25
451.986	88.25
452.207	91.25
452.428	88.25
452.648	84.25
452.869	88.25
453.089	85.25
453.31	77.25
453.53	87.25
453.751	80.25
453.971	93.25
454.192	85.25
454.412	86.25
454.633	82.25
454.853	66.25
455.073	85.25
455.294	88.25
455.514	104.25
455.734	108.25
455.955	78.25
456.175	82.25
456.395	95.25
456.616	88.25
456.836	80.25
457.056	85.25
457.276	93.25
457.497	78.25
457.717	84.25
457.937	96.25
458.157	89.25
458.377	80.25
458.598	80.25
458.818	77.25
459.038	70.25
459.258	84.25
459.478	85.25
459.698	81.25
459.918	78.25
460.138	84.25
460.358	89.25
460.578	102.25
460.798	94.25
461.018	87.25
461.238	68.25
461.458	98.25
461.678	96.25
461.898	81.25
462.118	80.25
462.338	95.25
462.558	94.25
462.777	76.25
462.997	91.25
463.217	84.25
463.437	86.25
463.657	95.25
463.876	93.25
464.096	91.25
464.316	85.25
464.536	79.25
464.755	98.25
464.975	73.25
465.195	84.25
465.414	87.25
465.634	87.25
465.854	84.25
466.073	100.25
466.293	93.25
466.512	85.25
466.732	85.25
466.951	98.25
467.171	87.25
467.391	82.25
467.61	96.25
467.829	87.25
468.049	100.25
468.268	89.25
468.488	93.25
468.707	73.25
468.927	101.25
469.146	84.25
469.365	87.25
469.585	91.25
469.804	82.25
470.023	97.25
470.243	97.25
470.462	87.25
470.681	78.25
470.901	83.25
471.12	95.25
471.339	92.25
471.558	91.25
471.777	102.25
471.997	94.25
472.216	79.25
472.435	82.25
472.654	100.25
472.873	92.25
473.092	99.25
473.311	82.25
473.53	94.25
473.749	87.25
473.968	88.25
474.187	76.25
474.406	81.25
474.625	90.25
474.844	93.25
475.063	92.25
475.282	102.25
475.501	81.25
475.72	105.25
475.939	91.25
476.158	88.25
476.377	93.25
476.596	81.25
476.814	87.25
477.033	83.25
477.252	84.25
477.471	88.25
477.69	98.25
477.908	93.25
478.127	87.25
478.346	87.25
478.564	92.25
478.783	81.25
479.002	100.25
479.22	89.25
479.439	103.25
479.658	95.25
479.876	84.25
480.095	81.25
480.313	74.25
480.532	87.25
480.751	88.25
480.969	83.25
481.188	84.25
481.406	76.25
481.624	77.25
481.843	89.25
482.061	80.25
482.28	88.25
482.498	75.25
482.717	86.25
482.935	80.25
483.153	97.25
483.372	85.25
483.59	111.25
483.808	96.25
484.027	111.25
484.245	94.25
484.463	101.25
484.681	107.25
484.9	94.25
485.118	93.25
485.336	73.25
485.554	76.25
485.772	88.25
485.99	85.25
486.209	91.25
486.427	88.25
486.645	86.25
486.863	97.25
487.081	86.25
487.299	80.25
487.517	98.25
487.735	89.25
487.953	101.25
488.171	104.25
488.389	109.25
488.607	95.25
488.825	96.25
489.043	100.25
489.261	93.25
489.479	88.25
489.696	82.25
489.914	84.25
490.132	107.25
490.35	91.25
490.568	94.25
490.786	107.25
491.003	89.25
491.221	102.25
491.439	95.25
491.657	95.25
491.874	98.25
492.092	111.25
492.31	109.25
492.527	111.25
492.745	95.25
492.963	102.25
493.18	104.25
493.398	110.25
493.615	113.25
493.833	112.25
494.05	98.25
494.268	84.25
494.485	103.25
494.703	112.25
494.92	107.25
495.138	119.25
495.355	95.25
495.573	90.25
495.79	101.25
496.008	109.25
496.225	102.25
496.442	103.25
496.66	104.25
496.877	95.25
497.094	102.25
497.312	93.25
497.529	99.25
497.746	94.25
497.963	92.25
498.181	92.25
498.398	83.25
498.615	72.25
498.832	84.25
499.049	93.25
499.267	86.25
499.484	92.25
499.701	79.25
499.918	113.25
500.135	103.25
500.352	100.25
500.569	90.25
500.786	111.25
501.003	96.25
501.22	87.25
501.437	95.25
501.654	88.25
501.871	85.25
502.088	89.25
502.305	84.25
502.522	87.25
502.739	105.25
502.956	100.25
503.172	84.25
503.389	84.25
503.606	98.25
503.823	109.25
504.04	79.25
504.256	85.25
504.473	99.25
504.69	97.25
504.907	81.25
505.123	80.25
505.34	93.25
505.557	92.25
505.773	82.25
505.99	92.25
506.207	88.25
506.423	85.25
506.64	89.25
506.856	90.25
507.073	76.25
507.289	97.25
507.506	89.25
507.722	95.25
507.939	99.25
508.155	96.25
508.372	102.25
508.588	94.25
508.805	94.25
509.021	100.25
509.238	85.25
509.454	85.25
509.67	78.25
509.887	84.25
510.103	85.25
510.319	66.25
510.536	86.25
510.752	80.25
510.968	64.25
511.184	68.25
511.401	77.25
511.617	83.25
511.833	86.25
512.049	81.25
512.265	89.25
512.481	83.25
512.698	86.25
512.914	95.25
513.13	72.25
513.346	86.25
513.562	89.25
513.778	79.25
513.994	86.25
514.21	83.25
514.426	92.25
514.642	93.25
514.858	83.25
515.074	70.25
515.29	86.25
515.506	79.25
515.721	76.25
515.937	81.25
516.153	68.25
516.369	80.25
516.585	71.25
516.801	82.25
517.016	95.25
517.232	89.25
517.448	93.25
517.664	86.25
517.879	78.25
518.095	86.25
518.311	80.25
518.527	86.25
