Data from Location5.07152019.Energy5.Lamp.07192019.3%Agarose_HRD10591_15-37-39-387.txt Node
Date: Fri Jul 19 15:37:39 EDT 2019
User: cochatt
Spectrometer: HR+D1059
Trigger mode: 1
Integration Time (sec): 1.000000E-1
Scans to average: 1
Electric dark correction enabled: true
Nonlinearity correction enabled: false
Boxcar width: 0
XAxis mode: Wavelengths
Number of Pixels in Spectrum: 2048
>>>>>Begin Spectral Data<<<<<
223.165	-16.69
223.4	-16.69
223.635	-16.69
223.869	-6.69
224.104	-22.69
224.338	-17.69
224.573	-15.69
224.808	-10.69
225.042	2.31
225.277	2.31
225.511	-15.69
225.746	-5.69
225.98	-11.69
226.215	18.31
226.449	12.31
226.683	17.31
226.918	31.31
227.152	39.31
227.387	26.31
227.621	34.31
227.856	44.31
228.09	55.31
228.324	55.31
228.559	56.31
228.793	61.31
229.027	65.31
229.262	50.31
229.496	66.31
229.73	57.31
229.964	64.31
230.199	68.31
230.433	64.31
230.667	85.31
230.901	70.31
231.136	81.31
231.37	77.31
231.604	89.31
231.838	80.31
232.072	74.31
232.306	93.31
232.541	81.31
232.775	73.31
233.009	90.31
233.243	95.31
233.477	90.31
233.711	97.31
233.945	76.31
234.179	69.31
234.413	78.31
234.647	90.31
234.881	80.31
235.115	89.31
235.349	91.31
235.583	82.31
235.817	82.31
236.051	77.31
236.285	77.31
236.519	86.31
236.753	74.31
236.987	87.31
237.221	84.31
237.455	85.31
237.689	76.31
237.922	73.31
238.156	89.31
238.39	75.31
238.624	91.31
238.858	81.31
239.091	76.31
239.325	66.31
239.559	74.31
239.793	84.31
240.027	82.31
240.26	78.31
240.494	75.31
240.728	73.31
240.961	78.31
241.195	86.31
241.429	84.31
241.662	69.31
241.896	76.31
242.13	67.31
242.363	89.31
242.597	76.31
242.83	86.31
243.064	84.31
243.298	83.31
243.531	80.31
243.765	76.31
243.998	75.31
244.232	90.31
244.465	75.31
244.699	71.31
244.932	72.31
245.166	75.31
245.399	77.31
245.633	83.31
245.866	83.31
246.099	75.31
246.333	82.31
246.566	69.31
246.8	82.31
247.033	80.31
247.266	85.31
247.5	82.31
247.733	87.31
247.966	80.31
248.2	77.31
248.433	77.31
248.666	69.31
248.899	81.31
249.133	91.31
249.366	81.31
249.599	72.31
249.832	84.31
250.066	81.31
250.299	86.31
250.532	77.31
250.765	80.31
250.998	88.31
251.231	79.31
251.465	75.31
251.698	74.31
251.931	92.31
252.164	82.31
252.397	84.31
252.63	80.31
252.863	84.31
253.096	88.31
253.329	85.31
253.562	72.31
253.795	93.31
254.028	85.31
254.261	84.31
254.494	84.31
254.727	85.31
254.96	76.31
255.193	87.31
255.426	78.31
255.659	78.31
255.892	83.31
256.124	87.31
256.357	94.31
256.59	94.31
256.823	81.31
257.056	74.31
257.289	75.31
257.521	88.31
257.754	75.31
257.987	74.31
258.22	84.31
258.452	89.31
258.685	70.31
258.918	71.31
259.151	86.31
259.383	96.31
259.616	86.31
259.849	77.31
260.081	89.31
260.314	75.31
260.547	80.31
260.779	77.31
261.012	86.31
261.244	96.31
261.477	82.31
261.71	85.31
261.942	95.31
262.175	86.31
262.407	85.31
262.64	81.31
262.872	62.31
263.105	78.31
263.337	88.31
263.57	83.31
263.802	97.31
264.035	84.31
264.267	81.31
264.499	81.31
264.732	86.31
264.964	76.31
265.197	94.31
265.429	86.31
265.661	91.31
265.894	76.31
266.126	81.31
266.358	89.31
266.591	83.31
266.823	85.31
267.055	89.31
267.287	90.31
267.52	83.31
267.752	101.31
267.984	88.31
268.216	80.31
268.448	90.31
268.681	78.31
268.913	86.31
269.145	94.31
269.377	73.31
269.609	86.31
269.841	95.31
270.073	81.31
270.306	85.31
270.538	73.31
270.77	93.31
271.002	95.31
271.234	86.31
271.466	79.31
271.698	72.31
271.93	84.31
272.162	87.31
272.394	97.31
272.626	97.31
272.858	86.31
273.09	70.31
273.322	73.31
273.553	86.31
273.785	82.31
274.017	88.31
274.249	78.31
274.481	86.31
274.713	82.31
274.945	78.31
275.176	93.31
275.408	88.31
275.64	83.31
275.872	85.31
276.104	86.31
276.335	79.31
276.567	84.31
276.799	70.31
277.031	85.31
277.262	90.31
277.494	89.31
277.726	89.31
277.957	92.31
278.189	87.31
278.421	84.31
278.652	81.31
278.884	81.31
279.115	88.31
279.347	84.31
279.579	90.31
279.81	85.31
280.042	76.31
280.273	89.31
280.505	91.31
280.736	83.31
280.968	64.31
281.199	88.31
281.431	85.31
281.662	95.31
281.894	86.31
282.125	75.31
282.356	89.31
282.588	91.31
282.819	81.31
283.051	84.31
283.282	84.31
283.513	87.31
283.745	92.31
283.976	77.31
284.207	83.31
284.439	91.31
284.67	90.31
284.901	80.31
285.132	84.31
285.364	87.31
285.595	83.31
285.826	86.31
286.057	96.31
286.288	77.31
286.52	88.31
286.751	80.31
286.982	89.31
287.213	85.31
287.444	93.31
287.675	81.31
287.906	100.31
288.138	94.31
288.369	84.31
288.6	83.31
288.831	98.31
289.062	78.31
289.293	92.31
289.524	77.31
289.755	101.31
289.986	85.31
290.217	96.31
290.448	84.31
290.679	96.31
290.91	100.31
291.141	89.31
291.371	79.31
291.602	80.31
291.833	70.31
292.064	77.31
292.295	86.31
292.526	69.31
292.757	84.31
292.987	71.31
293.218	90.31
293.449	88.31
293.68	79.31
293.91	84.31
294.141	89.31
294.372	90.31
294.603	77.31
294.833	71.31
295.064	89.31
295.295	86.31
295.525	91.31
295.756	84.31
295.987	73.31
296.217	88.31
296.448	84.31
296.679	94.31
296.909	80.31
297.14	87.31
297.37	87.31
297.601	81.31
297.831	92.31
298.062	82.31
298.292	78.31
298.523	95.31
298.753	78.31
298.984	84.31
299.214	90.31
299.445	103.31
299.675	92.31
299.905	92.31
300.136	87.31
300.366	88.31
300.597	90.31
300.827	89.31
301.057	82.31
301.288	90.31
301.518	85.31
301.748	91.31
301.979	82.31
302.209	82.31
302.439	80.31
302.669	77.31
302.9	87.31
303.13	90.31
303.36	86.31
303.59	77.31
303.82	86.31
304.051	80.31
304.281	86.31
304.511	81.31
304.741	79.31
304.971	96.31
305.201	87.31
305.431	76.31
305.661	85.31
305.891	91.31
306.121	92.31
306.352	85.31
306.582	87.31
306.812	83.31
307.042	88.31
307.272	92.31
307.502	88.31
307.731	80.31
307.961	86.31
308.191	92.31
308.421	91.31
308.651	85.31
308.881	89.31
309.111	87.31
309.341	80.31
309.571	94.31
309.8	97.31
310.03	86.31
310.26	92.31
310.49	80.31
310.72	94.31
310.949	81.31
311.179	93.31
311.409	76.31
311.639	80.31
311.868	85.31
312.098	92.31
312.328	82.31
312.557	93.31
312.787	66.31
313.017	69.31
313.246	79.31
313.476	97.31
313.706	83.31
313.935	86.31
314.165	74.31
314.394	92.31
314.624	84.31
314.853	76.31
315.083	87.31
315.312	81.31
315.542	86.31
315.771	76.31
316.001	85.31
316.23	100.31
316.46	87.31
316.689	76.31
316.919	90.31
317.148	77.31
317.377	96.31
317.607	85.31
317.836	79.31
318.065	78.31
318.295	75.31
318.524	87.31
318.753	88.31
318.983	85.31
319.212	83.31
319.441	86.31
319.67	92.31
319.9	90.31
320.129	79.31
320.358	84.31
320.587	92.31
320.816	91.31
321.046	88.31
321.275	86.31
321.504	87.31
321.733	79.31
321.962	94.31
322.191	88.31
322.42	79.31
322.649	89.31
322.878	99.31
323.108	85.31
323.337	81.31
323.566	94.31
323.795	83.31
324.024	92.31
324.253	88.31
324.482	93.31
324.71	84.31
324.939	91.31
325.168	75.31
325.397	87.31
325.626	92.31
325.855	86.31
326.084	85.31
326.313	82.31
326.542	88.31
326.77	80.31
326.999	89.31
327.228	79.31
327.457	81.31
327.686	84.31
327.914	80.31
328.143	84.31
328.372	82.31
328.6	65.31
328.829	78.31
329.058	82.31
329.287	97.31
329.515	90.31
329.744	80.31
329.972	93.31
330.201	91.31
330.43	95.31
330.658	84.31
330.887	91.31
331.115	87.31
331.344	77.31
331.572	106.31
331.801	91.31
332.03	85.31
332.258	91.31
332.486	90.31
332.715	75.31
332.943	85.31
333.172	83.31
333.4	69.31
333.629	96.31
333.857	87.31
334.085	85.31
334.314	81.31
334.542	73.31
334.771	78.31
334.999	90.31
335.227	94.31
335.455	91.31
335.684	83.31
335.912	93.31
336.14	81.31
336.369	97.31
336.597	89.31
336.825	88.31
337.053	83.31
337.281	79.31
337.51	93.31
337.738	93.31
337.966	84.31
338.194	90.31
338.422	86.31
338.65	85.31
338.878	85.31
339.106	82.31
339.334	93.31
339.562	81.31
339.79	76.31
340.018	69.31
340.246	85.31
340.474	89.31
340.702	92.31
340.93	86.31
341.158	86.31
341.386	81.31
341.614	91.31
341.842	80.31
342.07	92.31
342.298	86.31
342.526	97.31
342.754	78.31
342.981	93.31
343.209	76.31
343.437	85.31
343.665	83.31
343.893	86.31
344.12	94.31
344.348	55.31
344.576	91.31
344.804	78.31
345.031	89.31
345.259	82.31
345.487	88.31
345.714	87.31
345.942	78.31
346.17	83.31
346.397	94.31
346.625	81.31
346.853	96.31
347.08	73.31
347.308	88.31
347.535	87.31
347.763	99.31
347.99	84.31
348.218	89.31
348.445	80.31
348.673	81.31
348.9	92.31
349.128	88.31
349.355	101.31
349.583	83.31
349.81	62.31
350.037	79.31
350.265	74.31
350.492	86.31
350.72	86.31
350.947	87.31
351.174	92.31
351.402	91.31
351.629	83.31
351.856	96.31
352.083	74.31
352.311	89.31
352.538	93.31
352.765	77.31
352.992	91.31
353.22	97.31
353.447	80.31
353.674	76.31
353.901	83.31
354.128	88.31
354.355	76.31
354.583	89.31
354.81	87.31
355.037	89.31
355.264	88.31
355.491	83.31
355.718	77.31
355.945	89.31
356.172	75.31
356.399	87.31
356.626	84.31
356.853	95.31
357.08	76.31
357.307	77.31
357.534	80.31
357.761	86.31
357.988	83.31
358.215	88.31
358.441	77.31
358.668	91.31
358.895	72.31
359.122	90.31
359.349	96.31
359.576	74.31
359.802	93.31
360.029	81.31
360.256	71.31
360.483	90.31
360.709	96.31
360.936	112.31
361.163	90.31
361.39	77.31
361.616	98.31
361.843	76.31
362.07	76.31
362.296	77.31
362.523	81.31
362.749	69.31
362.976	76.31
363.203	94.31
363.429	74.31
363.656	74.31
363.882	70.31
364.109	84.31
364.335	86.31
364.562	82.31
364.788	83.31
365.015	93.31
365.241	84.31
365.468	82.31
365.694	82.31
365.92	74.31
366.147	89.31
366.373	90.31
366.599	73.31
366.826	78.31
367.052	79.31
367.278	76.31
367.505	97.31
367.731	84.31
367.957	78.31
368.184	82.31
368.41	90.31
368.636	83.31
368.862	88.31
369.089	76.31
369.315	84.31
369.541	84.31
369.767	84.31
369.993	93.31
370.219	95.31
370.445	93.31
370.672	84.31
370.898	80.31
371.124	77.31
371.35	87.31
371.576	75.31
371.802	84.31
372.028	103.31
372.254	92.31
372.48	92.31
372.706	81.31
372.932	87.31
373.158	72.31
373.384	78.31
373.61	91.31
373.835	95.31
374.061	82.31
374.287	99.31
374.513	85.31
374.739	83.31
374.965	99.31
375.191	87.31
375.416	98.31
375.642	80.31
375.868	85.31
376.094	85.31
376.319	80.31
376.545	93.31
376.771	85.31
376.997	94.31
377.222	94.31
377.448	81.31
377.674	82.31
377.899	99.31
378.125	74.31
378.35	93.31
378.576	84.31
378.802	92.31
379.027	91.31
379.253	84.31
379.478	82.31
379.704	76.31
379.929	90.31
380.155	82.31
380.38	75.31
380.606	87.31
380.831	96.31
381.057	73.31
381.282	99.31
381.507	94.31
381.733	85.31
381.958	78.31
382.184	70.31
382.409	95.31
382.634	81.31
382.86	83.31
383.085	93.31
383.31	77.31
383.535	84.31
383.761	80.31
383.986	88.31
384.211	81.31
384.436	88.31
384.662	88.31
384.887	72.31
385.112	67.31
385.337	81.31
385.562	80.31
385.787	92.31
386.013	103.31
386.238	82.31
386.463	82.31
386.688	83.31
386.913	77.31
387.138	93.31
387.363	90.31
387.588	92.31
387.813	93.31
388.038	86.31
388.263	90.31
388.488	86.31
388.713	87.31
388.938	89.31
389.163	98.31
389.387	91.31
389.612	78.31
389.837	100.31
390.062	84.31
390.287	92.31
390.512	74.31
390.736	91.31
390.961	72.31
391.186	66.31
391.411	84.31
391.636	96.31
391.86	88.31
392.085	103.31
392.31	98.31
392.534	95.31
392.759	92.31
392.984	91.31
393.208	85.31
393.433	90.31
393.658	92.31
393.882	76.31
394.107	91.31
394.331	101.31
394.556	86.31
394.78	97.31
395.005	102.31
395.229	79.31
395.454	98.31
395.678	67.31
395.903	77.31
396.127	90.31
396.352	93.31
396.576	89.31
396.801	91.31
397.025	99.31
397.249	90.31
397.474	83.31
397.698	97.31
397.922	92.31
398.147	88.31
398.371	94.31
398.595	100.31
398.82	98.31
399.044	76.31
399.268	101.31
399.492	88.31
399.717	88.31
399.941	77.31
400.165	81.31
400.389	75.31
400.613	91.31
400.837	99.31
401.062	84.31
401.286	84.31
401.51	82.31
401.734	88.31
401.958	98.31
402.182	81.31
402.406	90.31
402.63	82.31
402.854	86.31
403.078	97.31
403.302	70.31
403.526	85.31
403.75	94.31
403.974	84.31
404.198	96.31
404.422	84.31
404.645	93.31
404.869	76.31
405.093	97.31
405.317	99.31
405.541	86.31
405.765	96.31
405.988	88.31
406.212	86.31
406.436	92.31
406.66	80.31
406.883	93.31
407.107	89.31
407.331	82.31
407.555	104.31
407.778	84.31
408.002	75.31
408.226	105.31
408.449	82.31
408.673	92.31
408.896	107.31
409.12	75.31
409.344	91.31
409.567	97.31
409.791	94.31
410.014	92.31
410.238	92.31
410.461	85.31
410.685	82.31
410.908	94.31
411.132	82.31
411.355	103.31
411.578	96.31
411.802	97.31
412.025	88.31
412.249	98.31
412.472	81.31
412.695	88.31
412.919	97.31
413.142	84.31
413.365	83.31
413.589	97.31
413.812	87.31
414.035	89.31
414.258	91.31
414.482	93.31
414.705	99.31
414.928	92.31
415.151	95.31
415.374	96.31
415.597	96.31
415.821	100.31
416.044	85.31
416.267	82.31
416.49	91.31
416.713	100.31
416.936	107.31
417.159	102.31
417.382	92.31
417.605	88.31
417.828	96.31
418.051	88.31
418.274	100.31
418.497	101.31
418.72	87.31
418.943	92.31
419.166	101.31
419.389	101.31
419.611	103.31
419.834	108.31
420.057	83.31
420.28	98.31
420.503	81.31
420.726	98.31
420.948	84.31
421.171	113.31
421.394	107.31
421.617	105.31
421.839	104.31
422.062	95.31
422.285	105.31
422.507	87.31
422.73	96.31
422.953	94.31
423.175	87.31
423.398	84.31
423.621	92.31
423.843	113.31
424.066	90.31
424.288	106.31
424.511	86.31
424.733	105.31
424.956	91.31
425.178	97.31
425.401	100.31
425.623	92.31
425.846	98.31
426.068	92.31
426.291	104.31
426.513	91.31
426.735	100.31
426.958	85.31
427.18	94.31
427.402	83.31
427.625	105.31
427.847	101.31
428.069	84.31
428.292	87.31
428.514	95.31
428.736	97.31
428.958	99.31
429.181	101.31
429.403	94.31
429.625	90.31
429.847	102.31
430.069	98.31
430.292	89.31
430.514	92.31
430.736	86.31
430.958	94.31
431.18	101.31
431.402	100.31
431.624	89.31
431.846	76.31
432.068	94.31
432.29	80.31
432.512	82.31
432.734	95.31
432.956	100.31
433.178	101.31
433.4	109.31
433.622	102.31
433.844	113.31
434.066	96.31
434.287	80.31
434.509	91.31
434.731	90.31
434.953	78.31
435.175	98.31
435.397	84.31
435.618	100.31
435.84	94.31
436.062	100.31
436.284	82.31
436.505	80.31
436.727	94.31
436.949	96.31
437.17	84.31
437.392	100.31
437.614	86.31
437.835	97.31
438.057	82.31
438.278	92.31
438.5	100.31
438.721	103.31
438.943	110.31
439.165	90.31
439.386	105.31
439.608	99.31
439.829	84.31
440.05	107.31
440.272	102.31
440.493	99.31
440.715	90.31
440.936	97.31
441.158	86.31
441.379	88.31
441.6	102.31
441.822	96.31
442.043	104.31
442.264	101.31
442.486	84.31
442.707	98.31
442.928	100.31
443.149	97.31
443.371	93.31
443.592	104.31
443.813	84.31
444.034	99.31
444.255	106.31
444.476	89.31
444.698	91.31
444.919	105.31
445.14	237.31
445.361	164.31
445.582	114.31
445.803	105.31
446.024	94.31
446.245	96.31
446.466	99.31
446.687	105.31
446.908	106.31
447.129	109.31
447.35	101.31
447.571	95.31
447.792	100.31
448.013	90.31
448.234	85.31
448.455	101.31
448.675	112.31
448.896	99.31
449.117	106.31
449.338	106.31
449.559	102.31
449.779	109.31
450	104.31
450.221	87.31
450.442	109.31
450.662	89.31
450.883	100.31
451.104	98.31
451.324	93.31
451.545	96.31
451.766	97.31
451.986	86.31
452.207	85.31
452.428	103.31
452.648	100.31
452.869	79.31
453.089	85.31
453.31	71.31
453.53	81.31
453.751	97.31
453.971	81.31
454.192	86.31
454.412	97.31
454.633	91.31
454.853	78.31
455.073	75.31
455.294	83.31
455.514	107.31
455.734	94.31
455.955	101.31
456.175	110.31
456.395	107.31
456.616	92.31
456.836	90.31
457.056	83.31
457.276	87.31
457.497	90.31
457.717	99.31
457.937	94.31
458.157	84.31
458.377	101.31
458.598	88.31
458.818	87.31
459.038	78.31
459.258	83.31
459.478	72.31
459.698	85.31
459.918	88.31
460.138	101.31
460.358	103.31
460.578	101.31
460.798	90.31
461.018	94.31
461.238	105.31
461.458	91.31
461.678	98.31
461.898	95.31
462.118	86.31
462.338	87.31
462.558	86.31
462.777	88.31
462.997	98.31
463.217	105.31
463.437	91.31
463.657	87.31
463.876	90.31
464.096	95.31
464.316	97.31
464.536	73.31
464.755	95.31
464.975	78.31
465.195	89.31
465.414	93.31
465.634	87.31
465.854	84.31
466.073	84.31
466.293	105.31
466.512	101.31
466.732	96.31
466.951	92.31
467.171	93.31
467.391	102.31
467.61	87.31
467.829	75.31
468.049	89.31
468.268	94.31
468.488	104.31
468.707	102.31
468.927	101.31
469.146	92.31
469.365	107.31
469.585	99.31
469.804	107.31
470.023	94.31
470.243	104.31
470.462	106.31
470.681	112.31
470.901	115.31
471.12	83.31
471.339	83.31
471.558	89.31
471.777	110.31
471.997	94.31
472.216	84.31
472.435	93.31
472.654	95.31
472.873	91.31
473.092	86.31
473.311	98.31
473.53	101.31
473.749	90.31
473.968	95.31
474.187	84.31
474.406	102.31
474.625	87.31
474.844	96.31
475.063	97.31
475.282	87.31
475.501	83.31
475.72	71.31
475.939	87.31
476.158	95.31
476.377	109.31
476.596	87.31
476.814	89.31
477.033	91.31
477.252	91.31
477.471	99.31
477.69	86.31
477.908	95.31
478.127	105.31
478.346	109.31
478.564	89.31
478.783	101.31
479.002	102.31
479.22	93.31
479.439	118.31
479.658	96.31
479.876	96.31
480.095	86.31
480.313	94.31
480.532	94.31
480.751	101.31
480.969	96.31
481.188	82.31
481.406	91.31
481.624	89.31
481.843	92.31
482.061	90.31
482.28	88.31
482.498	81.31
482.717	70.31
482.935	87.31
483.153	87.31
483.372	112.31
483.59	105.31
483.808	100.31
484.027	101.31
484.245	92.31
484.463	99.31
484.681	108.31
484.9	94.31
485.118	98.31
485.336	88.31
485.554	98.31
485.772	105.31
485.99	80.31
486.209	99.31
486.427	80.31
486.645	83.31
486.863	107.31
487.081	102.31
487.299	96.31
487.517	85.31
487.735	95.31
487.953	100.31
488.171	93.31
488.389	100.31
488.607	92.31
488.825	96.31
489.043	106.31
489.261	88.31
489.479	96.31
489.696	107.31
489.914	119.31
490.132	105.31
490.35	113.31
490.568	106.31
490.786	100.31
491.003	108.31
491.221	96.31
491.439	102.31
491.657	112.31
491.874	120.31
492.092	116.31
492.31	132.31
492.527	126.31
492.745	117.31
492.963	105.31
493.18	123.31
493.398	102.31
493.615	107.31
493.833	103.31
494.05	108.31
494.268	116.31
494.485	116.31
494.703	117.31
494.92	112.31
495.138	107.31
495.355	103.31
495.573	112.31
495.79	122.31
496.008	101.31
496.225	104.31
496.442	100.31
496.66	90.31
496.877	103.31
497.094	110.31
497.312	103.31
497.529	104.31
497.746	104.31
497.963	94.31
498.181	96.31
498.398	90.31
498.615	90.31
498.832	93.31
499.049	88.31
499.267	107.31
499.484	87.31
499.701	94.31
499.918	97.31
500.135	93.31
500.352	99.31
500.569	103.31
500.786	97.31
501.003	89.31
501.22	105.31
501.437	116.31
501.654	111.31
501.871	94.31
502.088	86.31
502.305	95.31
502.522	103.31
502.739	101.31
502.956	89.31
503.172	99.31
503.389	95.31
503.606	88.31
503.823	96.31
504.04	99.31
504.256	77.31
504.473	88.31
504.69	99.31
504.907	84.31
505.123	106.31
505.34	93.31
505.557	92.31
505.773	104.31
505.99	100.31
506.207	93.31
506.423	94.31
506.64	76.31
506.856	93.31
507.073	82.31
507.289	95.31
507.506	94.31
507.722	89.31
507.939	98.31
508.155	88.31
508.372	97.31
508.588	95.31
508.805	97.31
509.021	100.31
509.238	95.31
509.454	102.31
509.67	91.31
509.887	88.31
510.103	101.31
510.319	73.31
510.536	80.31
510.752	86.31
510.968	82.31
511.184	95.31
511.401	94.31
511.617	85.31
511.833	97.31
512.049	91.31
512.265	91.31
512.481	88.31
512.698	86.31
512.914	90.31
513.13	108.31
513.346	84.31
513.562	94.31
513.778	78.31
513.994	90.31
514.21	87.31
514.426	82.31
514.642	99.31
514.858	77.31
515.074	74.31
515.29	81.31
515.506	83.31
515.721	82.31
515.937	80.31
516.153	90.31
516.369	85.31
516.585	68.31
516.801	95.31
