Data from Location5.07152019.Energy5.Lamp.07192019.3%Agarose_HRD10591_16-02-35-627.txt Node
Date: Fri Jul 19 16:02:35 EDT 2019
User: cochatt
Spectrometer: HR+D1059
Trigger mode: 1
Integration Time (sec): 1.000000E-1
Scans to average: 1
Electric dark correction enabled: true
Nonlinearity correction enabled: false
Boxcar width: 0
XAxis mode: Wavelengths
Number of Pixels in Spectrum: 2048
>>>>>Begin Spectral Data<<<<<
223.165	-10.25
223.4	-10.25
223.635	-10.25
223.869	1.75
224.104	-4.25
224.338	-16.25
224.573	-12.25
224.808	-25.25
225.042	-16.25
225.277	-16.25
225.511	4.75
225.746	-0.25
225.98	2.75
226.215	0.75
226.449	15.75
226.683	29.75
226.918	15.75
227.152	29.75
227.387	30.75
227.621	37.75
227.856	39.75
228.09	38.75
228.324	48.75
228.559	75.75
228.793	61.75
229.027	57.75
229.262	66.75
229.496	77.75
229.73	66.75
229.964	62.75
230.199	74.75
230.433	72.75
230.667	86.75
230.901	70.75
231.136	91.75
231.37	86.75
231.604	83.75
231.838	90.75
232.072	75.75
232.306	80.75
232.541	97.75
232.775	94.75
233.009	76.75
233.243	77.75
233.477	76.75
233.711	83.75
233.945	76.75
234.179	81.75
234.413	85.75
234.647	89.75
234.881	86.75
235.115	76.75
235.349	81.75
235.583	88.75
235.817	87.75
236.051	72.75
236.285	78.75
236.519	83.75
236.753	82.75
236.987	76.75
237.221	83.75
237.455	75.75
237.689	87.75
237.922	80.75
238.156	80.75
238.39	69.75
238.624	78.75
238.858	94.75
239.091	76.75
239.325	71.75
239.559	91.75
239.793	83.75
240.027	76.75
240.26	82.75
240.494	87.75
240.728	79.75
240.961	76.75
241.195	83.75
241.429	64.75
241.662	72.75
241.896	83.75
242.13	80.75
242.363	96.75
242.597	83.75
242.83	100.75
243.064	91.75
243.298	70.75
243.531	74.75
243.765	88.75
243.998	85.75
244.232	81.75
244.465	76.75
244.699	90.75
244.932	74.75
245.166	82.75
245.399	89.75
245.633	92.75
245.866	74.75
246.099	74.75
246.333	74.75
246.566	75.75
246.8	81.75
247.033	70.75
247.266	73.75
247.5	63.75
247.733	84.75
247.966	73.75
248.2	89.75
248.433	59.75
248.666	73.75
248.899	97.75
249.133	87.75
249.366	90.75
249.599	84.75
249.832	76.75
250.066	91.75
250.299	90.75
250.532	59.75
250.765	87.75
250.998	70.75
251.231	83.75
251.465	88.75
251.698	89.75
251.931	86.75
252.164	87.75
252.397	83.75
252.63	92.75
252.863	87.75
253.096	82.75
253.329	74.75
253.562	80.75
253.795	77.75
254.028	94.75
254.261	92.75
254.494	82.75
254.727	81.75
254.96	86.75
255.193	80.75
255.426	70.75
255.659	67.75
255.892	76.75
256.124	79.75
256.357	82.75
256.59	91.75
256.823	98.75
257.056	77.75
257.289	76.75
257.521	78.75
257.754	80.75
257.987	72.75
258.22	87.75
258.452	80.75
258.685	81.75
258.918	81.75
259.151	76.75
259.383	70.75
259.616	74.75
259.849	94.75
260.081	85.75
260.314	85.75
260.547	84.75
260.779	83.75
261.012	76.75
261.244	80.75
261.477	83.75
261.71	87.75
261.942	86.75
262.175	80.75
262.407	66.75
262.64	88.75
262.872	84.75
263.105	91.75
263.337	94.75
263.57	90.75
263.802	84.75
264.035	85.75
264.267	90.75
264.499	91.75
264.732	95.75
264.964	86.75
265.197	94.75
265.429	81.75
265.661	82.75
265.894	96.75
266.126	83.75
266.358	70.75
266.591	80.75
266.823	92.75
267.055	78.75
267.287	90.75
267.52	84.75
267.752	102.75
267.984	79.75
268.216	81.75
268.448	87.75
268.681	87.75
268.913	92.75
269.145	92.75
269.377	71.75
269.609	74.75
269.841	76.75
270.073	90.75
270.306	97.75
270.538	84.75
270.77	79.75
271.002	88.75
271.234	96.75
271.466	97.75
271.698	97.75
271.93	99.75
272.162	88.75
272.394	91.75
272.626	99.75
272.858	79.75
273.09	81.75
273.322	95.75
273.553	91.75
273.785	89.75
274.017	95.75
274.249	91.75
274.481	85.75
274.713	90.75
274.945	90.75
275.176	89.75
275.408	97.75
275.64	84.75
275.872	62.75
276.104	92.75
276.335	96.75
276.567	106.75
276.799	86.75
277.031	91.75
277.262	85.75
277.494	95.75
277.726	80.75
277.957	91.75
278.189	79.75
278.421	84.75
278.652	72.75
278.884	84.75
279.115	93.75
279.347	92.75
279.579	87.75
279.81	98.75
280.042	92.75
280.273	85.75
280.505	86.75
280.736	75.75
280.968	101.75
281.199	87.75
281.431	98.75
281.662	72.75
281.894	91.75
282.125	74.75
282.356	92.75
282.588	89.75
282.819	82.75
283.051	88.75
283.282	90.75
283.513	103.75
283.745	69.75
283.976	90.75
284.207	80.75
284.439	87.75
284.67	91.75
284.901	86.75
285.132	88.75
285.364	91.75
285.595	82.75
285.826	95.75
286.057	98.75
286.288	91.75
286.52	82.75
286.751	88.75
286.982	101.75
287.213	76.75
287.444	86.75
287.675	93.75
287.906	78.75
288.138	107.75
288.369	87.75
288.6	88.75
288.831	90.75
289.062	72.75
289.293	74.75
289.524	93.75
289.755	85.75
289.986	99.75
290.217	99.75
290.448	93.75
290.679	84.75
290.91	100.75
291.141	85.75
291.371	89.75
291.602	83.75
291.833	95.75
292.064	91.75
292.295	91.75
292.526	87.75
292.757	90.75
292.987	96.75
293.218	104.75
293.449	102.75
293.68	101.75
293.91	107.75
294.141	98.75
294.372	96.75
294.603	110.75
294.833	94.75
295.064	91.75
295.295	81.75
295.525	94.75
295.756	99.75
295.987	91.75
296.217	93.75
296.448	81.75
296.679	92.75
296.909	84.75
297.14	81.75
297.37	100.75
297.601	104.75
297.831	78.75
298.062	102.75
298.292	90.75
298.523	93.75
298.753	81.75
298.984	101.75
299.214	91.75
299.445	95.75
299.675	89.75
299.905	92.75
300.136	81.75
300.366	72.75
300.597	92.75
300.827	93.75
301.057	80.75
301.288	105.75
301.518	95.75
301.748	88.75
301.979	76.75
302.209	99.75
302.439	98.75
302.669	97.75
302.9	81.75
303.13	88.75
303.36	105.75
303.59	86.75
303.82	84.75
304.051	84.75
304.281	91.75
304.511	105.75
304.741	99.75
304.971	99.75
305.201	100.75
305.431	99.75
305.661	97.75
305.891	92.75
306.121	99.75
306.352	95.75
306.582	83.75
306.812	93.75
307.042	93.75
307.272	88.75
307.502	91.75
307.731	95.75
307.961	89.75
308.191	94.75
308.421	92.75
308.651	89.75
308.881	88.75
309.111	105.75
309.341	96.75
309.571	94.75
309.8	96.75
310.03	93.75
310.26	77.75
310.49	99.75
310.72	104.75
310.949	91.75
311.179	84.75
311.409	82.75
311.639	84.75
311.868	103.75
312.098	81.75
312.328	86.75
312.557	96.75
312.787	87.75
313.017	98.75
313.246	101.75
313.476	91.75
313.706	89.75
313.935	104.75
314.165	97.75
314.394	97.75
314.624	72.75
314.853	81.75
315.083	95.75
315.312	86.75
315.542	78.75
315.771	97.75
316.001	94.75
316.23	100.75
316.46	98.75
316.689	89.75
316.919	78.75
317.148	76.75
317.377	95.75
317.607	103.75
317.836	95.75
318.065	99.75
318.295	95.75
318.524	92.75
318.753	89.75
318.983	73.75
319.212	78.75
319.441	81.75
319.67	96.75
319.9	93.75
320.129	91.75
320.358	105.75
320.587	94.75
320.816	81.75
321.046	100.75
321.275	107.75
321.504	97.75
321.733	99.75
321.962	75.75
322.191	104.75
322.42	90.75
322.649	82.75
322.878	98.75
323.108	86.75
323.337	88.75
323.566	98.75
323.795	96.75
324.024	89.75
324.253	94.75
324.482	87.75
324.71	89.75
324.939	96.75
325.168	93.75
325.397	110.75
325.626	100.75
325.855	84.75
326.084	79.75
326.313	80.75
326.542	96.75
326.77	96.75
326.999	94.75
327.228	88.75
327.457	85.75
327.686	95.75
327.914	88.75
328.143	108.75
328.372	89.75
328.6	88.75
328.829	87.75
329.058	87.75
329.287	102.75
329.515	91.75
329.744	97.75
329.972	99.75
330.201	81.75
330.43	78.75
330.658	87.75
330.887	87.75
331.115	87.75
331.344	82.75
331.572	96.75
331.801	91.75
332.03	88.75
332.258	83.75
332.486	78.75
332.715	91.75
332.943	94.75
333.172	94.75
333.4	95.75
333.629	108.75
333.857	92.75
334.085	96.75
334.314	97.75
334.542	98.75
334.771	100.75
334.999	103.75
335.227	92.75
335.455	99.75
335.684	104.75
335.912	96.75
336.14	95.75
336.369	96.75
336.597	91.75
336.825	92.75
337.053	88.75
337.281	91.75
337.51	76.75
337.738	88.75
337.966	107.75
338.194	104.75
338.422	105.75
338.65	103.75
338.878	94.75
339.106	94.75
339.334	106.75
339.562	94.75
339.79	95.75
340.018	86.75
340.246	87.75
340.474	99.75
340.702	113.75
340.93	90.75
341.158	75.75
341.386	93.75
341.614	94.75
341.842	101.75
342.07	80.75
342.298	89.75
342.526	95.75
342.754	92.75
342.981	88.75
343.209	88.75
343.437	110.75
343.665	96.75
343.893	93.75
344.12	92.75
344.348	85.75
344.576	81.75
344.804	95.75
345.031	92.75
345.259	95.75
345.487	93.75
345.714	97.75
345.942	106.75
346.17	101.75
346.397	99.75
346.625	84.75
346.853	99.75
347.08	81.75
347.308	88.75
347.535	105.75
347.763	100.75
347.99	91.75
348.218	104.75
348.445	101.75
348.673	94.75
348.9	98.75
349.128	94.75
349.355	95.75
349.583	81.75
349.81	88.75
350.037	95.75
350.265	105.75
350.492	97.75
350.72	99.75
350.947	80.75
351.174	95.75
351.402	104.75
351.629	98.75
351.856	94.75
352.083	92.75
352.311	89.75
352.538	89.75
352.765	103.75
352.992	94.75
353.22	89.75
353.447	94.75
353.674	94.75
353.901	96.75
354.128	108.75
354.355	96.75
354.583	86.75
354.81	90.75
355.037	94.75
355.264	97.75
355.491	90.75
355.718	79.75
355.945	89.75
356.172	87.75
356.399	74.75
356.626	95.75
356.853	95.75
357.08	90.75
357.307	99.75
357.534	84.75
357.761	97.75
357.988	98.75
358.215	98.75
358.441	87.75
358.668	99.75
358.895	89.75
359.122	90.75
359.349	99.75
359.576	91.75
359.802	99.75
360.029	89.75
360.256	86.75
360.483	91.75
360.709	95.75
360.936	85.75
361.163	98.75
361.39	96.75
361.616	88.75
361.843	84.75
362.07	95.75
362.296	100.75
362.523	97.75
362.749	86.75
362.976	94.75
363.203	103.75
363.429	100.75
363.656	92.75
363.882	75.75
364.109	95.75
364.335	106.75
364.562	92.75
364.788	95.75
365.015	88.75
365.241	90.75
365.468	83.75
365.694	93.75
365.92	110.75
366.147	94.75
366.373	95.75
366.599	81.75
366.826	100.75
367.052	104.75
367.278	101.75
367.505	95.75
367.731	100.75
367.957	91.75
368.184	87.75
368.41	91.75
368.636	94.75
368.862	99.75
369.089	79.75
369.315	95.75
369.541	79.75
369.767	87.75
369.993	91.75
370.219	87.75
370.445	81.75
370.672	80.75
370.898	93.75
371.124	92.75
371.35	107.75
371.576	97.75
371.802	83.75
372.028	106.75
372.254	99.75
372.48	98.75
372.706	95.75
372.932	100.75
373.158	97.75
373.384	89.75
373.61	82.75
373.835	104.75
374.061	95.75
374.287	102.75
374.513	90.75
374.739	95.75
374.965	115.75
375.191	101.75
375.416	110.75
375.642	108.75
375.868	91.75
376.094	82.75
376.319	102.75
376.545	104.75
376.771	92.75
376.997	90.75
377.222	99.75
377.448	90.75
377.674	87.75
377.899	85.75
378.125	95.75
378.35	96.75
378.576	98.75
378.802	80.75
379.027	80.75
379.253	89.75
379.478	88.75
379.704	103.75
379.929	93.75
380.155	83.75
380.38	105.75
380.606	86.75
380.831	91.75
381.057	100.75
381.282	98.75
381.507	98.75
381.733	102.75
381.958	82.75
382.184	100.75
382.409	97.75
382.634	100.75
382.86	94.75
383.085	108.75
383.31	97.75
383.535	86.75
383.761	102.75
383.986	97.75
384.211	97.75
384.436	97.75
384.662	86.75
384.887	112.75
385.112	80.75
385.337	97.75
385.562	98.75
385.787	88.75
386.013	102.75
386.238	105.75
386.463	98.75
386.688	81.75
386.913	98.75
387.138	97.75
387.363	100.75
387.588	94.75
387.813	90.75
388.038	93.75
388.263	100.75
388.488	82.75
388.713	107.75
388.938	98.75
389.163	99.75
389.387	106.75
389.612	104.75
389.837	103.75
390.062	90.75
390.287	100.75
390.512	102.75
390.736	102.75
390.961	93.75
391.186	89.75
391.411	102.75
391.636	94.75
391.86	95.75
392.085	96.75
392.31	104.75
392.534	91.75
392.759	86.75
392.984	102.75
393.208	95.75
393.433	101.75
393.658	95.75
393.882	89.75
394.107	96.75
394.331	98.75
394.556	105.75
394.78	98.75
395.005	87.75
395.229	97.75
395.454	102.75
395.678	105.75
395.903	99.75
396.127	110.75
396.352	99.75
396.576	83.75
396.801	101.75
397.025	90.75
397.249	104.75
397.474	104.75
397.698	103.75
397.922	101.75
398.147	101.75
398.371	94.75
398.595	92.75
398.82	110.75
399.044	87.75
399.268	96.75
399.492	116.75
399.717	106.75
399.941	112.75
400.165	97.75
400.389	94.75
400.613	104.75
400.837	105.75
401.062	96.75
401.286	108.75
401.51	104.75
401.734	105.75
401.958	114.75
402.182	102.75
402.406	106.75
402.63	113.75
402.854	94.75
403.078	101.75
403.302	104.75
403.526	114.75
403.75	98.75
403.974	98.75
404.198	101.75
404.422	92.75
404.645	94.75
404.869	95.75
405.093	106.75
405.317	96.75
405.541	93.75
405.765	92.75
405.988	110.75
406.212	97.75
406.436	108.75
406.66	81.75
406.883	104.75
407.107	97.75
407.331	110.75
407.555	114.75
407.778	92.75
408.002	100.75
408.226	98.75
408.449	98.75
408.673	97.75
408.896	104.75
409.12	92.75
409.344	111.75
409.567	110.75
409.791	103.75
410.014	112.75
410.238	106.75
410.461	100.75
410.685	104.75
410.908	95.75
411.132	94.75
411.355	93.75
411.578	122.75
411.802	103.75
412.025	100.75
412.249	99.75
412.472	103.75
412.695	97.75
412.919	101.75
413.142	102.75
413.365	79.75
413.589	104.75
413.812	91.75
414.035	109.75
414.258	102.75
414.482	109.75
414.705	93.75
414.928	89.75
415.151	102.75
415.374	105.75
415.597	82.75
415.821	112.75
416.044	102.75
416.267	87.75
416.49	95.75
416.713	98.75
416.936	93.75
417.159	102.75
417.382	113.75
417.605	94.75
417.828	114.75
418.051	106.75
418.274	94.75
418.497	100.75
418.72	108.75
418.943	111.75
419.166	103.75
419.389	102.75
419.611	104.75
419.834	99.75
420.057	99.75
420.28	102.75
420.503	106.75
420.726	90.75
420.948	97.75
421.171	102.75
421.394	97.75
421.617	96.75
421.839	99.75
422.062	93.75
422.285	89.75
422.507	103.75
422.73	111.75
422.953	94.75
423.175	102.75
423.398	96.75
423.621	105.75
423.843	107.75
424.066	102.75
424.288	97.75
424.511	89.75
424.733	101.75
424.956	102.75
425.178	112.75
425.401	94.75
425.623	117.75
425.846	81.75
426.068	99.75
426.291	76.75
426.513	99.75
426.735	100.75
426.958	106.75
427.18	92.75
427.402	97.75
427.625	102.75
427.847	102.75
428.069	112.75
428.292	100.75
428.514	82.75
428.736	94.75
428.958	90.75
429.181	90.75
429.403	100.75
429.625	97.75
429.847	101.75
430.069	81.75
430.292	90.75
430.514	89.75
430.736	99.75
430.958	84.75
431.18	91.75
431.402	101.75
431.624	89.75
431.846	106.75
432.068	99.75
432.29	84.75
432.512	97.75
432.734	101.75
432.956	101.75
433.178	95.75
433.4	100.75
433.622	91.75
433.844	95.75
434.066	95.75
434.287	91.75
434.509	101.75
434.731	104.75
434.953	95.75
435.175	94.75
435.397	96.75
435.618	97.75
435.84	98.75
436.062	98.75
436.284	100.75
436.505	87.75
436.727	89.75
436.949	84.75
437.17	77.75
437.392	86.75
437.614	87.75
437.835	82.75
438.057	103.75
438.278	82.75
438.5	105.75
438.721	92.75
438.943	117.75
439.165	94.75
439.386	93.75
439.608	93.75
439.829	90.75
440.05	94.75
440.272	95.75
440.493	99.75
440.715	110.75
440.936	107.75
441.158	96.75
441.379	104.75
441.6	98.75
441.822	110.75
442.043	99.75
442.264	84.75
442.486	105.75
442.707	110.75
442.928	95.75
443.149	88.75
443.371	98.75
443.592	94.75
443.813	96.75
444.034	115.75
444.255	105.75
444.476	106.75
444.698	94.75
444.919	89.75
445.14	214.75
445.361	147.75
445.582	102.75
445.803	104.75
446.024	89.75
446.245	94.75
446.466	95.75
446.687	99.75
446.908	102.75
447.129	91.75
447.35	99.75
447.571	98.75
447.792	92.75
448.013	102.75
448.234	94.75
448.455	102.75
448.675	103.75
448.896	90.75
449.117	99.75
449.338	96.75
449.559	111.75
449.779	91.75
450	102.75
450.221	99.75
450.442	104.75
450.662	96.75
450.883	90.75
451.104	94.75
451.324	97.75
451.545	99.75
451.766	99.75
451.986	101.75
452.207	90.75
452.428	87.75
452.648	90.75
452.869	98.75
453.089	84.75
453.31	89.75
453.53	103.75
453.751	95.75
453.971	89.75
454.192	96.75
454.412	95.75
454.633	87.75
454.853	89.75
455.073	87.75
455.294	93.75
455.514	93.75
455.734	82.75
455.955	96.75
456.175	96.75
456.395	96.75
456.616	102.75
456.836	101.75
457.056	106.75
457.276	100.75
457.497	98.75
457.717	88.75
457.937	98.75
458.157	81.75
458.377	92.75
458.598	97.75
458.818	105.75
459.038	93.75
459.258	94.75
459.478	91.75
459.698	100.75
459.918	110.75
460.138	91.75
460.358	96.75
460.578	95.75
460.798	114.75
461.018	102.75
461.238	99.75
461.458	90.75
461.678	107.75
461.898	105.75
462.118	114.75
462.338	114.75
462.558	91.75
462.777	98.75
462.997	94.75
463.217	106.75
463.437	113.75
463.657	102.75
463.876	106.75
464.096	100.75
464.316	123.75
464.536	118.75
464.755	105.75
464.975	107.75
465.195	102.75
465.414	89.75
465.634	103.75
465.854	90.75
466.073	91.75
466.293	100.75
466.512	101.75
466.732	93.75
466.951	114.75
467.171	98.75
467.391	110.75
467.61	98.75
467.829	88.75
468.049	102.75
468.268	90.75
468.488	95.75
468.707	111.75
468.927	89.75
469.146	99.75
469.365	102.75
469.585	106.75
469.804	98.75
470.023	108.75
470.243	82.75
470.462	100.75
470.681	99.75
470.901	79.75
471.12	109.75
471.339	109.75
471.558	97.75
471.777	105.75
471.997	107.75
472.216	98.75
472.435	96.75
472.654	87.75
472.873	106.75
473.092	106.75
473.311	87.75
473.53	107.75
473.749	102.75
473.968	102.75
474.187	107.75
474.406	98.75
474.625	100.75
474.844	107.75
475.063	102.75
475.282	97.75
475.501	98.75
475.72	105.75
475.939	102.75
476.158	104.75
476.377	93.75
476.596	106.75
476.814	106.75
477.033	101.75
477.252	99.75
477.471	97.75
477.69	97.75
477.908	102.75
478.127	118.75
478.346	97.75
478.564	104.75
478.783	101.75
479.002	104.75
479.22	97.75
479.439	100.75
479.658	97.75
479.876	114.75
480.095	111.75
480.313	103.75
480.532	107.75
480.751	107.75
480.969	92.75
481.188	99.75
481.406	102.75
481.624	94.75
481.843	105.75
482.061	104.75
482.28	91.75
482.498	96.75
482.717	99.75
482.935	110.75
483.153	101.75
483.372	100.75
483.59	113.75
483.808	112.75
484.027	94.75
484.245	103.75
484.463	110.75
484.681	116.75
484.9	102.75
485.118	108.75
485.336	92.75
485.554	111.75
485.772	108.75
485.99	118.75
486.209	100.75
486.427	97.75
486.645	123.75
486.863	105.75
487.081	116.75
487.299	106.75
487.517	114.75
487.735	112.75
487.953	132.75
488.171	123.75
488.389	103.75
488.607	112.75
488.825	125.75
489.043	111.75
489.261	115.75
489.479	98.75
489.696	95.75
489.914	128.75
490.132	123.75
490.35	115.75
490.568	115.75
490.786	106.75
491.003	112.75
491.221	121.75
491.439	119.75
491.657	100.75
491.874	102.75
492.092	114.75
492.31	124.75
492.527	139.75
492.745	127.75
492.963	109.75
493.18	118.75
493.398	114.75
493.615	116.75
493.833	123.75
494.05	112.75
494.268	114.75
494.485	113.75
494.703	110.75
494.92	113.75
495.138	116.75
495.355	112.75
495.573	113.75
495.79	105.75
496.008	110.75
496.225	128.75
496.442	107.75
496.66	112.75
496.877	115.75
497.094	120.75
497.312	101.75
497.529	124.75
497.746	123.75
497.963	118.75
498.181	122.75
498.398	124.75
498.615	121.75
498.832	124.75
499.049	122.75
499.267	124.75
499.484	137.75
499.701	148.75
499.918	149.75
500.135	147.75
500.352	150.75
500.569	160.75
500.786	151.75
501.003	135.75
501.22	138.75
501.437	141.75
501.654	129.75
501.871	121.75
502.088	120.75
502.305	122.75
502.522	119.75
502.739	124.75
502.956	126.75
503.172	115.75
503.389	96.75
503.606	100.75
503.823	111.75
504.04	111.75
504.256	112.75
504.473	107.75
504.69	116.75
504.907	116.75
505.123	102.75
505.34	114.75
505.557	120.75
505.773	110.75
505.99	108.75
506.207	105.75
506.423	112.75
506.64	114.75
506.856	98.75
507.073	112.75
507.289	103.75
507.506	103.75
507.722	110.75
507.939	100.75
508.155	106.75
508.372	107.75
508.588	104.75
508.805	119.75
509.021	90.75
509.238	99.75
509.454	102.75
509.67	101.75
509.887	102.75
510.103	96.75
510.319	90.75
510.536	107.75
510.752	102.75
510.968	98.75
511.184	98.75
511.401	96.75
511.617	114.75
511.833	94.75
512.049	100.75
512.265	114.75
512.481	105.75
512.698	99.75
512.914	101.75
513.13	94.75
513.346	103.75
513.562	114.75
