Data from Location5.07152019.Energy5.Lamp.07192019.3%Agarose_HRD10591_15-39-37-388.txt Node
Date: Fri Jul 19 15:39:37 EDT 2019
User: cochatt
Spectrometer: HR+D1059
Trigger mode: 1
Integration Time (sec): 1.000000E-1
Scans to average: 1
Electric dark correction enabled: true
Nonlinearity correction enabled: false
Boxcar width: 0
XAxis mode: Wavelengths
Number of Pixels in Spectrum: 2048
>>>>>Begin Spectral Data<<<<<
223.165	-12.5
223.4	-12.5
223.635	-12.5
223.869	-1.5
224.104	-19.5
224.338	-19.5
224.573	-23.5
224.808	-13.5
225.042	-18.5
225.277	-3.5
225.511	-0.5
225.746	-7.5
225.98	2.5
226.215	10.5
226.449	15.5
226.683	22.5
226.918	35.5
227.152	33.5
227.387	33.5
227.621	49.5
227.856	49.5
228.09	51.5
228.324	61.5
228.559	60.5
228.793	58.5
229.027	68.5
229.262	70.5
229.496	74.5
229.73	70.5
229.964	72.5
230.199	76.5
230.433	73.5
230.667	91.5
230.901	72.5
231.136	74.5
231.37	92.5
231.604	80.5
231.838	79.5
232.072	88.5
232.306	85.5
232.541	78.5
232.775	83.5
233.009	79.5
233.243	83.5
233.477	84.5
233.711	78.5
233.945	73.5
234.179	81.5
234.413	79.5
234.647	76.5
234.881	86.5
235.115	105.5
235.349	86.5
235.583	79.5
235.817	85.5
236.051	69.5
236.285	77.5
236.519	85.5
236.753	77.5
236.987	82.5
237.221	91.5
237.455	74.5
237.689	79.5
237.922	85.5
238.156	92.5
238.39	86.5
238.624	64.5
238.858	92.5
239.091	66.5
239.325	85.5
239.559	94.5
239.793	83.5
240.027	75.5
240.26	66.5
240.494	76.5
240.728	76.5
240.961	73.5
241.195	84.5
241.429	86.5
241.662	76.5
241.896	61.5
242.13	77.5
242.363	71.5
242.597	88.5
242.83	65.5
243.064	84.5
243.298	70.5
243.531	77.5
243.765	85.5
243.998	73.5
244.232	79.5
244.465	69.5
244.699	83.5
244.932	80.5
245.166	87.5
245.399	82.5
245.633	89.5
245.866	90.5
246.099	82.5
246.333	89.5
246.566	83.5
246.8	86.5
247.033	78.5
247.266	79.5
247.5	64.5
247.733	83.5
247.966	91.5
248.2	84.5
248.433	69.5
248.666	81.5
248.899	79.5
249.133	74.5
249.366	87.5
249.599	68.5
249.832	83.5
250.066	96.5
250.299	69.5
250.532	83.5
250.765	86.5
250.998	70.5
251.231	90.5
251.465	80.5
251.698	70.5
251.931	81.5
252.164	94.5
252.397	75.5
252.63	82.5
252.863	89.5
253.096	86.5
253.329	79.5
253.562	74.5
253.795	95.5
254.028	89.5
254.261	81.5
254.494	81.5
254.727	83.5
254.96	89.5
255.193	78.5
255.426	91.5
255.659	84.5
255.892	81.5
256.124	86.5
256.357	70.5
256.59	84.5
256.823	83.5
257.056	87.5
257.289	89.5
257.521	91.5
257.754	81.5
257.987	92.5
258.22	100.5
258.452	72.5
258.685	76.5
258.918	77.5
259.151	80.5
259.383	87.5
259.616	84.5
259.849	97.5
260.081	89.5
260.314	93.5
260.547	90.5
260.779	71.5
261.012	87.5
261.244	93.5
261.477	104.5
261.71	83.5
261.942	85.5
262.175	91.5
262.407	76.5
262.64	91.5
262.872	75.5
263.105	69.5
263.337	81.5
263.57	90.5
263.802	87.5
264.035	80.5
264.267	65.5
264.499	81.5
264.732	92.5
264.964	83.5
265.197	80.5
265.429	85.5
265.661	87.5
265.894	72.5
266.126	84.5
266.358	92.5
266.591	94.5
266.823	83.5
267.055	77.5
267.287	86.5
267.52	84.5
267.752	82.5
267.984	81.5
268.216	79.5
268.448	92.5
268.681	80.5
268.913	92.5
269.145	90.5
269.377	90.5
269.609	79.5
269.841	87.5
270.073	86.5
270.306	83.5
270.538	79.5
270.77	83.5
271.002	72.5
271.234	85.5
271.466	82.5
271.698	83.5
271.93	87.5
272.162	79.5
272.394	70.5
272.626	78.5
272.858	88.5
273.09	91.5
273.322	92.5
273.553	90.5
273.785	83.5
274.017	84.5
274.249	64.5
274.481	89.5
274.713	91.5
274.945	69.5
275.176	89.5
275.408	90.5
275.64	79.5
275.872	93.5
276.104	79.5
276.335	85.5
276.567	80.5
276.799	83.5
277.031	94.5
277.262	92.5
277.494	94.5
277.726	97.5
277.957	84.5
278.189	97.5
278.421	89.5
278.652	93.5
278.884	94.5
279.115	85.5
279.347	87.5
279.579	81.5
279.81	99.5
280.042	94.5
280.273	89.5
280.505	104.5
280.736	74.5
280.968	92.5
281.199	84.5
281.431	90.5
281.662	73.5
281.894	95.5
282.125	83.5
282.356	104.5
282.588	87.5
282.819	76.5
283.051	89.5
283.282	82.5
283.513	87.5
283.745	91.5
283.976	86.5
284.207	74.5
284.439	85.5
284.67	85.5
284.901	85.5
285.132	93.5
285.364	97.5
285.595	91.5
285.826	73.5
286.057	101.5
286.288	86.5
286.52	78.5
286.751	86.5
286.982	87.5
287.213	68.5
287.444	101.5
287.675	82.5
287.906	84.5
288.138	79.5
288.369	71.5
288.6	98.5
288.831	73.5
289.062	83.5
289.293	83.5
289.524	99.5
289.755	86.5
289.986	76.5
290.217	85.5
290.448	94.5
290.679	84.5
290.91	103.5
291.141	87.5
291.371	98.5
291.602	101.5
291.833	84.5
292.064	83.5
292.295	86.5
292.526	79.5
292.757	85.5
292.987	71.5
293.218	85.5
293.449	84.5
293.68	82.5
293.91	83.5
294.141	82.5
294.372	89.5
294.603	84.5
294.833	77.5
295.064	75.5
295.295	89.5
295.525	81.5
295.756	106.5
295.987	76.5
296.217	73.5
296.448	85.5
296.679	84.5
296.909	87.5
297.14	91.5
297.37	90.5
297.601	87.5
297.831	86.5
298.062	75.5
298.292	91.5
298.523	87.5
298.753	86.5
298.984	78.5
299.214	83.5
299.445	75.5
299.675	92.5
299.905	101.5
300.136	87.5
300.366	79.5
300.597	75.5
300.827	81.5
301.057	95.5
301.288	93.5
301.518	82.5
301.748	84.5
301.979	87.5
302.209	85.5
302.439	91.5
302.669	99.5
302.9	88.5
303.13	84.5
303.36	76.5
303.59	78.5
303.82	92.5
304.051	83.5
304.281	94.5
304.511	86.5
304.741	83.5
304.971	84.5
305.201	97.5
305.431	78.5
305.661	85.5
305.891	82.5
306.121	91.5
306.352	77.5
306.582	83.5
306.812	73.5
307.042	82.5
307.272	102.5
307.502	87.5
307.731	98.5
307.961	79.5
308.191	82.5
308.421	85.5
308.651	85.5
308.881	91.5
309.111	75.5
309.341	76.5
309.571	103.5
309.8	93.5
310.03	97.5
310.26	96.5
310.49	86.5
310.72	89.5
310.949	87.5
311.179	92.5
311.409	90.5
311.639	99.5
311.868	95.5
312.098	84.5
312.328	87.5
312.557	96.5
312.787	87.5
313.017	91.5
313.246	97.5
313.476	76.5
313.706	89.5
313.935	89.5
314.165	86.5
314.394	99.5
314.624	98.5
314.853	85.5
315.083	90.5
315.312	77.5
315.542	82.5
315.771	84.5
316.001	70.5
316.23	74.5
316.46	85.5
316.689	86.5
316.919	90.5
317.148	93.5
317.377	87.5
317.607	81.5
317.836	92.5
318.065	95.5
318.295	84.5
318.524	86.5
318.753	82.5
318.983	77.5
319.212	91.5
319.441	94.5
319.67	89.5
319.9	101.5
320.129	86.5
320.358	84.5
320.587	100.5
320.816	94.5
321.046	92.5
321.275	99.5
321.504	80.5
321.733	89.5
321.962	94.5
322.191	85.5
322.42	80.5
322.649	78.5
322.878	81.5
323.108	70.5
323.337	99.5
323.566	92.5
323.795	97.5
324.024	98.5
324.253	103.5
324.482	83.5
324.71	75.5
324.939	79.5
325.168	79.5
325.397	84.5
325.626	93.5
325.855	91.5
326.084	88.5
326.313	100.5
326.542	83.5
326.77	78.5
326.999	74.5
327.228	101.5
327.457	87.5
327.686	89.5
327.914	92.5
328.143	90.5
328.372	89.5
328.6	95.5
328.829	101.5
329.058	86.5
329.287	93.5
329.515	92.5
329.744	87.5
329.972	90.5
330.201	84.5
330.43	93.5
330.658	84.5
330.887	91.5
331.115	98.5
331.344	77.5
331.572	88.5
331.801	82.5
332.03	81.5
332.258	92.5
332.486	86.5
332.715	79.5
332.943	90.5
333.172	86.5
333.4	64.5
333.629	87.5
333.857	70.5
334.085	82.5
334.314	93.5
334.542	79.5
334.771	90.5
334.999	95.5
335.227	101.5
335.455	90.5
335.684	77.5
335.912	76.5
336.14	90.5
336.369	76.5
336.597	84.5
336.825	85.5
337.053	66.5
337.281	89.5
337.51	78.5
337.738	90.5
337.966	78.5
338.194	94.5
338.422	72.5
338.65	80.5
338.878	82.5
339.106	75.5
339.334	101.5
339.562	97.5
339.79	78.5
340.018	102.5
340.246	83.5
340.474	72.5
340.702	93.5
340.93	88.5
341.158	81.5
341.386	90.5
341.614	91.5
341.842	100.5
342.07	99.5
342.298	99.5
342.526	88.5
342.754	89.5
342.981	88.5
343.209	93.5
343.437	80.5
343.665	94.5
343.893	90.5
344.12	77.5
344.348	86.5
344.576	88.5
344.804	82.5
345.031	71.5
345.259	91.5
345.487	90.5
345.714	94.5
345.942	83.5
346.17	79.5
346.397	87.5
346.625	90.5
346.853	84.5
347.08	74.5
347.308	90.5
347.535	86.5
347.763	82.5
347.99	85.5
348.218	87.5
348.445	91.5
348.673	87.5
348.9	66.5
349.128	84.5
349.355	92.5
349.583	76.5
349.81	93.5
350.037	90.5
350.265	79.5
350.492	86.5
350.72	87.5
350.947	95.5
351.174	95.5
351.402	97.5
351.629	99.5
351.856	103.5
352.083	87.5
352.311	83.5
352.538	90.5
352.765	90.5
352.992	84.5
353.22	96.5
353.447	90.5
353.674	96.5
353.901	91.5
354.128	86.5
354.355	84.5
354.583	89.5
354.81	75.5
355.037	90.5
355.264	85.5
355.491	77.5
355.718	92.5
355.945	95.5
356.172	100.5
356.399	77.5
356.626	90.5
356.853	87.5
357.08	90.5
357.307	86.5
357.534	77.5
357.761	98.5
357.988	79.5
358.215	88.5
358.441	79.5
358.668	81.5
358.895	90.5
359.122	92.5
359.349	82.5
359.576	80.5
359.802	81.5
360.029	81.5
360.256	88.5
360.483	72.5
360.709	101.5
360.936	97.5
361.163	90.5
361.39	86.5
361.616	81.5
361.843	71.5
362.07	79.5
362.296	91.5
362.523	91.5
362.749	92.5
362.976	96.5
363.203	100.5
363.429	98.5
363.656	86.5
363.882	70.5
364.109	82.5
364.335	87.5
364.562	76.5
364.788	104.5
365.015	95.5
365.241	83.5
365.468	78.5
365.694	85.5
365.92	78.5
366.147	77.5
366.373	102.5
366.599	84.5
366.826	79.5
367.052	65.5
367.278	91.5
367.505	81.5
367.731	79.5
367.957	79.5
368.184	101.5
368.41	91.5
368.636	78.5
368.862	94.5
369.089	81.5
369.315	91.5
369.541	106.5
369.767	84.5
369.993	88.5
370.219	97.5
370.445	89.5
370.672	89.5
370.898	77.5
371.124	78.5
371.35	88.5
371.576	92.5
371.802	86.5
372.028	80.5
372.254	75.5
372.48	84.5
372.706	81.5
372.932	84.5
373.158	83.5
373.384	91.5
373.61	88.5
373.835	87.5
374.061	77.5
374.287	80.5
374.513	81.5
374.739	75.5
374.965	87.5
375.191	94.5
375.416	96.5
375.642	79.5
375.868	90.5
376.094	90.5
376.319	90.5
376.545	88.5
376.771	87.5
376.997	89.5
377.222	80.5
377.448	97.5
377.674	93.5
377.899	92.5
378.125	83.5
378.35	87.5
378.576	83.5
378.802	69.5
379.027	87.5
379.253	86.5
379.478	103.5
379.704	94.5
379.929	87.5
380.155	91.5
380.38	89.5
380.606	72.5
380.831	87.5
381.057	102.5
381.282	95.5
381.507	79.5
381.733	101.5
381.958	105.5
382.184	84.5
382.409	79.5
382.634	90.5
382.86	97.5
383.085	94.5
383.31	83.5
383.535	89.5
383.761	98.5
383.986	85.5
384.211	87.5
384.436	86.5
384.662	88.5
384.887	88.5
385.112	90.5
385.337	76.5
385.562	79.5
385.787	79.5
386.013	82.5
386.238	102.5
386.463	94.5
386.688	92.5
386.913	77.5
387.138	86.5
387.363	87.5
387.588	90.5
387.813	72.5
388.038	94.5
388.263	100.5
388.488	78.5
388.713	100.5
388.938	84.5
389.163	97.5
389.387	96.5
389.612	85.5
389.837	74.5
390.062	95.5
390.287	94.5
390.512	75.5
390.736	93.5
390.961	83.5
391.186	91.5
391.411	82.5
391.636	78.5
391.86	82.5
392.085	91.5
392.31	93.5
392.534	86.5
392.759	90.5
392.984	89.5
393.208	90.5
393.433	82.5
393.658	78.5
393.882	78.5
394.107	79.5
394.331	72.5
394.556	100.5
394.78	89.5
395.005	80.5
395.229	90.5
395.454	101.5
395.678	77.5
395.903	86.5
396.127	87.5
396.352	84.5
396.576	93.5
396.801	81.5
397.025	84.5
397.249	86.5
397.474	98.5
397.698	84.5
397.922	89.5
398.147	91.5
398.371	90.5
398.595	82.5
398.82	87.5
399.044	88.5
399.268	88.5
399.492	89.5
399.717	94.5
399.941	81.5
400.165	100.5
400.389	80.5
400.613	87.5
400.837	94.5
401.062	86.5
401.286	97.5
401.51	85.5
401.734	93.5
401.958	93.5
402.182	79.5
402.406	78.5
402.63	92.5
402.854	103.5
403.078	95.5
403.302	89.5
403.526	97.5
403.75	86.5
403.974	78.5
404.198	84.5
404.422	98.5
404.645	82.5
404.869	89.5
405.093	100.5
405.317	97.5
405.541	92.5
405.765	77.5
405.988	107.5
406.212	105.5
406.436	104.5
406.66	84.5
406.883	89.5
407.107	90.5
407.331	88.5
407.555	92.5
407.778	81.5
408.002	93.5
408.226	94.5
408.449	100.5
408.673	91.5
408.896	101.5
409.12	84.5
409.344	104.5
409.567	101.5
409.791	75.5
410.014	103.5
410.238	84.5
410.461	87.5
410.685	90.5
410.908	92.5
411.132	95.5
411.355	85.5
411.578	97.5
411.802	88.5
412.025	92.5
412.249	93.5
412.472	101.5
412.695	74.5
412.919	91.5
413.142	83.5
413.365	100.5
413.589	98.5
413.812	86.5
414.035	74.5
414.258	86.5
414.482	81.5
414.705	76.5
414.928	92.5
415.151	101.5
415.374	89.5
415.597	98.5
415.821	92.5
416.044	95.5
416.267	94.5
416.49	94.5
416.713	88.5
416.936	101.5
417.159	84.5
417.382	94.5
417.605	103.5
417.828	110.5
418.051	100.5
418.274	95.5
418.497	96.5
418.72	77.5
418.943	110.5
419.166	92.5
419.389	89.5
419.611	99.5
419.834	92.5
420.057	101.5
420.28	96.5
420.503	92.5
420.726	93.5
420.948	100.5
421.171	95.5
421.394	97.5
421.617	91.5
421.839	94.5
422.062	102.5
422.285	110.5
422.507	91.5
422.73	93.5
422.953	95.5
423.175	94.5
423.398	85.5
423.621	93.5
423.843	82.5
424.066	95.5
424.288	100.5
424.511	94.5
424.733	93.5
424.956	92.5
425.178	87.5
425.401	95.5
425.623	100.5
425.846	81.5
426.068	91.5
426.291	97.5
426.513	83.5
426.735	106.5
426.958	81.5
427.18	98.5
427.402	85.5
427.625	88.5
427.847	88.5
428.069	94.5
428.292	90.5
428.514	113.5
428.736	86.5
428.958	87.5
429.181	83.5
429.403	98.5
429.625	70.5
429.847	92.5
430.069	101.5
430.292	88.5
430.514	99.5
430.736	106.5
430.958	80.5
431.18	96.5
431.402	87.5
431.624	88.5
431.846	103.5
432.068	87.5
432.29	85.5
432.512	86.5
432.734	102.5
432.956	98.5
433.178	96.5
433.4	100.5
433.622	107.5
433.844	113.5
434.066	85.5
434.287	96.5
434.509	98.5
434.731	85.5
434.953	111.5
435.175	91.5
435.397	102.5
435.618	94.5
435.84	95.5
436.062	84.5
436.284	96.5
436.505	89.5
436.727	102.5
436.949	86.5
437.17	112.5
437.392	97.5
437.614	88.5
437.835	78.5
438.057	78.5
438.278	91.5
438.5	99.5
438.721	99.5
438.943	96.5
439.165	88.5
439.386	102.5
439.608	88.5
439.829	109.5
440.05	105.5
440.272	110.5
440.493	115.5
440.715	93.5
440.936	99.5
441.158	92.5
441.379	93.5
441.6	84.5
441.822	99.5
442.043	105.5
442.264	108.5
442.486	119.5
442.707	89.5
442.928	101.5
443.149	100.5
443.371	102.5
443.592	96.5
443.813	89.5
444.034	93.5
444.255	98.5
444.476	99.5
444.698	76.5
444.919	97.5
445.14	222.5
445.361	151.5
445.582	95.5
445.803	97.5
446.024	84.5
446.245	98.5
446.466	99.5
446.687	101.5
446.908	102.5
447.129	103.5
447.35	101.5
447.571	98.5
447.792	92.5
448.013	99.5
448.234	102.5
448.455	96.5
448.675	97.5
448.896	102.5
449.117	86.5
449.338	91.5
449.559	101.5
449.779	82.5
450	89.5
450.221	94.5
450.442	116.5
450.662	97.5
450.883	94.5
451.104	99.5
451.324	90.5
451.545	101.5
451.766	98.5
451.986	83.5
452.207	90.5
452.428	97.5
452.648	90.5
452.869	92.5
453.089	96.5
453.31	84.5
453.53	90.5
453.751	90.5
453.971	95.5
454.192	90.5
454.412	90.5
454.633	87.5
454.853	86.5
455.073	87.5
455.294	99.5
455.514	93.5
455.734	89.5
455.955	101.5
456.175	86.5
456.395	94.5
456.616	85.5
456.836	91.5
457.056	91.5
457.276	98.5
457.497	99.5
457.717	82.5
457.937	81.5
458.157	82.5
458.377	100.5
458.598	78.5
458.818	72.5
459.038	91.5
459.258	89.5
459.478	97.5
459.698	91.5
459.918	70.5
460.138	88.5
460.358	90.5
460.578	97.5
460.798	105.5
461.018	93.5
461.238	77.5
461.458	86.5
461.678	96.5
461.898	107.5
462.118	97.5
462.338	90.5
462.558	79.5
462.777	84.5
462.997	92.5
463.217	82.5
463.437	80.5
463.657	89.5
463.876	97.5
464.096	102.5
464.316	87.5
464.536	76.5
464.755	97.5
464.975	95.5
465.195	82.5
465.414	85.5
465.634	82.5
465.854	92.5
466.073	97.5
466.293	97.5
466.512	98.5
466.732	95.5
466.951	110.5
467.171	89.5
467.391	104.5
467.61	94.5
467.829	98.5
468.049	81.5
468.268	98.5
468.488	94.5
468.707	99.5
468.927	83.5
469.146	105.5
469.365	93.5
469.585	105.5
469.804	101.5
470.023	97.5
470.243	103.5
470.462	97.5
470.681	101.5
470.901	102.5
471.12	98.5
471.339	81.5
471.558	104.5
471.777	104.5
471.997	98.5
472.216	92.5
472.435	94.5
472.654	100.5
472.873	80.5
473.092	94.5
473.311	98.5
473.53	96.5
473.749	99.5
473.968	89.5
474.187	98.5
474.406	92.5
474.625	98.5
474.844	85.5
475.063	93.5
475.282	95.5
475.501	93.5
475.72	100.5
475.939	84.5
476.158	91.5
476.377	94.5
476.596	95.5
476.814	94.5
477.033	83.5
477.252	101.5
477.471	74.5
477.69	93.5
477.908	105.5
478.127	107.5
478.346	86.5
478.564	99.5
478.783	93.5
479.002	106.5
479.22	110.5
479.439	115.5
479.658	103.5
479.876	102.5
480.095	82.5
480.313	82.5
480.532	106.5
480.751	97.5
480.969	78.5
481.188	87.5
481.406	89.5
481.624	82.5
481.843	79.5
482.061	84.5
482.28	87.5
482.498	117.5
482.717	89.5
482.935	87.5
483.153	94.5
483.372	81.5
483.59	95.5
483.808	97.5
484.027	102.5
484.245	94.5
484.463	99.5
484.681	98.5
484.9	96.5
485.118	92.5
485.336	92.5
485.554	85.5
485.772	99.5
485.99	84.5
486.209	87.5
486.427	77.5
486.645	87.5
486.863	102.5
487.081	93.5
487.299	88.5
487.517	110.5
487.735	107.5
487.953	112.5
488.171	119.5
488.389	103.5
488.607	103.5
488.825	92.5
489.043	102.5
489.261	101.5
489.479	103.5
489.696	96.5
489.914	116.5
490.132	101.5
490.35	114.5
490.568	113.5
490.786	105.5
491.003	99.5
491.221	108.5
491.439	129.5
491.657	119.5
491.874	119.5
492.092	119.5
492.31	129.5
492.527	116.5
492.745	111.5
492.963	108.5
493.18	118.5
493.398	120.5
493.615	108.5
493.833	104.5
494.05	111.5
494.268	117.5
494.485	107.5
494.703	111.5
494.92	106.5
495.138	111.5
495.355	109.5
495.573	110.5
495.79	110.5
496.008	109.5
496.225	108.5
496.442	118.5
496.66	107.5
496.877	107.5
497.094	92.5
497.312	106.5
497.529	116.5
497.746	88.5
497.963	100.5
498.181	87.5
498.398	91.5
498.615	93.5
498.832	90.5
499.049	87.5
499.267	92.5
499.484	103.5
499.701	79.5
499.918	80.5
500.135	88.5
500.352	91.5
500.569	89.5
500.786	112.5
501.003	103.5
501.22	99.5
501.437	82.5
501.654	89.5
501.871	99.5
502.088	87.5
502.305	83.5
502.522	90.5
502.739	99.5
502.956	96.5
503.172	97.5
503.389	102.5
503.606	89.5
503.823	95.5
504.04	87.5
504.256	106.5
504.473	86.5
504.69	90.5
504.907	108.5
505.123	102.5
505.34	90.5
505.557	94.5
505.773	87.5
505.99	96.5
506.207	94.5
506.423	83.5
506.64	91.5
506.856	94.5
507.073	85.5
507.289	87.5
507.506	92.5
507.722	83.5
507.939	109.5
508.155	95.5
508.372	100.5
508.588	88.5
508.805	93.5
509.021	95.5
509.238	102.5
509.454	85.5
509.67	96.5
509.887	88.5
510.103	91.5
510.319	91.5
510.536	83.5
510.752	81.5
510.968	88.5
511.184	79.5
511.401	87.5
511.617	85.5
511.833	94.5
512.049	89.5
512.265	83.5
512.481	79.5
512.698	102.5
512.914	101.5
513.13	83.5
513.346	93.5
513.562	86.5
513.778	82.5
513.994	83.5
514.21	83.5
514.426	92.5
514.642	88.5
514.858	95.5
515.074	78.5
515.29	75.5
515.506	57.5
515.721	82.5
515.937	70.5
516.153	87.5
516.369	77.5
516.585	74.5
516.801	98.5
517.016	86.5
517.232	91.5
517.448	102.5
517.664	94.5
517.879	79.5
518.095	98.5
518.311	90.5
518.527	72.5
518.742	93.5
518.958	69.5
519.173	75.5
519.389	89.5
519.605	84.5
519.82	91.5
520.036	87.5
520.251	94.5
520.467	99.5
520.682	78.5
520.898	79.5
521.113	81.5
521.329	95.5
521.544	86.5
521.76	78.5
521.975	97.5
522.19	89.5
522.406	95.5
522.621	95.5
522.836	97.5
523.052	101.5
523.267	89.5
523.482	94.5
523.698	94.5
523.913	102.5
524.128	85.5
524.343	101.5
524.559	100.5
524.774	101.5
524.989	87.5
525.204	94.5
525.419	93.5
525.634	87.5
525.849	88.5
526.064	100.5
526.28	88.5
526.495	91.5
526.71	90.5
526.925	86.5
527.14	83.5
527.355	86.5
527.57	97.5
527.785	77.5
527.999	88.5
528.214	82.5
528.429	113.5
528.644	87.5
528.859	101.5
529.074	93.5
529.289	101.5
529.503	101.5
529.718	106.5
529.933	87.5
530.148	103.5
530.363	88.5
530.577	82.5
530.792	82.5
531.007	81.5
531.221	78.5
531.436	91.5
531.651	88.5
531.865	88.5
532.08	97.5
532.295	95.5
532.509	102.5
532.724	83.5
532.938	91.5
533.153	79.5
533.367	88.5
533.582	96.5
533.796	105.5
534.011	101.5
534.225	93.5
534.44	74.5
534.654	80.5
534.868	98.5
535.083	74.5
535.297	73.5
535.511	88.5
535.726	93.5
535.94	87.5
536.154	85.5
536.369	90.5
536.583	88.5
536.797	82.5
