Data from Location5.07152019.Energy5.Lamp.07192019.3%Agarose_HRD10591_16-03-34-628.txt Node
Date: Fri Jul 19 16:03:34 EDT 2019
User: cochatt
Spectrometer: HR+D1059
Trigger mode: 1
Integration Time (sec): 1.000000E-1
Scans to average: 1
Electric dark correction enabled: true
Nonlinearity correction enabled: false
Boxcar width: 0
XAxis mode: Wavelengths
Number of Pixels in Spectrum: 2048
>>>>>Begin Spectral Data<<<<<
223.165	-22.25
223.4	-22.25
223.635	-22.25
223.869	-14.25
224.104	-26.25
224.338	-15.25
224.573	-9.25
224.808	-4.25
225.042	-8.25
225.277	-17.25
225.511	7.75
225.746	0.75
225.98	8.75
226.215	21.75
226.449	11.75
226.683	13.75
226.918	24.75
227.152	27.75
227.387	42.75
227.621	46.75
227.856	33.75
228.09	38.75
228.324	65.75
228.559	44.75
228.793	51.75
229.027	56.75
229.262	55.75
229.496	53.75
229.73	52.75
229.964	68.75
230.199	83.75
230.433	91.75
230.667	81.75
230.901	72.75
231.136	66.75
231.37	79.75
231.604	81.75
231.838	94.75
232.072	83.75
232.306	83.75
232.541	81.75
232.775	76.75
233.009	82.75
233.243	88.75
233.477	99.75
233.711	82.75
233.945	67.75
234.179	87.75
234.413	75.75
234.647	77.75
234.881	79.75
235.115	75.75
235.349	80.75
235.583	87.75
235.817	71.75
236.051	70.75
236.285	80.75
236.519	80.75
236.753	79.75
236.987	73.75
237.221	83.75
237.455	62.75
237.689	64.75
237.922	76.75
238.156	59.75
238.39	77.75
238.624	61.75
238.858	72.75
239.091	93.75
239.325	81.75
239.559	77.75
239.793	75.75
240.027	68.75
240.26	63.75
240.494	56.75
240.728	62.75
240.961	77.75
241.195	77.75
241.429	74.75
241.662	70.75
241.896	74.75
242.13	68.75
242.363	80.75
242.597	74.75
242.83	73.75
243.064	76.75
243.298	87.75
243.531	69.75
243.765	86.75
243.998	62.75
244.232	86.75
244.465	85.75
244.699	67.75
244.932	88.75
245.166	61.75
245.399	74.75
245.633	74.75
245.866	66.75
246.099	83.75
246.333	76.75
246.566	72.75
246.8	69.75
247.033	79.75
247.266	79.75
247.5	70.75
247.733	82.75
247.966	80.75
248.2	84.75
248.433	87.75
248.666	96.75
248.899	88.75
249.133	68.75
249.366	81.75
249.599	96.75
249.832	75.75
250.066	87.75
250.299	77.75
250.532	73.75
250.765	75.75
250.998	81.75
251.231	78.75
251.465	75.75
251.698	69.75
251.931	80.75
252.164	83.75
252.397	75.75
252.63	75.75
252.863	85.75
253.096	71.75
253.329	79.75
253.562	74.75
253.795	97.75
254.028	88.75
254.261	81.75
254.494	78.75
254.727	90.75
254.96	78.75
255.193	88.75
255.426	81.75
255.659	90.75
255.892	78.75
256.124	68.75
256.357	81.75
256.59	80.75
256.823	74.75
257.056	79.75
257.289	78.75
257.521	70.75
257.754	94.75
257.987	70.75
258.22	75.75
258.452	82.75
258.685	77.75
258.918	65.75
259.151	88.75
259.383	79.75
259.616	79.75
259.849	90.75
260.081	75.75
260.314	60.75
260.547	79.75
260.779	77.75
261.012	63.75
261.244	73.75
261.477	79.75
261.71	97.75
261.942	75.75
262.175	90.75
262.407	76.75
262.64	76.75
262.872	75.75
263.105	78.75
263.337	94.75
263.57	86.75
263.802	91.75
264.035	89.75
264.267	82.75
264.499	79.75
264.732	90.75
264.964	79.75
265.197	87.75
265.429	88.75
265.661	82.75
265.894	103.75
266.126	85.75
266.358	84.75
266.591	74.75
266.823	71.75
267.055	81.75
267.287	82.75
267.52	83.75
267.752	87.75
267.984	67.75
268.216	82.75
268.448	88.75
268.681	86.75
268.913	73.75
269.145	85.75
269.377	76.75
269.609	75.75
269.841	98.75
270.073	82.75
270.306	86.75
270.538	100.75
270.77	97.75
271.002	80.75
271.234	87.75
271.466	87.75
271.698	69.75
271.93	89.75
272.162	89.75
272.394	83.75
272.626	88.75
272.858	89.75
273.09	89.75
273.322	77.75
273.553	83.75
273.785	83.75
274.017	78.75
274.249	81.75
274.481	93.75
274.713	102.75
274.945	90.75
275.176	83.75
275.408	80.75
275.64	89.75
275.872	75.75
276.104	85.75
276.335	87.75
276.567	80.75
276.799	77.75
277.031	78.75
277.262	76.75
277.494	101.75
277.726	83.75
277.957	94.75
278.189	91.75
278.421	104.75
278.652	86.75
278.884	89.75
279.115	87.75
279.347	77.75
279.579	94.75
279.81	106.75
280.042	82.75
280.273	78.75
280.505	74.75
280.736	95.75
280.968	85.75
281.199	78.75
281.431	93.75
281.662	85.75
281.894	82.75
282.125	88.75
282.356	94.75
282.588	87.75
282.819	83.75
283.051	88.75
283.282	83.75
283.513	72.75
283.745	95.75
283.976	89.75
284.207	90.75
284.439	78.75
284.67	92.75
284.901	97.75
285.132	81.75
285.364	68.75
285.595	83.75
285.826	79.75
286.057	88.75
286.288	103.75
286.52	88.75
286.751	86.75
286.982	78.75
287.213	88.75
287.444	82.75
287.675	93.75
287.906	88.75
288.138	78.75
288.369	90.75
288.6	90.75
288.831	82.75
289.062	96.75
289.293	89.75
289.524	94.75
289.755	90.75
289.986	94.75
290.217	93.75
290.448	106.75
290.679	87.75
290.91	97.75
291.141	97.75
291.371	98.75
291.602	81.75
291.833	83.75
292.064	102.75
292.295	86.75
292.526	89.75
292.757	86.75
292.987	87.75
293.218	86.75
293.449	72.75
293.68	93.75
293.91	103.75
294.141	86.75
294.372	90.75
294.603	101.75
294.833	80.75
295.064	91.75
295.295	82.75
295.525	93.75
295.756	91.75
295.987	75.75
296.217	93.75
296.448	85.75
296.679	93.75
296.909	106.75
297.14	81.75
297.37	90.75
297.601	78.75
297.831	78.75
298.062	95.75
298.292	97.75
298.523	98.75
298.753	78.75
298.984	93.75
299.214	87.75
299.445	95.75
299.675	104.75
299.905	96.75
300.136	101.75
300.366	98.75
300.597	83.75
300.827	87.75
301.057	96.75
301.288	78.75
301.518	82.75
301.748	91.75
301.979	84.75
302.209	101.75
302.439	98.75
302.669	88.75
302.9	86.75
303.13	111.75
303.36	93.75
303.59	102.75
303.82	96.75
304.051	92.75
304.281	91.75
304.511	99.75
304.741	90.75
304.971	84.75
305.201	101.75
305.431	88.75
305.661	89.75
305.891	95.75
306.121	94.75
306.352	74.75
306.582	99.75
306.812	89.75
307.042	92.75
307.272	94.75
307.502	94.75
307.731	104.75
307.961	81.75
308.191	102.75
308.421	82.75
308.651	93.75
308.881	84.75
309.111	78.75
309.341	91.75
309.571	88.75
309.8	92.75
310.03	88.75
310.26	91.75
310.49	96.75
310.72	83.75
310.949	92.75
311.179	92.75
311.409	85.75
311.639	89.75
311.868	93.75
312.098	101.75
312.328	96.75
312.557	89.75
312.787	90.75
313.017	82.75
313.246	88.75
313.476	78.75
313.706	87.75
313.935	93.75
314.165	109.75
314.394	92.75
314.624	87.75
314.853	96.75
315.083	72.75
315.312	93.75
315.542	87.75
315.771	92.75
316.001	84.75
316.23	92.75
316.46	90.75
316.689	82.75
316.919	78.75
317.148	79.75
317.377	96.75
317.607	99.75
317.836	97.75
318.065	97.75
318.295	88.75
318.524	77.75
318.753	88.75
318.983	97.75
319.212	81.75
319.441	80.75
319.67	94.75
319.9	85.75
320.129	96.75
320.358	85.75
320.587	97.75
320.816	83.75
321.046	91.75
321.275	88.75
321.504	96.75
321.733	89.75
321.962	106.75
322.191	84.75
322.42	97.75
322.649	79.75
322.878	84.75
323.108	91.75
323.337	91.75
323.566	87.75
323.795	91.75
324.024	84.75
324.253	77.75
324.482	80.75
324.71	99.75
324.939	71.75
325.168	75.75
325.397	79.75
325.626	88.75
325.855	82.75
326.084	86.75
326.313	101.75
326.542	84.75
326.77	87.75
326.999	90.75
327.228	94.75
327.457	79.75
327.686	74.75
327.914	99.75
328.143	83.75
328.372	94.75
328.6	87.75
328.829	76.75
329.058	96.75
329.287	94.75
329.515	92.75
329.744	88.75
329.972	100.75
330.201	94.75
330.43	100.75
330.658	88.75
330.887	92.75
331.115	83.75
331.344	88.75
331.572	99.75
331.801	89.75
332.03	85.75
332.258	88.75
332.486	95.75
332.715	87.75
332.943	81.75
333.172	91.75
333.4	103.75
333.629	97.75
333.857	96.75
334.085	104.75
334.314	75.75
334.542	94.75
334.771	93.75
334.999	98.75
335.227	85.75
335.455	93.75
335.684	87.75
335.912	75.75
336.14	80.75
336.369	99.75
336.597	106.75
336.825	100.75
337.053	92.75
337.281	98.75
337.51	101.75
337.738	101.75
337.966	79.75
338.194	82.75
338.422	101.75
338.65	90.75
338.878	97.75
339.106	78.75
339.334	100.75
339.562	89.75
339.79	90.75
340.018	101.75
340.246	96.75
340.474	90.75
340.702	74.75
340.93	87.75
341.158	86.75
341.386	94.75
341.614	91.75
341.842	87.75
342.07	95.75
342.298	96.75
342.526	104.75
342.754	101.75
342.981	80.75
343.209	89.75
343.437	75.75
343.665	91.75
343.893	89.75
344.12	91.75
344.348	72.75
344.576	89.75
344.804	95.75
345.031	90.75
345.259	101.75
345.487	93.75
345.714	83.75
345.942	82.75
346.17	97.75
346.397	98.75
346.625	88.75
346.853	85.75
347.08	86.75
347.308	90.75
347.535	81.75
347.763	88.75
347.99	87.75
348.218	100.75
348.445	88.75
348.673	91.75
348.9	93.75
349.128	94.75
349.355	104.75
349.583	102.75
349.81	97.75
350.037	85.75
350.265	106.75
350.492	87.75
350.72	93.75
350.947	91.75
351.174	96.75
351.402	85.75
351.629	90.75
351.856	100.75
352.083	98.75
352.311	95.75
352.538	100.75
352.765	87.75
352.992	89.75
353.22	97.75
353.447	83.75
353.674	97.75
353.901	97.75
354.128	93.75
354.355	96.75
354.583	93.75
354.81	93.75
355.037	87.75
355.264	97.75
355.491	101.75
355.718	93.75
355.945	102.75
356.172	82.75
356.399	69.75
356.626	79.75
356.853	78.75
357.08	89.75
357.307	91.75
357.534	87.75
357.761	87.75
357.988	89.75
358.215	87.75
358.441	75.75
358.668	98.75
358.895	82.75
359.122	86.75
359.349	94.75
359.576	90.75
359.802	97.75
360.029	92.75
360.256	82.75
360.483	74.75
360.709	97.75
360.936	102.75
361.163	75.75
361.39	89.75
361.616	83.75
361.843	94.75
362.07	98.75
362.296	95.75
362.523	97.75
362.749	74.75
362.976	86.75
363.203	91.75
363.429	81.75
363.656	74.75
363.882	92.75
364.109	89.75
364.335	83.75
364.562	89.75
364.788	96.75
365.015	95.75
365.241	94.75
365.468	89.75
365.694	82.75
365.92	91.75
366.147	99.75
366.373	95.75
366.599	80.75
366.826	81.75
367.052	79.75
367.278	86.75
367.505	82.75
367.731	91.75
367.957	87.75
368.184	74.75
368.41	101.75
368.636	87.75
368.862	91.75
369.089	98.75
369.315	94.75
369.541	91.75
369.767	84.75
369.993	90.75
370.219	79.75
370.445	88.75
370.672	83.75
370.898	96.75
371.124	91.75
371.35	79.75
371.576	96.75
371.802	92.75
372.028	94.75
372.254	92.75
372.48	83.75
372.706	77.75
372.932	101.75
373.158	107.75
373.384	101.75
373.61	99.75
373.835	83.75
374.061	89.75
374.287	95.75
374.513	87.75
374.739	115.75
374.965	96.75
375.191	92.75
375.416	102.75
375.642	76.75
375.868	83.75
376.094	103.75
376.319	78.75
376.545	87.75
376.771	83.75
376.997	91.75
377.222	95.75
377.448	90.75
377.674	97.75
377.899	79.75
378.125	99.75
378.35	90.75
378.576	89.75
378.802	90.75
379.027	89.75
379.253	100.75
379.478	98.75
379.704	90.75
379.929	81.75
380.155	93.75
380.38	90.75
380.606	68.75
380.831	90.75
381.057	86.75
381.282	105.75
381.507	75.75
381.733	98.75
381.958	93.75
382.184	83.75
382.409	94.75
382.634	99.75
382.86	85.75
383.085	96.75
383.31	90.75
383.535	77.75
383.761	83.75
383.986	86.75
384.211	101.75
384.436	97.75
384.662	95.75
384.887	85.75
385.112	82.75
385.337	114.75
385.562	90.75
385.787	85.75
386.013	105.75
386.238	86.75
386.463	90.75
386.688	106.75
386.913	89.75
387.138	82.75
387.363	85.75
387.588	81.75
387.813	80.75
388.038	82.75
388.263	96.75
388.488	90.75
388.713	97.75
388.938	80.75
389.163	103.75
389.387	104.75
389.612	74.75
389.837	97.75
390.062	88.75
390.287	88.75
390.512	85.75
390.736	89.75
390.961	112.75
391.186	88.75
391.411	85.75
391.636	87.75
391.86	90.75
392.085	89.75
392.31	92.75
392.534	89.75
392.759	84.75
392.984	96.75
393.208	101.75
393.433	92.75
393.658	97.75
393.882	98.75
394.107	92.75
394.331	94.75
394.556	87.75
394.78	90.75
395.005	102.75
395.229	100.75
395.454	95.75
395.678	91.75
395.903	87.75
396.127	101.75
396.352	89.75
396.576	77.75
396.801	85.75
397.025	82.75
397.249	102.75
397.474	106.75
397.698	102.75
397.922	86.75
398.147	95.75
398.371	97.75
398.595	93.75
398.82	83.75
399.044	85.75
399.268	111.75
399.492	117.75
399.717	109.75
399.941	93.75
400.165	113.75
400.389	108.75
400.613	104.75
400.837	85.75
401.062	92.75
401.286	90.75
401.51	111.75
401.734	94.75
401.958	100.75
402.182	91.75
402.406	102.75
402.63	95.75
402.854	102.75
403.078	106.75
403.302	95.75
403.526	85.75
403.75	104.75
403.974	98.75
404.198	97.75
404.422	90.75
404.645	107.75
404.869	97.75
405.093	93.75
405.317	89.75
405.541	91.75
405.765	84.75
405.988	100.75
406.212	107.75
406.436	98.75
406.66	91.75
406.883	93.75
407.107	100.75
407.331	102.75
407.555	92.75
407.778	111.75
408.002	112.75
408.226	104.75
408.449	98.75
408.673	88.75
408.896	106.75
409.12	87.75
409.344	83.75
409.567	79.75
409.791	106.75
410.014	101.75
410.238	90.75
410.461	83.75
410.685	98.75
410.908	89.75
411.132	111.75
411.355	122.75
411.578	82.75
411.802	103.75
412.025	98.75
412.249	100.75
412.472	97.75
412.695	103.75
412.919	101.75
413.142	112.75
413.365	109.75
413.589	89.75
413.812	93.75
414.035	105.75
414.258	101.75
414.482	82.75
414.705	90.75
414.928	101.75
415.151	93.75
415.374	93.75
415.597	90.75
415.821	101.75
416.044	92.75
416.267	99.75
416.49	100.75
416.713	102.75
416.936	80.75
417.159	88.75
417.382	85.75
417.605	97.75
417.828	87.75
418.051	95.75
418.274	96.75
418.497	91.75
418.72	89.75
418.943	75.75
419.166	91.75
419.389	98.75
419.611	102.75
419.834	103.75
420.057	102.75
420.28	101.75
420.503	87.75
420.726	95.75
420.948	91.75
421.171	101.75
421.394	94.75
421.617	98.75
421.839	102.75
422.062	98.75
422.285	99.75
422.507	100.75
422.73	86.75
422.953	96.75
423.175	99.75
423.398	90.75
423.621	91.75
423.843	100.75
424.066	91.75
424.288	105.75
424.511	94.75
424.733	98.75
424.956	84.75
425.178	96.75
425.401	95.75
425.623	97.75
425.846	78.75
426.068	89.75
426.291	97.75
426.513	92.75
426.735	113.75
426.958	81.75
427.18	97.75
427.402	105.75
427.625	112.75
427.847	101.75
428.069	98.75
428.292	95.75
428.514	95.75
428.736	87.75
428.958	103.75
429.181	86.75
429.403	87.75
429.625	86.75
429.847	100.75
430.069	98.75
430.292	101.75
430.514	92.75
430.736	85.75
430.958	105.75
431.18	94.75
431.402	93.75
431.624	84.75
431.846	93.75
432.068	89.75
432.29	84.75
432.512	96.75
432.734	102.75
432.956	94.75
433.178	113.75
433.4	90.75
433.622	89.75
433.844	85.75
434.066	98.75
434.287	78.75
434.509	96.75
434.731	87.75
434.953	94.75
435.175	103.75
435.397	98.75
435.618	106.75
435.84	78.75
436.062	85.75
436.284	86.75
436.505	97.75
436.727	95.75
436.949	91.75
437.17	96.75
437.392	97.75
437.614	86.75
437.835	106.75
438.057	84.75
438.278	107.75
438.5	96.75
438.721	85.75
438.943	82.75
439.165	104.75
439.386	91.75
439.608	97.75
439.829	109.75
440.05	107.75
440.272	88.75
440.493	83.75
440.715	73.75
440.936	97.75
441.158	85.75
441.379	84.75
441.6	93.75
441.822	106.75
442.043	99.75
442.264	82.75
442.486	101.75
442.707	83.75
442.928	101.75
443.149	91.75
443.371	95.75
443.592	95.75
443.813	93.75
444.034	95.75
444.255	94.75
444.476	105.75
444.698	97.75
444.919	85.75
445.14	198.75
445.361	148.75
445.582	111.75
445.803	88.75
446.024	92.75
446.245	98.75
446.466	96.75
446.687	120.75
446.908	94.75
447.129	102.75
447.35	85.75
447.571	93.75
447.792	82.75
448.013	102.75
448.234	97.75
448.455	99.75
448.675	91.75
448.896	114.75
449.117	89.75
449.338	76.75
449.559	84.75
449.779	98.75
450	95.75
450.221	93.75
450.442	101.75
450.662	109.75
450.883	104.75
451.104	91.75
451.324	95.75
451.545	102.75
451.766	93.75
451.986	93.75
452.207	77.75
452.428	81.75
452.648	99.75
452.869	92.75
453.089	98.75
453.31	88.75
453.53	83.75
453.751	84.75
453.971	103.75
454.192	92.75
454.412	84.75
454.633	88.75
454.853	86.75
455.073	93.75
455.294	89.75
455.514	103.75
455.734	92.75
455.955	84.75
456.175	74.75
456.395	107.75
456.616	85.75
456.836	73.75
457.056	89.75
457.276	99.75
457.497	102.75
457.717	87.75
457.937	98.75
458.157	96.75
458.377	85.75
458.598	99.75
458.818	83.75
459.038	74.75
459.258	92.75
459.478	93.75
459.698	95.75
459.918	94.75
460.138	99.75
460.358	105.75
460.578	115.75
460.798	96.75
461.018	85.75
461.238	95.75
461.458	90.75
461.678	92.75
461.898	103.75
462.118	110.75
462.338	101.75
462.558	95.75
462.777	104.75
462.997	98.75
463.217	109.75
463.437	111.75
463.657	98.75
463.876	103.75
464.096	94.75
464.316	102.75
464.536	92.75
464.755	104.75
464.975	96.75
465.195	108.75
465.414	98.75
465.634	91.75
465.854	95.75
466.073	90.75
466.293	104.75
466.512	90.75
466.732	91.75
466.951	87.75
467.171	80.75
467.391	95.75
467.61	98.75
467.829	94.75
468.049	87.75
468.268	98.75
468.488	93.75
468.707	95.75
468.927	95.75
469.146	106.75
469.365	79.75
469.585	92.75
469.804	102.75
470.023	106.75
470.243	105.75
470.462	94.75
470.681	87.75
470.901	96.75
471.12	89.75
471.339	99.75
471.558	109.75
471.777	79.75
471.997	106.75
472.216	95.75
472.435	98.75
472.654	110.75
472.873	96.75
473.092	93.75
473.311	89.75
473.53	94.75
473.749	110.75
473.968	102.75
474.187	87.75
474.406	85.75
474.625	100.75
474.844	105.75
475.063	85.75
475.282	96.75
475.501	96.75
475.72	102.75
475.939	105.75
476.158	88.75
476.377	113.75
476.596	92.75
476.814	86.75
477.033	86.75
477.252	103.75
477.471	88.75
477.69	97.75
477.908	104.75
478.127	92.75
478.346	105.75
478.564	88.75
478.783	94.75
479.002	101.75
479.22	99.75
479.439	104.75
479.658	93.75
479.876	84.75
480.095	93.75
480.313	106.75
480.532	104.75
480.751	94.75
480.969	98.75
481.188	100.75
481.406	107.75
481.624	101.75
481.843	88.75
482.061	103.75
482.28	76.75
482.498	94.75
482.717	101.75
482.935	105.75
483.153	112.75
483.372	129.75
483.59	97.75
483.808	101.75
484.027	106.75
484.245	97.75
484.463	105.75
484.681	120.75
484.9	109.75
485.118	96.75
485.336	99.75
485.554	95.75
485.772	91.75
485.99	95.75
486.209	100.75
486.427	113.75
486.645	92.75
486.863	95.75
487.081	108.75
487.299	104.75
487.517	123.75
487.735	115.75
487.953	108.75
488.171	109.75
488.389	116.75
488.607	118.75
488.825	76.75
489.043	86.75
489.261	114.75
489.479	104.75
489.696	100.75
489.914	108.75
490.132	103.75
490.35	111.75
490.568	102.75
490.786	95.75
491.003	110.75
491.221	94.75
491.439	110.75
491.657	115.75
491.874	114.75
492.092	113.75
492.31	126.75
492.527	116.75
492.745	111.75
492.963	103.75
493.18	113.75
493.398	125.75
493.615	102.75
493.833	108.75
494.05	104.75
494.268	111.75
494.485	106.75
494.703	122.75
494.92	110.75
495.138	109.75
495.355	119.75
495.573	119.75
495.79	112.75
496.008	116.75
496.225	107.75
496.442	121.75
496.66	120.75
496.877	120.75
497.094	107.75
497.312	121.75
497.529	111.75
497.746	110.75
497.963	113.75
498.181	90.75
498.398	118.75
498.615	121.75
498.832	107.75
499.049	120.75
499.267	127.75
499.484	123.75
499.701	138.75
499.918	145.75
500.135	141.75
500.352	137.75
500.569	149.75
500.786	151.75
501.003	148.75
501.22	138.75
501.437	131.75
501.654	115.75
501.871	129.75
502.088	109.75
502.305	122.75
502.522	119.75
502.739	122.75
502.956	106.75
503.172	109.75
503.389	111.75
503.606	97.75
503.823	101.75
504.04	112.75
504.256	121.75
504.473	106.75
504.69	111.75
504.907	112.75
505.123	106.75
505.34	102.75
505.557	98.75
505.773	111.75
505.99	102.75
506.207	103.75
506.423	103.75
506.64	96.75
506.856	89.75
507.073	106.75
507.289	101.75
507.506	98.75
507.722	105.75
507.939	107.75
508.155	110.75
508.372	113.75
508.588	102.75
508.805	103.75
509.021	94.75
509.238	98.75
509.454	95.75
509.67	88.75
509.887	85.75
510.103	103.75
510.319	96.75
510.536	92.75
510.752	101.75
510.968	106.75
511.184	108.75
511.401	93.75
511.617	97.75
511.833	94.75
512.049	100.75
512.265	102.75
512.481	106.75
512.698	99.75
512.914	91.75
513.13	85.75
513.346	105.75
513.562	97.75
513.778	110.75
513.994	112.75
514.21	94.75
514.426	97.75
514.642	107.75
514.858	106.75
515.074	90.75
