Data from Location5.07152019.Energy5.Lamp.07192019.3%Agarose_HRD10591_15-38-49-388.txt Node
Date: Fri Jul 19 15:38:49 EDT 2019
User: cochatt
Spectrometer: HR+D1059
Trigger mode: 1
Integration Time (sec): 1.000000E-1
Scans to average: 1
Electric dark correction enabled: true
Nonlinearity correction enabled: false
Boxcar width: 0
XAxis mode: Wavelengths
Number of Pixels in Spectrum: 2048
>>>>>Begin Spectral Data<<<<<
223.165	-16.69
223.4	-16.69
223.635	-16.69
223.869	-19.69
224.104	-29.69
224.338	-11.69
224.573	-14.69
224.808	-9.69
225.042	-6.69
225.277	-19.69
225.511	1.31
225.746	12.31
225.98	-9.69
226.215	19.31
226.449	23.31
226.683	20.31
226.918	25.31
227.152	36.31
227.387	35.31
227.621	44.31
227.856	41.31
228.09	48.31
228.324	40.31
228.559	55.31
228.793	66.31
229.027	55.31
229.262	58.31
229.496	67.31
229.73	69.31
229.964	68.31
230.199	90.31
230.433	74.31
230.667	81.31
230.901	78.31
231.136	90.31
231.37	89.31
231.604	98.31
231.838	72.31
232.072	80.31
232.306	69.31
232.541	65.31
232.775	79.31
233.009	85.31
233.243	71.31
233.477	79.31
233.711	80.31
233.945	81.31
234.179	84.31
234.413	83.31
234.647	82.31
234.881	57.31
235.115	72.31
235.349	92.31
235.583	85.31
235.817	72.31
236.051	73.31
236.285	74.31
236.519	77.31
236.753	68.31
236.987	74.31
237.221	74.31
237.455	75.31
237.689	72.31
237.922	75.31
238.156	76.31
238.39	72.31
238.624	79.31
238.858	75.31
239.091	84.31
239.325	90.31
239.559	92.31
239.793	62.31
240.027	77.31
240.26	64.31
240.494	63.31
240.728	69.31
240.961	76.31
241.195	82.31
241.429	87.31
241.662	85.31
241.896	64.31
242.13	70.31
242.363	72.31
242.597	72.31
242.83	94.31
243.064	71.31
243.298	80.31
243.531	82.31
243.765	79.31
243.998	70.31
244.232	83.31
244.465	68.31
244.699	61.31
244.932	81.31
245.166	79.31
245.399	74.31
245.633	71.31
245.866	71.31
246.099	72.31
246.333	68.31
246.566	68.31
246.8	67.31
247.033	78.31
247.266	82.31
247.5	78.31
247.733	87.31
247.966	81.31
248.2	70.31
248.433	78.31
248.666	81.31
248.899	93.31
249.133	73.31
249.366	61.31
249.599	69.31
249.832	78.31
250.066	73.31
250.299	67.31
250.532	81.31
250.765	73.31
250.998	70.31
251.231	92.31
251.465	63.31
251.698	89.31
251.931	83.31
252.164	87.31
252.397	65.31
252.63	85.31
252.863	77.31
253.096	80.31
253.329	75.31
253.562	65.31
253.795	75.31
254.028	75.31
254.261	72.31
254.494	74.31
254.727	82.31
254.96	81.31
255.193	84.31
255.426	73.31
255.659	80.31
255.892	77.31
256.124	87.31
256.357	85.31
256.59	83.31
256.823	65.31
257.056	84.31
257.289	79.31
257.521	79.31
257.754	83.31
257.987	75.31
258.22	73.31
258.452	74.31
258.685	71.31
258.918	72.31
259.151	79.31
259.383	92.31
259.616	70.31
259.849	79.31
260.081	78.31
260.314	71.31
260.547	74.31
260.779	73.31
261.012	83.31
261.244	78.31
261.477	81.31
261.71	69.31
261.942	100.31
262.175	83.31
262.407	76.31
262.64	81.31
262.872	71.31
263.105	75.31
263.337	91.31
263.57	98.31
263.802	81.31
264.035	85.31
264.267	77.31
264.499	101.31
264.732	85.31
264.964	77.31
265.197	94.31
265.429	86.31
265.661	77.31
265.894	79.31
266.126	92.31
266.358	86.31
266.591	84.31
266.823	85.31
267.055	68.31
267.287	88.31
267.52	79.31
267.752	72.31
267.984	77.31
268.216	73.31
268.448	83.31
268.681	90.31
268.913	90.31
269.145	86.31
269.377	74.31
269.609	71.31
269.841	81.31
270.073	67.31
270.306	87.31
270.538	94.31
270.77	83.31
271.002	73.31
271.234	92.31
271.466	83.31
271.698	81.31
271.93	82.31
272.162	91.31
272.394	90.31
272.626	102.31
272.858	79.31
273.09	80.31
273.322	91.31
273.553	89.31
273.785	73.31
274.017	75.31
274.249	85.31
274.481	79.31
274.713	73.31
274.945	75.31
275.176	79.31
275.408	71.31
275.64	86.31
275.872	79.31
276.104	82.31
276.335	78.31
276.567	70.31
276.799	70.31
277.031	73.31
277.262	74.31
277.494	80.31
277.726	84.31
277.957	84.31
278.189	75.31
278.421	86.31
278.652	88.31
278.884	74.31
279.115	84.31
279.347	66.31
279.579	91.31
279.81	85.31
280.042	78.31
280.273	93.31
280.505	79.31
280.736	86.31
280.968	83.31
281.199	88.31
281.431	87.31
281.662	79.31
281.894	83.31
282.125	77.31
282.356	75.31
282.588	81.31
282.819	74.31
283.051	88.31
283.282	81.31
283.513	71.31
283.745	73.31
283.976	84.31
284.207	79.31
284.439	77.31
284.67	89.31
284.901	85.31
285.132	76.31
285.364	81.31
285.595	84.31
285.826	68.31
286.057	84.31
286.288	76.31
286.52	92.31
286.751	80.31
286.982	80.31
287.213	79.31
287.444	77.31
287.675	82.31
287.906	83.31
288.138	83.31
288.369	75.31
288.6	89.31
288.831	81.31
289.062	77.31
289.293	85.31
289.524	78.31
289.755	77.31
289.986	86.31
290.217	73.31
290.448	87.31
290.679	85.31
290.91	82.31
291.141	90.31
291.371	83.31
291.602	89.31
291.833	87.31
292.064	78.31
292.295	75.31
292.526	80.31
292.757	86.31
292.987	74.31
293.218	82.31
293.449	75.31
293.68	74.31
293.91	82.31
294.141	90.31
294.372	83.31
294.603	81.31
294.833	87.31
295.064	82.31
295.295	86.31
295.525	85.31
295.756	87.31
295.987	80.31
296.217	79.31
296.448	76.31
296.679	84.31
296.909	96.31
297.14	92.31
297.37	78.31
297.601	79.31
297.831	95.31
298.062	88.31
298.292	100.31
298.523	99.31
298.753	84.31
298.984	77.31
299.214	78.31
299.445	81.31
299.675	89.31
299.905	76.31
300.136	82.31
300.366	78.31
300.597	71.31
300.827	60.31
301.057	64.31
301.288	78.31
301.518	86.31
301.748	89.31
301.979	88.31
302.209	80.31
302.439	100.31
302.669	84.31
302.9	77.31
303.13	66.31
303.36	77.31
303.59	85.31
303.82	83.31
304.051	80.31
304.281	76.31
304.511	78.31
304.741	78.31
304.971	91.31
305.201	82.31
305.431	72.31
305.661	69.31
305.891	89.31
306.121	74.31
306.352	81.31
306.582	73.31
306.812	79.31
307.042	76.31
307.272	64.31
307.502	86.31
307.731	90.31
307.961	87.31
308.191	88.31
308.421	75.31
308.651	83.31
308.881	87.31
309.111	71.31
309.341	73.31
309.571	88.31
309.8	87.31
310.03	81.31
310.26	78.31
310.49	85.31
310.72	86.31
310.949	80.31
311.179	80.31
311.409	93.31
311.639	82.31
311.868	81.31
312.098	80.31
312.328	77.31
312.557	81.31
312.787	79.31
313.017	86.31
313.246	90.31
313.476	82.31
313.706	84.31
313.935	74.31
314.165	80.31
314.394	86.31
314.624	89.31
314.853	84.31
315.083	89.31
315.312	87.31
315.542	82.31
315.771	77.31
316.001	66.31
316.23	70.31
316.46	75.31
316.689	80.31
316.919	71.31
317.148	73.31
317.377	77.31
317.607	76.31
317.836	85.31
318.065	96.31
318.295	91.31
318.524	83.31
318.753	80.31
318.983	86.31
319.212	86.31
319.441	83.31
319.67	92.31
319.9	91.31
320.129	90.31
320.358	90.31
320.587	93.31
320.816	88.31
321.046	78.31
321.275	83.31
321.504	92.31
321.733	78.31
321.962	92.31
322.191	86.31
322.42	76.31
322.649	79.31
322.878	81.31
323.108	83.31
323.337	80.31
323.566	94.31
323.795	88.31
324.024	84.31
324.253	82.31
324.482	82.31
324.71	82.31
324.939	106.31
325.168	74.31
325.397	78.31
325.626	71.31
325.855	82.31
326.084	86.31
326.313	83.31
326.542	60.31
326.77	86.31
326.999	86.31
327.228	77.31
327.457	73.31
327.686	86.31
327.914	97.31
328.143	77.31
328.372	85.31
328.6	76.31
328.829	93.31
329.058	84.31
329.287	78.31
329.515	82.31
329.744	77.31
329.972	74.31
330.201	82.31
330.43	88.31
330.658	77.31
330.887	96.31
331.115	82.31
331.344	86.31
331.572	95.31
331.801	81.31
332.03	80.31
332.258	76.31
332.486	94.31
332.715	71.31
332.943	78.31
333.172	96.31
333.4	79.31
333.629	78.31
333.857	81.31
334.085	85.31
334.314	96.31
334.542	85.31
334.771	71.31
334.999	87.31
335.227	77.31
335.455	88.31
335.684	89.31
335.912	89.31
336.14	78.31
336.369	82.31
336.597	90.31
336.825	89.31
337.053	70.31
337.281	93.31
337.51	81.31
337.738	91.31
337.966	80.31
338.194	86.31
338.422	86.31
338.65	88.31
338.878	104.31
339.106	89.31
339.334	81.31
339.562	77.31
339.79	67.31
340.018	80.31
340.246	76.31
340.474	89.31
340.702	76.31
340.93	76.31
341.158	84.31
341.386	93.31
341.614	89.31
341.842	90.31
342.07	75.31
342.298	82.31
342.526	82.31
342.754	87.31
342.981	73.31
343.209	83.31
343.437	87.31
343.665	61.31
343.893	89.31
344.12	87.31
344.348	79.31
344.576	87.31
344.804	82.31
345.031	79.31
345.259	68.31
345.487	71.31
345.714	71.31
345.942	70.31
346.17	77.31
346.397	82.31
346.625	74.31
346.853	73.31
347.08	93.31
347.308	90.31
347.535	88.31
347.763	70.31
347.99	83.31
348.218	75.31
348.445	78.31
348.673	77.31
348.9	89.31
349.128	74.31
349.355	67.31
349.583	79.31
349.81	81.31
350.037	84.31
350.265	82.31
350.492	63.31
350.72	80.31
350.947	94.31
351.174	69.31
351.402	78.31
351.629	77.31
351.856	68.31
352.083	80.31
352.311	80.31
352.538	69.31
352.765	76.31
352.992	71.31
353.22	73.31
353.447	77.31
353.674	84.31
353.901	75.31
354.128	69.31
354.355	75.31
354.583	85.31
354.81	79.31
355.037	88.31
355.264	86.31
355.491	79.31
355.718	68.31
355.945	77.31
356.172	72.31
356.399	93.31
356.626	86.31
356.853	80.31
357.08	75.31
357.307	77.31
357.534	83.31
357.761	73.31
357.988	88.31
358.215	89.31
358.441	77.31
358.668	61.31
358.895	89.31
359.122	101.31
359.349	78.31
359.576	91.31
359.802	85.31
360.029	87.31
360.256	80.31
360.483	72.31
360.709	82.31
360.936	85.31
361.163	85.31
361.39	78.31
361.616	68.31
361.843	84.31
362.07	79.31
362.296	84.31
362.523	86.31
362.749	82.31
362.976	73.31
363.203	88.31
363.429	103.31
363.656	83.31
363.882	82.31
364.109	85.31
364.335	90.31
364.562	80.31
364.788	80.31
365.015	83.31
365.241	66.31
365.468	86.31
365.694	73.31
365.92	91.31
366.147	82.31
366.373	77.31
366.599	72.31
366.826	81.31
367.052	78.31
367.278	70.31
367.505	85.31
367.731	77.31
367.957	82.31
368.184	87.31
368.41	94.31
368.636	90.31
368.862	87.31
369.089	77.31
369.315	88.31
369.541	80.31
369.767	76.31
369.993	81.31
370.219	88.31
370.445	80.31
370.672	86.31
370.898	85.31
371.124	94.31
371.35	80.31
371.576	76.31
371.802	70.31
372.028	87.31
372.254	96.31
372.48	89.31
372.706	81.31
372.932	91.31
373.158	80.31
373.384	76.31
373.61	81.31
373.835	82.31
374.061	82.31
374.287	86.31
374.513	83.31
374.739	101.31
374.965	86.31
375.191	88.31
375.416	72.31
375.642	66.31
375.868	84.31
376.094	86.31
376.319	80.31
376.545	86.31
376.771	84.31
376.997	89.31
377.222	82.31
377.448	88.31
377.674	86.31
377.899	74.31
378.125	76.31
378.35	84.31
378.576	76.31
378.802	74.31
379.027	82.31
379.253	91.31
379.478	96.31
379.704	85.31
379.929	95.31
380.155	69.31
380.38	93.31
380.606	78.31
380.831	84.31
381.057	79.31
381.282	79.31
381.507	80.31
381.733	79.31
381.958	83.31
382.184	89.31
382.409	83.31
382.634	96.31
382.86	86.31
383.085	98.31
383.31	92.31
383.535	84.31
383.761	94.31
383.986	89.31
384.211	78.31
384.436	65.31
384.662	88.31
384.887	90.31
385.112	81.31
385.337	93.31
385.562	100.31
385.787	91.31
386.013	95.31
386.238	72.31
386.463	68.31
386.688	84.31
386.913	75.31
387.138	70.31
387.363	81.31
387.588	80.31
387.813	71.31
388.038	77.31
388.263	70.31
388.488	84.31
388.713	71.31
388.938	81.31
389.163	69.31
389.387	88.31
389.612	81.31
389.837	83.31
390.062	87.31
390.287	84.31
390.512	68.31
390.736	87.31
390.961	86.31
391.186	101.31
391.411	93.31
391.636	95.31
391.86	87.31
392.085	84.31
392.31	70.31
392.534	81.31
392.759	92.31
392.984	81.31
393.208	86.31
393.433	91.31
393.658	77.31
393.882	77.31
394.107	87.31
394.331	91.31
394.556	86.31
394.78	84.31
395.005	93.31
395.229	81.31
395.454	81.31
395.678	78.31
395.903	79.31
396.127	95.31
396.352	100.31
396.576	77.31
396.801	80.31
397.025	80.31
397.249	90.31
397.474	101.31
397.698	78.31
397.922	82.31
398.147	82.31
398.371	80.31
398.595	85.31
398.82	89.31
399.044	87.31
399.268	77.31
399.492	73.31
399.717	86.31
399.941	84.31
400.165	90.31
400.389	89.31
400.613	92.31
400.837	86.31
401.062	77.31
401.286	84.31
401.51	105.31
401.734	91.31
401.958	94.31
402.182	79.31
402.406	83.31
402.63	89.31
402.854	99.31
403.078	72.31
403.302	82.31
403.526	94.31
403.75	96.31
403.974	96.31
404.198	81.31
404.422	85.31
404.645	84.31
404.869	91.31
405.093	82.31
405.317	78.31
405.541	89.31
405.765	86.31
405.988	89.31
406.212	88.31
406.436	73.31
406.66	79.31
406.883	84.31
407.107	92.31
407.331	80.31
407.555	63.31
407.778	92.31
408.002	94.31
408.226	101.31
408.449	90.31
408.673	79.31
408.896	78.31
409.12	81.31
409.344	85.31
409.567	75.31
409.791	83.31
410.014	96.31
410.238	93.31
410.461	84.31
410.685	86.31
410.908	81.31
411.132	83.31
411.355	84.31
411.578	78.31
411.802	93.31
412.025	90.31
412.249	81.31
412.472	102.31
412.695	83.31
412.919	88.31
413.142	82.31
413.365	86.31
413.589	81.31
413.812	87.31
414.035	96.31
414.258	90.31
414.482	74.31
414.705	105.31
414.928	82.31
415.151	87.31
415.374	76.31
415.597	84.31
415.821	79.31
416.044	82.31
416.267	84.31
416.49	92.31
416.713	89.31
416.936	79.31
417.159	77.31
417.382	86.31
417.605	81.31
417.828	95.31
418.051	87.31
418.274	93.31
418.497	91.31
418.72	77.31
418.943	86.31
419.166	90.31
419.389	94.31
419.611	91.31
419.834	90.31
420.057	90.31
420.28	89.31
420.503	105.31
420.726	98.31
420.948	97.31
421.171	87.31
421.394	79.31
421.617	106.31
421.839	73.31
422.062	101.31
422.285	84.31
422.507	76.31
422.73	100.31
422.953	92.31
423.175	80.31
423.398	91.31
423.621	89.31
423.843	71.31
424.066	88.31
424.288	96.31
424.511	93.31
424.733	95.31
424.956	85.31
425.178	71.31
425.401	98.31
425.623	99.31
425.846	68.31
426.068	81.31
426.291	95.31
426.513	79.31
426.735	95.31
426.958	88.31
427.18	84.31
427.402	83.31
427.625	88.31
427.847	95.31
428.069	99.31
428.292	83.31
428.514	99.31
428.736	91.31
428.958	79.31
429.181	85.31
429.403	87.31
429.625	83.31
429.847	80.31
430.069	87.31
430.292	95.31
430.514	89.31
430.736	99.31
430.958	86.31
431.18	89.31
431.402	79.31
431.624	87.31
431.846	80.31
432.068	88.31
432.29	77.31
432.512	99.31
432.734	88.31
432.956	89.31
433.178	90.31
433.4	81.31
433.622	88.31
433.844	94.31
434.066	80.31
434.287	85.31
434.509	84.31
434.731	83.31
434.953	90.31
435.175	92.31
435.397	94.31
435.618	87.31
435.84	89.31
436.062	71.31
436.284	89.31
436.505	81.31
436.727	88.31
436.949	85.31
437.17	97.31
437.392	100.31
437.614	80.31
437.835	88.31
438.057	79.31
438.278	84.31
438.5	77.31
438.721	96.31
438.943	100.31
439.165	95.31
439.386	85.31
439.608	89.31
439.829	97.31
440.05	77.31
440.272	83.31
440.493	84.31
440.715	100.31
440.936	109.31
441.158	91.31
441.379	89.31
441.6	81.31
441.822	96.31
442.043	108.31
442.264	100.31
442.486	102.31
442.707	88.31
442.928	88.31
443.149	75.31
443.371	87.31
443.592	84.31
443.813	87.31
444.034	91.31
444.255	72.31
444.476	82.31
444.698	97.31
444.919	86.31
445.14	201.31
445.361	162.31
445.582	98.31
445.803	105.31
446.024	91.31
446.245	93.31
446.466	88.31
446.687	110.31
446.908	88.31
447.129	99.31
447.35	100.31
447.571	91.31
447.792	84.31
448.013	92.31
448.234	97.31
448.455	85.31
448.675	88.31
448.896	110.31
449.117	96.31
449.338	87.31
449.559	89.31
449.779	99.31
450	90.31
450.221	87.31
450.442	89.31
450.662	96.31
450.883	93.31
451.104	94.31
451.324	94.31
451.545	81.31
451.766	95.31
451.986	77.31
452.207	97.31
452.428	89.31
452.648	83.31
452.869	92.31
453.089	81.31
453.31	79.31
453.53	81.31
453.751	93.31
453.971	75.31
454.192	83.31
454.412	88.31
454.633	92.31
454.853	81.31
455.073	89.31
455.294	86.31
455.514	83.31
455.734	74.31
455.955	85.31
456.175	93.31
456.395	97.31
456.616	82.31
456.836	79.31
457.056	76.31
457.276	82.31
457.497	85.31
457.717	72.31
457.937	91.31
458.157	81.31
458.377	88.31
458.598	87.31
458.818	73.31
459.038	79.31
459.258	79.31
459.478	82.31
459.698	81.31
459.918	78.31
460.138	92.31
460.358	92.31
460.578	91.31
460.798	85.31
461.018	87.31
461.238	90.31
461.458	84.31
461.678	88.31
461.898	74.31
462.118	92.31
462.338	92.31
462.558	86.31
462.777	87.31
462.997	89.31
463.217	80.31
463.437	78.31
463.657	74.31
463.876	78.31
464.096	72.31
464.316	79.31
464.536	69.31
464.755	87.31
464.975	99.31
465.195	93.31
465.414	105.31
465.634	77.31
465.854	87.31
466.073	75.31
466.293	78.31
466.512	100.31
466.732	111.31
466.951	96.31
467.171	78.31
467.391	90.31
467.61	87.31
467.829	84.31
468.049	93.31
468.268	84.31
468.488	88.31
468.707	96.31
468.927	90.31
469.146	94.31
469.365	102.31
469.585	101.31
469.804	100.31
470.023	101.31
470.243	90.31
470.462	91.31
470.681	90.31
470.901	81.31
471.12	96.31
471.339	90.31
471.558	94.31
471.777	100.31
471.997	91.31
472.216	77.31
472.435	94.31
472.654	93.31
472.873	88.31
473.092	95.31
473.311	97.31
473.53	99.31
473.749	99.31
473.968	107.31
474.187	97.31
474.406	84.31
474.625	96.31
474.844	82.31
475.063	90.31
475.282	88.31
475.501	97.31
475.72	97.31
475.939	84.31
476.158	83.31
476.377	97.31
476.596	90.31
476.814	91.31
477.033	83.31
477.252	81.31
477.471	77.31
477.69	93.31
477.908	86.31
478.127	97.31
478.346	96.31
478.564	95.31
478.783	113.31
479.002	87.31
479.22	88.31
479.439	84.31
479.658	73.31
479.876	97.31
480.095	84.31
480.313	87.31
480.532	81.31
480.751	86.31
480.969	75.31
481.188	82.31
481.406	80.31
481.624	94.31
481.843	79.31
482.061	90.31
482.28	81.31
482.498	91.31
482.717	70.31
482.935	91.31
483.153	97.31
483.372	91.31
483.59	87.31
483.808	88.31
484.027	94.31
484.245	101.31
484.463	96.31
484.681	94.31
484.9	109.31
485.118	104.31
485.336	94.31
485.554	84.31
485.772	80.31
485.99	79.31
486.209	84.31
486.427	89.31
486.645	92.31
486.863	98.31
487.081	91.31
487.299	83.31
487.517	92.31
487.735	84.31
487.953	117.31
488.171	110.31
488.389	116.31
488.607	99.31
488.825	96.31
489.043	84.31
489.261	96.31
489.479	91.31
489.696	93.31
489.914	92.31
490.132	97.31
490.35	111.31
490.568	98.31
490.786	107.31
491.003	107.31
491.221	104.31
491.439	101.31
491.657	97.31
491.874	110.31
492.092	124.31
492.31	121.31
492.527	126.31
492.745	108.31
492.963	100.31
493.18	115.31
493.398	114.31
493.615	100.31
493.833	104.31
494.05	103.31
494.268	92.31
494.485	96.31
494.703	113.31
494.92	114.31
495.138	99.31
495.355	99.31
495.573	116.31
495.79	107.31
496.008	103.31
496.225	92.31
496.442	101.31
496.66	102.31
496.877	104.31
497.094	111.31
497.312	90.31
497.529	86.31
497.746	96.31
497.963	96.31
498.181	86.31
498.398	89.31
498.615	88.31
498.832	88.31
499.049	89.31
499.267	78.31
499.484	82.31
499.701	90.31
499.918	115.31
500.135	97.31
500.352	84.31
500.569	96.31
500.786	101.31
501.003	99.31
501.22	98.31
501.437	101.31
501.654	89.31
501.871	88.31
502.088	84.31
502.305	93.31
502.522	104.31
502.739	84.31
502.956	77.31
503.172	101.31
503.389	97.31
503.606	97.31
503.823	105.31
504.04	89.31
504.256	85.31
504.473	77.31
504.69	94.31
504.907	89.31
505.123	103.31
505.34	105.31
505.557	100.31
505.773	93.31
505.99	95.31
506.207	100.31
506.423	87.31
506.64	93.31
506.856	99.31
507.073	90.31
507.289	96.31
507.506	87.31
507.722	88.31
507.939	99.31
508.155	86.31
508.372	100.31
508.588	73.31
508.805	83.31
509.021	78.31
509.238	74.31
509.454	71.31
509.67	73.31
509.887	88.31
510.103	96.31
510.319	81.31
510.536	82.31
510.752	78.31
510.968	82.31
511.184	85.31
511.401	91.31
511.617	82.31
511.833	75.31
512.049	72.31
512.265	83.31
512.481	87.31
512.698	85.31
512.914	97.31
513.13	84.31
513.346	74.31
513.562	93.31
513.778	80.31
513.994	81.31
514.21	87.31
514.426	73.31
514.642	80.31
514.858	91.31
515.074	95.31
515.29	93.31
515.506	76.31
515.721	88.31
515.937	77.31
516.153	78.31
516.369	75.31
516.585	82.31
516.801	78.31
517.016	95.31
517.232	78.31
517.448	86.31
517.664	88.31
517.879	93.31
518.095	94.31
518.311	78.31
