Data from Location5.07152019.Energy5.Lamp.07192019.3%Agarose_HRD10591_15-37-04-387.txt Node
Date: Fri Jul 19 15:37:04 EDT 2019
User: cochatt
Spectrometer: HR+D1059
Trigger mode: 1
Integration Time (sec): 1.000000E-1
Scans to average: 1
Electric dark correction enabled: true
Nonlinearity correction enabled: false
Boxcar width: 0
XAxis mode: Wavelengths
Number of Pixels in Spectrum: 2048
>>>>>Begin Spectral Data<<<<<
223.165	-17.31
223.4	-17.31
223.635	-17.31
223.869	-9.31
224.104	-26.31
224.338	-10.31
224.573	-13.31
224.808	-16.31
225.042	-13.31
225.277	4.69
225.511	-8.31
225.746	-4.31
225.98	7.69
226.215	20.69
226.449	16.69
226.683	4.69
226.918	34.69
227.152	29.69
227.387	39.69
227.621	50.69
227.856	37.69
228.09	38.69
228.324	56.69
228.559	57.69
228.793	52.69
229.027	53.69
229.262	54.69
229.496	83.69
229.73	68.69
229.964	73.69
230.199	67.69
230.433	67.69
230.667	77.69
230.901	70.69
231.136	73.69
231.37	87.69
231.604	97.69
231.838	94.69
232.072	87.69
232.306	72.69
232.541	78.69
232.775	86.69
233.009	83.69
233.243	88.69
233.477	83.69
233.711	80.69
233.945	70.69
234.179	83.69
234.413	75.69
234.647	89.69
234.881	79.69
235.115	79.69
235.349	87.69
235.583	81.69
235.817	70.69
236.051	86.69
236.285	73.69
236.519	68.69
236.753	75.69
236.987	81.69
237.221	69.69
237.455	78.69
237.689	67.69
237.922	86.69
238.156	71.69
238.39	66.69
238.624	71.69
238.858	81.69
239.091	68.69
239.325	69.69
239.559	88.69
239.793	81.69
240.027	75.69
240.26	81.69
240.494	75.69
240.728	86.69
240.961	78.69
241.195	82.69
241.429	87.69
241.662	67.69
241.896	78.69
242.13	84.69
242.363	68.69
242.597	80.69
242.83	71.69
243.064	67.69
243.298	58.69
243.531	73.69
243.765	90.69
243.998	67.69
244.232	90.69
244.465	78.69
244.699	83.69
244.932	63.69
245.166	78.69
245.399	80.69
245.633	88.69
245.866	75.69
246.099	82.69
246.333	76.69
246.566	75.69
246.8	80.69
247.033	87.69
247.266	81.69
247.5	80.69
247.733	88.69
247.966	79.69
248.2	73.69
248.433	82.69
248.666	88.69
248.899	94.69
249.133	69.69
249.366	92.69
249.599	90.69
249.832	78.69
250.066	77.69
250.299	82.69
250.532	83.69
250.765	75.69
250.998	79.69
251.231	73.69
251.465	81.69
251.698	96.69
251.931	89.69
252.164	81.69
252.397	68.69
252.63	68.69
252.863	83.69
253.096	84.69
253.329	96.69
253.562	84.69
253.795	89.69
254.028	73.69
254.261	98.69
254.494	88.69
254.727	95.69
254.96	93.69
255.193	67.69
255.426	74.69
255.659	82.69
255.892	79.69
256.124	83.69
256.357	85.69
256.59	79.69
256.823	81.69
257.056	88.69
257.289	76.69
257.521	74.69
257.754	76.69
257.987	67.69
258.22	86.69
258.452	67.69
258.685	86.69
258.918	82.69
259.151	80.69
259.383	85.69
259.616	81.69
259.849	91.69
260.081	74.69
260.314	87.69
260.547	79.69
260.779	85.69
261.012	81.69
261.244	71.69
261.477	83.69
261.71	71.69
261.942	81.69
262.175	74.69
262.407	88.69
262.64	75.69
262.872	75.69
263.105	72.69
263.337	94.69
263.57	81.69
263.802	75.69
264.035	87.69
264.267	89.69
264.499	82.69
264.732	69.69
264.964	79.69
265.197	72.69
265.429	91.69
265.661	84.69
265.894	79.69
266.126	80.69
266.358	91.69
266.591	75.69
266.823	94.69
267.055	71.69
267.287	82.69
267.52	101.69
267.752	79.69
267.984	84.69
268.216	78.69
268.448	93.69
268.681	78.69
268.913	86.69
269.145	86.69
269.377	65.69
269.609	86.69
269.841	76.69
270.073	90.69
270.306	93.69
270.538	73.69
270.77	86.69
271.002	87.69
271.234	83.69
271.466	98.69
271.698	87.69
271.93	86.69
272.162	86.69
272.394	88.69
272.626	86.69
272.858	72.69
273.09	72.69
273.322	87.69
273.553	90.69
273.785	79.69
274.017	70.69
274.249	110.69
274.481	93.69
274.713	68.69
274.945	87.69
275.176	81.69
275.408	66.69
275.64	92.69
275.872	96.69
276.104	80.69
276.335	84.69
276.567	88.69
276.799	75.69
277.031	79.69
277.262	86.69
277.494	87.69
277.726	77.69
277.957	64.69
278.189	80.69
278.421	86.69
278.652	87.69
278.884	83.69
279.115	87.69
279.347	82.69
279.579	93.69
279.81	90.69
280.042	84.69
280.273	82.69
280.505	73.69
280.736	63.69
280.968	85.69
281.199	76.69
281.431	89.69
281.662	78.69
281.894	88.69
282.125	87.69
282.356	76.69
282.588	79.69
282.819	80.69
283.051	94.69
283.282	81.69
283.513	91.69
283.745	88.69
283.976	89.69
284.207	91.69
284.439	70.69
284.67	77.69
284.901	84.69
285.132	88.69
285.364	88.69
285.595	80.69
285.826	66.69
286.057	86.69
286.288	82.69
286.52	83.69
286.751	84.69
286.982	86.69
287.213	78.69
287.444	104.69
287.675	79.69
287.906	99.69
288.138	88.69
288.369	84.69
288.6	90.69
288.831	99.69
289.062	88.69
289.293	93.69
289.524	86.69
289.755	78.69
289.986	71.69
290.217	83.69
290.448	98.69
290.679	85.69
290.91	91.69
291.141	77.69
291.371	83.69
291.602	89.69
291.833	93.69
292.064	94.69
292.295	84.69
292.526	78.69
292.757	77.69
292.987	80.69
293.218	100.69
293.449	85.69
293.68	87.69
293.91	80.69
294.141	94.69
294.372	91.69
294.603	101.69
294.833	80.69
295.064	70.69
295.295	79.69
295.525	96.69
295.756	82.69
295.987	99.69
296.217	95.69
296.448	78.69
296.679	76.69
296.909	83.69
297.14	72.69
297.37	76.69
297.601	92.69
297.831	78.69
298.062	88.69
298.292	81.69
298.523	82.69
298.753	75.69
298.984	80.69
299.214	78.69
299.445	79.69
299.675	83.69
299.905	97.69
300.136	88.69
300.366	82.69
300.597	91.69
300.827	79.69
301.057	88.69
301.288	89.69
301.518	73.69
301.748	75.69
301.979	86.69
302.209	82.69
302.439	77.69
302.669	96.69
302.9	82.69
303.13	80.69
303.36	82.69
303.59	79.69
303.82	90.69
304.051	89.69
304.281	78.69
304.511	78.69
304.741	86.69
304.971	86.69
305.201	79.69
305.431	100.69
305.661	83.69
305.891	91.69
306.121	91.69
306.352	80.69
306.582	93.69
306.812	72.69
307.042	80.69
307.272	75.69
307.502	89.69
307.731	83.69
307.961	79.69
308.191	80.69
308.421	89.69
308.651	81.69
308.881	82.69
309.111	74.69
309.341	76.69
309.571	66.69
309.8	84.69
310.03	66.69
310.26	95.69
310.49	76.69
310.72	86.69
310.949	92.69
311.179	93.69
311.409	98.69
311.639	85.69
311.868	77.69
312.098	99.69
312.328	96.69
312.557	99.69
312.787	77.69
313.017	76.69
313.246	85.69
313.476	89.69
313.706	92.69
313.935	86.69
314.165	95.69
314.394	72.69
314.624	91.69
314.853	84.69
315.083	71.69
315.312	86.69
315.542	87.69
315.771	85.69
316.001	80.69
316.23	77.69
316.46	64.69
316.689	82.69
316.919	79.69
317.148	66.69
317.377	97.69
317.607	83.69
317.836	75.69
318.065	95.69
318.295	96.69
318.524	90.69
318.753	86.69
318.983	78.69
319.212	90.69
319.441	88.69
319.67	88.69
319.9	75.69
320.129	81.69
320.358	86.69
320.587	91.69
320.816	96.69
321.046	80.69
321.275	87.69
321.504	74.69
321.733	89.69
321.962	83.69
322.191	85.69
322.42	82.69
322.649	81.69
322.878	84.69
323.108	98.69
323.337	88.69
323.566	93.69
323.795	95.69
324.024	78.69
324.253	72.69
324.482	92.69
324.71	89.69
324.939	97.69
325.168	89.69
325.397	91.69
325.626	86.69
325.855	100.69
326.084	89.69
326.313	78.69
326.542	82.69
326.77	102.69
326.999	76.69
327.228	83.69
327.457	80.69
327.686	86.69
327.914	81.69
328.143	88.69
328.372	74.69
328.6	83.69
328.829	76.69
329.058	83.69
329.287	81.69
329.515	89.69
329.744	80.69
329.972	96.69
330.201	87.69
330.43	80.69
330.658	78.69
330.887	74.69
331.115	84.69
331.344	81.69
331.572	94.69
331.801	89.69
332.03	88.69
332.258	75.69
332.486	87.69
332.715	99.69
332.943	83.69
333.172	80.69
333.4	88.69
333.629	89.69
333.857	86.69
334.085	86.69
334.314	89.69
334.542	73.69
334.771	83.69
334.999	89.69
335.227	67.69
335.455	71.69
335.684	79.69
335.912	89.69
336.14	84.69
336.369	93.69
336.597	83.69
336.825	78.69
337.053	88.69
337.281	75.69
337.51	86.69
337.738	73.69
337.966	75.69
338.194	85.69
338.422	90.69
338.65	98.69
338.878	82.69
339.106	85.69
339.334	82.69
339.562	82.69
339.79	74.69
340.018	81.69
340.246	84.69
340.474	95.69
340.702	74.69
340.93	89.69
341.158	80.69
341.386	84.69
341.614	71.69
341.842	81.69
342.07	91.69
342.298	80.69
342.526	83.69
342.754	91.69
342.981	76.69
343.209	92.69
343.437	86.69
343.665	77.69
343.893	82.69
344.12	80.69
344.348	70.69
344.576	79.69
344.804	86.69
345.031	92.69
345.259	85.69
345.487	81.69
345.714	77.69
345.942	82.69
346.17	85.69
346.397	88.69
346.625	76.69
346.853	71.69
347.08	99.69
347.308	76.69
347.535	86.69
347.763	87.69
347.99	83.69
348.218	89.69
348.445	87.69
348.673	74.69
348.9	83.69
349.128	88.69
349.355	76.69
349.583	75.69
349.81	88.69
350.037	92.69
350.265	71.69
350.492	83.69
350.72	85.69
350.947	80.69
351.174	82.69
351.402	72.69
351.629	69.69
351.856	83.69
352.083	87.69
352.311	85.69
352.538	71.69
352.765	95.69
352.992	92.69
353.22	89.69
353.447	82.69
353.674	84.69
353.901	81.69
354.128	88.69
354.355	91.69
354.583	86.69
354.81	87.69
355.037	98.69
355.264	94.69
355.491	87.69
355.718	83.69
355.945	79.69
356.172	85.69
356.399	86.69
356.626	87.69
356.853	85.69
357.08	83.69
357.307	85.69
357.534	83.69
357.761	78.69
357.988	84.69
358.215	74.69
358.441	90.69
358.668	85.69
358.895	87.69
359.122	82.69
359.349	86.69
359.576	91.69
359.802	75.69
360.029	73.69
360.256	76.69
360.483	104.69
360.709	84.69
360.936	94.69
361.163	89.69
361.39	100.69
361.616	82.69
361.843	76.69
362.07	74.69
362.296	84.69
362.523	76.69
362.749	68.69
362.976	88.69
363.203	77.69
363.429	80.69
363.656	83.69
363.882	68.69
364.109	86.69
364.335	80.69
364.562	88.69
364.788	69.69
365.015	82.69
365.241	91.69
365.468	89.69
365.694	70.69
365.92	92.69
366.147	86.69
366.373	81.69
366.599	99.69
366.826	76.69
367.052	84.69
367.278	90.69
367.505	87.69
367.731	81.69
367.957	70.69
368.184	81.69
368.41	76.69
368.636	75.69
368.862	80.69
369.089	80.69
369.315	77.69
369.541	87.69
369.767	84.69
369.993	83.69
370.219	92.69
370.445	99.69
370.672	90.69
370.898	83.69
371.124	89.69
371.35	82.69
371.576	75.69
371.802	60.69
372.028	87.69
372.254	78.69
372.48	95.69
372.706	76.69
372.932	91.69
373.158	89.69
373.384	87.69
373.61	94.69
373.835	74.69
374.061	91.69
374.287	93.69
374.513	87.69
374.739	83.69
374.965	91.69
375.191	95.69
375.416	89.69
375.642	77.69
375.868	88.69
376.094	94.69
376.319	97.69
376.545	77.69
376.771	86.69
376.997	81.69
377.222	85.69
377.448	95.69
377.674	81.69
377.899	88.69
378.125	75.69
378.35	85.69
378.576	91.69
378.802	89.69
379.027	87.69
379.253	74.69
379.478	73.69
379.704	94.69
379.929	76.69
380.155	82.69
380.38	74.69
380.606	77.69
380.831	69.69
381.057	87.69
381.282	77.69
381.507	98.69
381.733	80.69
381.958	92.69
382.184	87.69
382.409	83.69
382.634	73.69
382.86	77.69
383.085	81.69
383.31	97.69
383.535	82.69
383.761	77.69
383.986	91.69
384.211	89.69
384.436	81.69
384.662	94.69
384.887	88.69
385.112	86.69
385.337	82.69
385.562	71.69
385.787	77.69
386.013	86.69
386.238	88.69
386.463	92.69
386.688	95.69
386.913	79.69
387.138	88.69
387.363	102.69
387.588	95.69
387.813	87.69
388.038	71.69
388.263	95.69
388.488	77.69
388.713	90.69
388.938	87.69
389.163	82.69
389.387	80.69
389.612	90.69
389.837	82.69
390.062	84.69
390.287	72.69
390.512	81.69
390.736	83.69
390.961	85.69
391.186	75.69
391.411	78.69
391.636	77.69
391.86	86.69
392.085	87.69
392.31	96.69
392.534	90.69
392.759	96.69
392.984	88.69
393.208	88.69
393.433	90.69
393.658	91.69
393.882	79.69
394.107	84.69
394.331	86.69
394.556	88.69
394.78	96.69
395.005	98.69
395.229	79.69
395.454	78.69
395.678	99.69
395.903	80.69
396.127	75.69
396.352	89.69
396.576	76.69
396.801	100.69
397.025	72.69
397.249	72.69
397.474	108.69
397.698	85.69
397.922	73.69
398.147	97.69
398.371	89.69
398.595	81.69
398.82	86.69
399.044	87.69
399.268	95.69
399.492	81.69
399.717	81.69
399.941	91.69
400.165	85.69
400.389	100.69
400.613	91.69
400.837	86.69
401.062	79.69
401.286	98.69
401.51	84.69
401.734	97.69
401.958	90.69
402.182	79.69
402.406	84.69
402.63	87.69
402.854	88.69
403.078	79.69
403.302	73.69
403.526	88.69
403.75	86.69
403.974	83.69
404.198	86.69
404.422	79.69
404.645	90.69
404.869	79.69
405.093	97.69
405.317	87.69
405.541	90.69
405.765	98.69
405.988	105.69
406.212	68.69
406.436	88.69
406.66	88.69
406.883	89.69
407.107	101.69
407.331	95.69
407.555	76.69
407.778	88.69
408.002	79.69
408.226	96.69
408.449	97.69
408.673	96.69
408.896	83.69
409.12	87.69
409.344	100.69
409.567	96.69
409.791	89.69
410.014	87.69
410.238	92.69
410.461	89.69
410.685	99.69
410.908	85.69
411.132	87.69
411.355	79.69
411.578	102.69
411.802	84.69
412.025	80.69
412.249	85.69
412.472	92.69
412.695	93.69
412.919	86.69
413.142	88.69
413.365	98.69
413.589	84.69
413.812	84.69
414.035	87.69
414.258	85.69
414.482	92.69
414.705	103.69
414.928	80.69
415.151	105.69
415.374	88.69
415.597	72.69
415.821	79.69
416.044	84.69
416.267	92.69
416.49	89.69
416.713	88.69
416.936	94.69
417.159	86.69
417.382	100.69
417.605	83.69
417.828	90.69
418.051	91.69
418.274	75.69
418.497	91.69
418.72	100.69
418.943	100.69
419.166	85.69
419.389	101.69
419.611	94.69
419.834	92.69
420.057	96.69
420.28	80.69
420.503	82.69
420.726	105.69
420.948	99.69
421.171	82.69
421.394	83.69
421.617	92.69
421.839	102.69
422.062	100.69
422.285	90.69
422.507	69.69
422.73	81.69
422.953	70.69
423.175	95.69
423.398	93.69
423.621	91.69
423.843	80.69
424.066	89.69
424.288	96.69
424.511	99.69
424.733	90.69
424.956	95.69
425.178	105.69
425.401	75.69
425.623	93.69
425.846	103.69
426.068	84.69
426.291	104.69
426.513	78.69
426.735	74.69
426.958	94.69
427.18	85.69
427.402	102.69
427.625	106.69
427.847	104.69
428.069	106.69
428.292	91.69
428.514	80.69
428.736	95.69
428.958	111.69
429.181	99.69
429.403	84.69
429.625	98.69
429.847	100.69
430.069	97.69
430.292	95.69
430.514	76.69
430.736	89.69
430.958	96.69
431.18	86.69
431.402	88.69
431.624	89.69
431.846	89.69
432.068	91.69
432.29	66.69
432.512	97.69
432.734	90.69
432.956	100.69
433.178	93.69
433.4	102.69
433.622	88.69
433.844	97.69
434.066	88.69
434.287	91.69
434.509	87.69
434.731	82.69
434.953	98.69
435.175	80.69
435.397	87.69
435.618	87.69
435.84	80.69
436.062	87.69
436.284	86.69
436.505	85.69
436.727	80.69
436.949	88.69
437.17	91.69
437.392	91.69
437.614	93.69
437.835	81.69
438.057	88.69
438.278	92.69
438.5	83.69
438.721	101.69
438.943	83.69
439.165	87.69
439.386	103.69
439.608	96.69
439.829	91.69
440.05	91.69
440.272	113.69
440.493	91.69
440.715	90.69
440.936	95.69
441.158	90.69
441.379	88.69
441.6	86.69
441.822	102.69
442.043	105.69
442.264	99.69
442.486	90.69
442.707	99.69
442.928	102.69
443.149	91.69
443.371	101.69
443.592	96.69
443.813	100.69
444.034	91.69
444.255	111.69
444.476	84.69
444.698	76.69
444.919	100.69
445.14	190.69
445.361	136.69
445.582	94.69
445.803	97.69
446.024	97.69
446.245	105.69
446.466	95.69
446.687	104.69
446.908	112.69
447.129	98.69
447.35	98.69
447.571	98.69
447.792	103.69
448.013	91.69
448.234	97.69
448.455	95.69
448.675	85.69
448.896	82.69
449.117	96.69
449.338	98.69
449.559	103.69
449.779	88.69
450	114.69
450.221	98.69
450.442	94.69
450.662	80.69
450.883	95.69
451.104	99.69
451.324	101.69
451.545	98.69
451.766	103.69
451.986	87.69
452.207	96.69
452.428	97.69
452.648	92.69
452.869	100.69
453.089	85.69
453.31	78.69
453.53	88.69
453.751	87.69
453.971	93.69
454.192	88.69
454.412	79.69
454.633	99.69
454.853	93.69
455.073	99.69
455.294	97.69
455.514	101.69
455.734	84.69
455.955	85.69
456.175	69.69
456.395	95.69
456.616	92.69
456.836	100.69
457.056	88.69
457.276	87.69
457.497	74.69
457.717	76.69
457.937	93.69
458.157	86.69
458.377	96.69
458.598	92.69
458.818	106.69
459.038	83.69
459.258	92.69
459.478	74.69
459.698	73.69
459.918	89.69
460.138	97.69
460.358	87.69
460.578	86.69
460.798	80.69
461.018	87.69
461.238	87.69
461.458	93.69
461.678	89.69
461.898	96.69
462.118	86.69
462.338	88.69
462.558	106.69
462.777	92.69
462.997	85.69
463.217	87.69
463.437	81.69
463.657	80.69
463.876	95.69
464.096	89.69
464.316	88.69
464.536	90.69
464.755	90.69
464.975	90.69
465.195	86.69
465.414	90.69
465.634	80.69
465.854	96.69
466.073	64.69
466.293	86.69
466.512	93.69
466.732	94.69
466.951	91.69
467.171	89.69
467.391	104.69
467.61	107.69
467.829	103.69
468.049	104.69
468.268	104.69
468.488	99.69
468.707	91.69
468.927	100.69
469.146	97.69
469.365	88.69
469.585	106.69
469.804	86.69
470.023	99.69
470.243	101.69
470.462	101.69
470.681	92.69
470.901	96.69
471.12	90.69
471.339	94.69
471.558	94.69
471.777	100.69
471.997	103.69
472.216	76.69
472.435	80.69
472.654	91.69
472.873	83.69
473.092	88.69
473.311	83.69
473.53	91.69
473.749	94.69
473.968	89.69
474.187	86.69
474.406	100.69
474.625	80.69
474.844	106.69
475.063	94.69
475.282	85.69
475.501	85.69
475.72	97.69
475.939	91.69
476.158	94.69
476.377	89.69
476.596	82.69
476.814	85.69
477.033	94.69
477.252	94.69
477.471	91.69
477.69	107.69
477.908	98.69
478.127	87.69
478.346	100.69
478.564	114.69
478.783	95.69
479.002	87.69
479.22	87.69
479.439	103.69
479.658	94.69
479.876	85.69
480.095	79.69
480.313	81.69
480.532	89.69
480.751	80.69
480.969	89.69
481.188	80.69
481.406	82.69
481.624	83.69
481.843	94.69
482.061	83.69
482.28	84.69
482.498	89.69
482.717	100.69
482.935	93.69
483.153	112.69
483.372	101.69
483.59	97.69
483.808	93.69
484.027	69.69
484.245	98.69
484.463	107.69
484.681	110.69
484.9	96.69
485.118	91.69
485.336	91.69
485.554	94.69
485.772	84.69
485.99	94.69
486.209	85.69
486.427	90.69
486.645	87.69
486.863	90.69
487.081	85.69
487.299	82.69
487.517	86.69
487.735	112.69
487.953	105.69
488.171	115.69
488.389	112.69
488.607	97.69
488.825	110.69
489.043	88.69
489.261	89.69
489.479	85.69
489.696	99.69
489.914	98.69
490.132	101.69
490.35	84.69
490.568	92.69
490.786	98.69
491.003	96.69
491.221	98.69
491.439	117.69
491.657	102.69
491.874	100.69
492.092	130.69
492.31	122.69
492.527	107.69
492.745	97.69
492.963	123.69
493.18	122.69
493.398	121.69
493.615	97.69
493.833	119.69
494.05	101.69
494.268	97.69
494.485	110.69
494.703	91.69
494.92	112.69
495.138	100.69
495.355	118.69
495.573	107.69
495.79	103.69
496.008	112.69
496.225	104.69
496.442	104.69
496.66	112.69
496.877	105.69
497.094	109.69
497.312	112.69
497.529	117.69
497.746	97.69
497.963	88.69
498.181	95.69
498.398	95.69
498.615	84.69
498.832	97.69
499.049	83.69
499.267	87.69
499.484	86.69
499.701	85.69
499.918	105.69
500.135	93.69
500.352	97.69
500.569	89.69
500.786	73.69
501.003	94.69
501.22	103.69
501.437	107.69
501.654	99.69
501.871	83.69
502.088	83.69
502.305	92.69
502.522	77.69
502.739	92.69
502.956	86.69
503.172	97.69
503.389	99.69
503.606	92.69
503.823	92.69
504.04	84.69
504.256	98.69
504.473	79.69
504.69	101.69
504.907	97.69
505.123	88.69
505.34	96.69
505.557	99.69
505.773	87.69
505.99	97.69
506.207	82.69
506.423	79.69
506.64	91.69
506.856	84.69
507.073	95.69
507.289	84.69
507.506	96.69
507.722	91.69
507.939	78.69
508.155	94.69
508.372	97.69
508.588	91.69
508.805	94.69
509.021	84.69
509.238	90.69
509.454	86.69
509.67	96.69
509.887	81.69
510.103	89.69
510.319	88.69
510.536	75.69
510.752	90.69
510.968	75.69
511.184	87.69
511.401	72.69
511.617	81.69
511.833	80.69
512.049	72.69
512.265	82.69
512.481	97.69
512.698	92.69
512.914	87.69
513.13	82.69
513.346	95.69
513.562	95.69
513.778	98.69
513.994	96.69
514.21	83.69
514.426	85.69
514.642	103.69
514.858	75.69
515.074	90.69
515.29	96.69
515.506	73.69
515.721	92.69
515.937	83.69
516.153	83.69
516.369	89.69
516.585	70.69
516.801	94.69
517.016	86.69
517.232	69.69
517.448	69.69
517.664	89.69
517.879	88.69
