Data from Location5.07152019.Energy5.Lamp.07192019.3%Agarose_HRD10591_16-05-39-632.txt Node
Date: Fri Jul 19 16:05:39 EDT 2019
User: cochatt
Spectrometer: HR+D1059
Trigger mode: 1
Integration Time (sec): 1.000000E-1
Scans to average: 1
Electric dark correction enabled: true
Nonlinearity correction enabled: false
Boxcar width: 0
XAxis mode: Wavelengths
Number of Pixels in Spectrum: 2048
>>>>>Begin Spectral Data<<<<<
223.165	-6.88
223.4	-6.88
223.635	-6.88
223.869	-20.88
224.104	-17.88
224.338	-9.88
224.573	-13.88
224.808	-1.88
225.042	-12.88
225.277	12.12
225.511	-10.88
225.746	-9.88
225.98	4.12
226.215	6.12
226.449	10.12
226.683	27.12
226.918	12.12
227.152	33.12
227.387	37.12
227.621	35.12
227.856	43.12
228.09	46.12
228.324	45.12
228.559	64.12
228.793	51.12
229.027	58.12
229.262	52.12
229.496	63.12
229.73	69.12
229.964	68.12
230.199	75.12
230.433	81.12
230.667	75.12
230.901	79.12
231.136	85.12
231.37	76.12
231.604	76.12
231.838	91.12
232.072	87.12
232.306	67.12
232.541	80.12
232.775	97.12
233.009	88.12
233.243	76.12
233.477	75.12
233.711	87.12
233.945	69.12
234.179	83.12
234.413	81.12
234.647	84.12
234.881	84.12
235.115	81.12
235.349	75.12
235.583	79.12
235.817	80.12
236.051	81.12
236.285	85.12
236.519	79.12
236.753	71.12
236.987	71.12
237.221	89.12
237.455	86.12
237.689	75.12
237.922	97.12
238.156	73.12
238.39	89.12
238.624	80.12
238.858	62.12
239.091	82.12
239.325	82.12
239.559	74.12
239.793	82.12
240.027	91.12
240.26	82.12
240.494	74.12
240.728	79.12
240.961	68.12
241.195	90.12
241.429	73.12
241.662	100.12
241.896	88.12
242.13	82.12
242.363	75.12
242.597	91.12
242.83	66.12
243.064	76.12
243.298	85.12
243.531	70.12
243.765	66.12
243.998	79.12
244.232	79.12
244.465	80.12
244.699	75.12
244.932	87.12
245.166	84.12
245.399	79.12
245.633	74.12
245.866	74.12
246.099	84.12
246.333	83.12
246.566	69.12
246.8	67.12
247.033	84.12
247.266	75.12
247.5	71.12
247.733	63.12
247.966	83.12
248.2	80.12
248.433	81.12
248.666	75.12
248.899	89.12
249.133	77.12
249.366	66.12
249.599	83.12
249.832	64.12
250.066	102.12
250.299	79.12
250.532	86.12
250.765	82.12
250.998	74.12
251.231	87.12
251.465	77.12
251.698	87.12
251.931	82.12
252.164	62.12
252.397	85.12
252.63	83.12
252.863	82.12
253.096	75.12
253.329	83.12
253.562	76.12
253.795	74.12
254.028	74.12
254.261	67.12
254.494	88.12
254.727	97.12
254.96	90.12
255.193	82.12
255.426	86.12
255.659	72.12
255.892	77.12
256.124	83.12
256.357	89.12
256.59	87.12
256.823	88.12
257.056	96.12
257.289	78.12
257.521	94.12
257.754	75.12
257.987	85.12
258.22	89.12
258.452	86.12
258.685	69.12
258.918	83.12
259.151	78.12
259.383	68.12
259.616	80.12
259.849	76.12
260.081	66.12
260.314	75.12
260.547	89.12
260.779	82.12
261.012	84.12
261.244	86.12
261.477	85.12
261.71	88.12
261.942	99.12
262.175	87.12
262.407	70.12
262.64	83.12
262.872	76.12
263.105	72.12
263.337	81.12
263.57	91.12
263.802	87.12
264.035	81.12
264.267	93.12
264.499	86.12
264.732	72.12
264.964	95.12
265.197	87.12
265.429	83.12
265.661	88.12
265.894	87.12
266.126	90.12
266.358	84.12
266.591	80.12
266.823	98.12
267.055	105.12
267.287	92.12
267.52	81.12
267.752	76.12
267.984	80.12
268.216	86.12
268.448	104.12
268.681	89.12
268.913	83.12
269.145	88.12
269.377	87.12
269.609	87.12
269.841	75.12
270.073	84.12
270.306	90.12
270.538	81.12
270.77	83.12
271.002	93.12
271.234	85.12
271.466	82.12
271.698	83.12
271.93	88.12
272.162	75.12
272.394	84.12
272.626	82.12
272.858	88.12
273.09	88.12
273.322	80.12
273.553	84.12
273.785	77.12
274.017	96.12
274.249	90.12
274.481	80.12
274.713	79.12
274.945	81.12
275.176	86.12
275.408	83.12
275.64	89.12
275.872	77.12
276.104	80.12
276.335	87.12
276.567	71.12
276.799	80.12
277.031	84.12
277.262	83.12
277.494	81.12
277.726	70.12
277.957	75.12
278.189	77.12
278.421	84.12
278.652	83.12
278.884	83.12
279.115	91.12
279.347	89.12
279.579	90.12
279.81	76.12
280.042	92.12
280.273	97.12
280.505	97.12
280.736	102.12
280.968	80.12
281.199	86.12
281.431	82.12
281.662	84.12
281.894	88.12
282.125	87.12
282.356	89.12
282.588	83.12
282.819	83.12
283.051	82.12
283.282	85.12
283.513	99.12
283.745	98.12
283.976	88.12
284.207	108.12
284.439	96.12
284.67	89.12
284.901	86.12
285.132	79.12
285.364	83.12
285.595	80.12
285.826	94.12
286.057	86.12
286.288	91.12
286.52	90.12
286.751	89.12
286.982	104.12
287.213	95.12
287.444	88.12
287.675	92.12
287.906	92.12
288.138	77.12
288.369	95.12
288.6	87.12
288.831	86.12
289.062	97.12
289.293	98.12
289.524	92.12
289.755	100.12
289.986	101.12
290.217	87.12
290.448	84.12
290.679	76.12
290.91	94.12
291.141	77.12
291.371	90.12
291.602	95.12
291.833	92.12
292.064	92.12
292.295	100.12
292.526	93.12
292.757	88.12
292.987	80.12
293.218	71.12
293.449	98.12
293.68	84.12
293.91	80.12
294.141	85.12
294.372	87.12
294.603	98.12
294.833	90.12
295.064	93.12
295.295	94.12
295.525	86.12
295.756	91.12
295.987	91.12
296.217	94.12
296.448	96.12
296.679	102.12
296.909	81.12
297.14	84.12
297.37	99.12
297.601	79.12
297.831	98.12
298.062	95.12
298.292	93.12
298.523	94.12
298.753	99.12
298.984	89.12
299.214	99.12
299.445	98.12
299.675	94.12
299.905	89.12
300.136	76.12
300.366	83.12
300.597	98.12
300.827	97.12
301.057	79.12
301.288	93.12
301.518	90.12
301.748	81.12
301.979	82.12
302.209	87.12
302.439	87.12
302.669	82.12
302.9	80.12
303.13	86.12
303.36	89.12
303.59	80.12
303.82	84.12
304.051	102.12
304.281	94.12
304.511	98.12
304.741	84.12
304.971	82.12
305.201	87.12
305.431	83.12
305.661	96.12
305.891	92.12
306.121	97.12
306.352	91.12
306.582	94.12
306.812	86.12
307.042	85.12
307.272	102.12
307.502	95.12
307.731	84.12
307.961	99.12
308.191	83.12
308.421	88.12
308.651	101.12
308.881	76.12
309.111	84.12
309.341	86.12
309.571	88.12
309.8	80.12
310.03	86.12
310.26	63.12
310.49	94.12
310.72	91.12
310.949	88.12
311.179	95.12
311.409	104.12
311.639	91.12
311.868	89.12
312.098	92.12
312.328	87.12
312.557	82.12
312.787	96.12
313.017	83.12
313.246	76.12
313.476	76.12
313.706	74.12
313.935	98.12
314.165	101.12
314.394	76.12
314.624	87.12
314.853	96.12
315.083	88.12
315.312	90.12
315.542	88.12
315.771	90.12
316.001	86.12
316.23	96.12
316.46	98.12
316.689	79.12
316.919	73.12
317.148	93.12
317.377	103.12
317.607	93.12
317.836	97.12
318.065	82.12
318.295	90.12
318.524	80.12
318.753	92.12
318.983	99.12
319.212	87.12
319.441	106.12
319.67	76.12
319.9	79.12
320.129	89.12
320.358	79.12
320.587	81.12
320.816	86.12
321.046	104.12
321.275	100.12
321.504	78.12
321.733	83.12
321.962	86.12
322.191	104.12
322.42	92.12
322.649	91.12
322.878	92.12
323.108	87.12
323.337	70.12
323.566	81.12
323.795	91.12
324.024	83.12
324.253	85.12
324.482	80.12
324.71	89.12
324.939	80.12
325.168	91.12
325.397	88.12
325.626	101.12
325.855	81.12
326.084	95.12
326.313	81.12
326.542	80.12
326.77	85.12
326.999	86.12
327.228	86.12
327.457	86.12
327.686	90.12
327.914	103.12
328.143	88.12
328.372	90.12
328.6	81.12
328.829	91.12
329.058	87.12
329.287	102.12
329.515	79.12
329.744	89.12
329.972	90.12
330.201	94.12
330.43	111.12
330.658	91.12
330.887	91.12
331.115	77.12
331.344	91.12
331.572	88.12
331.801	87.12
332.03	96.12
332.258	83.12
332.486	88.12
332.715	95.12
332.943	82.12
333.172	99.12
333.4	76.12
333.629	94.12
333.857	103.12
334.085	98.12
334.314	88.12
334.542	97.12
334.771	98.12
334.999	86.12
335.227	85.12
335.455	87.12
335.684	85.12
335.912	91.12
336.14	89.12
336.369	102.12
336.597	90.12
336.825	85.12
337.053	74.12
337.281	84.12
337.51	84.12
337.738	102.12
337.966	88.12
338.194	92.12
338.422	91.12
338.65	83.12
338.878	82.12
339.106	92.12
339.334	95.12
339.562	96.12
339.79	95.12
340.018	96.12
340.246	86.12
340.474	76.12
340.702	85.12
340.93	93.12
341.158	80.12
341.386	95.12
341.614	95.12
341.842	79.12
342.07	95.12
342.298	83.12
342.526	90.12
342.754	88.12
342.981	89.12
343.209	99.12
343.437	99.12
343.665	94.12
343.893	95.12
344.12	87.12
344.348	84.12
344.576	77.12
344.804	87.12
345.031	86.12
345.259	83.12
345.487	97.12
345.714	85.12
345.942	87.12
346.17	92.12
346.397	93.12
346.625	78.12
346.853	92.12
347.08	92.12
347.308	96.12
347.535	94.12
347.763	78.12
347.99	92.12
348.218	108.12
348.445	85.12
348.673	95.12
348.9	91.12
349.128	95.12
349.355	87.12
349.583	82.12
349.81	99.12
350.037	74.12
350.265	86.12
350.492	98.12
350.72	94.12
350.947	89.12
351.174	101.12
351.402	82.12
351.629	84.12
351.856	99.12
352.083	84.12
352.311	80.12
352.538	82.12
352.765	119.12
352.992	97.12
353.22	86.12
353.447	83.12
353.674	96.12
353.901	91.12
354.128	82.12
354.355	84.12
354.583	91.12
354.81	87.12
355.037	103.12
355.264	91.12
355.491	87.12
355.718	82.12
355.945	90.12
356.172	94.12
356.399	97.12
356.626	87.12
356.853	94.12
357.08	92.12
357.307	81.12
357.534	102.12
357.761	87.12
357.988	86.12
358.215	86.12
358.441	87.12
358.668	83.12
358.895	76.12
359.122	98.12
359.349	90.12
359.576	83.12
359.802	102.12
360.029	83.12
360.256	93.12
360.483	83.12
360.709	90.12
360.936	109.12
361.163	85.12
361.39	92.12
361.616	91.12
361.843	91.12
362.07	92.12
362.296	100.12
362.523	88.12
362.749	86.12
362.976	83.12
363.203	76.12
363.429	84.12
363.656	81.12
363.882	75.12
364.109	87.12
364.335	90.12
364.562	97.12
364.788	84.12
365.015	98.12
365.241	79.12
365.468	84.12
365.694	79.12
365.92	98.12
366.147	84.12
366.373	87.12
366.599	103.12
366.826	88.12
367.052	97.12
367.278	94.12
367.505	98.12
367.731	85.12
367.957	88.12
368.184	95.12
368.41	85.12
368.636	86.12
368.862	101.12
369.089	93.12
369.315	86.12
369.541	101.12
369.767	98.12
369.993	92.12
370.219	92.12
370.445	89.12
370.672	90.12
370.898	86.12
371.124	85.12
371.35	80.12
371.576	80.12
371.802	82.12
372.028	81.12
372.254	85.12
372.48	93.12
372.706	89.12
372.932	88.12
373.158	82.12
373.384	98.12
373.61	98.12
373.835	89.12
374.061	95.12
374.287	88.12
374.513	90.12
374.739	78.12
374.965	81.12
375.191	86.12
375.416	103.12
375.642	79.12
375.868	85.12
376.094	88.12
376.319	69.12
376.545	83.12
376.771	99.12
376.997	85.12
377.222	92.12
377.448	88.12
377.674	89.12
377.899	102.12
378.125	95.12
378.35	104.12
378.576	92.12
378.802	100.12
379.027	96.12
379.253	114.12
379.478	84.12
379.704	97.12
379.929	99.12
380.155	91.12
380.38	87.12
380.606	92.12
380.831	93.12
381.057	93.12
381.282	99.12
381.507	75.12
381.733	81.12
381.958	82.12
382.184	74.12
382.409	90.12
382.634	89.12
382.86	92.12
383.085	98.12
383.31	76.12
383.535	94.12
383.761	100.12
383.986	95.12
384.211	90.12
384.436	101.12
384.662	94.12
384.887	95.12
385.112	104.12
385.337	93.12
385.562	84.12
385.787	100.12
386.013	102.12
386.238	89.12
386.463	89.12
386.688	84.12
386.913	75.12
387.138	91.12
387.363	84.12
387.588	90.12
387.813	74.12
388.038	88.12
388.263	97.12
388.488	94.12
388.713	104.12
388.938	94.12
389.163	70.12
389.387	74.12
389.612	83.12
389.837	75.12
390.062	98.12
390.287	96.12
390.512	88.12
390.736	87.12
390.961	93.12
391.186	89.12
391.411	86.12
391.636	90.12
391.86	95.12
392.085	100.12
392.31	90.12
392.534	83.12
392.759	87.12
392.984	91.12
393.208	90.12
393.433	101.12
393.658	95.12
393.882	90.12
394.107	94.12
394.331	76.12
394.556	86.12
394.78	94.12
395.005	102.12
395.229	82.12
395.454	102.12
395.678	102.12
395.903	95.12
396.127	99.12
396.352	81.12
396.576	97.12
396.801	73.12
397.025	74.12
397.249	98.12
397.474	102.12
397.698	103.12
397.922	94.12
398.147	91.12
398.371	89.12
398.595	86.12
398.82	98.12
399.044	110.12
399.268	95.12
399.492	88.12
399.717	98.12
399.941	101.12
400.165	90.12
400.389	89.12
400.613	96.12
400.837	100.12
401.062	92.12
401.286	77.12
401.51	88.12
401.734	95.12
401.958	96.12
402.182	94.12
402.406	88.12
402.63	98.12
402.854	115.12
403.078	96.12
403.302	107.12
403.526	100.12
403.75	96.12
403.974	84.12
404.198	90.12
404.422	83.12
404.645	97.12
404.869	83.12
405.093	97.12
405.317	101.12
405.541	100.12
405.765	98.12
405.988	73.12
406.212	92.12
406.436	96.12
406.66	103.12
406.883	99.12
407.107	82.12
407.331	86.12
407.555	113.12
407.778	108.12
408.002	78.12
408.226	85.12
408.449	87.12
408.673	83.12
408.896	91.12
409.12	92.12
409.344	104.12
409.567	87.12
409.791	91.12
410.014	97.12
410.238	100.12
410.461	85.12
410.685	91.12
410.908	94.12
411.132	92.12
411.355	106.12
411.578	83.12
411.802	84.12
412.025	98.12
412.249	94.12
412.472	95.12
412.695	100.12
412.919	90.12
413.142	98.12
413.365	85.12
413.589	83.12
413.812	82.12
414.035	99.12
414.258	88.12
414.482	90.12
414.705	84.12
414.928	107.12
415.151	101.12
415.374	90.12
415.597	94.12
415.821	85.12
416.044	88.12
416.267	111.12
416.49	99.12
416.713	87.12
416.936	90.12
417.159	91.12
417.382	91.12
417.605	103.12
417.828	103.12
418.051	96.12
418.274	91.12
418.497	102.12
418.72	72.12
418.943	88.12
419.166	105.12
419.389	96.12
419.611	88.12
419.834	96.12
420.057	91.12
420.28	92.12
420.503	82.12
420.726	98.12
420.948	93.12
421.171	80.12
421.394	85.12
421.617	102.12
421.839	91.12
422.062	101.12
422.285	85.12
422.507	85.12
422.73	90.12
422.953	90.12
423.175	89.12
423.398	88.12
423.621	88.12
423.843	87.12
424.066	75.12
424.288	76.12
424.511	91.12
424.733	85.12
424.956	83.12
425.178	73.12
425.401	94.12
425.623	101.12
425.846	87.12
426.068	96.12
426.291	111.12
426.513	73.12
426.735	89.12
426.958	92.12
427.18	96.12
427.402	83.12
427.625	93.12
427.847	100.12
428.069	81.12
428.292	101.12
428.514	84.12
428.736	85.12
428.958	90.12
429.181	78.12
429.403	86.12
429.625	99.12
429.847	81.12
430.069	91.12
430.292	98.12
430.514	83.12
430.736	79.12
430.958	83.12
431.18	90.12
431.402	80.12
431.624	100.12
431.846	79.12
432.068	90.12
432.29	95.12
432.512	92.12
432.734	85.12
432.956	95.12
433.178	91.12
433.4	105.12
433.622	93.12
433.844	94.12
434.066	90.12
434.287	91.12
434.509	93.12
434.731	78.12
434.953	79.12
435.175	92.12
435.397	103.12
435.618	82.12
435.84	95.12
436.062	93.12
436.284	88.12
436.505	94.12
436.727	110.12
436.949	83.12
437.17	95.12
437.392	83.12
437.614	97.12
437.835	86.12
438.057	80.12
438.278	81.12
438.5	85.12
438.721	110.12
438.943	90.12
439.165	98.12
439.386	103.12
439.608	93.12
439.829	92.12
440.05	95.12
440.272	85.12
440.493	81.12
440.715	88.12
440.936	81.12
441.158	95.12
441.379	82.12
441.6	94.12
441.822	92.12
442.043	93.12
442.264	88.12
442.486	87.12
442.707	105.12
442.928	91.12
443.149	102.12
443.371	104.12
443.592	91.12
443.813	95.12
444.034	99.12
444.255	113.12
444.476	100.12
444.698	103.12
444.919	107.12
445.14	219.12
445.361	149.12
445.582	96.12
445.803	93.12
446.024	94.12
446.245	84.12
446.466	97.12
446.687	90.12
446.908	84.12
447.129	100.12
447.35	98.12
447.571	91.12
447.792	87.12
448.013	92.12
448.234	72.12
448.455	90.12
448.675	76.12
448.896	92.12
449.117	103.12
449.338	101.12
449.559	93.12
449.779	83.12
450	90.12
450.221	86.12
450.442	90.12
450.662	94.12
450.883	83.12
451.104	79.12
451.324	76.12
451.545	97.12
451.766	87.12
451.986	99.12
452.207	82.12
452.428	90.12
452.648	82.12
452.869	82.12
453.089	84.12
453.31	79.12
453.53	73.12
453.751	88.12
453.971	90.12
454.192	95.12
454.412	87.12
454.633	99.12
454.853	88.12
455.073	111.12
455.294	99.12
455.514	91.12
455.734	99.12
455.955	91.12
456.175	86.12
456.395	94.12
456.616	89.12
456.836	88.12
457.056	91.12
457.276	80.12
457.497	83.12
457.717	67.12
457.937	81.12
458.157	94.12
458.377	83.12
458.598	88.12
458.818	92.12
459.038	84.12
459.258	72.12
459.478	91.12
459.698	87.12
459.918	83.12
460.138	83.12
460.358	88.12
460.578	90.12
460.798	93.12
461.018	81.12
461.238	100.12
461.458	97.12
461.678	80.12
461.898	100.12
462.118	92.12
462.338	87.12
462.558	95.12
462.777	94.12
462.997	107.12
463.217	97.12
463.437	97.12
463.657	112.12
463.876	102.12
464.096	87.12
464.316	104.12
464.536	95.12
464.755	88.12
464.975	93.12
465.195	88.12
465.414	102.12
465.634	97.12
465.854	101.12
466.073	90.12
466.293	106.12
466.512	80.12
466.732	99.12
466.951	95.12
467.171	89.12
467.391	85.12
467.61	101.12
467.829	84.12
468.049	82.12
468.268	99.12
468.488	93.12
468.707	108.12
468.927	105.12
469.146	91.12
469.365	90.12
469.585	94.12
469.804	94.12
470.023	96.12
470.243	96.12
470.462	92.12
470.681	100.12
470.901	87.12
471.12	89.12
471.339	98.12
471.558	94.12
471.777	90.12
471.997	88.12
472.216	82.12
472.435	76.12
472.654	91.12
472.873	98.12
473.092	103.12
473.311	84.12
473.53	94.12
473.749	94.12
473.968	100.12
474.187	90.12
474.406	90.12
474.625	81.12
474.844	92.12
475.063	88.12
475.282	102.12
475.501	99.12
475.72	104.12
475.939	93.12
476.158	98.12
476.377	88.12
476.596	81.12
476.814	96.12
477.033	99.12
477.252	92.12
477.471	113.12
477.69	95.12
477.908	97.12
478.127	99.12
478.346	102.12
478.564	96.12
478.783	114.12
479.002	106.12
479.22	95.12
479.439	107.12
479.658	91.12
479.876	94.12
480.095	102.12
480.313	101.12
480.532	97.12
480.751	102.12
480.969	94.12
481.188	103.12
481.406	100.12
481.624	75.12
481.843	86.12
482.061	89.12
482.28	82.12
482.498	95.12
482.717	102.12
482.935	92.12
483.153	96.12
483.372	104.12
483.59	106.12
483.808	94.12
484.027	88.12
484.245	89.12
484.463	89.12
484.681	111.12
484.9	112.12
485.118	108.12
485.336	88.12
485.554	90.12
485.772	99.12
485.99	95.12
486.209	105.12
486.427	88.12
486.645	98.12
486.863	111.12
487.081	108.12
487.299	100.12
487.517	100.12
487.735	103.12
487.953	103.12
488.171	104.12
488.389	115.12
488.607	105.12
488.825	100.12
489.043	98.12
489.261	95.12
489.479	100.12
489.696	95.12
489.914	95.12
490.132	91.12
490.35	105.12
490.568	104.12
490.786	99.12
491.003	95.12
491.221	93.12
491.439	99.12
491.657	104.12
491.874	121.12
492.092	106.12
492.31	103.12
492.527	97.12
492.745	109.12
492.963	115.12
493.18	121.12
493.398	115.12
493.615	97.12
493.833	123.12
494.05	106.12
494.268	104.12
494.485	98.12
494.703	102.12
494.92	114.12
495.138	96.12
495.355	110.12
495.573	100.12
495.79	111.12
496.008	128.12
496.225	103.12
496.442	113.12
496.66	107.12
496.877	101.12
497.094	109.12
497.312	118.12
497.529	105.12
497.746	114.12
497.963	107.12
498.181	97.12
498.398	88.12
498.615	114.12
498.832	119.12
499.049	120.12
499.267	114.12
499.484	114.12
499.701	129.12
499.918	122.12
500.135	133.12
500.352	131.12
500.569	138.12
500.786	129.12
501.003	116.12
501.22	132.12
501.437	110.12
501.654	106.12
501.871	116.12
502.088	116.12
502.305	117.12
502.522	113.12
502.739	108.12
502.956	101.12
503.172	110.12
503.389	96.12
503.606	111.12
503.823	99.12
504.04	99.12
504.256	108.12
504.473	97.12
504.69	120.12
504.907	113.12
505.123	105.12
505.34	94.12
505.557	100.12
505.773	110.12
505.99	103.12
506.207	101.12
506.423	94.12
506.64	88.12
506.856	112.12
507.073	96.12
507.289	105.12
507.506	96.12
507.722	94.12
507.939	113.12
508.155	94.12
508.372	97.12
508.588	94.12
508.805	95.12
509.021	99.12
509.238	111.12
509.454	89.12
509.67	102.12
509.887	101.12
510.103	90.12
510.319	83.12
510.536	85.12
510.752	111.12
510.968	82.12
511.184	107.12
511.401	97.12
511.617	88.12
511.833	99.12
512.049	90.12
512.265	98.12
512.481	86.12
512.698	108.12
512.914	99.12
513.13	102.12
513.346	86.12
513.562	98.12
513.778	95.12
513.994	84.12
514.21	89.12
514.426	102.12
514.642	92.12
514.858	104.12
515.074	105.12
515.29	96.12
515.506	102.12
515.721	94.12
515.937	94.12
516.153	98.12
516.369	111.12
