Data from Location5.07152019.Energy5.Lamp.07192019.3%Agarose_HRD10591_15-38-32-388.txt Node
Date: Fri Jul 19 15:38:32 EDT 2019
User: cochatt
Spectrometer: HR+D1059
Trigger mode: 1
Integration Time (sec): 1.000000E-1
Scans to average: 1
Electric dark correction enabled: true
Nonlinearity correction enabled: false
Boxcar width: 0
XAxis mode: Wavelengths
Number of Pixels in Spectrum: 2048
>>>>>Begin Spectral Data<<<<<
223.165	-22.56
223.4	-22.56
223.635	-22.56
223.869	-20.56
224.104	-27.56
224.338	-5.56
224.573	-5.56
224.808	-7.56
225.042	-2.56
225.277	-16.56
225.511	-4.56
225.746	-4.56
225.98	19.44
226.215	18.44
226.449	14.44
226.683	30.44
226.918	11.44
227.152	23.44
227.387	43.44
227.621	47.44
227.856	44.44
228.09	42.44
228.324	37.44
228.559	72.44
228.793	66.44
229.027	56.44
229.262	85.44
229.496	70.44
229.73	69.44
229.964	85.44
230.199	78.44
230.433	75.44
230.667	71.44
230.901	81.44
231.136	82.44
231.37	88.44
231.604	83.44
231.838	98.44
232.072	87.44
232.306	86.44
232.541	80.44
232.775	71.44
233.009	85.44
233.243	92.44
233.477	79.44
233.711	95.44
233.945	95.44
234.179	87.44
234.413	79.44
234.647	90.44
234.881	76.44
235.115	88.44
235.349	83.44
235.583	71.44
235.817	75.44
236.051	66.44
236.285	79.44
236.519	91.44
236.753	88.44
236.987	75.44
237.221	73.44
237.455	78.44
237.689	81.44
237.922	77.44
238.156	69.44
238.39	85.44
238.624	78.44
238.858	70.44
239.091	79.44
239.325	67.44
239.559	76.44
239.793	74.44
240.027	79.44
240.26	71.44
240.494	76.44
240.728	70.44
240.961	77.44
241.195	71.44
241.429	80.44
241.662	66.44
241.896	93.44
242.13	77.44
242.363	69.44
242.597	94.44
242.83	80.44
243.064	78.44
243.298	77.44
243.531	68.44
243.765	91.44
243.998	80.44
244.232	80.44
244.465	82.44
244.699	80.44
244.932	87.44
245.166	83.44
245.399	81.44
245.633	94.44
245.866	81.44
246.099	77.44
246.333	73.44
246.566	99.44
246.8	84.44
247.033	83.44
247.266	74.44
247.5	74.44
247.733	80.44
247.966	68.44
248.2	78.44
248.433	79.44
248.666	88.44
248.899	77.44
249.133	90.44
249.366	86.44
249.599	73.44
249.832	79.44
250.066	93.44
250.299	80.44
250.532	77.44
250.765	78.44
250.998	70.44
251.231	91.44
251.465	84.44
251.698	84.44
251.931	93.44
252.164	70.44
252.397	80.44
252.63	88.44
252.863	67.44
253.096	71.44
253.329	89.44
253.562	83.44
253.795	84.44
254.028	86.44
254.261	89.44
254.494	80.44
254.727	83.44
254.96	87.44
255.193	85.44
255.426	70.44
255.659	83.44
255.892	91.44
256.124	91.44
256.357	77.44
256.59	90.44
256.823	76.44
257.056	93.44
257.289	86.44
257.521	91.44
257.754	91.44
257.987	78.44
258.22	83.44
258.452	79.44
258.685	84.44
258.918	87.44
259.151	83.44
259.383	76.44
259.616	80.44
259.849	79.44
260.081	79.44
260.314	79.44
260.547	84.44
260.779	93.44
261.012	73.44
261.244	71.44
261.477	86.44
261.71	75.44
261.942	91.44
262.175	88.44
262.407	98.44
262.64	92.44
262.872	85.44
263.105	78.44
263.337	98.44
263.57	81.44
263.802	77.44
264.035	84.44
264.267	94.44
264.499	79.44
264.732	95.44
264.964	88.44
265.197	86.44
265.429	91.44
265.661	71.44
265.894	75.44
266.126	80.44
266.358	92.44
266.591	98.44
266.823	91.44
267.055	79.44
267.287	90.44
267.52	86.44
267.752	79.44
267.984	84.44
268.216	91.44
268.448	90.44
268.681	80.44
268.913	96.44
269.145	93.44
269.377	97.44
269.609	83.44
269.841	92.44
270.073	79.44
270.306	84.44
270.538	87.44
270.77	77.44
271.002	90.44
271.234	85.44
271.466	93.44
271.698	82.44
271.93	88.44
272.162	99.44
272.394	75.44
272.626	94.44
272.858	99.44
273.09	87.44
273.322	81.44
273.553	84.44
273.785	84.44
274.017	71.44
274.249	83.44
274.481	87.44
274.713	76.44
274.945	84.44
275.176	87.44
275.408	90.44
275.64	94.44
275.872	82.44
276.104	106.44
276.335	81.44
276.567	78.44
276.799	94.44
277.031	79.44
277.262	82.44
277.494	90.44
277.726	88.44
277.957	96.44
278.189	83.44
278.421	85.44
278.652	83.44
278.884	89.44
279.115	89.44
279.347	87.44
279.579	84.44
279.81	84.44
280.042	83.44
280.273	83.44
280.505	87.44
280.736	90.44
280.968	85.44
281.199	109.44
281.431	96.44
281.662	87.44
281.894	88.44
282.125	84.44
282.356	76.44
282.588	90.44
282.819	85.44
283.051	81.44
283.282	88.44
283.513	89.44
283.745	87.44
283.976	86.44
284.207	90.44
284.439	77.44
284.67	88.44
284.901	98.44
285.132	95.44
285.364	81.44
285.595	101.44
285.826	91.44
286.057	91.44
286.288	81.44
286.52	80.44
286.751	97.44
286.982	87.44
287.213	94.44
287.444	79.44
287.675	82.44
287.906	86.44
288.138	86.44
288.369	89.44
288.6	85.44
288.831	90.44
289.062	89.44
289.293	69.44
289.524	85.44
289.755	86.44
289.986	98.44
290.217	88.44
290.448	100.44
290.679	77.44
290.91	75.44
291.141	83.44
291.371	93.44
291.602	71.44
291.833	88.44
292.064	86.44
292.295	85.44
292.526	90.44
292.757	87.44
292.987	80.44
293.218	79.44
293.449	90.44
293.68	86.44
293.91	90.44
294.141	88.44
294.372	97.44
294.603	100.44
294.833	101.44
295.064	102.44
295.295	88.44
295.525	87.44
295.756	94.44
295.987	89.44
296.217	91.44
296.448	79.44
296.679	89.44
296.909	94.44
297.14	94.44
297.37	93.44
297.601	111.44
297.831	86.44
298.062	87.44
298.292	90.44
298.523	91.44
298.753	95.44
298.984	81.44
299.214	79.44
299.445	80.44
299.675	95.44
299.905	88.44
300.136	81.44
300.366	83.44
300.597	87.44
300.827	100.44
301.057	74.44
301.288	89.44
301.518	94.44
301.748	86.44
301.979	92.44
302.209	81.44
302.439	84.44
302.669	94.44
302.9	94.44
303.13	99.44
303.36	90.44
303.59	82.44
303.82	98.44
304.051	84.44
304.281	85.44
304.511	88.44
304.741	85.44
304.971	91.44
305.201	87.44
305.431	98.44
305.661	90.44
305.891	87.44
306.121	101.44
306.352	86.44
306.582	101.44
306.812	66.44
307.042	86.44
307.272	89.44
307.502	89.44
307.731	92.44
307.961	92.44
308.191	82.44
308.421	96.44
308.651	100.44
308.881	97.44
309.111	83.44
309.341	87.44
309.571	84.44
309.8	92.44
310.03	90.44
310.26	82.44
310.49	92.44
310.72	98.44
310.949	100.44
311.179	75.44
311.409	86.44
311.639	79.44
311.868	93.44
312.098	79.44
312.328	75.44
312.557	98.44
312.787	87.44
313.017	79.44
313.246	103.44
313.476	85.44
313.706	83.44
313.935	96.44
314.165	102.44
314.394	95.44
314.624	80.44
314.853	84.44
315.083	88.44
315.312	79.44
315.542	74.44
315.771	88.44
316.001	79.44
316.23	76.44
316.46	76.44
316.689	75.44
316.919	74.44
317.148	93.44
317.377	90.44
317.607	79.44
317.836	86.44
318.065	87.44
318.295	97.44
318.524	84.44
318.753	68.44
318.983	96.44
319.212	79.44
319.441	83.44
319.67	74.44
319.9	84.44
320.129	81.44
320.358	92.44
320.587	90.44
320.816	96.44
321.046	94.44
321.275	96.44
321.504	88.44
321.733	87.44
321.962	93.44
322.191	90.44
322.42	93.44
322.649	86.44
322.878	94.44
323.108	93.44
323.337	93.44
323.566	92.44
323.795	95.44
324.024	85.44
324.253	92.44
324.482	101.44
324.71	96.44
324.939	100.44
325.168	90.44
325.397	88.44
325.626	92.44
325.855	99.44
326.084	92.44
326.313	103.44
326.542	86.44
326.77	84.44
326.999	97.44
327.228	82.44
327.457	96.44
327.686	89.44
327.914	85.44
328.143	91.44
328.372	94.44
328.6	90.44
328.829	94.44
329.058	93.44
329.287	84.44
329.515	86.44
329.744	76.44
329.972	91.44
330.201	88.44
330.43	84.44
330.658	85.44
330.887	89.44
331.115	80.44
331.344	80.44
331.572	101.44
331.801	107.44
332.03	99.44
332.258	90.44
332.486	84.44
332.715	105.44
332.943	83.44
333.172	88.44
333.4	93.44
333.629	82.44
333.857	85.44
334.085	89.44
334.314	79.44
334.542	76.44
334.771	98.44
334.999	91.44
335.227	94.44
335.455	88.44
335.684	86.44
335.912	85.44
336.14	86.44
336.369	83.44
336.597	95.44
336.825	98.44
337.053	92.44
337.281	105.44
337.51	97.44
337.738	99.44
337.966	90.44
338.194	85.44
338.422	77.44
338.65	89.44
338.878	94.44
339.106	79.44
339.334	94.44
339.562	80.44
339.79	95.44
340.018	88.44
340.246	84.44
340.474	95.44
340.702	93.44
340.93	89.44
341.158	76.44
341.386	88.44
341.614	94.44
341.842	91.44
342.07	82.44
342.298	86.44
342.526	96.44
342.754	100.44
342.981	94.44
343.209	91.44
343.437	92.44
343.665	91.44
343.893	90.44
344.12	86.44
344.348	87.44
344.576	86.44
344.804	92.44
345.031	87.44
345.259	86.44
345.487	96.44
345.714	98.44
345.942	86.44
346.17	91.44
346.397	92.44
346.625	91.44
346.853	101.44
347.08	66.44
347.308	79.44
347.535	87.44
347.763	96.44
347.99	95.44
348.218	92.44
348.445	95.44
348.673	77.44
348.9	83.44
349.128	88.44
349.355	96.44
349.583	84.44
349.81	94.44
350.037	84.44
350.265	82.44
350.492	86.44
350.72	88.44
350.947	101.44
351.174	92.44
351.402	93.44
351.629	82.44
351.856	91.44
352.083	90.44
352.311	95.44
352.538	88.44
352.765	78.44
352.992	84.44
353.22	92.44
353.447	101.44
353.674	91.44
353.901	74.44
354.128	78.44
354.355	84.44
354.583	79.44
354.81	75.44
355.037	74.44
355.264	84.44
355.491	71.44
355.718	88.44
355.945	93.44
356.172	92.44
356.399	87.44
356.626	88.44
356.853	86.44
357.08	78.44
357.307	87.44
357.534	100.44
357.761	84.44
357.988	82.44
358.215	92.44
358.441	84.44
358.668	100.44
358.895	82.44
359.122	87.44
359.349	89.44
359.576	89.44
359.802	80.44
360.029	81.44
360.256	89.44
360.483	82.44
360.709	87.44
360.936	91.44
361.163	90.44
361.39	91.44
361.616	101.44
361.843	81.44
362.07	96.44
362.296	81.44
362.523	92.44
362.749	88.44
362.976	81.44
363.203	88.44
363.429	89.44
363.656	91.44
363.882	93.44
364.109	93.44
364.335	95.44
364.562	80.44
364.788	94.44
365.015	105.44
365.241	94.44
365.468	101.44
365.694	93.44
365.92	79.44
366.147	87.44
366.373	88.44
366.599	74.44
366.826	81.44
367.052	85.44
367.278	69.44
367.505	85.44
367.731	85.44
367.957	89.44
368.184	91.44
368.41	84.44
368.636	84.44
368.862	90.44
369.089	90.44
369.315	92.44
369.541	87.44
369.767	76.44
369.993	86.44
370.219	80.44
370.445	81.44
370.672	86.44
370.898	85.44
371.124	70.44
371.35	87.44
371.576	84.44
371.802	92.44
372.028	91.44
372.254	75.44
372.48	95.44
372.706	75.44
372.932	96.44
373.158	96.44
373.384	89.44
373.61	75.44
373.835	113.44
374.061	93.44
374.287	86.44
374.513	87.44
374.739	87.44
374.965	97.44
375.191	93.44
375.416	90.44
375.642	86.44
375.868	88.44
376.094	88.44
376.319	87.44
376.545	92.44
376.771	90.44
376.997	93.44
377.222	99.44
377.448	95.44
377.674	100.44
377.899	77.44
378.125	89.44
378.35	90.44
378.576	86.44
378.802	72.44
379.027	90.44
379.253	86.44
379.478	89.44
379.704	92.44
379.929	87.44
380.155	82.44
380.38	98.44
380.606	96.44
380.831	75.44
381.057	76.44
381.282	94.44
381.507	91.44
381.733	80.44
381.958	80.44
382.184	98.44
382.409	87.44
382.634	96.44
382.86	92.44
383.085	90.44
383.31	88.44
383.535	90.44
383.761	94.44
383.986	89.44
384.211	95.44
384.436	104.44
384.662	90.44
384.887	87.44
385.112	96.44
385.337	75.44
385.562	82.44
385.787	84.44
386.013	79.44
386.238	84.44
386.463	92.44
386.688	82.44
386.913	71.44
387.138	86.44
387.363	85.44
387.588	92.44
387.813	83.44
388.038	95.44
388.263	76.44
388.488	91.44
388.713	88.44
388.938	98.44
389.163	84.44
389.387	90.44
389.612	99.44
389.837	87.44
390.062	101.44
390.287	85.44
390.512	97.44
390.736	77.44
390.961	78.44
391.186	106.44
391.411	101.44
391.636	86.44
391.86	82.44
392.085	84.44
392.31	91.44
392.534	97.44
392.759	106.44
392.984	86.44
393.208	84.44
393.433	99.44
393.658	90.44
393.882	87.44
394.107	79.44
394.331	88.44
394.556	82.44
394.78	103.44
395.005	89.44
395.229	85.44
395.454	104.44
395.678	104.44
395.903	92.44
396.127	94.44
396.352	85.44
396.576	81.44
396.801	88.44
397.025	99.44
397.249	90.44
397.474	88.44
397.698	92.44
397.922	79.44
398.147	72.44
398.371	92.44
398.595	84.44
398.82	87.44
399.044	94.44
399.268	72.44
399.492	83.44
399.717	91.44
399.941	85.44
400.165	94.44
400.389	88.44
400.613	71.44
400.837	106.44
401.062	96.44
401.286	79.44
401.51	90.44
401.734	102.44
401.958	94.44
402.182	78.44
402.406	87.44
402.63	98.44
402.854	94.44
403.078	91.44
403.302	97.44
403.526	91.44
403.75	80.44
403.974	73.44
404.198	82.44
404.422	98.44
404.645	91.44
404.869	82.44
405.093	74.44
405.317	88.44
405.541	89.44
405.765	83.44
405.988	93.44
406.212	82.44
406.436	102.44
406.66	86.44
406.883	106.44
407.107	84.44
407.331	83.44
407.555	92.44
407.778	95.44
408.002	94.44
408.226	77.44
408.449	89.44
408.673	81.44
408.896	95.44
409.12	89.44
409.344	92.44
409.567	105.44
409.791	90.44
410.014	81.44
410.238	99.44
410.461	111.44
410.685	91.44
410.908	99.44
411.132	95.44
411.355	91.44
411.578	98.44
411.802	98.44
412.025	89.44
412.249	86.44
412.472	86.44
412.695	78.44
412.919	105.44
413.142	107.44
413.365	95.44
413.589	85.44
413.812	93.44
414.035	90.44
414.258	97.44
414.482	99.44
414.705	111.44
414.928	84.44
415.151	110.44
415.374	94.44
415.597	90.44
415.821	98.44
416.044	90.44
416.267	91.44
416.49	91.44
416.713	89.44
416.936	98.44
417.159	87.44
417.382	107.44
417.605	95.44
417.828	104.44
418.051	94.44
418.274	103.44
418.497	95.44
418.72	83.44
418.943	107.44
419.166	96.44
419.389	110.44
419.611	96.44
419.834	85.44
420.057	82.44
420.28	95.44
420.503	98.44
420.726	94.44
420.948	100.44
421.171	86.44
421.394	98.44
421.617	110.44
421.839	100.44
422.062	92.44
422.285	101.44
422.507	103.44
422.73	105.44
422.953	90.44
423.175	94.44
423.398	104.44
423.621	112.44
423.843	87.44
424.066	98.44
424.288	112.44
424.511	111.44
424.733	96.44
424.956	112.44
425.178	90.44
425.401	95.44
425.623	102.44
425.846	92.44
426.068	103.44
426.291	88.44
426.513	105.44
426.735	98.44
426.958	89.44
427.18	87.44
427.402	89.44
427.625	78.44
427.847	83.44
428.069	101.44
428.292	106.44
428.514	97.44
428.736	93.44
428.958	94.44
429.181	102.44
429.403	91.44
429.625	99.44
429.847	103.44
430.069	103.44
430.292	80.44
430.514	82.44
430.736	106.44
430.958	100.44
431.18	102.44
431.402	98.44
431.624	91.44
431.846	94.44
432.068	79.44
432.29	83.44
432.512	85.44
432.734	99.44
432.956	90.44
433.178	100.44
433.4	91.44
433.622	91.44
433.844	88.44
434.066	98.44
434.287	106.44
434.509	95.44
434.731	89.44
434.953	95.44
435.175	84.44
435.397	109.44
435.618	91.44
435.84	82.44
436.062	90.44
436.284	98.44
436.505	99.44
436.727	90.44
436.949	92.44
437.17	106.44
437.392	105.44
437.614	98.44
437.835	78.44
438.057	90.44
438.278	99.44
438.5	93.44
438.721	108.44
438.943	110.44
439.165	93.44
439.386	96.44
439.608	79.44
439.829	94.44
440.05	101.44
440.272	103.44
440.493	97.44
440.715	92.44
440.936	95.44
441.158	106.44
441.379	95.44
441.6	92.44
441.822	108.44
442.043	114.44
442.264	104.44
442.486	106.44
442.707	98.44
442.928	93.44
443.149	99.44
443.371	111.44
443.592	88.44
443.813	90.44
444.034	103.44
444.255	100.44
444.476	98.44
444.698	86.44
444.919	106.44
445.14	224.44
445.361	152.44
445.582	107.44
445.803	103.44
446.024	106.44
446.245	91.44
446.466	94.44
446.687	92.44
446.908	125.44
447.129	114.44
447.35	95.44
447.571	104.44
447.792	95.44
448.013	93.44
448.234	104.44
448.455	101.44
448.675	104.44
448.896	94.44
449.117	87.44
449.338	92.44
449.559	102.44
449.779	81.44
450	102.44
450.221	107.44
450.442	99.44
450.662	106.44
450.883	100.44
451.104	91.44
451.324	101.44
451.545	95.44
451.766	96.44
451.986	107.44
452.207	86.44
452.428	106.44
452.648	103.44
452.869	97.44
453.089	102.44
453.31	115.44
453.53	95.44
453.751	92.44
453.971	81.44
454.192	81.44
454.412	103.44
454.633	91.44
454.853	87.44
455.073	93.44
455.294	94.44
455.514	110.44
455.734	101.44
455.955	93.44
456.175	93.44
456.395	95.44
456.616	81.44
456.836	89.44
457.056	77.44
457.276	86.44
457.497	102.44
457.717	102.44
457.937	94.44
458.157	85.44
458.377	95.44
458.598	96.44
458.818	78.44
459.038	79.44
459.258	83.44
459.478	96.44
459.698	76.44
459.918	93.44
460.138	85.44
460.358	91.44
460.578	106.44
460.798	92.44
461.018	88.44
461.238	97.44
461.458	92.44
461.678	111.44
461.898	79.44
462.118	96.44
462.338	77.44
462.558	91.44
462.777	88.44
462.997	83.44
463.217	90.44
463.437	88.44
463.657	98.44
463.876	92.44
464.096	91.44
464.316	106.44
464.536	90.44
464.755	87.44
464.975	91.44
465.195	102.44
465.414	96.44
465.634	92.44
465.854	91.44
466.073	80.44
466.293	110.44
466.512	90.44
466.732	93.44
466.951	92.44
467.171	93.44
467.391	84.44
467.61	99.44
467.829	102.44
468.049	106.44
468.268	99.44
468.488	98.44
468.707	96.44
468.927	85.44
469.146	89.44
469.365	93.44
469.585	96.44
469.804	110.44
470.023	100.44
470.243	102.44
470.462	88.44
470.681	82.44
470.901	101.44
471.12	107.44
471.339	90.44
471.558	88.44
471.777	94.44
471.997	95.44
472.216	88.44
472.435	97.44
472.654	88.44
472.873	98.44
473.092	79.44
473.311	84.44
473.53	84.44
473.749	109.44
473.968	92.44
474.187	91.44
474.406	95.44
474.625	90.44
474.844	104.44
475.063	98.44
475.282	105.44
475.501	90.44
475.72	101.44
475.939	91.44
476.158	98.44
476.377	104.44
476.596	92.44
476.814	96.44
477.033	88.44
477.252	102.44
477.471	94.44
477.69	104.44
477.908	104.44
478.127	120.44
478.346	86.44
478.564	92.44
478.783	95.44
479.002	104.44
479.22	109.44
479.439	99.44
479.658	86.44
479.876	81.44
480.095	76.44
480.313	90.44
480.532	99.44
480.751	100.44
480.969	93.44
481.188	92.44
481.406	93.44
481.624	97.44
481.843	97.44
482.061	80.44
482.28	89.44
482.498	98.44
482.717	96.44
482.935	90.44
483.153	109.44
483.372	88.44
483.59	93.44
483.808	100.44
484.027	99.44
484.245	103.44
484.463	111.44
484.681	109.44
484.9	108.44
485.118	89.44
485.336	85.44
485.554	85.44
485.772	83.44
485.99	93.44
486.209	111.44
486.427	87.44
486.645	94.44
486.863	89.44
487.081	103.44
487.299	102.44
487.517	102.44
487.735	97.44
487.953	107.44
488.171	94.44
488.389	105.44
488.607	102.44
488.825	95.44
489.043	94.44
489.261	109.44
489.479	103.44
489.696	101.44
489.914	105.44
490.132	100.44
490.35	100.44
490.568	107.44
490.786	101.44
491.003	115.44
491.221	113.44
491.439	99.44
491.657	119.44
491.874	119.44
492.092	127.44
492.31	132.44
492.527	135.44
492.745	121.44
492.963	122.44
493.18	115.44
493.398	110.44
493.615	117.44
493.833	112.44
494.05	124.44
494.268	118.44
494.485	103.44
494.703	110.44
494.92	122.44
495.138	95.44
495.355	120.44
495.573	99.44
495.79	106.44
496.008	108.44
496.225	102.44
496.442	116.44
496.66	117.44
496.877	97.44
497.094	113.44
497.312	118.44
497.529	96.44
497.746	111.44
497.963	99.44
498.181	104.44
498.398	89.44
498.615	86.44
498.832	103.44
499.049	94.44
499.267	94.44
499.484	97.44
499.701	99.44
499.918	105.44
500.135	99.44
500.352	90.44
500.569	104.44
500.786	93.44
501.003	97.44
501.22	106.44
501.437	110.44
501.654	103.44
501.871	101.44
502.088	99.44
502.305	109.44
502.522	84.44
502.739	98.44
502.956	85.44
503.172	87.44
503.389	97.44
503.606	103.44
503.823	86.44
504.04	96.44
504.256	87.44
504.473	93.44
504.69	98.44
504.907	108.44
505.123	87.44
505.34	98.44
505.557	99.44
505.773	98.44
505.99	96.44
506.207	97.44
506.423	99.44
506.64	99.44
506.856	109.44
507.073	95.44
507.289	106.44
507.506	105.44
507.722	91.44
507.939	98.44
508.155	99.44
508.372	88.44
508.588	97.44
508.805	97.44
509.021	93.44
509.238	88.44
509.454	86.44
509.67	73.44
509.887	87.44
510.103	84.44
510.319	80.44
510.536	96.44
510.752	91.44
510.968	95.44
511.184	90.44
511.401	95.44
511.617	97.44
511.833	88.44
512.049	101.44
512.265	98.44
512.481	96.44
512.698	91.44
512.914	102.44
513.13	87.44
513.346	69.44
513.562	86.44
513.778	92.44
513.994	90.44
514.21	87.44
514.426	85.44
514.642	92.44
514.858	92.44
515.074	90.44
515.29	96.44
515.506	93.44
515.721	71.44
515.937	105.44
516.153	80.44
516.369	80.44
516.585	85.44
