Data from Location5.07152019.Energy5.Lamp.07192019.3%Agarose_HRD10591_16-04-31-629.txt Node
Date: Fri Jul 19 16:04:31 EDT 2019
User: cochatt
Spectrometer: HR+D1059
Trigger mode: 1
Integration Time (sec): 1.000000E-1
Scans to average: 1
Electric dark correction enabled: true
Nonlinearity correction enabled: false
Boxcar width: 0
XAxis mode: Wavelengths
Number of Pixels in Spectrum: 2048
>>>>>Begin Spectral Data<<<<<
223.165	-15.31
223.4	-15.31
223.635	-15.31
223.869	-20.31
224.104	-22.31
224.338	-3.31
224.573	-29.31
224.808	-14.31
225.042	-5.31
225.277	-2.31
225.511	-2.31
225.746	5.69
225.98	15.69
226.215	18.69
226.449	8.69
226.683	12.69
226.918	24.69
227.152	28.69
227.387	41.69
227.621	35.69
227.856	32.69
228.09	45.69
228.324	54.69
228.559	55.69
228.793	67.69
229.027	60.69
229.262	70.69
229.496	71.69
229.73	66.69
229.964	80.69
230.199	66.69
230.433	66.69
230.667	75.69
230.901	86.69
231.136	79.69
231.37	89.69
231.604	90.69
231.838	71.69
232.072	74.69
232.306	79.69
232.541	83.69
232.775	73.69
233.009	92.69
233.243	82.69
233.477	78.69
233.711	97.69
233.945	68.69
234.179	82.69
234.413	72.69
234.647	80.69
234.881	85.69
235.115	73.69
235.349	84.69
235.583	78.69
235.817	80.69
236.051	81.69
236.285	86.69
236.519	77.69
236.753	88.69
236.987	93.69
237.221	81.69
237.455	80.69
237.689	68.69
237.922	85.69
238.156	89.69
238.39	93.69
238.624	73.69
238.858	81.69
239.091	73.69
239.325	70.69
239.559	82.69
239.793	68.69
240.027	85.69
240.26	87.69
240.494	91.69
240.728	84.69
240.961	87.69
241.195	86.69
241.429	92.69
241.662	76.69
241.896	93.69
242.13	66.69
242.363	73.69
242.597	82.69
242.83	92.69
243.064	82.69
243.298	76.69
243.531	75.69
243.765	85.69
243.998	83.69
244.232	82.69
244.465	79.69
244.699	69.69
244.932	85.69
245.166	77.69
245.399	77.69
245.633	72.69
245.866	84.69
246.099	77.69
246.333	86.69
246.566	74.69
246.8	77.69
247.033	85.69
247.266	80.69
247.5	92.69
247.733	70.69
247.966	67.69
248.2	81.69
248.433	96.69
248.666	73.69
248.899	84.69
249.133	76.69
249.366	82.69
249.599	81.69
249.832	90.69
250.066	80.69
250.299	85.69
250.532	77.69
250.765	79.69
250.998	84.69
251.231	73.69
251.465	88.69
251.698	88.69
251.931	68.69
252.164	87.69
252.397	85.69
252.63	81.69
252.863	75.69
253.096	101.69
253.329	89.69
253.562	98.69
253.795	94.69
254.028	92.69
254.261	83.69
254.494	89.69
254.727	95.69
254.96	76.69
255.193	103.69
255.426	89.69
255.659	86.69
255.892	76.69
256.124	74.69
256.357	89.69
256.59	84.69
256.823	85.69
257.056	81.69
257.289	88.69
257.521	81.69
257.754	88.69
257.987	86.69
258.22	88.69
258.452	91.69
258.685	85.69
258.918	79.69
259.151	94.69
259.383	84.69
259.616	74.69
259.849	82.69
260.081	84.69
260.314	93.69
260.547	83.69
260.779	78.69
261.012	89.69
261.244	92.69
261.477	104.69
261.71	86.69
261.942	85.69
262.175	79.69
262.407	80.69
262.64	95.69
262.872	83.69
263.105	78.69
263.337	73.69
263.57	89.69
263.802	85.69
264.035	90.69
264.267	94.69
264.499	68.69
264.732	70.69
264.964	80.69
265.197	97.69
265.429	86.69
265.661	100.69
265.894	97.69
266.126	74.69
266.358	89.69
266.591	84.69
266.823	78.69
267.055	101.69
267.287	91.69
267.52	74.69
267.752	87.69
267.984	90.69
268.216	94.69
268.448	85.69
268.681	74.69
268.913	88.69
269.145	88.69
269.377	97.69
269.609	95.69
269.841	88.69
270.073	93.69
270.306	92.69
270.538	79.69
270.77	74.69
271.002	84.69
271.234	87.69
271.466	85.69
271.698	82.69
271.93	90.69
272.162	94.69
272.394	90.69
272.626	100.69
272.858	94.69
273.09	85.69
273.322	71.69
273.553	100.69
273.785	76.69
274.017	91.69
274.249	97.69
274.481	94.69
274.713	99.69
274.945	91.69
275.176	96.69
275.408	88.69
275.64	90.69
275.872	94.69
276.104	88.69
276.335	85.69
276.567	83.69
276.799	90.69
277.031	78.69
277.262	70.69
277.494	87.69
277.726	83.69
277.957	86.69
278.189	92.69
278.421	92.69
278.652	101.69
278.884	101.69
279.115	92.69
279.347	99.69
279.579	78.69
279.81	81.69
280.042	76.69
280.273	89.69
280.505	90.69
280.736	76.69
280.968	85.69
281.199	86.69
281.431	98.69
281.662	94.69
281.894	87.69
282.125	78.69
282.356	84.69
282.588	86.69
282.819	89.69
283.051	93.69
283.282	91.69
283.513	101.69
283.745	88.69
283.976	80.69
284.207	80.69
284.439	100.69
284.67	84.69
284.901	79.69
285.132	95.69
285.364	105.69
285.595	94.69
285.826	96.69
286.057	100.69
286.288	94.69
286.52	89.69
286.751	94.69
286.982	92.69
287.213	86.69
287.444	98.69
287.675	102.69
287.906	90.69
288.138	80.69
288.369	102.69
288.6	96.69
288.831	89.69
289.062	92.69
289.293	78.69
289.524	98.69
289.755	75.69
289.986	89.69
290.217	89.69
290.448	88.69
290.679	73.69
290.91	102.69
291.141	83.69
291.371	93.69
291.602	84.69
291.833	82.69
292.064	90.69
292.295	95.69
292.526	94.69
292.757	80.69
292.987	90.69
293.218	86.69
293.449	89.69
293.68	85.69
293.91	81.69
294.141	84.69
294.372	87.69
294.603	102.69
294.833	110.69
295.064	91.69
295.295	86.69
295.525	89.69
295.756	87.69
295.987	77.69
296.217	97.69
296.448	88.69
296.679	87.69
296.909	88.69
297.14	84.69
297.37	103.69
297.601	92.69
297.831	87.69
298.062	83.69
298.292	94.69
298.523	92.69
298.753	96.69
298.984	82.69
299.214	103.69
299.445	104.69
299.675	104.69
299.905	101.69
300.136	103.69
300.366	88.69
300.597	88.69
300.827	96.69
301.057	97.69
301.288	103.69
301.518	95.69
301.748	103.69
301.979	90.69
302.209	106.69
302.439	106.69
302.669	106.69
302.9	88.69
303.13	90.69
303.36	100.69
303.59	93.69
303.82	93.69
304.051	94.69
304.281	101.69
304.511	107.69
304.741	102.69
304.971	92.69
305.201	101.69
305.431	84.69
305.661	98.69
305.891	92.69
306.121	97.69
306.352	106.69
306.582	94.69
306.812	99.69
307.042	101.69
307.272	99.69
307.502	101.69
307.731	91.69
307.961	96.69
308.191	107.69
308.421	108.69
308.651	102.69
308.881	106.69
309.111	75.69
309.341	92.69
309.571	99.69
309.8	89.69
310.03	83.69
310.26	94.69
310.49	90.69
310.72	99.69
310.949	102.69
311.179	99.69
311.409	113.69
311.639	104.69
311.868	83.69
312.098	93.69
312.328	84.69
312.557	99.69
312.787	95.69
313.017	99.69
313.246	89.69
313.476	94.69
313.706	91.69
313.935	93.69
314.165	93.69
314.394	90.69
314.624	91.69
314.853	81.69
315.083	76.69
315.312	108.69
315.542	84.69
315.771	93.69
316.001	69.69
316.23	94.69
316.46	91.69
316.689	93.69
316.919	91.69
317.148	90.69
317.377	105.69
317.607	89.69
317.836	90.69
318.065	70.69
318.295	93.69
318.524	86.69
318.753	90.69
318.983	84.69
319.212	95.69
319.441	91.69
319.67	101.69
319.9	98.69
320.129	92.69
320.358	102.69
320.587	94.69
320.816	85.69
321.046	109.69
321.275	96.69
321.504	98.69
321.733	94.69
321.962	88.69
322.191	88.69
322.42	92.69
322.649	89.69
322.878	77.69
323.108	88.69
323.337	93.69
323.566	77.69
323.795	80.69
324.024	102.69
324.253	110.69
324.482	94.69
324.71	100.69
324.939	98.69
325.168	91.69
325.397	98.69
325.626	83.69
325.855	95.69
326.084	85.69
326.313	99.69
326.542	101.69
326.77	90.69
326.999	102.69
327.228	104.69
327.457	91.69
327.686	97.69
327.914	91.69
328.143	80.69
328.372	83.69
328.6	92.69
328.829	81.69
329.058	104.69
329.287	97.69
329.515	101.69
329.744	100.69
329.972	97.69
330.201	97.69
330.43	89.69
330.658	78.69
330.887	97.69
331.115	89.69
331.344	115.69
331.572	96.69
331.801	92.69
332.03	104.69
332.258	85.69
332.486	81.69
332.715	102.69
332.943	97.69
333.172	105.69
333.4	84.69
333.629	82.69
333.857	101.69
334.085	94.69
334.314	104.69
334.542	95.69
334.771	109.69
334.999	107.69
335.227	97.69
335.455	102.69
335.684	93.69
335.912	84.69
336.14	107.69
336.369	102.69
336.597	88.69
336.825	101.69
337.053	116.69
337.281	100.69
337.51	107.69
337.738	90.69
337.966	92.69
338.194	96.69
338.422	98.69
338.65	91.69
338.878	89.69
339.106	100.69
339.334	83.69
339.562	102.69
339.79	101.69
340.018	100.69
340.246	93.69
340.474	84.69
340.702	99.69
340.93	95.69
341.158	85.69
341.386	105.69
341.614	91.69
341.842	102.69
342.07	96.69
342.298	93.69
342.526	107.69
342.754	89.69
342.981	85.69
343.209	96.69
343.437	81.69
343.665	80.69
343.893	93.69
344.12	105.69
344.348	98.69
344.576	102.69
344.804	89.69
345.031	89.69
345.259	84.69
345.487	90.69
345.714	81.69
345.942	91.69
346.17	99.69
346.397	100.69
346.625	101.69
346.853	99.69
347.08	88.69
347.308	81.69
347.535	75.69
347.763	106.69
347.99	89.69
348.218	90.69
348.445	74.69
348.673	84.69
348.9	97.69
349.128	97.69
349.355	92.69
349.583	83.69
349.81	91.69
350.037	96.69
350.265	86.69
350.492	86.69
350.72	93.69
350.947	86.69
351.174	79.69
351.402	100.69
351.629	96.69
351.856	94.69
352.083	99.69
352.311	88.69
352.538	92.69
352.765	69.69
352.992	82.69
353.22	109.69
353.447	95.69
353.674	97.69
353.901	98.69
354.128	96.69
354.355	88.69
354.583	84.69
354.81	83.69
355.037	101.69
355.264	100.69
355.491	105.69
355.718	95.69
355.945	98.69
356.172	92.69
356.399	86.69
356.626	85.69
356.853	88.69
357.08	88.69
357.307	89.69
357.534	82.69
357.761	85.69
357.988	98.69
358.215	96.69
358.441	84.69
358.668	90.69
358.895	98.69
359.122	86.69
359.349	89.69
359.576	102.69
359.802	95.69
360.029	95.69
360.256	90.69
360.483	90.69
360.709	92.69
360.936	96.69
361.163	91.69
361.39	101.69
361.616	83.69
361.843	99.69
362.07	84.69
362.296	86.69
362.523	90.69
362.749	84.69
362.976	87.69
363.203	98.69
363.429	84.69
363.656	98.69
363.882	89.69
364.109	93.69
364.335	94.69
364.562	91.69
364.788	103.69
365.015	100.69
365.241	104.69
365.468	86.69
365.694	97.69
365.92	86.69
366.147	80.69
366.373	89.69
366.599	103.69
366.826	104.69
367.052	98.69
367.278	108.69
367.505	103.69
367.731	82.69
367.957	87.69
368.184	92.69
368.41	77.69
368.636	84.69
368.862	104.69
369.089	98.69
369.315	90.69
369.541	107.69
369.767	86.69
369.993	90.69
370.219	72.69
370.445	106.69
370.672	84.69
370.898	94.69
371.124	92.69
371.35	104.69
371.576	89.69
371.802	94.69
372.028	88.69
372.254	101.69
372.48	99.69
372.706	102.69
372.932	92.69
373.158	88.69
373.384	104.69
373.61	103.69
373.835	100.69
374.061	87.69
374.287	99.69
374.513	106.69
374.739	99.69
374.965	92.69
375.191	107.69
375.416	101.69
375.642	89.69
375.868	82.69
376.094	88.69
376.319	95.69
376.545	100.69
376.771	112.69
376.997	92.69
377.222	101.69
377.448	86.69
377.674	91.69
377.899	90.69
378.125	98.69
378.35	108.69
378.576	110.69
378.802	92.69
379.027	98.69
379.253	94.69
379.478	94.69
379.704	88.69
379.929	91.69
380.155	81.69
380.38	77.69
380.606	92.69
380.831	95.69
381.057	97.69
381.282	97.69
381.507	84.69
381.733	71.69
381.958	98.69
382.184	93.69
382.409	102.69
382.634	91.69
382.86	101.69
383.085	88.69
383.31	93.69
383.535	109.69
383.761	91.69
383.986	89.69
384.211	95.69
384.436	89.69
384.662	103.69
384.887	91.69
385.112	96.69
385.337	105.69
385.562	112.69
385.787	112.69
386.013	96.69
386.238	77.69
386.463	102.69
386.688	103.69
386.913	99.69
387.138	113.69
387.363	78.69
387.588	107.69
387.813	90.69
388.038	86.69
388.263	100.69
388.488	90.69
388.713	82.69
388.938	81.69
389.163	108.69
389.387	110.69
389.612	117.69
389.837	101.69
390.062	97.69
390.287	94.69
390.512	92.69
390.736	104.69
390.961	96.69
391.186	93.69
391.411	92.69
391.636	100.69
391.86	102.69
392.085	97.69
392.31	92.69
392.534	106.69
392.759	103.69
392.984	98.69
393.208	103.69
393.433	102.69
393.658	107.69
393.882	102.69
394.107	87.69
394.331	96.69
394.556	114.69
394.78	78.69
395.005	97.69
395.229	96.69
395.454	92.69
395.678	87.69
395.903	87.69
396.127	105.69
396.352	102.69
396.576	104.69
396.801	99.69
397.025	92.69
397.249	83.69
397.474	105.69
397.698	102.69
397.922	84.69
398.147	97.69
398.371	92.69
398.595	99.69
398.82	117.69
399.044	115.69
399.268	96.69
399.492	114.69
399.717	112.69
399.941	114.69
400.165	94.69
400.389	100.69
400.613	95.69
400.837	106.69
401.062	101.69
401.286	108.69
401.51	101.69
401.734	106.69
401.958	87.69
402.182	98.69
402.406	117.69
402.63	99.69
402.854	105.69
403.078	105.69
403.302	125.69
403.526	104.69
403.75	88.69
403.974	112.69
404.198	100.69
404.422	100.69
404.645	91.69
404.869	107.69
405.093	99.69
405.317	104.69
405.541	90.69
405.765	113.69
405.988	99.69
406.212	100.69
406.436	101.69
406.66	93.69
406.883	109.69
407.107	116.69
407.331	90.69
407.555	107.69
407.778	107.69
408.002	102.69
408.226	101.69
408.449	99.69
408.673	114.69
408.896	97.69
409.12	96.69
409.344	107.69
409.567	115.69
409.791	106.69
410.014	115.69
410.238	104.69
410.461	106.69
410.685	82.69
410.908	87.69
411.132	96.69
411.355	113.69
411.578	106.69
411.802	110.69
412.025	118.69
412.249	100.69
412.472	101.69
412.695	101.69
412.919	99.69
413.142	93.69
413.365	103.69
413.589	97.69
413.812	94.69
414.035	108.69
414.258	112.69
414.482	93.69
414.705	106.69
414.928	105.69
415.151	94.69
415.374	102.69
415.597	98.69
415.821	88.69
416.044	110.69
416.267	108.69
416.49	110.69
416.713	104.69
416.936	113.69
417.159	105.69
417.382	104.69
417.605	105.69
417.828	112.69
418.051	109.69
418.274	115.69
418.497	102.69
418.72	106.69
418.943	107.69
419.166	102.69
419.389	109.69
419.611	91.69
419.834	91.69
420.057	101.69
420.28	115.69
420.503	102.69
420.726	84.69
420.948	91.69
421.171	98.69
421.394	104.69
421.617	98.69
421.839	108.69
422.062	101.69
422.285	94.69
422.507	98.69
422.73	96.69
422.953	103.69
423.175	105.69
423.398	97.69
423.621	97.69
423.843	94.69
424.066	102.69
424.288	88.69
424.511	100.69
424.733	110.69
424.956	118.69
425.178	97.69
425.401	94.69
425.623	88.69
425.846	116.69
426.068	95.69
426.291	93.69
426.513	86.69
426.735	109.69
426.958	108.69
427.18	100.69
427.402	116.69
427.625	83.69
427.847	88.69
428.069	106.69
428.292	104.69
428.514	101.69
428.736	102.69
428.958	96.69
429.181	91.69
429.403	89.69
429.625	85.69
429.847	106.69
430.069	100.69
430.292	96.69
430.514	93.69
430.736	97.69
430.958	89.69
431.18	105.69
431.402	95.69
431.624	93.69
431.846	86.69
432.068	105.69
432.29	100.69
432.512	94.69
432.734	92.69
432.956	98.69
433.178	99.69
433.4	106.69
433.622	93.69
433.844	103.69
434.066	96.69
434.287	106.69
434.509	98.69
434.731	100.69
434.953	81.69
435.175	84.69
435.397	112.69
435.618	97.69
435.84	102.69
436.062	96.69
436.284	112.69
436.505	98.69
436.727	93.69
436.949	76.69
437.17	86.69
437.392	109.69
437.614	84.69
437.835	97.69
438.057	95.69
438.278	88.69
438.5	104.69
438.721	96.69
438.943	103.69
439.165	97.69
439.386	91.69
439.608	100.69
439.829	96.69
440.05	95.69
440.272	97.69
440.493	105.69
440.715	91.69
440.936	104.69
441.158	90.69
441.379	88.69
441.6	103.69
441.822	110.69
442.043	108.69
442.264	103.69
442.486	117.69
442.707	102.69
442.928	94.69
443.149	78.69
443.371	99.69
443.592	107.69
443.813	110.69
444.034	101.69
444.255	107.69
444.476	100.69
444.698	96.69
444.919	105.69
445.14	227.69
445.361	145.69
445.582	114.69
445.803	102.69
446.024	105.69
446.245	97.69
446.466	90.69
446.687	107.69
446.908	98.69
447.129	105.69
447.35	108.69
447.571	102.69
447.792	93.69
448.013	102.69
448.234	90.69
448.455	100.69
448.675	99.69
448.896	98.69
449.117	104.69
449.338	97.69
449.559	98.69
449.779	81.69
450	97.69
450.221	98.69
450.442	90.69
450.662	103.69
450.883	101.69
451.104	103.69
451.324	88.69
451.545	105.69
451.766	102.69
451.986	91.69
452.207	98.69
452.428	107.69
452.648	91.69
452.869	106.69
453.089	98.69
453.31	101.69
453.53	82.69
453.751	87.69
453.971	89.69
454.192	92.69
454.412	91.69
454.633	95.69
454.853	104.69
455.073	97.69
455.294	94.69
455.514	93.69
455.734	85.69
455.955	98.69
456.175	99.69
456.395	93.69
456.616	88.69
456.836	89.69
457.056	92.69
457.276	90.69
457.497	103.69
457.717	88.69
457.937	90.69
458.157	83.69
458.377	91.69
458.598	95.69
458.818	98.69
459.038	82.69
459.258	102.69
459.478	106.69
459.698	110.69
459.918	95.69
460.138	101.69
460.358	94.69
460.578	99.69
460.798	101.69
461.018	116.69
461.238	104.69
461.458	102.69
461.678	92.69
461.898	95.69
462.118	96.69
462.338	97.69
462.558	99.69
462.777	107.69
462.997	109.69
463.217	100.69
463.437	101.69
463.657	101.69
463.876	98.69
464.096	95.69
464.316	116.69
464.536	95.69
464.755	113.69
464.975	106.69
465.195	116.69
465.414	96.69
465.634	98.69
465.854	100.69
466.073	92.69
466.293	101.69
466.512	96.69
466.732	98.69
466.951	108.69
467.171	104.69
467.391	89.69
467.61	102.69
467.829	102.69
468.049	95.69
468.268	101.69
468.488	98.69
468.707	110.69
468.927	99.69
469.146	94.69
469.365	100.69
469.585	112.69
469.804	102.69
470.023	94.69
470.243	118.69
470.462	84.69
470.681	96.69
470.901	98.69
471.12	101.69
471.339	114.69
471.558	84.69
471.777	92.69
471.997	113.69
472.216	105.69
472.435	109.69
472.654	109.69
472.873	103.69
473.092	92.69
473.311	94.69
473.53	93.69
473.749	106.69
473.968	91.69
474.187	85.69
474.406	93.69
474.625	103.69
474.844	101.69
475.063	93.69
475.282	100.69
475.501	105.69
475.72	88.69
475.939	108.69
476.158	85.69
476.377	101.69
476.596	89.69
476.814	93.69
477.033	91.69
477.252	97.69
477.471	102.69
477.69	100.69
477.908	92.69
478.127	109.69
478.346	102.69
478.564	99.69
478.783	112.69
479.002	109.69
479.22	97.69
479.439	97.69
479.658	99.69
479.876	103.69
480.095	106.69
480.313	91.69
480.532	107.69
480.751	116.69
480.969	112.69
481.188	110.69
481.406	106.69
481.624	114.69
481.843	102.69
482.061	91.69
482.28	78.69
482.498	115.69
482.717	118.69
482.935	103.69
483.153	104.69
483.372	105.69
483.59	113.69
483.808	115.69
484.027	99.69
484.245	115.69
484.463	103.69
484.681	108.69
484.9	102.69
485.118	116.69
485.336	112.69
485.554	102.69
485.772	100.69
485.99	105.69
486.209	97.69
486.427	108.69
486.645	101.69
486.863	95.69
487.081	98.69
487.299	96.69
487.517	117.69
487.735	109.69
487.953	116.69
488.171	99.69
488.389	123.69
488.607	119.69
488.825	92.69
489.043	105.69
489.261	84.69
489.479	96.69
489.696	100.69
489.914	100.69
490.132	105.69
490.35	110.69
490.568	112.69
490.786	122.69
491.003	126.69
491.221	105.69
491.439	112.69
491.657	103.69
491.874	118.69
492.092	116.69
492.31	120.69
492.527	109.69
492.745	114.69
492.963	113.69
493.18	121.69
493.398	112.69
493.615	105.69
493.833	118.69
494.05	120.69
494.268	107.69
494.485	119.69
494.703	106.69
494.92	129.69
495.138	114.69
495.355	121.69
495.573	109.69
495.79	114.69
496.008	116.69
496.225	114.69
496.442	105.69
496.66	130.69
496.877	126.69
497.094	123.69
497.312	112.69
497.529	119.69
497.746	129.69
497.963	111.69
498.181	105.69
498.398	112.69
498.615	122.69
498.832	116.69
499.049	118.69
499.267	127.69
499.484	130.69
499.701	140.69
499.918	149.69
500.135	156.69
500.352	176.69
500.569	158.69
500.786	158.69
501.003	161.69
501.22	152.69
501.437	134.69
501.654	125.69
501.871	119.69
502.088	125.69
502.305	106.69
502.522	138.69
502.739	120.69
502.956	114.69
503.172	109.69
503.389	103.69
503.606	122.69
503.823	125.69
504.04	106.69
504.256	110.69
504.473	117.69
504.69	121.69
504.907	114.69
505.123	125.69
505.34	119.69
505.557	116.69
505.773	97.69
505.99	112.69
506.207	109.69
506.423	126.69
506.64	108.69
506.856	99.69
507.073	113.69
507.289	107.69
507.506	126.69
507.722	100.69
507.939	99.69
508.155	109.69
508.372	104.69
508.588	107.69
508.805	122.69
509.021	92.69
509.238	104.69
509.454	98.69
509.67	89.69
509.887	105.69
510.103	108.69
510.319	108.69
510.536	99.69
510.752	101.69
510.968	107.69
511.184	102.69
511.401	100.69
511.617	107.69
511.833	103.69
512.049	100.69
512.265	105.69
512.481	93.69
512.698	97.69
