Data from Location5.07152019.Energy5.Lamp.07192019.3%Agarose_HRD10591_16-02-40-629.txt Node
Date: Fri Jul 19 16:02:40 EDT 2019
User: cochatt
Spectrometer: HR+D1059
Trigger mode: 1
Integration Time (sec): 1.000000E-1
Scans to average: 1
Electric dark correction enabled: true
Nonlinearity correction enabled: false
Boxcar width: 0
XAxis mode: Wavelengths
Number of Pixels in Spectrum: 2048
>>>>>Begin Spectral Data<<<<<
223.165	-16.12
223.4	-16.12
223.635	-16.12
223.869	-25.12
224.104	-21.12
224.338	-21.12
224.573	-22.12
224.808	-22.12
225.042	-7.12
225.277	-9.12
225.511	7.88
225.746	17.88
225.98	20.88
226.215	9.88
226.449	8.88
226.683	31.88
226.918	11.88
227.152	34.88
227.387	26.88
227.621	40.88
227.856	35.88
228.09	57.88
228.324	43.88
228.559	58.88
228.793	69.88
229.027	62.88
229.262	66.88
229.496	68.88
229.73	74.88
229.964	74.88
230.199	87.88
230.433	63.88
230.667	70.88
230.901	73.88
231.136	80.88
231.37	82.88
231.604	86.88
231.838	78.88
232.072	74.88
232.306	70.88
232.541	79.88
232.775	97.88
233.009	82.88
233.243	80.88
233.477	84.88
233.711	90.88
233.945	78.88
234.179	79.88
234.413	79.88
234.647	84.88
234.881	83.88
235.115	90.88
235.349	73.88
235.583	77.88
235.817	90.88
236.051	66.88
236.285	68.88
236.519	77.88
236.753	71.88
236.987	69.88
237.221	91.88
237.455	55.88
237.689	80.88
237.922	82.88
238.156	85.88
238.39	86.88
238.624	65.88
238.858	87.88
239.091	80.88
239.325	72.88
239.559	80.88
239.793	78.88
240.027	69.88
240.26	69.88
240.494	81.88
240.728	84.88
240.961	69.88
241.195	80.88
241.429	82.88
241.662	85.88
241.896	70.88
242.13	73.88
242.363	87.88
242.597	86.88
242.83	80.88
243.064	85.88
243.298	68.88
243.531	76.88
243.765	81.88
243.998	67.88
244.232	78.88
244.465	72.88
244.699	76.88
244.932	82.88
245.166	63.88
245.399	77.88
245.633	76.88
245.866	75.88
246.099	88.88
246.333	74.88
246.566	84.88
246.8	71.88
247.033	82.88
247.266	74.88
247.5	100.88
247.733	76.88
247.966	77.88
248.2	78.88
248.433	88.88
248.666	73.88
248.899	77.88
249.133	75.88
249.366	86.88
249.599	86.88
249.832	88.88
250.066	81.88
250.299	98.88
250.532	78.88
250.765	74.88
250.998	76.88
251.231	100.88
251.465	77.88
251.698	95.88
251.931	84.88
252.164	82.88
252.397	80.88
252.63	81.88
252.863	76.88
253.096	82.88
253.329	76.88
253.562	88.88
253.795	89.88
254.028	81.88
254.261	99.88
254.494	86.88
254.727	78.88
254.96	80.88
255.193	96.88
255.426	92.88
255.659	85.88
255.892	88.88
256.124	80.88
256.357	86.88
256.59	82.88
256.823	76.88
257.056	82.88
257.289	90.88
257.521	83.88
257.754	70.88
257.987	81.88
258.22	94.88
258.452	92.88
258.685	96.88
258.918	90.88
259.151	75.88
259.383	82.88
259.616	75.88
259.849	94.88
260.081	80.88
260.314	74.88
260.547	70.88
260.779	91.88
261.012	79.88
261.244	108.88
261.477	83.88
261.71	87.88
261.942	106.88
262.175	83.88
262.407	87.88
262.64	75.88
262.872	67.88
263.105	75.88
263.337	80.88
263.57	90.88
263.802	98.88
264.035	80.88
264.267	82.88
264.499	91.88
264.732	82.88
264.964	81.88
265.197	98.88
265.429	91.88
265.661	91.88
265.894	98.88
266.126	94.88
266.358	84.88
266.591	83.88
266.823	81.88
267.055	89.88
267.287	94.88
267.52	77.88
267.752	95.88
267.984	89.88
268.216	81.88
268.448	85.88
268.681	74.88
268.913	75.88
269.145	89.88
269.377	76.88
269.609	92.88
269.841	88.88
270.073	79.88
270.306	101.88
270.538	94.88
270.77	66.88
271.002	78.88
271.234	81.88
271.466	83.88
271.698	88.88
271.93	81.88
272.162	90.88
272.394	91.88
272.626	77.88
272.858	92.88
273.09	104.88
273.322	91.88
273.553	90.88
273.785	77.88
274.017	91.88
274.249	79.88
274.481	75.88
274.713	74.88
274.945	101.88
275.176	98.88
275.408	86.88
275.64	102.88
275.872	96.88
276.104	93.88
276.335	89.88
276.567	89.88
276.799	96.88
277.031	85.88
277.262	92.88
277.494	91.88
277.726	78.88
277.957	93.88
278.189	79.88
278.421	90.88
278.652	88.88
278.884	82.88
279.115	91.88
279.347	90.88
279.579	91.88
279.81	85.88
280.042	77.88
280.273	73.88
280.505	83.88
280.736	92.88
280.968	87.88
281.199	90.88
281.431	91.88
281.662	84.88
281.894	71.88
282.125	92.88
282.356	99.88
282.588	104.88
282.819	87.88
283.051	89.88
283.282	100.88
283.513	90.88
283.745	92.88
283.976	90.88
284.207	82.88
284.439	92.88
284.67	91.88
284.901	88.88
285.132	98.88
285.364	87.88
285.595	86.88
285.826	97.88
286.057	88.88
286.288	90.88
286.52	87.88
286.751	109.88
286.982	81.88
287.213	89.88
287.444	94.88
287.675	88.88
287.906	87.88
288.138	89.88
288.369	82.88
288.6	84.88
288.831	104.88
289.062	98.88
289.293	61.88
289.524	94.88
289.755	104.88
289.986	97.88
290.217	99.88
290.448	86.88
290.679	99.88
290.91	90.88
291.141	93.88
291.371	98.88
291.602	93.88
291.833	85.88
292.064	76.88
292.295	105.88
292.526	86.88
292.757	93.88
292.987	99.88
293.218	96.88
293.449	105.88
293.68	94.88
293.91	88.88
294.141	84.88
294.372	91.88
294.603	106.88
294.833	76.88
295.064	89.88
295.295	84.88
295.525	75.88
295.756	96.88
295.987	94.88
296.217	95.88
296.448	83.88
296.679	96.88
296.909	85.88
297.14	105.88
297.37	91.88
297.601	90.88
297.831	97.88
298.062	105.88
298.292	95.88
298.523	88.88
298.753	88.88
298.984	87.88
299.214	86.88
299.445	91.88
299.675	102.88
299.905	106.88
300.136	89.88
300.366	102.88
300.597	89.88
300.827	106.88
301.057	91.88
301.288	105.88
301.518	88.88
301.748	96.88
301.979	87.88
302.209	89.88
302.439	111.88
302.669	100.88
302.9	94.88
303.13	87.88
303.36	99.88
303.59	91.88
303.82	98.88
304.051	97.88
304.281	78.88
304.511	103.88
304.741	90.88
304.971	103.88
305.201	103.88
305.431	99.88
305.661	105.88
305.891	96.88
306.121	88.88
306.352	85.88
306.582	92.88
306.812	87.88
307.042	97.88
307.272	103.88
307.502	101.88
307.731	99.88
307.961	79.88
308.191	87.88
308.421	95.88
308.651	108.88
308.881	100.88
309.111	89.88
309.341	94.88
309.571	100.88
309.8	92.88
310.03	92.88
310.26	100.88
310.49	89.88
310.72	99.88
310.949	83.88
311.179	98.88
311.409	102.88
311.639	91.88
311.868	82.88
312.098	91.88
312.328	91.88
312.557	101.88
312.787	101.88
313.017	95.88
313.246	85.88
313.476	87.88
313.706	84.88
313.935	101.88
314.165	102.88
314.394	91.88
314.624	107.88
314.853	95.88
315.083	89.88
315.312	94.88
315.542	101.88
315.771	103.88
316.001	91.88
316.23	113.88
316.46	86.88
316.689	94.88
316.919	89.88
317.148	91.88
317.377	93.88
317.607	94.88
317.836	96.88
318.065	69.88
318.295	95.88
318.524	102.88
318.753	95.88
318.983	94.88
319.212	97.88
319.441	86.88
319.67	83.88
319.9	91.88
320.129	95.88
320.358	89.88
320.587	103.88
320.816	92.88
321.046	92.88
321.275	91.88
321.504	79.88
321.733	88.88
321.962	94.88
322.191	96.88
322.42	96.88
322.649	91.88
322.878	97.88
323.108	93.88
323.337	100.88
323.566	90.88
323.795	95.88
324.024	89.88
324.253	79.88
324.482	86.88
324.71	99.88
324.939	96.88
325.168	96.88
325.397	100.88
325.626	85.88
325.855	106.88
326.084	107.88
326.313	103.88
326.542	96.88
326.77	88.88
326.999	92.88
327.228	86.88
327.457	94.88
327.686	96.88
327.914	99.88
328.143	102.88
328.372	101.88
328.6	77.88
328.829	98.88
329.058	85.88
329.287	84.88
329.515	88.88
329.744	81.88
329.972	88.88
330.201	91.88
330.43	90.88
330.658	78.88
330.887	81.88
331.115	97.88
331.344	104.88
331.572	103.88
331.801	89.88
332.03	100.88
332.258	104.88
332.486	97.88
332.715	98.88
332.943	102.88
333.172	98.88
333.4	94.88
333.629	85.88
333.857	80.88
334.085	94.88
334.314	96.88
334.542	98.88
334.771	84.88
334.999	99.88
335.227	98.88
335.455	95.88
335.684	102.88
335.912	96.88
336.14	93.88
336.369	87.88
336.597	98.88
336.825	99.88
337.053	91.88
337.281	88.88
337.51	92.88
337.738	96.88
337.966	103.88
338.194	96.88
338.422	101.88
338.65	83.88
338.878	91.88
339.106	96.88
339.334	102.88
339.562	97.88
339.79	91.88
340.018	88.88
340.246	89.88
340.474	92.88
340.702	102.88
340.93	99.88
341.158	96.88
341.386	91.88
341.614	106.88
341.842	101.88
342.07	90.88
342.298	89.88
342.526	88.88
342.754	102.88
342.981	94.88
343.209	93.88
343.437	92.88
343.665	93.88
343.893	96.88
344.12	99.88
344.348	108.88
344.576	92.88
344.804	95.88
345.031	96.88
345.259	87.88
345.487	88.88
345.714	94.88
345.942	94.88
346.17	68.88
346.397	98.88
346.625	108.88
346.853	94.88
347.08	92.88
347.308	98.88
347.535	91.88
347.763	88.88
347.99	94.88
348.218	93.88
348.445	101.88
348.673	89.88
348.9	93.88
349.128	90.88
349.355	107.88
349.583	96.88
349.81	84.88
350.037	82.88
350.265	98.88
350.492	87.88
350.72	88.88
350.947	95.88
351.174	89.88
351.402	88.88
351.629	98.88
351.856	82.88
352.083	100.88
352.311	105.88
352.538	104.88
352.765	99.88
352.992	110.88
353.22	74.88
353.447	89.88
353.674	100.88
353.901	69.88
354.128	88.88
354.355	84.88
354.583	98.88
354.81	84.88
355.037	99.88
355.264	100.88
355.491	98.88
355.718	89.88
355.945	92.88
356.172	93.88
356.399	95.88
356.626	93.88
356.853	92.88
357.08	93.88
357.307	92.88
357.534	103.88
357.761	91.88
357.988	85.88
358.215	87.88
358.441	95.88
358.668	98.88
358.895	90.88
359.122	89.88
359.349	95.88
359.576	95.88
359.802	78.88
360.029	87.88
360.256	104.88
360.483	85.88
360.709	98.88
360.936	91.88
361.163	87.88
361.39	99.88
361.616	86.88
361.843	77.88
362.07	90.88
362.296	86.88
362.523	80.88
362.749	95.88
362.976	83.88
363.203	112.88
363.429	99.88
363.656	92.88
363.882	88.88
364.109	91.88
364.335	92.88
364.562	89.88
364.788	88.88
365.015	91.88
365.241	98.88
365.468	89.88
365.694	95.88
365.92	108.88
366.147	95.88
366.373	97.88
366.599	91.88
366.826	87.88
367.052	85.88
367.278	99.88
367.505	89.88
367.731	91.88
367.957	84.88
368.184	88.88
368.41	92.88
368.636	100.88
368.862	98.88
369.089	97.88
369.315	97.88
369.541	91.88
369.767	101.88
369.993	108.88
370.219	94.88
370.445	94.88
370.672	95.88
370.898	79.88
371.124	75.88
371.35	83.88
371.576	100.88
371.802	103.88
372.028	83.88
372.254	101.88
372.48	92.88
372.706	101.88
372.932	111.88
373.158	95.88
373.384	87.88
373.61	87.88
373.835	79.88
374.061	86.88
374.287	85.88
374.513	103.88
374.739	91.88
374.965	91.88
375.191	103.88
375.416	105.88
375.642	89.88
375.868	108.88
376.094	90.88
376.319	101.88
376.545	89.88
376.771	91.88
376.997	107.88
377.222	96.88
377.448	92.88
377.674	90.88
377.899	97.88
378.125	90.88
378.35	90.88
378.576	75.88
378.802	90.88
379.027	89.88
379.253	100.88
379.478	83.88
379.704	88.88
379.929	84.88
380.155	91.88
380.38	116.88
380.606	96.88
380.831	70.88
381.057	88.88
381.282	91.88
381.507	105.88
381.733	81.88
381.958	89.88
382.184	93.88
382.409	89.88
382.634	98.88
382.86	100.88
383.085	89.88
383.31	93.88
383.535	101.88
383.761	102.88
383.986	89.88
384.211	95.88
384.436	94.88
384.662	96.88
384.887	83.88
385.112	89.88
385.337	93.88
385.562	95.88
385.787	87.88
386.013	105.88
386.238	95.88
386.463	114.88
386.688	94.88
386.913	105.88
387.138	94.88
387.363	103.88
387.588	108.88
387.813	107.88
388.038	91.88
388.263	111.88
388.488	98.88
388.713	91.88
388.938	92.88
389.163	103.88
389.387	97.88
389.612	93.88
389.837	94.88
390.062	100.88
390.287	90.88
390.512	98.88
390.736	89.88
390.961	91.88
391.186	87.88
391.411	100.88
391.636	98.88
391.86	107.88
392.085	102.88
392.31	89.88
392.534	103.88
392.759	96.88
392.984	86.88
393.208	91.88
393.433	94.88
393.658	88.88
393.882	85.88
394.107	87.88
394.331	96.88
394.556	92.88
394.78	88.88
395.005	93.88
395.229	107.88
395.454	92.88
395.678	97.88
395.903	95.88
396.127	92.88
396.352	93.88
396.576	81.88
396.801	106.88
397.025	109.88
397.249	86.88
397.474	112.88
397.698	115.88
397.922	81.88
398.147	96.88
398.371	100.88
398.595	101.88
398.82	102.88
399.044	108.88
399.268	103.88
399.492	88.88
399.717	119.88
399.941	105.88
400.165	95.88
400.389	99.88
400.613	92.88
400.837	90.88
401.062	102.88
401.286	95.88
401.51	102.88
401.734	101.88
401.958	79.88
402.182	91.88
402.406	114.88
402.63	91.88
402.854	93.88
403.078	100.88
403.302	117.88
403.526	104.88
403.75	88.88
403.974	103.88
404.198	115.88
404.422	110.88
404.645	96.88
404.869	96.88
405.093	120.88
405.317	96.88
405.541	100.88
405.765	102.88
405.988	99.88
406.212	101.88
406.436	99.88
406.66	115.88
406.883	103.88
407.107	107.88
407.331	112.88
407.555	102.88
407.778	103.88
408.002	105.88
408.226	108.88
408.449	98.88
408.673	90.88
408.896	90.88
409.12	99.88
409.344	97.88
409.567	92.88
409.791	103.88
410.014	99.88
410.238	117.88
410.461	111.88
410.685	100.88
410.908	110.88
411.132	99.88
411.355	91.88
411.578	100.88
411.802	94.88
412.025	103.88
412.249	101.88
412.472	88.88
412.695	97.88
412.919	95.88
413.142	100.88
413.365	109.88
413.589	90.88
413.812	99.88
414.035	99.88
414.258	110.88
414.482	101.88
414.705	106.88
414.928	108.88
415.151	90.88
415.374	104.88
415.597	116.88
415.821	92.88
416.044	88.88
416.267	101.88
416.49	102.88
416.713	90.88
416.936	95.88
417.159	105.88
417.382	99.88
417.605	107.88
417.828	98.88
418.051	92.88
418.274	93.88
418.497	81.88
418.72	115.88
418.943	100.88
419.166	107.88
419.389	100.88
419.611	98.88
419.834	107.88
420.057	101.88
420.28	102.88
420.503	104.88
420.726	107.88
420.948	90.88
421.171	105.88
421.394	95.88
421.617	99.88
421.839	95.88
422.062	95.88
422.285	96.88
422.507	116.88
422.73	102.88
422.953	92.88
423.175	106.88
423.398	115.88
423.621	118.88
423.843	102.88
424.066	112.88
424.288	100.88
424.511	104.88
424.733	103.88
424.956	84.88
425.178	100.88
425.401	102.88
425.623	97.88
425.846	96.88
426.068	96.88
426.291	105.88
426.513	107.88
426.735	97.88
426.958	100.88
427.18	108.88
427.402	101.88
427.625	98.88
427.847	90.88
428.069	98.88
428.292	96.88
428.514	97.88
428.736	91.88
428.958	94.88
429.181	104.88
429.403	105.88
429.625	102.88
429.847	95.88
430.069	101.88
430.292	99.88
430.514	100.88
430.736	82.88
430.958	91.88
431.18	102.88
431.402	98.88
431.624	94.88
431.846	87.88
432.068	90.88
432.29	101.88
432.512	94.88
432.734	92.88
432.956	104.88
433.178	100.88
433.4	111.88
433.622	100.88
433.844	83.88
434.066	98.88
434.287	84.88
434.509	106.88
434.731	83.88
434.953	83.88
435.175	76.88
435.397	112.88
435.618	102.88
435.84	100.88
436.062	104.88
436.284	100.88
436.505	82.88
436.727	105.88
436.949	98.88
437.17	93.88
437.392	108.88
437.614	103.88
437.835	104.88
438.057	90.88
438.278	95.88
438.5	97.88
438.721	102.88
438.943	90.88
439.165	88.88
439.386	94.88
439.608	93.88
439.829	105.88
440.05	94.88
440.272	100.88
440.493	101.88
440.715	103.88
440.936	108.88
441.158	100.88
441.379	103.88
441.6	107.88
441.822	104.88
442.043	103.88
442.264	100.88
442.486	100.88
442.707	95.88
442.928	97.88
443.149	91.88
443.371	89.88
443.592	99.88
443.813	88.88
444.034	81.88
444.255	108.88
444.476	103.88
444.698	99.88
444.919	102.88
445.14	225.88
445.361	146.88
445.582	104.88
445.803	102.88
446.024	82.88
446.245	107.88
446.466	98.88
446.687	88.88
446.908	93.88
447.129	91.88
447.35	112.88
447.571	108.88
447.792	101.88
448.013	86.88
448.234	90.88
448.455	89.88
448.675	103.88
448.896	86.88
449.117	98.88
449.338	102.88
449.559	93.88
449.779	84.88
450	98.88
450.221	98.88
450.442	92.88
450.662	97.88
450.883	99.88
451.104	99.88
451.324	100.88
451.545	96.88
451.766	75.88
451.986	92.88
452.207	100.88
452.428	94.88
452.648	91.88
452.869	98.88
453.089	89.88
453.31	95.88
453.53	92.88
453.751	84.88
453.971	98.88
454.192	99.88
454.412	75.88
454.633	100.88
454.853	85.88
455.073	90.88
455.294	76.88
455.514	75.88
455.734	98.88
455.955	94.88
456.175	90.88
456.395	105.88
456.616	87.88
456.836	96.88
457.056	99.88
457.276	77.88
457.497	95.88
457.717	80.88
457.937	81.88
458.157	90.88
458.377	97.88
458.598	82.88
458.818	87.88
459.038	90.88
459.258	96.88
459.478	91.88
459.698	103.88
459.918	95.88
460.138	95.88
460.358	100.88
460.578	84.88
460.798	105.88
461.018	90.88
461.238	105.88
461.458	100.88
461.678	106.88
461.898	99.88
462.118	116.88
462.338	102.88
462.558	107.88
462.777	105.88
462.997	107.88
463.217	120.88
463.437	107.88
463.657	103.88
463.876	98.88
464.096	117.88
464.316	108.88
464.536	94.88
464.755	89.88
464.975	94.88
465.195	101.88
465.414	104.88
465.634	98.88
465.854	93.88
466.073	103.88
466.293	99.88
466.512	108.88
466.732	88.88
466.951	97.88
467.171	99.88
467.391	86.88
467.61	95.88
467.829	96.88
468.049	101.88
468.268	98.88
468.488	94.88
468.707	83.88
468.927	105.88
469.146	103.88
469.365	94.88
469.585	99.88
469.804	105.88
470.023	98.88
470.243	85.88
470.462	99.88
470.681	107.88
470.901	107.88
471.12	90.88
471.339	109.88
471.558	102.88
471.777	93.88
471.997	112.88
472.216	95.88
472.435	84.88
472.654	95.88
472.873	98.88
473.092	105.88
473.311	111.88
473.53	115.88
473.749	105.88
473.968	102.88
474.187	103.88
474.406	99.88
474.625	92.88
474.844	108.88
475.063	88.88
475.282	105.88
475.501	107.88
475.72	86.88
475.939	89.88
476.158	106.88
476.377	104.88
476.596	105.88
476.814	103.88
477.033	101.88
477.252	101.88
477.471	91.88
477.69	109.88
477.908	113.88
478.127	98.88
478.346	98.88
478.564	96.88
478.783	104.88
479.002	115.88
479.22	104.88
479.439	118.88
479.658	102.88
479.876	101.88
480.095	90.88
480.313	85.88
480.532	100.88
480.751	106.88
480.969	102.88
481.188	106.88
481.406	101.88
481.624	103.88
481.843	95.88
482.061	102.88
482.28	100.88
482.498	107.88
482.717	113.88
482.935	101.88
483.153	119.88
483.372	109.88
483.59	107.88
483.808	96.88
484.027	101.88
484.245	103.88
484.463	105.88
484.681	117.88
484.9	121.88
485.118	97.88
485.336	119.88
485.554	99.88
485.772	103.88
485.99	99.88
486.209	121.88
486.427	89.88
486.645	99.88
486.863	109.88
487.081	90.88
487.299	114.88
487.517	114.88
487.735	101.88
487.953	113.88
488.171	120.88
488.389	106.88
488.607	105.88
488.825	115.88
489.043	110.88
489.261	103.88
489.479	114.88
489.696	120.88
489.914	114.88
490.132	114.88
490.35	104.88
490.568	108.88
490.786	117.88
491.003	116.88
491.221	120.88
491.439	122.88
491.657	112.88
491.874	112.88
492.092	125.88
492.31	118.88
492.527	119.88
492.745	115.88
492.963	117.88
493.18	117.88
493.398	120.88
493.615	139.88
493.833	110.88
494.05	112.88
494.268	110.88
494.485	110.88
494.703	114.88
494.92	105.88
495.138	120.88
495.355	111.88
495.573	118.88
495.79	119.88
496.008	104.88
496.225	123.88
496.442	120.88
496.66	114.88
496.877	118.88
497.094	124.88
497.312	113.88
497.529	114.88
497.746	106.88
497.963	117.88
498.181	91.88
498.398	107.88
498.615	121.88
498.832	107.88
499.049	138.88
499.267	128.88
499.484	119.88
499.701	135.88
499.918	147.88
500.135	151.88
500.352	176.88
500.569	182.88
500.786	171.88
501.003	158.88
501.22	154.88
501.437	146.88
501.654	133.88
501.871	126.88
502.088	115.88
502.305	132.88
502.522	120.88
502.739	120.88
502.956	126.88
503.172	101.88
503.389	107.88
503.606	116.88
503.823	120.88
504.04	113.88
504.256	109.88
504.473	111.88
504.69	115.88
504.907	113.88
505.123	99.88
505.34	108.88
505.557	105.88
505.773	110.88
505.99	95.88
506.207	104.88
506.423	115.88
506.64	92.88
506.856	110.88
507.073	100.88
507.289	111.88
507.506	84.88
507.722	114.88
507.939	115.88
508.155	110.88
508.372	108.88
508.588	117.88
508.805	105.88
509.021	110.88
509.238	98.88
509.454	97.88
509.67	94.88
509.887	111.88
510.103	95.88
510.319	104.88
510.536	115.88
510.752	104.88
510.968	99.88
511.184	93.88
511.401	104.88
511.617	101.88
511.833	116.88
512.049	93.88
512.265	94.88
512.481	103.88
512.698	92.88
512.914	99.88
513.13	100.88
513.346	98.88
