Data from Location5.07152019.Energy5.Lamp.07192019.3%Agarose_HRD10591_15-37-15-387.txt Node
Date: Fri Jul 19 15:37:15 EDT 2019
User: cochatt
Spectrometer: HR+D1059
Trigger mode: 1
Integration Time (sec): 1.000000E-1
Scans to average: 1
Electric dark correction enabled: true
Nonlinearity correction enabled: false
Boxcar width: 0
XAxis mode: Wavelengths
Number of Pixels in Spectrum: 2048
>>>>>Begin Spectral Data<<<<<
223.165	-12.56
223.4	-12.56
223.635	-12.56
223.869	-11.56
224.104	-6.56
224.338	-20.56
224.573	-10.56
224.808	-15.56
225.042	-7.56
225.277	-16.56
225.511	-15.56
225.746	3.44
225.98	19.44
226.215	24.44
226.449	8.44
226.683	13.44
226.918	22.44
227.152	25.44
227.387	40.44
227.621	36.44
227.856	36.44
228.09	46.44
228.324	42.44
228.559	51.44
228.793	56.44
229.027	49.44
229.262	73.44
229.496	53.44
229.73	74.44
229.964	70.44
230.199	66.44
230.433	74.44
230.667	73.44
230.901	93.44
231.136	80.44
231.37	71.44
231.604	87.44
231.838	81.44
232.072	90.44
232.306	85.44
232.541	88.44
232.775	88.44
233.009	96.44
233.243	79.44
233.477	93.44
233.711	77.44
233.945	83.44
234.179	81.44
234.413	81.44
234.647	88.44
234.881	92.44
235.115	76.44
235.349	82.44
235.583	88.44
235.817	71.44
236.051	70.44
236.285	71.44
236.519	71.44
236.753	78.44
236.987	66.44
237.221	75.44
237.455	59.44
237.689	77.44
237.922	77.44
238.156	75.44
238.39	78.44
238.624	74.44
238.858	72.44
239.091	85.44
239.325	95.44
239.559	72.44
239.793	69.44
240.027	93.44
240.26	69.44
240.494	75.44
240.728	83.44
240.961	80.44
241.195	70.44
241.429	67.44
241.662	72.44
241.896	82.44
242.13	72.44
242.363	77.44
242.597	74.44
242.83	79.44
243.064	91.44
243.298	95.44
243.531	75.44
243.765	95.44
243.998	79.44
244.232	73.44
244.465	84.44
244.699	74.44
244.932	81.44
245.166	73.44
245.399	89.44
245.633	74.44
245.866	84.44
246.099	80.44
246.333	70.44
246.566	81.44
246.8	84.44
247.033	95.44
247.266	98.44
247.5	69.44
247.733	85.44
247.966	77.44
248.2	79.44
248.433	67.44
248.666	63.44
248.899	75.44
249.133	83.44
249.366	73.44
249.599	67.44
249.832	74.44
250.066	87.44
250.299	71.44
250.532	76.44
250.765	91.44
250.998	64.44
251.231	84.44
251.465	68.44
251.698	73.44
251.931	74.44
252.164	84.44
252.397	88.44
252.63	77.44
252.863	83.44
253.096	79.44
253.329	80.44
253.562	72.44
253.795	75.44
254.028	75.44
254.261	82.44
254.494	80.44
254.727	81.44
254.96	81.44
255.193	84.44
255.426	86.44
255.659	77.44
255.892	91.44
256.124	71.44
256.357	75.44
256.59	82.44
256.823	72.44
257.056	72.44
257.289	81.44
257.521	80.44
257.754	91.44
257.987	88.44
258.22	68.44
258.452	84.44
258.685	70.44
258.918	73.44
259.151	83.44
259.383	81.44
259.616	91.44
259.849	70.44
260.081	81.44
260.314	83.44
260.547	85.44
260.779	84.44
261.012	77.44
261.244	86.44
261.477	85.44
261.71	77.44
261.942	75.44
262.175	69.44
262.407	73.44
262.64	82.44
262.872	75.44
263.105	76.44
263.337	89.44
263.57	71.44
263.802	87.44
264.035	83.44
264.267	85.44
264.499	73.44
264.732	85.44
264.964	72.44
265.197	77.44
265.429	74.44
265.661	79.44
265.894	87.44
266.126	83.44
266.358	78.44
266.591	92.44
266.823	91.44
267.055	76.44
267.287	74.44
267.52	76.44
267.752	74.44
267.984	76.44
268.216	84.44
268.448	90.44
268.681	81.44
268.913	95.44
269.145	101.44
269.377	80.44
269.609	89.44
269.841	79.44
270.073	92.44
270.306	92.44
270.538	90.44
270.77	82.44
271.002	77.44
271.234	79.44
271.466	85.44
271.698	82.44
271.93	78.44
272.162	71.44
272.394	81.44
272.626	75.44
272.858	77.44
273.09	95.44
273.322	100.44
273.553	69.44
273.785	80.44
274.017	89.44
274.249	89.44
274.481	72.44
274.713	67.44
274.945	86.44
275.176	82.44
275.408	78.44
275.64	81.44
275.872	61.44
276.104	81.44
276.335	92.44
276.567	86.44
276.799	92.44
277.031	85.44
277.262	92.44
277.494	92.44
277.726	98.44
277.957	83.44
278.189	86.44
278.421	74.44
278.652	58.44
278.884	89.44
279.115	95.44
279.347	100.44
279.579	89.44
279.81	87.44
280.042	93.44
280.273	85.44
280.505	83.44
280.736	92.44
280.968	82.44
281.199	91.44
281.431	74.44
281.662	73.44
281.894	88.44
282.125	93.44
282.356	97.44
282.588	76.44
282.819	87.44
283.051	76.44
283.282	84.44
283.513	85.44
283.745	85.44
283.976	90.44
284.207	85.44
284.439	91.44
284.67	83.44
284.901	90.44
285.132	88.44
285.364	83.44
285.595	97.44
285.826	87.44
286.057	82.44
286.288	75.44
286.52	81.44
286.751	77.44
286.982	93.44
287.213	64.44
287.444	81.44
287.675	81.44
287.906	85.44
288.138	95.44
288.369	88.44
288.6	88.44
288.831	86.44
289.062	105.44
289.293	84.44
289.524	85.44
289.755	84.44
289.986	76.44
290.217	98.44
290.448	87.44
290.679	87.44
290.91	98.44
291.141	85.44
291.371	97.44
291.602	88.44
291.833	74.44
292.064	79.44
292.295	90.44
292.526	83.44
292.757	95.44
292.987	96.44
293.218	90.44
293.449	79.44
293.68	88.44
293.91	80.44
294.141	74.44
294.372	71.44
294.603	91.44
294.833	82.44
295.064	76.44
295.295	80.44
295.525	83.44
295.756	86.44
295.987	84.44
296.217	85.44
296.448	95.44
296.679	96.44
296.909	78.44
297.14	91.44
297.37	88.44
297.601	67.44
297.831	89.44
298.062	94.44
298.292	75.44
298.523	93.44
298.753	95.44
298.984	79.44
299.214	84.44
299.445	72.44
299.675	75.44
299.905	87.44
300.136	74.44
300.366	84.44
300.597	99.44
300.827	95.44
301.057	85.44
301.288	96.44
301.518	79.44
301.748	72.44
301.979	88.44
302.209	77.44
302.439	79.44
302.669	95.44
302.9	85.44
303.13	88.44
303.36	85.44
303.59	70.44
303.82	77.44
304.051	88.44
304.281	80.44
304.511	81.44
304.741	107.44
304.971	78.44
305.201	90.44
305.431	100.44
305.661	67.44
305.891	94.44
306.121	89.44
306.352	82.44
306.582	78.44
306.812	83.44
307.042	84.44
307.272	76.44
307.502	76.44
307.731	82.44
307.961	89.44
308.191	73.44
308.421	92.44
308.651	87.44
308.881	79.44
309.111	88.44
309.341	92.44
309.571	80.44
309.8	83.44
310.03	91.44
310.26	91.44
310.49	100.44
310.72	82.44
310.949	78.44
311.179	84.44
311.409	82.44
311.639	76.44
311.868	83.44
312.098	89.44
312.328	88.44
312.557	97.44
312.787	90.44
313.017	84.44
313.246	83.44
313.476	92.44
313.706	79.44
313.935	85.44
314.165	84.44
314.394	78.44
314.624	101.44
314.853	73.44
315.083	85.44
315.312	85.44
315.542	64.44
315.771	89.44
316.001	87.44
316.23	76.44
316.46	87.44
316.689	104.44
316.919	90.44
317.148	77.44
317.377	85.44
317.607	101.44
317.836	85.44
318.065	84.44
318.295	89.44
318.524	89.44
318.753	83.44
318.983	98.44
319.212	74.44
319.441	88.44
319.67	85.44
319.9	92.44
320.129	91.44
320.358	98.44
320.587	89.44
320.816	80.44
321.046	73.44
321.275	85.44
321.504	81.44
321.733	83.44
321.962	72.44
322.191	90.44
322.42	75.44
322.649	74.44
322.878	87.44
323.108	86.44
323.337	78.44
323.566	90.44
323.795	85.44
324.024	75.44
324.253	79.44
324.482	79.44
324.71	88.44
324.939	92.44
325.168	84.44
325.397	95.44
325.626	88.44
325.855	91.44
326.084	87.44
326.313	82.44
326.542	84.44
326.77	82.44
326.999	83.44
327.228	77.44
327.457	69.44
327.686	76.44
327.914	80.44
328.143	79.44
328.372	84.44
328.6	74.44
328.829	99.44
329.058	82.44
329.287	77.44
329.515	95.44
329.744	83.44
329.972	74.44
330.201	81.44
330.43	84.44
330.658	78.44
330.887	94.44
331.115	81.44
331.344	94.44
331.572	88.44
331.801	92.44
332.03	70.44
332.258	83.44
332.486	83.44
332.715	80.44
332.943	85.44
333.172	90.44
333.4	93.44
333.629	80.44
333.857	85.44
334.085	85.44
334.314	91.44
334.542	91.44
334.771	74.44
334.999	91.44
335.227	81.44
335.455	86.44
335.684	87.44
335.912	84.44
336.14	83.44
336.369	91.44
336.597	78.44
336.825	109.44
337.053	84.44
337.281	76.44
337.51	91.44
337.738	79.44
337.966	79.44
338.194	88.44
338.422	92.44
338.65	79.44
338.878	97.44
339.106	84.44
339.334	81.44
339.562	77.44
339.79	75.44
340.018	87.44
340.246	90.44
340.474	82.44
340.702	85.44
340.93	67.44
341.158	82.44
341.386	83.44
341.614	85.44
341.842	84.44
342.07	89.44
342.298	89.44
342.526	89.44
342.754	71.44
342.981	94.44
343.209	93.44
343.437	90.44
343.665	88.44
343.893	83.44
344.12	77.44
344.348	89.44
344.576	90.44
344.804	83.44
345.031	70.44
345.259	80.44
345.487	81.44
345.714	87.44
345.942	89.44
346.17	73.44
346.397	87.44
346.625	72.44
346.853	95.44
347.08	90.44
347.308	87.44
347.535	86.44
347.763	91.44
347.99	96.44
348.218	103.44
348.445	86.44
348.673	78.44
348.9	84.44
349.128	86.44
349.355	86.44
349.583	77.44
349.81	87.44
350.037	81.44
350.265	85.44
350.492	76.44
350.72	88.44
350.947	79.44
351.174	98.44
351.402	95.44
351.629	83.44
351.856	75.44
352.083	86.44
352.311	93.44
352.538	82.44
352.765	98.44
352.992	92.44
353.22	79.44
353.447	75.44
353.674	93.44
353.901	85.44
354.128	77.44
354.355	86.44
354.583	77.44
354.81	77.44
355.037	89.44
355.264	94.44
355.491	87.44
355.718	96.44
355.945	79.44
356.172	77.44
356.399	89.44
356.626	85.44
356.853	85.44
357.08	85.44
357.307	81.44
357.534	78.44
357.761	99.44
357.988	70.44
358.215	89.44
358.441	84.44
358.668	83.44
358.895	74.44
359.122	92.44
359.349	85.44
359.576	82.44
359.802	90.44
360.029	73.44
360.256	80.44
360.483	92.44
360.709	90.44
360.936	73.44
361.163	93.44
361.39	83.44
361.616	88.44
361.843	72.44
362.07	88.44
362.296	77.44
362.523	91.44
362.749	89.44
362.976	89.44
363.203	91.44
363.429	79.44
363.656	98.44
363.882	74.44
364.109	87.44
364.335	97.44
364.562	81.44
364.788	82.44
365.015	94.44
365.241	93.44
365.468	87.44
365.694	85.44
365.92	82.44
366.147	84.44
366.373	83.44
366.599	85.44
366.826	92.44
367.052	70.44
367.278	97.44
367.505	97.44
367.731	102.44
367.957	79.44
368.184	73.44
368.41	92.44
368.636	89.44
368.862	83.44
369.089	80.44
369.315	77.44
369.541	69.44
369.767	86.44
369.993	69.44
370.219	96.44
370.445	71.44
370.672	83.44
370.898	81.44
371.124	95.44
371.35	78.44
371.576	85.44
371.802	81.44
372.028	84.44
372.254	94.44
372.48	89.44
372.706	81.44
372.932	102.44
373.158	81.44
373.384	99.44
373.61	85.44
373.835	75.44
374.061	88.44
374.287	85.44
374.513	91.44
374.739	84.44
374.965	75.44
375.191	82.44
375.416	89.44
375.642	88.44
375.868	88.44
376.094	86.44
376.319	80.44
376.545	79.44
376.771	91.44
376.997	71.44
377.222	83.44
377.448	87.44
377.674	79.44
377.899	80.44
378.125	84.44
378.35	86.44
378.576	98.44
378.802	93.44
379.027	85.44
379.253	88.44
379.478	83.44
379.704	80.44
379.929	96.44
380.155	84.44
380.38	94.44
380.606	87.44
380.831	91.44
381.057	90.44
381.282	76.44
381.507	80.44
381.733	92.44
381.958	82.44
382.184	95.44
382.409	85.44
382.634	96.44
382.86	87.44
383.085	101.44
383.31	81.44
383.535	86.44
383.761	96.44
383.986	88.44
384.211	84.44
384.436	79.44
384.662	74.44
384.887	87.44
385.112	84.44
385.337	103.44
385.562	75.44
385.787	81.44
386.013	101.44
386.238	85.44
386.463	93.44
386.688	86.44
386.913	75.44
387.138	88.44
387.363	87.44
387.588	96.44
387.813	103.44
388.038	86.44
388.263	83.44
388.488	83.44
388.713	82.44
388.938	77.44
389.163	78.44
389.387	83.44
389.612	90.44
389.837	80.44
390.062	90.44
390.287	102.44
390.512	81.44
390.736	89.44
390.961	84.44
391.186	96.44
391.411	87.44
391.636	80.44
391.86	86.44
392.085	90.44
392.31	83.44
392.534	74.44
392.759	103.44
392.984	97.44
393.208	90.44
393.433	88.44
393.658	91.44
393.882	87.44
394.107	85.44
394.331	100.44
394.556	89.44
394.78	85.44
395.005	84.44
395.229	83.44
395.454	87.44
395.678	86.44
395.903	71.44
396.127	84.44
396.352	78.44
396.576	93.44
396.801	76.44
397.025	89.44
397.249	93.44
397.474	83.44
397.698	80.44
397.922	87.44
398.147	76.44
398.371	88.44
398.595	87.44
398.82	92.44
399.044	94.44
399.268	93.44
399.492	96.44
399.717	85.44
399.941	87.44
400.165	92.44
400.389	94.44
400.613	95.44
400.837	79.44
401.062	79.44
401.286	88.44
401.51	91.44
401.734	90.44
401.958	89.44
402.182	86.44
402.406	92.44
402.63	99.44
402.854	93.44
403.078	97.44
403.302	80.44
403.526	89.44
403.75	97.44
403.974	84.44
404.198	84.44
404.422	95.44
404.645	98.44
404.869	86.44
405.093	98.44
405.317	89.44
405.541	91.44
405.765	85.44
405.988	87.44
406.212	85.44
406.436	98.44
406.66	98.44
406.883	92.44
407.107	91.44
407.331	90.44
407.555	97.44
407.778	92.44
408.002	90.44
408.226	97.44
408.449	87.44
408.673	91.44
408.896	82.44
409.12	89.44
409.344	103.44
409.567	75.44
409.791	91.44
410.014	92.44
410.238	84.44
410.461	89.44
410.685	72.44
410.908	89.44
411.132	93.44
411.355	82.44
411.578	87.44
411.802	89.44
412.025	80.44
412.249	78.44
412.472	81.44
412.695	76.44
412.919	96.44
413.142	94.44
413.365	100.44
413.589	89.44
413.812	106.44
414.035	91.44
414.258	88.44
414.482	89.44
414.705	97.44
414.928	95.44
415.151	100.44
415.374	107.44
415.597	83.44
415.821	91.44
416.044	94.44
416.267	88.44
416.49	88.44
416.713	78.44
416.936	97.44
417.159	90.44
417.382	93.44
417.605	78.44
417.828	87.44
418.051	77.44
418.274	101.44
418.497	99.44
418.72	76.44
418.943	101.44
419.166	99.44
419.389	90.44
419.611	104.44
419.834	105.44
420.057	87.44
420.28	90.44
420.503	93.44
420.726	103.44
420.948	91.44
421.171	99.44
421.394	112.44
421.617	104.44
421.839	100.44
422.062	85.44
422.285	94.44
422.507	100.44
422.73	86.44
422.953	101.44
423.175	76.44
423.398	87.44
423.621	91.44
423.843	100.44
424.066	95.44
424.288	93.44
424.511	96.44
424.733	111.44
424.956	97.44
425.178	93.44
425.401	108.44
425.623	97.44
425.846	105.44
426.068	108.44
426.291	105.44
426.513	81.44
426.735	96.44
426.958	92.44
427.18	79.44
427.402	87.44
427.625	98.44
427.847	84.44
428.069	95.44
428.292	90.44
428.514	84.44
428.736	88.44
428.958	80.44
429.181	91.44
429.403	83.44
429.625	97.44
429.847	95.44
430.069	89.44
430.292	96.44
430.514	94.44
430.736	86.44
430.958	99.44
431.18	96.44
431.402	95.44
431.624	89.44
431.846	79.44
432.068	72.44
432.29	95.44
432.512	85.44
432.734	83.44
432.956	92.44
433.178	93.44
433.4	91.44
433.622	94.44
433.844	103.44
434.066	97.44
434.287	91.44
434.509	75.44
434.731	87.44
434.953	79.44
435.175	84.44
435.397	80.44
435.618	99.44
435.84	80.44
436.062	87.44
436.284	92.44
436.505	101.44
436.727	81.44
436.949	101.44
437.17	91.44
437.392	79.44
437.614	100.44
437.835	74.44
438.057	79.44
438.278	84.44
438.5	98.44
438.721	100.44
438.943	97.44
439.165	111.44
439.386	99.44
439.608	111.44
439.829	85.44
440.05	105.44
440.272	98.44
440.493	98.44
440.715	90.44
440.936	88.44
441.158	93.44
441.379	97.44
441.6	85.44
441.822	99.44
442.043	93.44
442.264	97.44
442.486	103.44
442.707	81.44
442.928	99.44
443.149	88.44
443.371	105.44
443.592	105.44
443.813	99.44
444.034	86.44
444.255	98.44
444.476	104.44
444.698	103.44
444.919	100.44
445.14	183.44
445.361	147.44
445.582	85.44
445.803	103.44
446.024	98.44
446.245	102.44
446.466	78.44
446.687	104.44
446.908	102.44
447.129	93.44
447.35	92.44
447.571	100.44
447.792	101.44
448.013	112.44
448.234	89.44
448.455	87.44
448.675	93.44
448.896	101.44
449.117	99.44
449.338	91.44
449.559	103.44
449.779	93.44
450	90.44
450.221	93.44
450.442	85.44
450.662	90.44
450.883	81.44
451.104	101.44
451.324	92.44
451.545	93.44
451.766	100.44
451.986	89.44
452.207	92.44
452.428	104.44
452.648	94.44
452.869	88.44
453.089	91.44
453.31	86.44
453.53	89.44
453.751	92.44
453.971	80.44
454.192	94.44
454.412	80.44
454.633	87.44
454.853	91.44
455.073	83.44
455.294	76.44
455.514	95.44
455.734	97.44
455.955	100.44
456.175	93.44
456.395	100.44
456.616	94.44
456.836	87.44
457.056	93.44
457.276	81.44
457.497	81.44
457.717	101.44
457.937	96.44
458.157	78.44
458.377	91.44
458.598	80.44
458.818	86.44
459.038	92.44
459.258	95.44
459.478	89.44
459.698	82.44
459.918	81.44
460.138	89.44
460.358	89.44
460.578	101.44
460.798	82.44
461.018	94.44
461.238	87.44
461.458	92.44
461.678	90.44
461.898	90.44
462.118	105.44
462.338	94.44
462.558	87.44
462.777	101.44
462.997	99.44
463.217	82.44
463.437	82.44
463.657	96.44
463.876	72.44
464.096	106.44
464.316	79.44
464.536	93.44
464.755	88.44
464.975	85.44
465.195	83.44
465.414	99.44
465.634	100.44
465.854	86.44
466.073	87.44
466.293	95.44
466.512	105.44
466.732	91.44
466.951	92.44
467.171	90.44
467.391	90.44
467.61	88.44
467.829	104.44
468.049	92.44
468.268	91.44
468.488	105.44
468.707	98.44
468.927	93.44
469.146	104.44
469.365	103.44
469.585	109.44
469.804	88.44
470.023	103.44
470.243	98.44
470.462	91.44
470.681	105.44
470.901	105.44
471.12	89.44
471.339	102.44
471.558	95.44
471.777	107.44
471.997	91.44
472.216	95.44
472.435	91.44
472.654	101.44
472.873	106.44
473.092	90.44
473.311	100.44
473.53	76.44
473.749	98.44
473.968	89.44
474.187	95.44
474.406	95.44
474.625	102.44
474.844	90.44
475.063	88.44
475.282	108.44
475.501	85.44
475.72	97.44
475.939	105.44
476.158	99.44
476.377	108.44
476.596	87.44
476.814	85.44
477.033	83.44
477.252	75.44
477.471	109.44
477.69	98.44
477.908	109.44
478.127	81.44
478.346	91.44
478.564	104.44
478.783	108.44
479.002	97.44
479.22	92.44
479.439	105.44
479.658	98.44
479.876	102.44
480.095	104.44
480.313	86.44
480.532	103.44
480.751	85.44
480.969	82.44
481.188	103.44
481.406	73.44
481.624	101.44
481.843	84.44
482.061	73.44
482.28	91.44
482.498	88.44
482.717	93.44
482.935	96.44
483.153	88.44
483.372	99.44
483.59	102.44
483.808	100.44
484.027	101.44
484.245	98.44
484.463	109.44
484.681	98.44
484.9	82.44
485.118	99.44
485.336	93.44
485.554	100.44
485.772	101.44
485.99	72.44
486.209	91.44
486.427	81.44
486.645	82.44
486.863	93.44
487.081	82.44
487.299	97.44
487.517	86.44
487.735	107.44
487.953	117.44
488.171	109.44
488.389	113.44
488.607	102.44
488.825	100.44
489.043	102.44
489.261	97.44
489.479	100.44
489.696	97.44
489.914	95.44
490.132	87.44
490.35	101.44
490.568	109.44
490.786	112.44
491.003	91.44
491.221	100.44
491.439	106.44
491.657	112.44
491.874	106.44
492.092	111.44
492.31	117.44
492.527	125.44
492.745	122.44
492.963	122.44
493.18	94.44
493.398	113.44
493.615	107.44
493.833	98.44
494.05	106.44
494.268	114.44
494.485	121.44
494.703	106.44
494.92	105.44
495.138	106.44
495.355	107.44
495.573	116.44
495.79	95.44
496.008	99.44
496.225	96.44
496.442	104.44
496.66	98.44
496.877	117.44
497.094	110.44
497.312	101.44
497.529	98.44
497.746	98.44
497.963	92.44
498.181	101.44
498.398	94.44
498.615	93.44
498.832	89.44
499.049	83.44
499.267	98.44
499.484	93.44
499.701	89.44
499.918	110.44
500.135	95.44
500.352	107.44
500.569	99.44
500.786	98.44
501.003	102.44
501.22	92.44
501.437	102.44
501.654	103.44
501.871	92.44
502.088	105.44
502.305	89.44
502.522	95.44
502.739	117.44
502.956	98.44
503.172	104.44
503.389	88.44
503.606	90.44
503.823	91.44
504.04	87.44
504.256	87.44
504.473	98.44
504.69	95.44
504.907	80.44
505.123	101.44
505.34	88.44
505.557	85.44
505.773	103.44
505.99	102.44
506.207	97.44
506.423	85.44
506.64	103.44
506.856	105.44
507.073	99.44
507.289	87.44
507.506	99.44
507.722	93.44
507.939	92.44
508.155	101.44
508.372	111.44
508.588	95.44
508.805	92.44
509.021	85.44
509.238	87.44
509.454	88.44
509.67	85.44
509.887	99.44
510.103	89.44
510.319	79.44
510.536	96.44
510.752	97.44
510.968	97.44
511.184	94.44
511.401	79.44
511.617	90.44
511.833	80.44
512.049	102.44
512.265	82.44
512.481	88.44
512.698	79.44
512.914	74.44
513.13	92.44
513.346	81.44
513.562	80.44
513.778	96.44
513.994	91.44
514.21	83.44
514.426	94.44
514.642	86.44
514.858	77.44
515.074	81.44
515.29	83.44
515.506	100.44
515.721	83.44
515.937	89.44
516.153	96.44
516.369	82.44
516.585	86.44
516.801	77.44
517.016	80.44
517.232	77.44
