Data from Location5.07152019.Energy5.Lamp.07192019.3%Agarose_HRD10591_15-37-16-387.txt Node
Date: Fri Jul 19 15:37:16 EDT 2019
User: cochatt
Spectrometer: HR+D1059
Trigger mode: 1
Integration Time (sec): 1.000000E-1
Scans to average: 1
Electric dark correction enabled: true
Nonlinearity correction enabled: false
Boxcar width: 0
XAxis mode: Wavelengths
Number of Pixels in Spectrum: 2048
>>>>>Begin Spectral Data<<<<<
223.165	-21.56
223.4	-21.56
223.635	-21.56
223.869	-27.56
224.104	-7.56
224.338	-13.56
224.573	3.44
224.808	-1.56
225.042	11.44
225.277	-14.56
225.511	-0.56
225.746	-9.56
225.98	2.44
226.215	6.44
226.449	6.44
226.683	18.44
226.918	21.44
227.152	26.44
227.387	24.44
227.621	41.44
227.856	52.44
228.09	43.44
228.324	58.44
228.559	59.44
228.793	55.44
229.027	69.44
229.262	59.44
229.496	69.44
229.73	70.44
229.964	75.44
230.199	63.44
230.433	81.44
230.667	69.44
230.901	76.44
231.136	76.44
231.37	86.44
231.604	86.44
231.838	87.44
232.072	76.44
232.306	89.44
232.541	80.44
232.775	88.44
233.009	71.44
233.243	90.44
233.477	98.44
233.711	64.44
233.945	86.44
234.179	97.44
234.413	90.44
234.647	86.44
234.881	79.44
235.115	71.44
235.349	77.44
235.583	77.44
235.817	77.44
236.051	90.44
236.285	82.44
236.519	68.44
236.753	77.44
236.987	80.44
237.221	77.44
237.455	88.44
237.689	67.44
237.922	79.44
238.156	76.44
238.39	69.44
238.624	75.44
238.858	81.44
239.091	81.44
239.325	69.44
239.559	68.44
239.793	58.44
240.027	68.44
240.26	68.44
240.494	82.44
240.728	74.44
240.961	62.44
241.195	75.44
241.429	81.44
241.662	74.44
241.896	70.44
242.13	59.44
242.363	73.44
242.597	84.44
242.83	75.44
243.064	79.44
243.298	90.44
243.531	78.44
243.765	46.44
243.998	70.44
244.232	82.44
244.465	89.44
244.699	85.44
244.932	65.44
245.166	72.44
245.399	78.44
245.633	69.44
245.866	95.44
246.099	68.44
246.333	72.44
246.566	84.44
246.8	86.44
247.033	68.44
247.266	79.44
247.5	74.44
247.733	81.44
247.966	84.44
248.2	87.44
248.433	88.44
248.666	81.44
248.899	82.44
249.133	90.44
249.366	74.44
249.599	81.44
249.832	82.44
250.066	87.44
250.299	90.44
250.532	84.44
250.765	83.44
250.998	84.44
251.231	85.44
251.465	72.44
251.698	74.44
251.931	75.44
252.164	86.44
252.397	68.44
252.63	90.44
252.863	91.44
253.096	74.44
253.329	73.44
253.562	68.44
253.795	88.44
254.028	80.44
254.261	87.44
254.494	91.44
254.727	88.44
254.96	78.44
255.193	69.44
255.426	94.44
255.659	80.44
255.892	85.44
256.124	92.44
256.357	78.44
256.59	78.44
256.823	74.44
257.056	80.44
257.289	67.44
257.521	85.44
257.754	78.44
257.987	76.44
258.22	82.44
258.452	68.44
258.685	86.44
258.918	85.44
259.151	86.44
259.383	87.44
259.616	86.44
259.849	77.44
260.081	82.44
260.314	87.44
260.547	76.44
260.779	86.44
261.012	97.44
261.244	86.44
261.477	86.44
261.71	75.44
261.942	88.44
262.175	94.44
262.407	80.44
262.64	80.44
262.872	86.44
263.105	66.44
263.337	92.44
263.57	73.44
263.802	83.44
264.035	88.44
264.267	74.44
264.499	88.44
264.732	89.44
264.964	83.44
265.197	96.44
265.429	84.44
265.661	85.44
265.894	74.44
266.126	84.44
266.358	77.44
266.591	79.44
266.823	87.44
267.055	80.44
267.287	95.44
267.52	91.44
267.752	87.44
267.984	78.44
268.216	73.44
268.448	82.44
268.681	75.44
268.913	72.44
269.145	88.44
269.377	90.44
269.609	81.44
269.841	93.44
270.073	90.44
270.306	78.44
270.538	78.44
270.77	83.44
271.002	95.44
271.234	84.44
271.466	74.44
271.698	75.44
271.93	74.44
272.162	94.44
272.394	85.44
272.626	92.44
272.858	92.44
273.09	74.44
273.322	85.44
273.553	84.44
273.785	77.44
274.017	83.44
274.249	91.44
274.481	75.44
274.713	79.44
274.945	67.44
275.176	82.44
275.408	70.44
275.64	80.44
275.872	84.44
276.104	87.44
276.335	79.44
276.567	68.44
276.799	91.44
277.031	80.44
277.262	99.44
277.494	93.44
277.726	83.44
277.957	78.44
278.189	83.44
278.421	87.44
278.652	78.44
278.884	76.44
279.115	78.44
279.347	89.44
279.579	81.44
279.81	74.44
280.042	75.44
280.273	85.44
280.505	72.44
280.736	73.44
280.968	94.44
281.199	72.44
281.431	87.44
281.662	74.44
281.894	94.44
282.125	82.44
282.356	81.44
282.588	84.44
282.819	91.44
283.051	83.44
283.282	91.44
283.513	87.44
283.745	75.44
283.976	77.44
284.207	82.44
284.439	89.44
284.67	91.44
284.901	77.44
285.132	85.44
285.364	84.44
285.595	84.44
285.826	86.44
286.057	89.44
286.288	89.44
286.52	88.44
286.751	82.44
286.982	87.44
287.213	77.44
287.444	96.44
287.675	83.44
287.906	92.44
288.138	92.44
288.369	87.44
288.6	89.44
288.831	82.44
289.062	93.44
289.293	104.44
289.524	86.44
289.755	94.44
289.986	86.44
290.217	91.44
290.448	79.44
290.679	86.44
290.91	99.44
291.141	89.44
291.371	86.44
291.602	75.44
291.833	90.44
292.064	90.44
292.295	82.44
292.526	88.44
292.757	87.44
292.987	88.44
293.218	82.44
293.449	71.44
293.68	93.44
293.91	89.44
294.141	80.44
294.372	91.44
294.603	84.44
294.833	87.44
295.064	70.44
295.295	74.44
295.525	89.44
295.756	79.44
295.987	94.44
296.217	87.44
296.448	88.44
296.679	81.44
296.909	83.44
297.14	89.44
297.37	73.44
297.601	76.44
297.831	85.44
298.062	87.44
298.292	75.44
298.523	87.44
298.753	80.44
298.984	87.44
299.214	78.44
299.445	99.44
299.675	86.44
299.905	72.44
300.136	93.44
300.366	95.44
300.597	95.44
300.827	97.44
301.057	71.44
301.288	83.44
301.518	91.44
301.748	83.44
301.979	90.44
302.209	92.44
302.439	90.44
302.669	82.44
302.9	78.44
303.13	81.44
303.36	92.44
303.59	89.44
303.82	74.44
304.051	87.44
304.281	100.44
304.511	100.44
304.741	88.44
304.971	72.44
305.201	87.44
305.431	83.44
305.661	93.44
305.891	84.44
306.121	83.44
306.352	94.44
306.582	81.44
306.812	94.44
307.042	97.44
307.272	87.44
307.502	86.44
307.731	86.44
307.961	91.44
308.191	80.44
308.421	83.44
308.651	87.44
308.881	99.44
309.111	85.44
309.341	80.44
309.571	82.44
309.8	82.44
310.03	82.44
310.26	71.44
310.49	95.44
310.72	75.44
310.949	85.44
311.179	86.44
311.409	87.44
311.639	88.44
311.868	100.44
312.098	94.44
312.328	79.44
312.557	88.44
312.787	92.44
313.017	100.44
313.246	83.44
313.476	87.44
313.706	82.44
313.935	76.44
314.165	89.44
314.394	85.44
314.624	84.44
314.853	95.44
315.083	78.44
315.312	91.44
315.542	74.44
315.771	86.44
316.001	83.44
316.23	82.44
316.46	76.44
316.689	89.44
316.919	88.44
317.148	95.44
317.377	96.44
317.607	95.44
317.836	97.44
318.065	85.44
318.295	83.44
318.524	82.44
318.753	95.44
318.983	78.44
319.212	69.44
319.441	86.44
319.67	88.44
319.9	81.44
320.129	80.44
320.358	93.44
320.587	82.44
320.816	91.44
321.046	90.44
321.275	86.44
321.504	82.44
321.733	86.44
321.962	65.44
322.191	72.44
322.42	81.44
322.649	88.44
322.878	97.44
323.108	90.44
323.337	88.44
323.566	84.44
323.795	77.44
324.024	93.44
324.253	94.44
324.482	91.44
324.71	104.44
324.939	84.44
325.168	89.44
325.397	84.44
325.626	92.44
325.855	88.44
326.084	67.44
326.313	88.44
326.542	66.44
326.77	87.44
326.999	84.44
327.228	88.44
327.457	98.44
327.686	82.44
327.914	95.44
328.143	94.44
328.372	88.44
328.6	95.44
328.829	80.44
329.058	76.44
329.287	77.44
329.515	75.44
329.744	96.44
329.972	78.44
330.201	76.44
330.43	80.44
330.658	75.44
330.887	98.44
331.115	85.44
331.344	66.44
331.572	86.44
331.801	72.44
332.03	62.44
332.258	80.44
332.486	89.44
332.715	96.44
332.943	92.44
333.172	85.44
333.4	90.44
333.629	95.44
333.857	76.44
334.085	72.44
334.314	85.44
334.542	86.44
334.771	105.44
334.999	92.44
335.227	79.44
335.455	87.44
335.684	76.44
335.912	78.44
336.14	78.44
336.369	83.44
336.597	79.44
336.825	91.44
337.053	89.44
337.281	78.44
337.51	73.44
337.738	100.44
337.966	78.44
338.194	89.44
338.422	80.44
338.65	80.44
338.878	96.44
339.106	73.44
339.334	92.44
339.562	87.44
339.79	82.44
340.018	95.44
340.246	75.44
340.474	72.44
340.702	87.44
340.93	72.44
341.158	87.44
341.386	74.44
341.614	82.44
341.842	82.44
342.07	88.44
342.298	82.44
342.526	87.44
342.754	95.44
342.981	74.44
343.209	71.44
343.437	90.44
343.665	72.44
343.893	78.44
344.12	85.44
344.348	87.44
344.576	89.44
344.804	84.44
345.031	85.44
345.259	87.44
345.487	79.44
345.714	66.44
345.942	82.44
346.17	81.44
346.397	86.44
346.625	85.44
346.853	75.44
347.08	73.44
347.308	89.44
347.535	77.44
347.763	86.44
347.99	96.44
348.218	94.44
348.445	66.44
348.673	83.44
348.9	92.44
349.128	85.44
349.355	86.44
349.583	89.44
349.81	104.44
350.037	78.44
350.265	75.44
350.492	76.44
350.72	90.44
350.947	82.44
351.174	91.44
351.402	80.44
351.629	87.44
351.856	83.44
352.083	75.44
352.311	75.44
352.538	72.44
352.765	87.44
352.992	84.44
353.22	73.44
353.447	81.44
353.674	91.44
353.901	96.44
354.128	90.44
354.355	89.44
354.583	76.44
354.81	76.44
355.037	73.44
355.264	84.44
355.491	74.44
355.718	80.44
355.945	105.44
356.172	70.44
356.399	80.44
356.626	92.44
356.853	86.44
357.08	92.44
357.307	74.44
357.534	65.44
357.761	81.44
357.988	82.44
358.215	90.44
358.441	85.44
358.668	96.44
358.895	88.44
359.122	94.44
359.349	73.44
359.576	89.44
359.802	86.44
360.029	71.44
360.256	77.44
360.483	89.44
360.709	85.44
360.936	100.44
361.163	78.44
361.39	72.44
361.616	81.44
361.843	91.44
362.07	65.44
362.296	71.44
362.523	83.44
362.749	84.44
362.976	86.44
363.203	86.44
363.429	89.44
363.656	84.44
363.882	87.44
364.109	72.44
364.335	90.44
364.562	82.44
364.788	75.44
365.015	83.44
365.241	89.44
365.468	81.44
365.694	73.44
365.92	84.44
366.147	92.44
366.373	102.44
366.599	67.44
366.826	74.44
367.052	79.44
367.278	82.44
367.505	82.44
367.731	81.44
367.957	84.44
368.184	88.44
368.41	86.44
368.636	85.44
368.862	87.44
369.089	72.44
369.315	83.44
369.541	94.44
369.767	80.44
369.993	92.44
370.219	68.44
370.445	79.44
370.672	102.44
370.898	88.44
371.124	88.44
371.35	81.44
371.576	86.44
371.802	81.44
372.028	89.44
372.254	83.44
372.48	68.44
372.706	75.44
372.932	86.44
373.158	90.44
373.384	84.44
373.61	75.44
373.835	69.44
374.061	92.44
374.287	83.44
374.513	80.44
374.739	82.44
374.965	101.44
375.191	82.44
375.416	78.44
375.642	87.44
375.868	77.44
376.094	87.44
376.319	91.44
376.545	88.44
376.771	83.44
376.997	85.44
377.222	83.44
377.448	91.44
377.674	77.44
377.899	75.44
378.125	57.44
378.35	91.44
378.576	76.44
378.802	90.44
379.027	95.44
379.253	97.44
379.478	86.44
379.704	87.44
379.929	82.44
380.155	89.44
380.38	90.44
380.606	103.44
380.831	88.44
381.057	90.44
381.282	85.44
381.507	86.44
381.733	102.44
381.958	93.44
382.184	83.44
382.409	97.44
382.634	84.44
382.86	96.44
383.085	85.44
383.31	84.44
383.535	93.44
383.761	77.44
383.986	84.44
384.211	81.44
384.436	79.44
384.662	80.44
384.887	81.44
385.112	82.44
385.337	63.44
385.562	77.44
385.787	87.44
386.013	85.44
386.238	86.44
386.463	86.44
386.688	85.44
386.913	102.44
387.138	90.44
387.363	63.44
387.588	86.44
387.813	95.44
388.038	85.44
388.263	93.44
388.488	99.44
388.713	74.44
388.938	89.44
389.163	108.44
389.387	90.44
389.612	90.44
389.837	81.44
390.062	95.44
390.287	86.44
390.512	85.44
390.736	80.44
390.961	74.44
391.186	81.44
391.411	71.44
391.636	87.44
391.86	83.44
392.085	106.44
392.31	90.44
392.534	101.44
392.759	87.44
392.984	83.44
393.208	85.44
393.433	80.44
393.658	78.44
393.882	86.44
394.107	76.44
394.331	86.44
394.556	88.44
394.78	85.44
395.005	91.44
395.229	81.44
395.454	83.44
395.678	83.44
395.903	82.44
396.127	106.44
396.352	87.44
396.576	81.44
396.801	82.44
397.025	85.44
397.249	75.44
397.474	83.44
397.698	73.44
397.922	79.44
398.147	85.44
398.371	75.44
398.595	69.44
398.82	99.44
399.044	88.44
399.268	80.44
399.492	96.44
399.717	90.44
399.941	92.44
400.165	73.44
400.389	94.44
400.613	86.44
400.837	91.44
401.062	90.44
401.286	96.44
401.51	98.44
401.734	86.44
401.958	98.44
402.182	83.44
402.406	87.44
402.63	87.44
402.854	68.44
403.078	91.44
403.302	75.44
403.526	67.44
403.75	83.44
403.974	77.44
404.198	81.44
404.422	84.44
404.645	89.44
404.869	90.44
405.093	99.44
405.317	100.44
405.541	72.44
405.765	95.44
405.988	84.44
406.212	95.44
406.436	84.44
406.66	86.44
406.883	82.44
407.107	97.44
407.331	85.44
407.555	80.44
407.778	96.44
408.002	83.44
408.226	103.44
408.449	95.44
408.673	87.44
408.896	93.44
409.12	82.44
409.344	95.44
409.567	81.44
409.791	75.44
410.014	81.44
410.238	93.44
410.461	83.44
410.685	86.44
410.908	80.44
411.132	91.44
411.355	95.44
411.578	83.44
411.802	99.44
412.025	96.44
412.249	91.44
412.472	93.44
412.695	88.44
412.919	88.44
413.142	89.44
413.365	83.44
413.589	91.44
413.812	76.44
414.035	83.44
414.258	97.44
414.482	98.44
414.705	79.44
414.928	95.44
415.151	90.44
415.374	91.44
415.597	77.44
415.821	81.44
416.044	107.44
416.267	78.44
416.49	93.44
416.713	95.44
416.936	89.44
417.159	74.44
417.382	83.44
417.605	81.44
417.828	71.44
418.051	88.44
418.274	87.44
418.497	83.44
418.72	80.44
418.943	98.44
419.166	98.44
419.389	98.44
419.611	94.44
419.834	94.44
420.057	87.44
420.28	90.44
420.503	100.44
420.726	90.44
420.948	97.44
421.171	83.44
421.394	103.44
421.617	92.44
421.839	93.44
422.062	83.44
422.285	85.44
422.507	87.44
422.73	85.44
422.953	86.44
423.175	80.44
423.398	88.44
423.621	95.44
423.843	86.44
424.066	86.44
424.288	94.44
424.511	92.44
424.733	86.44
424.956	89.44
425.178	86.44
425.401	99.44
425.623	101.44
425.846	107.44
426.068	91.44
426.291	105.44
426.513	92.44
426.735	98.44
426.958	83.44
427.18	79.44
427.402	97.44
427.625	89.44
427.847	85.44
428.069	80.44
428.292	94.44
428.514	92.44
428.736	88.44
428.958	101.44
429.181	90.44
429.403	87.44
429.625	94.44
429.847	94.44
430.069	86.44
430.292	90.44
430.514	102.44
430.736	81.44
430.958	79.44
431.18	91.44
431.402	87.44
431.624	85.44
431.846	98.44
432.068	84.44
432.29	79.44
432.512	79.44
432.734	104.44
432.956	95.44
433.178	99.44
433.4	100.44
433.622	91.44
433.844	89.44
434.066	91.44
434.287	67.44
434.509	83.44
434.731	88.44
434.953	83.44
435.175	95.44
435.397	91.44
435.618	90.44
435.84	95.44
436.062	74.44
436.284	97.44
436.505	88.44
436.727	83.44
436.949	87.44
437.17	105.44
437.392	107.44
437.614	82.44
437.835	87.44
438.057	85.44
438.278	89.44
438.5	85.44
438.721	92.44
438.943	96.44
439.165	98.44
439.386	105.44
439.608	107.44
439.829	76.44
440.05	88.44
440.272	103.44
440.493	96.44
440.715	95.44
440.936	79.44
441.158	89.44
441.379	92.44
441.6	79.44
441.822	83.44
442.043	89.44
442.264	89.44
442.486	79.44
442.707	85.44
442.928	82.44
443.149	113.44
443.371	101.44
443.592	89.44
443.813	85.44
444.034	103.44
444.255	95.44
444.476	94.44
444.698	99.44
444.919	96.44
445.14	194.44
445.361	134.44
445.582	99.44
445.803	83.44
446.024	88.44
446.245	89.44
446.466	86.44
446.687	88.44
446.908	81.44
447.129	101.44
447.35	105.44
447.571	115.44
447.792	100.44
448.013	106.44
448.234	99.44
448.455	99.44
448.675	100.44
448.896	109.44
449.117	97.44
449.338	82.44
449.559	99.44
449.779	86.44
450	96.44
450.221	92.44
450.442	84.44
450.662	96.44
450.883	87.44
451.104	91.44
451.324	100.44
451.545	87.44
451.766	97.44
451.986	84.44
452.207	82.44
452.428	99.44
452.648	111.44
452.869	90.44
453.089	89.44
453.31	78.44
453.53	84.44
453.751	85.44
453.971	86.44
454.192	78.44
454.412	94.44
454.633	80.44
454.853	90.44
455.073	98.44
455.294	95.44
455.514	84.44
455.734	106.44
455.955	85.44
456.175	78.44
456.395	101.44
456.616	75.44
456.836	97.44
457.056	84.44
457.276	83.44
457.497	86.44
457.717	89.44
457.937	87.44
458.157	83.44
458.377	80.44
458.598	83.44
458.818	86.44
459.038	75.44
459.258	77.44
459.478	88.44
459.698	82.44
459.918	93.44
460.138	95.44
460.358	89.44
460.578	99.44
460.798	71.44
461.018	76.44
461.238	84.44
461.458	81.44
461.678	85.44
461.898	92.44
462.118	73.44
462.338	87.44
462.558	85.44
462.777	90.44
462.997	95.44
463.217	92.44
463.437	104.44
463.657	90.44
463.876	91.44
464.096	78.44
464.316	82.44
464.536	90.44
464.755	100.44
464.975	85.44
465.195	93.44
465.414	70.44
465.634	97.44
465.854	101.44
466.073	90.44
466.293	96.44
466.512	80.44
466.732	98.44
466.951	92.44
467.171	87.44
467.391	79.44
467.61	86.44
467.829	91.44
468.049	95.44
468.268	107.44
468.488	84.44
468.707	93.44
468.927	105.44
469.146	92.44
469.365	91.44
469.585	83.44
469.804	93.44
470.023	99.44
470.243	88.44
470.462	94.44
470.681	96.44
470.901	86.44
471.12	104.44
471.339	98.44
471.558	101.44
471.777	80.44
471.997	103.44
472.216	95.44
472.435	101.44
472.654	95.44
472.873	80.44
473.092	83.44
473.311	81.44
473.53	104.44
473.749	99.44
473.968	99.44
474.187	97.44
474.406	90.44
474.625	80.44
474.844	94.44
475.063	97.44
475.282	76.44
475.501	92.44
475.72	92.44
475.939	110.44
476.158	102.44
476.377	89.44
476.596	82.44
476.814	87.44
477.033	86.44
477.252	81.44
477.471	95.44
477.69	99.44
477.908	96.44
478.127	95.44
478.346	99.44
478.564	108.44
478.783	98.44
479.002	104.44
479.22	88.44
479.439	92.44
479.658	86.44
479.876	73.44
480.095	91.44
480.313	94.44
480.532	87.44
480.751	84.44
480.969	78.44
481.188	93.44
481.406	88.44
481.624	86.44
481.843	86.44
482.061	77.44
482.28	94.44
482.498	85.44
482.717	92.44
482.935	85.44
483.153	90.44
483.372	93.44
483.59	91.44
483.808	80.44
484.027	92.44
484.245	68.44
484.463	102.44
484.681	113.44
484.9	87.44
485.118	103.44
485.336	100.44
485.554	91.44
485.772	91.44
485.99	88.44
486.209	83.44
486.427	76.44
486.645	79.44
486.863	90.44
487.081	108.44
487.299	104.44
487.517	89.44
487.735	107.44
487.953	107.44
488.171	106.44
488.389	112.44
488.607	86.44
488.825	94.44
489.043	102.44
489.261	98.44
489.479	104.44
489.696	101.44
489.914	91.44
490.132	83.44
490.35	95.44
490.568	96.44
490.786	135.44
491.003	114.44
491.221	108.44
491.439	108.44
491.657	101.44
491.874	113.44
492.092	122.44
492.31	133.44
492.527	119.44
492.745	112.44
492.963	107.44
493.18	110.44
493.398	103.44
493.615	116.44
493.833	103.44
494.05	106.44
494.268	99.44
494.485	110.44
494.703	107.44
494.92	114.44
495.138	104.44
495.355	100.44
495.573	109.44
495.79	106.44
496.008	93.44
496.225	94.44
496.442	99.44
496.66	100.44
496.877	100.44
497.094	96.44
497.312	95.44
497.529	99.44
497.746	106.44
497.963	103.44
498.181	85.44
498.398	94.44
498.615	89.44
498.832	76.44
499.049	76.44
499.267	99.44
499.484	84.44
499.701	92.44
499.918	101.44
500.135	106.44
500.352	103.44
500.569	114.44
500.786	101.44
501.003	104.44
501.22	87.44
501.437	103.44
501.654	96.44
501.871	98.44
502.088	99.44
502.305	104.44
502.522	93.44
502.739	100.44
502.956	96.44
503.172	97.44
503.389	103.44
503.606	105.44
503.823	100.44
504.04	95.44
504.256	88.44
504.473	88.44
504.69	77.44
504.907	89.44
505.123	96.44
505.34	89.44
505.557	83.44
505.773	98.44
505.99	90.44
506.207	90.44
506.423	84.44
506.64	89.44
506.856	77.44
507.073	89.44
507.289	92.44
507.506	89.44
507.722	91.44
507.939	92.44
508.155	84.44
508.372	85.44
508.588	99.44
508.805	96.44
509.021	94.44
509.238	98.44
509.454	81.44
509.67	90.44
509.887	91.44
510.103	86.44
510.319	77.44
510.536	95.44
510.752	86.44
510.968	68.44
511.184	85.44
511.401	80.44
511.617	95.44
511.833	80.44
512.049	86.44
512.265	69.44
512.481	79.44
512.698	90.44
512.914	81.44
513.13	83.44
513.346	81.44
513.562	88.44
513.778	75.44
513.994	85.44
514.21	83.44
514.426	91.44
514.642	75.44
514.858	82.44
515.074	93.44
515.29	100.44
515.506	86.44
515.721	87.44
515.937	82.44
516.153	89.44
516.369	107.44
516.585	83.44
516.801	93.44
517.016	88.44
517.232	87.44
517.448	80.44
517.664	87.44
517.879	92.44
