Data from Location5.07152019.Energy5.Lamp.07192019.3%Agarose_HRD10591_16-03-46-628.txt Node
Date: Fri Jul 19 16:03:46 EDT 2019
User: cochatt
Spectrometer: HR+D1059
Trigger mode: 1
Integration Time (sec): 1.000000E-1
Scans to average: 1
Electric dark correction enabled: true
Nonlinearity correction enabled: false
Boxcar width: 0
XAxis mode: Wavelengths
Number of Pixels in Spectrum: 2048
>>>>>Begin Spectral Data<<<<<
223.165	-21.94
223.4	-21.94
223.635	-21.94
223.869	-17.94
224.104	-6.94
224.338	-8.94
224.573	-20.94
224.808	-6.94
225.042	-14.94
225.277	-1.94
225.511	-2.94
225.746	3.06
225.98	17.06
226.215	10.06
226.449	18.06
226.683	-2.94
226.918	24.06
227.152	34.06
227.387	30.06
227.621	42.06
227.856	46.06
228.09	36.06
228.324	56.06
228.559	52.06
228.793	52.06
229.027	55.06
229.262	57.06
229.496	68.06
229.73	76.06
229.964	73.06
230.199	82.06
230.433	72.06
230.667	81.06
230.901	65.06
231.136	81.06
231.37	70.06
231.604	76.06
231.838	67.06
232.072	78.06
232.306	76.06
232.541	68.06
232.775	82.06
233.009	85.06
233.243	58.06
233.477	78.06
233.711	82.06
233.945	85.06
234.179	68.06
234.413	77.06
234.647	81.06
234.881	87.06
235.115	97.06
235.349	80.06
235.583	87.06
235.817	85.06
236.051	72.06
236.285	72.06
236.519	90.06
236.753	73.06
236.987	77.06
237.221	62.06
237.455	69.06
237.689	79.06
237.922	69.06
238.156	94.06
238.39	90.06
238.624	68.06
238.858	82.06
239.091	77.06
239.325	80.06
239.559	73.06
239.793	64.06
240.027	66.06
240.26	96.06
240.494	93.06
240.728	63.06
240.961	73.06
241.195	83.06
241.429	74.06
241.662	61.06
241.896	65.06
242.13	67.06
242.363	81.06
242.597	76.06
242.83	66.06
243.064	71.06
243.298	62.06
243.531	67.06
243.765	82.06
243.998	80.06
244.232	82.06
244.465	75.06
244.699	82.06
244.932	74.06
245.166	73.06
245.399	77.06
245.633	70.06
245.866	92.06
246.099	71.06
246.333	76.06
246.566	72.06
246.8	86.06
247.033	96.06
247.266	75.06
247.5	76.06
247.733	86.06
247.966	77.06
248.2	70.06
248.433	102.06
248.666	79.06
248.899	74.06
249.133	71.06
249.366	73.06
249.599	73.06
249.832	80.06
250.066	88.06
250.299	78.06
250.532	82.06
250.765	80.06
250.998	72.06
251.231	85.06
251.465	96.06
251.698	77.06
251.931	88.06
252.164	72.06
252.397	78.06
252.63	78.06
252.863	82.06
253.096	78.06
253.329	70.06
253.562	70.06
253.795	58.06
254.028	73.06
254.261	85.06
254.494	77.06
254.727	79.06
254.96	83.06
255.193	99.06
255.426	87.06
255.659	82.06
255.892	77.06
256.124	82.06
256.357	81.06
256.59	90.06
256.823	84.06
257.056	86.06
257.289	75.06
257.521	86.06
257.754	87.06
257.987	82.06
258.22	78.06
258.452	95.06
258.685	86.06
258.918	80.06
259.151	68.06
259.383	71.06
259.616	79.06
259.849	78.06
260.081	77.06
260.314	71.06
260.547	68.06
260.779	89.06
261.012	80.06
261.244	72.06
261.477	95.06
261.71	78.06
261.942	74.06
262.175	78.06
262.407	87.06
262.64	64.06
262.872	86.06
263.105	83.06
263.337	99.06
263.57	82.06
263.802	78.06
264.035	81.06
264.267	76.06
264.499	72.06
264.732	73.06
264.964	82.06
265.197	78.06
265.429	68.06
265.661	84.06
265.894	90.06
266.126	83.06
266.358	88.06
266.591	90.06
266.823	78.06
267.055	91.06
267.287	76.06
267.52	79.06
267.752	82.06
267.984	79.06
268.216	77.06
268.448	102.06
268.681	78.06
268.913	79.06
269.145	80.06
269.377	73.06
269.609	87.06
269.841	80.06
270.073	94.06
270.306	83.06
270.538	81.06
270.77	84.06
271.002	99.06
271.234	88.06
271.466	84.06
271.698	97.06
271.93	81.06
272.162	79.06
272.394	88.06
272.626	90.06
272.858	85.06
273.09	89.06
273.322	89.06
273.553	78.06
273.785	87.06
274.017	74.06
274.249	82.06
274.481	88.06
274.713	83.06
274.945	93.06
275.176	89.06
275.408	91.06
275.64	90.06
275.872	96.06
276.104	81.06
276.335	86.06
276.567	86.06
276.799	84.06
277.031	81.06
277.262	75.06
277.494	72.06
277.726	77.06
277.957	84.06
278.189	81.06
278.421	96.06
278.652	85.06
278.884	87.06
279.115	84.06
279.347	83.06
279.579	87.06
279.81	91.06
280.042	86.06
280.273	85.06
280.505	84.06
280.736	93.06
280.968	95.06
281.199	79.06
281.431	97.06
281.662	83.06
281.894	92.06
282.125	81.06
282.356	90.06
282.588	89.06
282.819	88.06
283.051	89.06
283.282	74.06
283.513	87.06
283.745	72.06
283.976	80.06
284.207	95.06
284.439	83.06
284.67	83.06
284.901	88.06
285.132	96.06
285.364	78.06
285.595	84.06
285.826	78.06
286.057	88.06
286.288	67.06
286.52	78.06
286.751	102.06
286.982	86.06
287.213	89.06
287.444	85.06
287.675	92.06
287.906	79.06
288.138	85.06
288.369	93.06
288.6	87.06
288.831	88.06
289.062	89.06
289.293	88.06
289.524	84.06
289.755	85.06
289.986	80.06
290.217	87.06
290.448	90.06
290.679	102.06
290.91	98.06
291.141	93.06
291.371	102.06
291.602	90.06
291.833	90.06
292.064	81.06
292.295	86.06
292.526	88.06
292.757	94.06
292.987	96.06
293.218	85.06
293.449	85.06
293.68	104.06
293.91	82.06
294.141	98.06
294.372	83.06
294.603	80.06
294.833	89.06
295.064	104.06
295.295	89.06
295.525	87.06
295.756	93.06
295.987	87.06
296.217	80.06
296.448	91.06
296.679	94.06
296.909	101.06
297.14	92.06
297.37	83.06
297.601	90.06
297.831	82.06
298.062	90.06
298.292	83.06
298.523	89.06
298.753	93.06
298.984	96.06
299.214	91.06
299.445	85.06
299.675	83.06
299.905	95.06
300.136	97.06
300.366	97.06
300.597	82.06
300.827	90.06
301.057	85.06
301.288	90.06
301.518	111.06
301.748	81.06
301.979	100.06
302.209	73.06
302.439	83.06
302.669	94.06
302.9	86.06
303.13	102.06
303.36	85.06
303.59	81.06
303.82	87.06
304.051	97.06
304.281	94.06
304.511	95.06
304.741	76.06
304.971	93.06
305.201	93.06
305.431	104.06
305.661	96.06
305.891	89.06
306.121	94.06
306.352	93.06
306.582	82.06
306.812	84.06
307.042	87.06
307.272	93.06
307.502	90.06
307.731	75.06
307.961	96.06
308.191	92.06
308.421	95.06
308.651	79.06
308.881	80.06
309.111	90.06
309.341	83.06
309.571	86.06
309.8	92.06
310.03	84.06
310.26	94.06
310.49	86.06
310.72	97.06
310.949	85.06
311.179	80.06
311.409	90.06
311.639	102.06
311.868	93.06
312.098	90.06
312.328	83.06
312.557	92.06
312.787	90.06
313.017	91.06
313.246	93.06
313.476	90.06
313.706	79.06
313.935	81.06
314.165	82.06
314.394	77.06
314.624	92.06
314.853	94.06
315.083	90.06
315.312	86.06
315.542	92.06
315.771	87.06
316.001	91.06
316.23	93.06
316.46	97.06
316.689	86.06
316.919	91.06
317.148	86.06
317.377	90.06
317.607	91.06
317.836	94.06
318.065	90.06
318.295	90.06
318.524	102.06
318.753	99.06
318.983	99.06
319.212	95.06
319.441	79.06
319.67	95.06
319.9	75.06
320.129	87.06
320.358	87.06
320.587	89.06
320.816	77.06
321.046	74.06
321.275	89.06
321.504	79.06
321.733	87.06
321.962	90.06
322.191	93.06
322.42	92.06
322.649	83.06
322.878	85.06
323.108	75.06
323.337	90.06
323.566	92.06
323.795	87.06
324.024	100.06
324.253	89.06
324.482	97.06
324.71	94.06
324.939	96.06
325.168	96.06
325.397	93.06
325.626	93.06
325.855	88.06
326.084	97.06
326.313	103.06
326.542	104.06
326.77	87.06
326.999	93.06
327.228	87.06
327.457	97.06
327.686	98.06
327.914	96.06
328.143	92.06
328.372	85.06
328.6	95.06
328.829	74.06
329.058	87.06
329.287	96.06
329.515	101.06
329.744	81.06
329.972	72.06
330.201	82.06
330.43	95.06
330.658	98.06
330.887	92.06
331.115	91.06
331.344	72.06
331.572	78.06
331.801	84.06
332.03	89.06
332.258	94.06
332.486	101.06
332.715	92.06
332.943	89.06
333.172	94.06
333.4	88.06
333.629	97.06
333.857	89.06
334.085	89.06
334.314	81.06
334.542	106.06
334.771	83.06
334.999	81.06
335.227	89.06
335.455	105.06
335.684	88.06
335.912	95.06
336.14	78.06
336.369	97.06
336.597	90.06
336.825	93.06
337.053	94.06
337.281	86.06
337.51	83.06
337.738	99.06
337.966	97.06
338.194	89.06
338.422	110.06
338.65	85.06
338.878	100.06
339.106	82.06
339.334	94.06
339.562	89.06
339.79	83.06
340.018	94.06
340.246	93.06
340.474	91.06
340.702	83.06
340.93	108.06
341.158	90.06
341.386	98.06
341.614	80.06
341.842	84.06
342.07	92.06
342.298	89.06
342.526	89.06
342.754	96.06
342.981	94.06
343.209	74.06
343.437	103.06
343.665	103.06
343.893	91.06
344.12	96.06
344.348	103.06
344.576	71.06
344.804	87.06
345.031	98.06
345.259	90.06
345.487	111.06
345.714	86.06
345.942	100.06
346.17	89.06
346.397	80.06
346.625	94.06
346.853	90.06
347.08	87.06
347.308	102.06
347.535	100.06
347.763	92.06
347.99	105.06
348.218	113.06
348.445	87.06
348.673	99.06
348.9	93.06
349.128	100.06
349.355	87.06
349.583	88.06
349.81	111.06
350.037	91.06
350.265	94.06
350.492	89.06
350.72	83.06
350.947	97.06
351.174	98.06
351.402	101.06
351.629	93.06
351.856	82.06
352.083	80.06
352.311	88.06
352.538	85.06
352.765	88.06
352.992	84.06
353.22	81.06
353.447	95.06
353.674	101.06
353.901	82.06
354.128	88.06
354.355	96.06
354.583	91.06
354.81	86.06
355.037	93.06
355.264	98.06
355.491	84.06
355.718	95.06
355.945	101.06
356.172	93.06
356.399	102.06
356.626	102.06
356.853	86.06
357.08	94.06
357.307	90.06
357.534	96.06
357.761	75.06
357.988	94.06
358.215	89.06
358.441	88.06
358.668	93.06
358.895	95.06
359.122	92.06
359.349	111.06
359.576	81.06
359.802	102.06
360.029	101.06
360.256	94.06
360.483	90.06
360.709	94.06
360.936	90.06
361.163	92.06
361.39	86.06
361.616	95.06
361.843	87.06
362.07	85.06
362.296	91.06
362.523	90.06
362.749	86.06
362.976	81.06
363.203	83.06
363.429	78.06
363.656	85.06
363.882	88.06
364.109	80.06
364.335	97.06
364.562	90.06
364.788	86.06
365.015	86.06
365.241	90.06
365.468	90.06
365.694	93.06
365.92	97.06
366.147	89.06
366.373	95.06
366.599	90.06
366.826	95.06
367.052	84.06
367.278	84.06
367.505	82.06
367.731	91.06
367.957	85.06
368.184	94.06
368.41	104.06
368.636	83.06
368.862	98.06
369.089	93.06
369.315	91.06
369.541	79.06
369.767	97.06
369.993	86.06
370.219	84.06
370.445	89.06
370.672	79.06
370.898	98.06
371.124	78.06
371.35	84.06
371.576	96.06
371.802	87.06
372.028	77.06
372.254	87.06
372.48	87.06
372.706	90.06
372.932	89.06
373.158	89.06
373.384	105.06
373.61	98.06
373.835	94.06
374.061	88.06
374.287	86.06
374.513	86.06
374.739	89.06
374.965	99.06
375.191	85.06
375.416	99.06
375.642	89.06
375.868	95.06
376.094	92.06
376.319	80.06
376.545	87.06
376.771	92.06
376.997	91.06
377.222	89.06
377.448	74.06
377.674	100.06
377.899	63.06
378.125	85.06
378.35	99.06
378.576	84.06
378.802	92.06
379.027	102.06
379.253	84.06
379.478	82.06
379.704	76.06
379.929	102.06
380.155	86.06
380.38	94.06
380.606	77.06
380.831	96.06
381.057	85.06
381.282	85.06
381.507	93.06
381.733	93.06
381.958	89.06
382.184	81.06
382.409	82.06
382.634	90.06
382.86	95.06
383.085	104.06
383.31	90.06
383.535	90.06
383.761	82.06
383.986	98.06
384.211	87.06
384.436	89.06
384.662	93.06
384.887	67.06
385.112	99.06
385.337	91.06
385.562	85.06
385.787	100.06
386.013	101.06
386.238	84.06
386.463	93.06
386.688	87.06
386.913	90.06
387.138	101.06
387.363	84.06
387.588	81.06
387.813	88.06
388.038	97.06
388.263	108.06
388.488	96.06
388.713	91.06
388.938	86.06
389.163	85.06
389.387	80.06
389.612	86.06
389.837	85.06
390.062	92.06
390.287	92.06
390.512	94.06
390.736	94.06
390.961	87.06
391.186	91.06
391.411	84.06
391.636	95.06
391.86	93.06
392.085	96.06
392.31	96.06
392.534	86.06
392.759	92.06
392.984	95.06
393.208	100.06
393.433	84.06
393.658	116.06
393.882	81.06
394.107	102.06
394.331	85.06
394.556	97.06
394.78	92.06
395.005	90.06
395.229	90.06
395.454	82.06
395.678	98.06
395.903	94.06
396.127	96.06
396.352	89.06
396.576	97.06
396.801	96.06
397.025	89.06
397.249	87.06
397.474	103.06
397.698	82.06
397.922	97.06
398.147	111.06
398.371	91.06
398.595	102.06
398.82	105.06
399.044	100.06
399.268	99.06
399.492	97.06
399.717	105.06
399.941	113.06
400.165	92.06
400.389	93.06
400.613	85.06
400.837	89.06
401.062	101.06
401.286	85.06
401.51	84.06
401.734	86.06
401.958	89.06
402.182	107.06
402.406	101.06
402.63	112.06
402.854	99.06
403.078	98.06
403.302	79.06
403.526	92.06
403.75	88.06
403.974	93.06
404.198	112.06
404.422	97.06
404.645	85.06
404.869	104.06
405.093	117.06
405.317	108.06
405.541	117.06
405.765	101.06
405.988	116.06
406.212	86.06
406.436	99.06
406.66	105.06
406.883	104.06
407.107	95.06
407.331	87.06
407.555	84.06
407.778	91.06
408.002	97.06
408.226	94.06
408.449	91.06
408.673	82.06
408.896	92.06
409.12	112.06
409.344	90.06
409.567	101.06
409.791	83.06
410.014	104.06
410.238	97.06
410.461	110.06
410.685	90.06
410.908	88.06
411.132	94.06
411.355	82.06
411.578	109.06
411.802	102.06
412.025	93.06
412.249	111.06
412.472	99.06
412.695	102.06
412.919	92.06
413.142	97.06
413.365	90.06
413.589	99.06
413.812	112.06
414.035	93.06
414.258	88.06
414.482	92.06
414.705	100.06
414.928	96.06
415.151	96.06
415.374	90.06
415.597	93.06
415.821	94.06
416.044	89.06
416.267	87.06
416.49	84.06
416.713	100.06
416.936	94.06
417.159	93.06
417.382	82.06
417.605	90.06
417.828	77.06
418.051	79.06
418.274	86.06
418.497	104.06
418.72	77.06
418.943	88.06
419.166	109.06
419.389	99.06
419.611	96.06
419.834	95.06
420.057	99.06
420.28	103.06
420.503	93.06
420.726	96.06
420.948	86.06
421.171	104.06
421.394	97.06
421.617	99.06
421.839	106.06
422.062	86.06
422.285	86.06
422.507	78.06
422.73	98.06
422.953	77.06
423.175	94.06
423.398	92.06
423.621	87.06
423.843	91.06
424.066	93.06
424.288	97.06
424.511	87.06
424.733	99.06
424.956	93.06
425.178	121.06
425.401	101.06
425.623	102.06
425.846	109.06
426.068	83.06
426.291	107.06
426.513	106.06
426.735	97.06
426.958	88.06
427.18	100.06
427.402	93.06
427.625	89.06
427.847	85.06
428.069	88.06
428.292	100.06
428.514	95.06
428.736	95.06
428.958	76.06
429.181	84.06
429.403	101.06
429.625	76.06
429.847	102.06
430.069	91.06
430.292	81.06
430.514	97.06
430.736	81.06
430.958	88.06
431.18	92.06
431.402	89.06
431.624	94.06
431.846	93.06
432.068	78.06
432.29	89.06
432.512	89.06
432.734	80.06
432.956	96.06
433.178	93.06
433.4	81.06
433.622	85.06
433.844	88.06
434.066	87.06
434.287	88.06
434.509	95.06
434.731	102.06
434.953	96.06
435.175	96.06
435.397	114.06
435.618	89.06
435.84	98.06
436.062	89.06
436.284	102.06
436.505	96.06
436.727	111.06
436.949	94.06
437.17	99.06
437.392	80.06
437.614	87.06
437.835	93.06
438.057	80.06
438.278	81.06
438.5	107.06
438.721	81.06
438.943	96.06
439.165	92.06
439.386	95.06
439.608	102.06
439.829	90.06
440.05	94.06
440.272	90.06
440.493	79.06
440.715	82.06
440.936	94.06
441.158	94.06
441.379	93.06
441.6	101.06
441.822	93.06
442.043	100.06
442.264	80.06
442.486	89.06
442.707	82.06
442.928	95.06
443.149	104.06
443.371	88.06
443.592	92.06
443.813	90.06
444.034	82.06
444.255	81.06
444.476	98.06
444.698	103.06
444.919	91.06
445.14	168.06
445.361	143.06
445.582	84.06
445.803	92.06
446.024	96.06
446.245	102.06
446.466	88.06
446.687	85.06
446.908	93.06
447.129	92.06
447.35	90.06
447.571	91.06
447.792	80.06
448.013	89.06
448.234	92.06
448.455	84.06
448.675	107.06
448.896	81.06
449.117	92.06
449.338	85.06
449.559	94.06
449.779	90.06
450	88.06
450.221	91.06
450.442	98.06
450.662	91.06
450.883	87.06
451.104	101.06
451.324	87.06
451.545	88.06
451.766	82.06
451.986	94.06
452.207	86.06
452.428	82.06
452.648	89.06
452.869	96.06
453.089	93.06
453.31	79.06
453.53	95.06
453.751	103.06
453.971	84.06
454.192	82.06
454.412	91.06
454.633	85.06
454.853	106.06
455.073	83.06
455.294	77.06
455.514	86.06
455.734	86.06
455.955	93.06
456.175	91.06
456.395	98.06
456.616	93.06
456.836	88.06
457.056	83.06
457.276	86.06
457.497	94.06
457.717	88.06
457.937	86.06
458.157	81.06
458.377	91.06
458.598	104.06
458.818	84.06
459.038	78.06
459.258	88.06
459.478	95.06
459.698	97.06
459.918	92.06
460.138	84.06
460.358	97.06
460.578	103.06
460.798	86.06
461.018	108.06
461.238	95.06
461.458	90.06
461.678	89.06
461.898	89.06
462.118	85.06
462.338	93.06
462.558	88.06
462.777	109.06
462.997	108.06
463.217	102.06
463.437	98.06
463.657	102.06
463.876	104.06
464.096	105.06
464.316	108.06
464.536	103.06
464.755	97.06
464.975	103.06
465.195	102.06
465.414	86.06
465.634	96.06
465.854	98.06
466.073	96.06
466.293	93.06
466.512	96.06
466.732	88.06
466.951	85.06
467.171	81.06
467.391	100.06
467.61	92.06
467.829	96.06
468.049	80.06
468.268	95.06
468.488	97.06
468.707	89.06
468.927	94.06
469.146	82.06
469.365	89.06
469.585	98.06
469.804	98.06
470.023	96.06
470.243	97.06
470.462	91.06
470.681	89.06
470.901	87.06
471.12	88.06
471.339	85.06
471.558	89.06
471.777	94.06
471.997	114.06
472.216	94.06
472.435	94.06
472.654	90.06
472.873	88.06
473.092	102.06
473.311	99.06
473.53	108.06
473.749	98.06
473.968	100.06
474.187	88.06
474.406	101.06
474.625	96.06
474.844	87.06
475.063	105.06
475.282	92.06
475.501	96.06
475.72	106.06
475.939	100.06
476.158	89.06
476.377	102.06
476.596	80.06
476.814	96.06
477.033	101.06
477.252	121.06
477.471	84.06
477.69	104.06
477.908	108.06
478.127	108.06
478.346	106.06
478.564	110.06
478.783	81.06
479.002	101.06
479.22	94.06
479.439	104.06
479.658	96.06
479.876	102.06
480.095	95.06
480.313	114.06
480.532	109.06
480.751	98.06
480.969	97.06
481.188	106.06
481.406	93.06
481.624	99.06
481.843	95.06
482.061	85.06
482.28	96.06
482.498	111.06
482.717	92.06
482.935	101.06
483.153	104.06
483.372	114.06
483.59	99.06
483.808	101.06
484.027	113.06
484.245	102.06
484.463	107.06
484.681	97.06
484.9	103.06
485.118	92.06
485.336	97.06
485.554	95.06
485.772	99.06
485.99	90.06
486.209	109.06
486.427	106.06
486.645	98.06
486.863	109.06
487.081	119.06
487.299	87.06
487.517	105.06
487.735	100.06
487.953	96.06
488.171	97.06
488.389	112.06
488.607	114.06
488.825	99.06
489.043	116.06
489.261	108.06
489.479	102.06
489.696	94.06
489.914	105.06
490.132	104.06
490.35	104.06
490.568	109.06
490.786	110.06
491.003	113.06
491.221	100.06
491.439	100.06
491.657	92.06
491.874	113.06
492.092	114.06
492.31	114.06
492.527	117.06
492.745	113.06
492.963	102.06
493.18	104.06
493.398	113.06
493.615	115.06
493.833	105.06
494.05	113.06
494.268	112.06
494.485	100.06
494.703	112.06
494.92	118.06
495.138	107.06
495.355	100.06
495.573	95.06
495.79	116.06
496.008	119.06
496.225	111.06
496.442	108.06
496.66	104.06
496.877	102.06
497.094	103.06
497.312	128.06
497.529	90.06
497.746	118.06
497.963	116.06
498.181	89.06
498.398	111.06
498.615	114.06
498.832	114.06
499.049	118.06
499.267	116.06
499.484	128.06
499.701	134.06
499.918	131.06
500.135	149.06
500.352	160.06
500.569	160.06
500.786	153.06
501.003	150.06
501.22	134.06
501.437	131.06
501.654	126.06
501.871	120.06
502.088	118.06
502.305	117.06
502.522	116.06
502.739	118.06
502.956	109.06
503.172	112.06
503.389	120.06
503.606	112.06
503.823	120.06
504.04	105.06
504.256	121.06
504.473	103.06
504.69	118.06
504.907	100.06
505.123	102.06
505.34	115.06
505.557	120.06
505.773	105.06
505.99	96.06
506.207	119.06
506.423	98.06
506.64	108.06
506.856	103.06
507.073	102.06
507.289	107.06
507.506	120.06
507.722	113.06
507.939	100.06
508.155	97.06
508.372	95.06
508.588	110.06
508.805	112.06
509.021	93.06
509.238	99.06
509.454	104.06
509.67	102.06
509.887	112.06
510.103	95.06
510.319	99.06
510.536	90.06
510.752	92.06
510.968	104.06
511.184	99.06
511.401	96.06
511.617	100.06
511.833	90.06
512.049	98.06
512.265	104.06
512.481	91.06
512.698	109.06
512.914	89.06
513.13	86.06
513.346	94.06
513.562	98.06
513.778	108.06
513.994	97.06
514.21	92.06
514.426	101.06
514.642	95.06
514.858	102.06
515.074	99.06
515.29	103.06
515.506	105.06
515.721	95.06
