Data from Location5.07152019.Energy5.Lamp.07192019.3%Agarose_HRD10591_16-04-22-628.txt Node
Date: Fri Jul 19 16:04:22 EDT 2019
User: cochatt
Spectrometer: HR+D1059
Trigger mode: 1
Integration Time (sec): 1.000000E-1
Scans to average: 1
Electric dark correction enabled: true
Nonlinearity correction enabled: false
Boxcar width: 0
XAxis mode: Wavelengths
Number of Pixels in Spectrum: 2048
>>>>>Begin Spectral Data<<<<<
223.165	-6.69
223.4	-6.69
223.635	-6.69
223.869	-21.69
224.104	-36.69
224.338	-17.69
224.573	-19.69
224.808	-9.69
225.042	-5.69
225.277	-9.69
225.511	10.31
225.746	7.31
225.98	9.31
226.215	3.31
226.449	1.31
226.683	24.31
226.918	39.31
227.152	32.31
227.387	44.31
227.621	43.31
227.856	49.31
228.09	57.31
228.324	52.31
228.559	53.31
228.793	55.31
229.027	66.31
229.262	60.31
229.496	52.31
229.73	73.31
229.964	79.31
230.199	73.31
230.433	88.31
230.667	80.31
230.901	54.31
231.136	64.31
231.37	88.31
231.604	84.31
231.838	72.31
232.072	75.31
232.306	81.31
232.541	100.31
232.775	84.31
233.009	71.31
233.243	85.31
233.477	86.31
233.711	85.31
233.945	88.31
234.179	87.31
234.413	83.31
234.647	89.31
234.881	77.31
235.115	92.31
235.349	72.31
235.583	80.31
235.817	84.31
236.051	68.31
236.285	82.31
236.519	81.31
236.753	69.31
236.987	82.31
237.221	71.31
237.455	86.31
237.689	68.31
237.922	71.31
238.156	76.31
238.39	69.31
238.624	81.31
238.858	61.31
239.091	71.31
239.325	78.31
239.559	88.31
239.793	73.31
240.027	69.31
240.26	65.31
240.494	80.31
240.728	79.31
240.961	91.31
241.195	72.31
241.429	94.31
241.662	59.31
241.896	72.31
242.13	77.31
242.363	64.31
242.597	69.31
242.83	87.31
243.064	63.31
243.298	70.31
243.531	84.31
243.765	85.31
243.998	71.31
244.232	93.31
244.465	79.31
244.699	86.31
244.932	83.31
245.166	79.31
245.399	74.31
245.633	80.31
245.866	89.31
246.099	80.31
246.333	76.31
246.566	86.31
246.8	78.31
247.033	81.31
247.266	83.31
247.5	74.31
247.733	83.31
247.966	69.31
248.2	90.31
248.433	80.31
248.666	88.31
248.899	76.31
249.133	75.31
249.366	70.31
249.599	93.31
249.832	93.31
250.066	94.31
250.299	88.31
250.532	102.31
250.765	82.31
250.998	90.31
251.231	90.31
251.465	100.31
251.698	81.31
251.931	90.31
252.164	75.31
252.397	72.31
252.63	86.31
252.863	97.31
253.096	82.31
253.329	98.31
253.562	88.31
253.795	84.31
254.028	85.31
254.261	76.31
254.494	78.31
254.727	91.31
254.96	77.31
255.193	96.31
255.426	85.31
255.659	78.31
255.892	89.31
256.124	81.31
256.357	73.31
256.59	79.31
256.823	80.31
257.056	82.31
257.289	100.31
257.521	91.31
257.754	71.31
257.987	101.31
258.22	82.31
258.452	78.31
258.685	75.31
258.918	80.31
259.151	81.31
259.383	81.31
259.616	84.31
259.849	76.31
260.081	75.31
260.314	67.31
260.547	94.31
260.779	80.31
261.012	80.31
261.244	92.31
261.477	77.31
261.71	87.31
261.942	76.31
262.175	86.31
262.407	74.31
262.64	92.31
262.872	95.31
263.105	80.31
263.337	87.31
263.57	87.31
263.802	96.31
264.035	90.31
264.267	81.31
264.499	86.31
264.732	82.31
264.964	81.31
265.197	88.31
265.429	78.31
265.661	72.31
265.894	77.31
266.126	87.31
266.358	89.31
266.591	88.31
266.823	77.31
267.055	87.31
267.287	87.31
267.52	87.31
267.752	92.31
267.984	65.31
268.216	87.31
268.448	87.31
268.681	92.31
268.913	83.31
269.145	71.31
269.377	97.31
269.609	89.31
269.841	74.31
270.073	93.31
270.306	80.31
270.538	84.31
270.77	74.31
271.002	75.31
271.234	90.31
271.466	77.31
271.698	92.31
271.93	83.31
272.162	83.31
272.394	75.31
272.626	91.31
272.858	87.31
273.09	96.31
273.322	102.31
273.553	74.31
273.785	81.31
274.017	85.31
274.249	88.31
274.481	98.31
274.713	90.31
274.945	96.31
275.176	107.31
275.408	101.31
275.64	93.31
275.872	91.31
276.104	89.31
276.335	105.31
276.567	93.31
276.799	90.31
277.031	87.31
277.262	90.31
277.494	85.31
277.726	96.31
277.957	99.31
278.189	92.31
278.421	77.31
278.652	89.31
278.884	100.31
279.115	96.31
279.347	97.31
279.579	100.31
279.81	82.31
280.042	87.31
280.273	79.31
280.505	104.31
280.736	91.31
280.968	82.31
281.199	83.31
281.431	87.31
281.662	74.31
281.894	107.31
282.125	89.31
282.356	85.31
282.588	80.31
282.819	86.31
283.051	87.31
283.282	81.31
283.513	88.31
283.745	90.31
283.976	106.31
284.207	97.31
284.439	84.31
284.67	92.31
284.901	94.31
285.132	93.31
285.364	89.31
285.595	85.31
285.826	96.31
286.057	92.31
286.288	92.31
286.52	86.31
286.751	93.31
286.982	84.31
287.213	88.31
287.444	95.31
287.675	88.31
287.906	88.31
288.138	90.31
288.369	86.31
288.6	97.31
288.831	87.31
289.062	90.31
289.293	98.31
289.524	99.31
289.755	99.31
289.986	89.31
290.217	105.31
290.448	82.31
290.679	90.31
290.91	76.31
291.141	79.31
291.371	97.31
291.602	103.31
291.833	89.31
292.064	95.31
292.295	89.31
292.526	81.31
292.757	80.31
292.987	93.31
293.218	94.31
293.449	109.31
293.68	93.31
293.91	96.31
294.141	99.31
294.372	99.31
294.603	96.31
294.833	89.31
295.064	87.31
295.295	104.31
295.525	98.31
295.756	78.31
295.987	90.31
296.217	92.31
296.448	89.31
296.679	85.31
296.909	86.31
297.14	95.31
297.37	91.31
297.601	87.31
297.831	93.31
298.062	81.31
298.292	94.31
298.523	103.31
298.753	100.31
298.984	80.31
299.214	89.31
299.445	95.31
299.675	91.31
299.905	97.31
300.136	82.31
300.366	76.31
300.597	98.31
300.827	92.31
301.057	87.31
301.288	88.31
301.518	94.31
301.748	98.31
301.979	90.31
302.209	85.31
302.439	96.31
302.669	101.31
302.9	92.31
303.13	100.31
303.36	98.31
303.59	91.31
303.82	95.31
304.051	89.31
304.281	89.31
304.511	79.31
304.741	83.31
304.971	100.31
305.201	96.31
305.431	95.31
305.661	81.31
305.891	103.31
306.121	99.31
306.352	89.31
306.582	105.31
306.812	79.31
307.042	103.31
307.272	94.31
307.502	86.31
307.731	87.31
307.961	88.31
308.191	96.31
308.421	100.31
308.651	92.31
308.881	94.31
309.111	93.31
309.341	90.31
309.571	86.31
309.8	86.31
310.03	98.31
310.26	91.31
310.49	85.31
310.72	92.31
310.949	75.31
311.179	93.31
311.409	78.31
311.639	98.31
311.868	97.31
312.098	85.31
312.328	93.31
312.557	87.31
312.787	94.31
313.017	88.31
313.246	96.31
313.476	87.31
313.706	84.31
313.935	91.31
314.165	89.31
314.394	82.31
314.624	75.31
314.853	102.31
315.083	99.31
315.312	106.31
315.542	102.31
315.771	98.31
316.001	84.31
316.23	90.31
316.46	81.31
316.689	72.31
316.919	88.31
317.148	98.31
317.377	85.31
317.607	92.31
317.836	96.31
318.065	89.31
318.295	102.31
318.524	108.31
318.753	88.31
318.983	94.31
319.212	93.31
319.441	89.31
319.67	105.31
319.9	82.31
320.129	81.31
320.358	95.31
320.587	97.31
320.816	80.31
321.046	91.31
321.275	93.31
321.504	80.31
321.733	84.31
321.962	99.31
322.191	89.31
322.42	96.31
322.649	86.31
322.878	83.31
323.108	89.31
323.337	104.31
323.566	97.31
323.795	90.31
324.024	101.31
324.253	96.31
324.482	82.31
324.71	109.31
324.939	97.31
325.168	89.31
325.397	82.31
325.626	82.31
325.855	90.31
326.084	81.31
326.313	89.31
326.542	102.31
326.77	102.31
326.999	90.31
327.228	94.31
327.457	100.31
327.686	98.31
327.914	96.31
328.143	94.31
328.372	101.31
328.6	98.31
328.829	89.31
329.058	93.31
329.287	100.31
329.515	90.31
329.744	77.31
329.972	91.31
330.201	98.31
330.43	91.31
330.658	101.31
330.887	90.31
331.115	100.31
331.344	101.31
331.572	90.31
331.801	83.31
332.03	104.31
332.258	95.31
332.486	99.31
332.715	93.31
332.943	81.31
333.172	80.31
333.4	102.31
333.629	104.31
333.857	98.31
334.085	97.31
334.314	88.31
334.542	104.31
334.771	97.31
334.999	104.31
335.227	95.31
335.455	90.31
335.684	87.31
335.912	90.31
336.14	99.31
336.369	85.31
336.597	91.31
336.825	102.31
337.053	102.31
337.281	96.31
337.51	97.31
337.738	101.31
337.966	94.31
338.194	78.31
338.422	85.31
338.65	91.31
338.878	89.31
339.106	89.31
339.334	98.31
339.562	88.31
339.79	85.31
340.018	101.31
340.246	84.31
340.474	100.31
340.702	97.31
340.93	83.31
341.158	82.31
341.386	87.31
341.614	84.31
341.842	90.31
342.07	109.31
342.298	90.31
342.526	93.31
342.754	85.31
342.981	85.31
343.209	91.31
343.437	83.31
343.665	88.31
343.893	87.31
344.12	102.31
344.348	86.31
344.576	91.31
344.804	88.31
345.031	81.31
345.259	88.31
345.487	94.31
345.714	100.31
345.942	81.31
346.17	113.31
346.397	83.31
346.625	102.31
346.853	92.31
347.08	106.31
347.308	82.31
347.535	84.31
347.763	86.31
347.99	88.31
348.218	99.31
348.445	92.31
348.673	88.31
348.9	101.31
349.128	93.31
349.355	98.31
349.583	81.31
349.81	88.31
350.037	90.31
350.265	88.31
350.492	102.31
350.72	93.31
350.947	95.31
351.174	85.31
351.402	81.31
351.629	84.31
351.856	80.31
352.083	91.31
352.311	99.31
352.538	101.31
352.765	96.31
352.992	89.31
353.22	89.31
353.447	83.31
353.674	91.31
353.901	93.31
354.128	81.31
354.355	97.31
354.583	89.31
354.81	76.31
355.037	85.31
355.264	82.31
355.491	93.31
355.718	83.31
355.945	90.31
356.172	95.31
356.399	100.31
356.626	85.31
356.853	106.31
357.08	83.31
357.307	93.31
357.534	98.31
357.761	82.31
357.988	100.31
358.215	90.31
358.441	80.31
358.668	82.31
358.895	92.31
359.122	75.31
359.349	89.31
359.576	96.31
359.802	87.31
360.029	91.31
360.256	96.31
360.483	94.31
360.709	82.31
360.936	100.31
361.163	83.31
361.39	97.31
361.616	99.31
361.843	91.31
362.07	85.31
362.296	87.31
362.523	78.31
362.749	74.31
362.976	86.31
363.203	79.31
363.429	88.31
363.656	85.31
363.882	86.31
364.109	88.31
364.335	85.31
364.562	87.31
364.788	81.31
365.015	87.31
365.241	89.31
365.468	87.31
365.694	87.31
365.92	80.31
366.147	88.31
366.373	82.31
366.599	92.31
366.826	85.31
367.052	83.31
367.278	80.31
367.505	69.31
367.731	96.31
367.957	85.31
368.184	83.31
368.41	96.31
368.636	82.31
368.862	68.31
369.089	93.31
369.315	85.31
369.541	80.31
369.767	96.31
369.993	91.31
370.219	84.31
370.445	76.31
370.672	88.31
370.898	88.31
371.124	80.31
371.35	94.31
371.576	97.31
371.802	91.31
372.028	90.31
372.254	87.31
372.48	92.31
372.706	85.31
372.932	88.31
373.158	91.31
373.384	95.31
373.61	84.31
373.835	98.31
374.061	80.31
374.287	90.31
374.513	84.31
374.739	77.31
374.965	87.31
375.191	93.31
375.416	92.31
375.642	86.31
375.868	93.31
376.094	101.31
376.319	93.31
376.545	72.31
376.771	91.31
376.997	90.31
377.222	87.31
377.448	90.31
377.674	81.31
377.899	90.31
378.125	87.31
378.35	89.31
378.576	90.31
378.802	94.31
379.027	83.31
379.253	81.31
379.478	89.31
379.704	83.31
379.929	81.31
380.155	83.31
380.38	99.31
380.606	92.31
380.831	86.31
381.057	98.31
381.282	88.31
381.507	91.31
381.733	76.31
381.958	96.31
382.184	92.31
382.409	94.31
382.634	92.31
382.86	78.31
383.085	103.31
383.31	91.31
383.535	78.31
383.761	87.31
383.986	92.31
384.211	77.31
384.436	75.31
384.662	83.31
384.887	92.31
385.112	101.31
385.337	101.31
385.562	102.31
385.787	89.31
386.013	118.31
386.238	108.31
386.463	87.31
386.688	95.31
386.913	87.31
387.138	97.31
387.363	104.31
387.588	112.31
387.813	80.31
388.038	92.31
388.263	82.31
388.488	95.31
388.713	95.31
388.938	88.31
389.163	93.31
389.387	86.31
389.612	80.31
389.837	77.31
390.062	104.31
390.287	88.31
390.512	89.31
390.736	97.31
390.961	85.31
391.186	90.31
391.411	95.31
391.636	84.31
391.86	92.31
392.085	102.31
392.31	80.31
392.534	91.31
392.759	99.31
392.984	91.31
393.208	112.31
393.433	93.31
393.658	83.31
393.882	92.31
394.107	89.31
394.331	78.31
394.556	89.31
394.78	87.31
395.005	112.31
395.229	89.31
395.454	102.31
395.678	100.31
395.903	97.31
396.127	111.31
396.352	99.31
396.576	100.31
396.801	104.31
397.025	85.31
397.249	94.31
397.474	90.31
397.698	86.31
397.922	90.31
398.147	86.31
398.371	95.31
398.595	87.31
398.82	93.31
399.044	86.31
399.268	105.31
399.492	84.31
399.717	103.31
399.941	100.31
400.165	116.31
400.389	103.31
400.613	101.31
400.837	81.31
401.062	97.31
401.286	93.31
401.51	81.31
401.734	87.31
401.958	96.31
402.182	91.31
402.406	104.31
402.63	84.31
402.854	92.31
403.078	86.31
403.302	91.31
403.526	85.31
403.75	92.31
403.974	98.31
404.198	98.31
404.422	92.31
404.645	103.31
404.869	95.31
405.093	98.31
405.317	84.31
405.541	89.31
405.765	88.31
405.988	84.31
406.212	89.31
406.436	89.31
406.66	97.31
406.883	98.31
407.107	92.31
407.331	113.31
407.555	104.31
407.778	91.31
408.002	100.31
408.226	106.31
408.449	104.31
408.673	93.31
408.896	96.31
409.12	89.31
409.344	82.31
409.567	87.31
409.791	107.31
410.014	97.31
410.238	96.31
410.461	93.31
410.685	97.31
410.908	99.31
411.132	96.31
411.355	102.31
411.578	111.31
411.802	94.31
412.025	85.31
412.249	91.31
412.472	76.31
412.695	89.31
412.919	92.31
413.142	83.31
413.365	104.31
413.589	98.31
413.812	88.31
414.035	94.31
414.258	88.31
414.482	89.31
414.705	93.31
414.928	87.31
415.151	86.31
415.374	106.31
415.597	88.31
415.821	93.31
416.044	83.31
416.267	97.31
416.49	82.31
416.713	102.31
416.936	80.31
417.159	92.31
417.382	96.31
417.605	91.31
417.828	89.31
418.051	100.31
418.274	103.31
418.497	94.31
418.72	83.31
418.943	97.31
419.166	91.31
419.389	104.31
419.611	89.31
419.834	93.31
420.057	102.31
420.28	98.31
420.503	86.31
420.726	100.31
420.948	101.31
421.171	94.31
421.394	103.31
421.617	103.31
421.839	89.31
422.062	95.31
422.285	97.31
422.507	98.31
422.73	91.31
422.953	87.31
423.175	97.31
423.398	80.31
423.621	94.31
423.843	95.31
424.066	96.31
424.288	94.31
424.511	105.31
424.733	80.31
424.956	101.31
425.178	97.31
425.401	93.31
425.623	90.31
425.846	89.31
426.068	84.31
426.291	84.31
426.513	90.31
426.735	77.31
426.958	96.31
427.18	89.31
427.402	102.31
427.625	81.31
427.847	91.31
428.069	79.31
428.292	98.31
428.514	100.31
428.736	93.31
428.958	88.31
429.181	97.31
429.403	97.31
429.625	95.31
429.847	101.31
430.069	88.31
430.292	98.31
430.514	101.31
430.736	92.31
430.958	81.31
431.18	98.31
431.402	92.31
431.624	94.31
431.846	91.31
432.068	87.31
432.29	83.31
432.512	87.31
432.734	90.31
432.956	76.31
433.178	88.31
433.4	83.31
433.622	82.31
433.844	84.31
434.066	85.31
434.287	88.31
434.509	89.31
434.731	86.31
434.953	94.31
435.175	93.31
435.397	93.31
435.618	89.31
435.84	88.31
436.062	76.31
436.284	94.31
436.505	93.31
436.727	94.31
436.949	92.31
437.17	100.31
437.392	85.31
437.614	85.31
437.835	88.31
438.057	104.31
438.278	86.31
438.5	97.31
438.721	85.31
438.943	100.31
439.165	93.31
439.386	98.31
439.608	102.31
439.829	99.31
440.05	83.31
440.272	99.31
440.493	95.31
440.715	91.31
440.936	87.31
441.158	92.31
441.379	93.31
441.6	103.31
441.822	105.31
442.043	97.31
442.264	98.31
442.486	98.31
442.707	86.31
442.928	81.31
443.149	94.31
443.371	92.31
443.592	83.31
443.813	98.31
444.034	73.31
444.255	83.31
444.476	93.31
444.698	89.31
444.919	99.31
445.14	208.31
445.361	138.31
445.582	95.31
445.803	89.31
446.024	95.31
446.245	90.31
446.466	95.31
446.687	94.31
446.908	83.31
447.129	89.31
447.35	89.31
447.571	100.31
447.792	91.31
448.013	77.31
448.234	91.31
448.455	82.31
448.675	88.31
448.896	85.31
449.117	85.31
449.338	87.31
449.559	93.31
449.779	93.31
450	85.31
450.221	84.31
450.442	75.31
450.662	82.31
450.883	83.31
451.104	103.31
451.324	87.31
451.545	97.31
451.766	86.31
451.986	101.31
452.207	98.31
452.428	98.31
452.648	95.31
452.869	85.31
453.089	92.31
453.31	87.31
453.53	98.31
453.751	95.31
453.971	85.31
454.192	100.31
454.412	101.31
454.633	94.31
454.853	97.31
455.073	97.31
455.294	93.31
455.514	97.31
455.734	98.31
455.955	68.31
456.175	88.31
456.395	86.31
456.616	84.31
456.836	103.31
457.056	90.31
457.276	92.31
457.497	92.31
457.717	93.31
457.937	104.31
458.157	95.31
458.377	94.31
458.598	74.31
458.818	82.31
459.038	84.31
459.258	87.31
459.478	84.31
459.698	91.31
459.918	83.31
460.138	89.31
460.358	98.31
460.578	95.31
460.798	97.31
461.018	90.31
461.238	93.31
461.458	91.31
461.678	88.31
461.898	96.31
462.118	103.31
462.338	95.31
462.558	91.31
462.777	107.31
462.997	89.31
463.217	109.31
463.437	95.31
463.657	100.31
463.876	92.31
464.096	90.31
464.316	93.31
464.536	106.31
464.755	100.31
464.975	93.31
465.195	101.31
465.414	97.31
465.634	100.31
465.854	91.31
466.073	98.31
466.293	101.31
466.512	76.31
466.732	82.31
466.951	94.31
467.171	100.31
467.391	96.31
467.61	90.31
467.829	87.31
468.049	91.31
468.268	98.31
468.488	85.31
468.707	102.31
468.927	96.31
469.146	100.31
469.365	82.31
469.585	103.31
469.804	99.31
470.023	85.31
470.243	89.31
470.462	92.31
470.681	91.31
470.901	95.31
471.12	92.31
471.339	91.31
471.558	92.31
471.777	100.31
471.997	97.31
472.216	85.31
472.435	88.31
472.654	82.31
472.873	77.31
473.092	87.31
473.311	84.31
473.53	95.31
473.749	93.31
473.968	101.31
474.187	96.31
474.406	99.31
474.625	95.31
474.844	97.31
475.063	91.31
475.282	85.31
475.501	82.31
475.72	99.31
475.939	98.31
476.158	88.31
476.377	106.31
476.596	99.31
476.814	88.31
477.033	77.31
477.252	85.31
477.471	96.31
477.69	101.31
477.908	90.31
478.127	111.31
478.346	102.31
478.564	93.31
478.783	98.31
479.002	113.31
479.22	97.31
479.439	92.31
479.658	99.31
479.876	88.31
480.095	95.31
480.313	100.31
480.532	109.31
480.751	88.31
480.969	85.31
481.188	101.31
481.406	83.31
481.624	90.31
481.843	101.31
482.061	83.31
482.28	89.31
482.498	96.31
482.717	91.31
482.935	95.31
483.153	101.31
483.372	99.31
483.59	105.31
483.808	98.31
484.027	91.31
484.245	101.31
484.463	92.31
484.681	100.31
484.9	76.31
485.118	114.31
485.336	101.31
485.554	95.31
485.772	101.31
485.99	80.31
486.209	101.31
486.427	102.31
486.645	91.31
486.863	108.31
487.081	97.31
487.299	97.31
487.517	92.31
487.735	99.31
487.953	103.31
488.171	107.31
488.389	100.31
488.607	101.31
488.825	108.31
489.043	90.31
489.261	104.31
489.479	101.31
489.696	89.31
489.914	103.31
490.132	106.31
490.35	98.31
490.568	115.31
490.786	94.31
491.003	108.31
491.221	120.31
491.439	111.31
491.657	108.31
491.874	119.31
492.092	106.31
492.31	112.31
492.527	113.31
492.745	100.31
492.963	107.31
493.18	95.31
493.398	127.31
493.615	111.31
493.833	100.31
494.05	104.31
494.268	116.31
494.485	129.31
494.703	116.31
494.92	106.31
495.138	109.31
495.355	115.31
495.573	112.31
495.79	102.31
496.008	106.31
496.225	98.31
496.442	96.31
496.66	108.31
496.877	112.31
497.094	112.31
497.312	103.31
497.529	108.31
497.746	100.31
497.963	97.31
498.181	96.31
498.398	108.31
498.615	102.31
498.832	103.31
499.049	106.31
499.267	104.31
499.484	121.31
499.701	126.31
499.918	138.31
500.135	142.31
500.352	131.31
500.569	154.31
500.786	148.31
501.003	123.31
501.22	119.31
501.437	128.31
501.654	121.31
501.871	122.31
502.088	103.31
502.305	116.31
502.522	115.31
502.739	106.31
502.956	121.31
503.172	107.31
503.389	97.31
503.606	111.31
503.823	106.31
504.04	115.31
504.256	106.31
504.473	117.31
504.69	109.31
504.907	113.31
505.123	111.31
505.34	104.31
505.557	108.31
505.773	93.31
505.99	94.31
506.207	97.31
506.423	102.31
506.64	111.31
506.856	94.31
507.073	103.31
507.289	101.31
507.506	101.31
507.722	101.31
507.939	113.31
508.155	99.31
508.372	123.31
508.588	113.31
508.805	97.31
509.021	103.31
509.238	93.31
509.454	111.31
509.67	99.31
509.887	99.31
510.103	94.31
510.319	97.31
510.536	122.31
510.752	97.31
510.968	115.31
511.184	101.31
511.401	100.31
511.617	83.31
511.833	99.31
512.049	85.31
512.265	86.31
512.481	90.31
512.698	104.31
512.914	93.31
513.13	96.31
513.346	97.31
513.562	98.31
513.778	92.31
513.994	89.31
514.21	93.31
514.426	111.31
514.642	95.31
514.858	106.31
515.074	96.31
515.29	108.31
515.506	93.31
515.721	99.31
515.937	95.31
