Data from Location5.07152019.Energy5.Lamp.07192019.3%Agarose_HRD10591_16-04-28-630.txt Node
Date: Fri Jul 19 16:04:28 EDT 2019
User: cochatt
Spectrometer: HR+D1059
Trigger mode: 1
Integration Time (sec): 1.000000E-1
Scans to average: 1
Electric dark correction enabled: true
Nonlinearity correction enabled: false
Boxcar width: 0
XAxis mode: Wavelengths
Number of Pixels in Spectrum: 2048
>>>>>Begin Spectral Data<<<<<
223.165	-13.5
223.4	-13.5
223.635	-13.5
223.869	-13.5
224.104	-18.5
224.338	-18.5
224.573	-6.5
224.808	-20.5
225.042	-10.5
225.277	-13.5
225.511	7.5
225.746	-7.5
225.98	13.5
226.215	22.5
226.449	18.5
226.683	22.5
226.918	6.5
227.152	31.5
227.387	34.5
227.621	39.5
227.856	47.5
228.09	43.5
228.324	53.5
228.559	61.5
228.793	56.5
229.027	59.5
229.262	71.5
229.496	58.5
229.73	64.5
229.964	87.5
230.199	77.5
230.433	71.5
230.667	94.5
230.901	74.5
231.136	71.5
231.37	71.5
231.604	81.5
231.838	87.5
232.072	75.5
232.306	68.5
232.541	90.5
232.775	78.5
233.009	73.5
233.243	61.5
233.477	77.5
233.711	82.5
233.945	83.5
234.179	71.5
234.413	80.5
234.647	77.5
234.881	81.5
235.115	82.5
235.349	72.5
235.583	73.5
235.817	72.5
236.051	86.5
236.285	77.5
236.519	74.5
236.753	78.5
236.987	89.5
237.221	63.5
237.455	68.5
237.689	69.5
237.922	74.5
238.156	81.5
238.39	64.5
238.624	89.5
238.858	76.5
239.091	79.5
239.325	82.5
239.559	78.5
239.793	65.5
240.027	79.5
240.26	78.5
240.494	63.5
240.728	75.5
240.961	67.5
241.195	75.5
241.429	75.5
241.662	67.5
241.896	73.5
242.13	75.5
242.363	64.5
242.597	82.5
242.83	80.5
243.064	86.5
243.298	78.5
243.531	88.5
243.765	68.5
243.998	65.5
244.232	85.5
244.465	81.5
244.699	74.5
244.932	81.5
245.166	68.5
245.399	78.5
245.633	66.5
245.866	81.5
246.099	101.5
246.333	73.5
246.566	73.5
246.8	82.5
247.033	83.5
247.266	87.5
247.5	87.5
247.733	71.5
247.966	82.5
248.2	80.5
248.433	89.5
248.666	79.5
248.899	86.5
249.133	74.5
249.366	81.5
249.599	77.5
249.832	73.5
250.066	78.5
250.299	63.5
250.532	81.5
250.765	67.5
250.998	77.5
251.231	85.5
251.465	82.5
251.698	78.5
251.931	83.5
252.164	71.5
252.397	84.5
252.63	68.5
252.863	81.5
253.096	75.5
253.329	77.5
253.562	79.5
253.795	89.5
254.028	75.5
254.261	78.5
254.494	81.5
254.727	78.5
254.96	74.5
255.193	69.5
255.426	79.5
255.659	63.5
255.892	71.5
256.124	83.5
256.357	86.5
256.59	82.5
256.823	84.5
257.056	85.5
257.289	96.5
257.521	73.5
257.754	91.5
257.987	82.5
258.22	82.5
258.452	80.5
258.685	73.5
258.918	87.5
259.151	88.5
259.383	79.5
259.616	81.5
259.849	75.5
260.081	82.5
260.314	76.5
260.547	91.5
260.779	79.5
261.012	64.5
261.244	66.5
261.477	73.5
261.71	77.5
261.942	86.5
262.175	75.5
262.407	77.5
262.64	76.5
262.872	87.5
263.105	82.5
263.337	93.5
263.57	75.5
263.802	75.5
264.035	82.5
264.267	91.5
264.499	92.5
264.732	82.5
264.964	80.5
265.197	81.5
265.429	67.5
265.661	90.5
265.894	73.5
266.126	86.5
266.358	83.5
266.591	80.5
266.823	88.5
267.055	79.5
267.287	72.5
267.52	91.5
267.752	90.5
267.984	88.5
268.216	80.5
268.448	83.5
268.681	87.5
268.913	72.5
269.145	82.5
269.377	94.5
269.609	98.5
269.841	102.5
270.073	82.5
270.306	74.5
270.538	77.5
270.77	86.5
271.002	71.5
271.234	85.5
271.466	92.5
271.698	85.5
271.93	89.5
272.162	80.5
272.394	82.5
272.626	86.5
272.858	70.5
273.09	75.5
273.322	88.5
273.553	84.5
273.785	77.5
274.017	85.5
274.249	82.5
274.481	86.5
274.713	101.5
274.945	109.5
275.176	100.5
275.408	81.5
275.64	90.5
275.872	80.5
276.104	95.5
276.335	76.5
276.567	81.5
276.799	66.5
277.031	85.5
277.262	101.5
277.494	88.5
277.726	87.5
277.957	78.5
278.189	79.5
278.421	82.5
278.652	94.5
278.884	93.5
279.115	87.5
279.347	85.5
279.579	84.5
279.81	86.5
280.042	81.5
280.273	82.5
280.505	89.5
280.736	81.5
280.968	82.5
281.199	78.5
281.431	84.5
281.662	88.5
281.894	80.5
282.125	103.5
282.356	74.5
282.588	86.5
282.819	70.5
283.051	84.5
283.282	77.5
283.513	99.5
283.745	80.5
283.976	72.5
284.207	81.5
284.439	85.5
284.67	83.5
284.901	82.5
285.132	81.5
285.364	86.5
285.595	88.5
285.826	94.5
286.057	95.5
286.288	87.5
286.52	86.5
286.751	69.5
286.982	87.5
287.213	79.5
287.444	93.5
287.675	88.5
287.906	86.5
288.138	88.5
288.369	83.5
288.6	87.5
288.831	88.5
289.062	85.5
289.293	83.5
289.524	81.5
289.755	85.5
289.986	104.5
290.217	102.5
290.448	79.5
290.679	99.5
290.91	101.5
291.141	96.5
291.371	90.5
291.602	81.5
291.833	75.5
292.064	87.5
292.295	89.5
292.526	86.5
292.757	80.5
292.987	84.5
293.218	101.5
293.449	81.5
293.68	82.5
293.91	74.5
294.141	100.5
294.372	82.5
294.603	75.5
294.833	88.5
295.064	81.5
295.295	94.5
295.525	96.5
295.756	82.5
295.987	89.5
296.217	73.5
296.448	92.5
296.679	93.5
296.909	98.5
297.14	89.5
297.37	79.5
297.601	79.5
297.831	88.5
298.062	83.5
298.292	84.5
298.523	90.5
298.753	94.5
298.984	90.5
299.214	91.5
299.445	75.5
299.675	84.5
299.905	75.5
300.136	84.5
300.366	91.5
300.597	94.5
300.827	75.5
301.057	90.5
301.288	103.5
301.518	86.5
301.748	96.5
301.979	101.5
302.209	95.5
302.439	84.5
302.669	69.5
302.9	87.5
303.13	86.5
303.36	75.5
303.59	86.5
303.82	95.5
304.051	90.5
304.281	86.5
304.511	95.5
304.741	93.5
304.971	102.5
305.201	83.5
305.431	79.5
305.661	90.5
305.891	96.5
306.121	83.5
306.352	84.5
306.582	91.5
306.812	79.5
307.042	83.5
307.272	75.5
307.502	56.5
307.731	104.5
307.961	90.5
308.191	82.5
308.421	90.5
308.651	95.5
308.881	108.5
309.111	89.5
309.341	88.5
309.571	94.5
309.8	92.5
310.03	104.5
310.26	99.5
310.49	87.5
310.72	89.5
310.949	77.5
311.179	83.5
311.409	95.5
311.639	93.5
311.868	101.5
312.098	77.5
312.328	93.5
312.557	89.5
312.787	86.5
313.017	83.5
313.246	85.5
313.476	106.5
313.706	88.5
313.935	101.5
314.165	88.5
314.394	81.5
314.624	83.5
314.853	102.5
315.083	91.5
315.312	85.5
315.542	86.5
315.771	80.5
316.001	88.5
316.23	87.5
316.46	100.5
316.689	79.5
316.919	79.5
317.148	89.5
317.377	82.5
317.607	85.5
317.836	95.5
318.065	93.5
318.295	78.5
318.524	89.5
318.753	79.5
318.983	104.5
319.212	101.5
319.441	93.5
319.67	110.5
319.9	101.5
320.129	87.5
320.358	99.5
320.587	110.5
320.816	81.5
321.046	94.5
321.275	81.5
321.504	80.5
321.733	93.5
321.962	86.5
322.191	94.5
322.42	98.5
322.649	86.5
322.878	92.5
323.108	83.5
323.337	80.5
323.566	101.5
323.795	96.5
324.024	95.5
324.253	89.5
324.482	76.5
324.71	90.5
324.939	92.5
325.168	91.5
325.397	90.5
325.626	79.5
325.855	71.5
326.084	79.5
326.313	74.5
326.542	103.5
326.77	109.5
326.999	84.5
327.228	86.5
327.457	87.5
327.686	94.5
327.914	93.5
328.143	93.5
328.372	94.5
328.6	101.5
328.829	83.5
329.058	85.5
329.287	84.5
329.515	95.5
329.744	88.5
329.972	78.5
330.201	96.5
330.43	85.5
330.658	88.5
330.887	103.5
331.115	89.5
331.344	92.5
331.572	105.5
331.801	85.5
332.03	84.5
332.258	92.5
332.486	92.5
332.715	95.5
332.943	93.5
333.172	90.5
333.4	86.5
333.629	83.5
333.857	97.5
334.085	96.5
334.314	90.5
334.542	83.5
334.771	85.5
334.999	96.5
335.227	97.5
335.455	95.5
335.684	109.5
335.912	98.5
336.14	103.5
336.369	87.5
336.597	78.5
336.825	97.5
337.053	108.5
337.281	95.5
337.51	90.5
337.738	85.5
337.966	82.5
338.194	91.5
338.422	88.5
338.65	96.5
338.878	94.5
339.106	102.5
339.334	88.5
339.562	85.5
339.79	84.5
340.018	89.5
340.246	87.5
340.474	95.5
340.702	81.5
340.93	89.5
341.158	86.5
341.386	79.5
341.614	96.5
341.842	86.5
342.07	75.5
342.298	96.5
342.526	100.5
342.754	95.5
342.981	87.5
343.209	80.5
343.437	98.5
343.665	83.5
343.893	84.5
344.12	94.5
344.348	85.5
344.576	90.5
344.804	85.5
345.031	90.5
345.259	84.5
345.487	86.5
345.714	87.5
345.942	91.5
346.17	89.5
346.397	82.5
346.625	96.5
346.853	94.5
347.08	86.5
347.308	84.5
347.535	84.5
347.763	93.5
347.99	80.5
348.218	88.5
348.445	84.5
348.673	80.5
348.9	69.5
349.128	76.5
349.355	79.5
349.583	80.5
349.81	74.5
350.037	99.5
350.265	91.5
350.492	79.5
350.72	85.5
350.947	87.5
351.174	90.5
351.402	86.5
351.629	87.5
351.856	89.5
352.083	79.5
352.311	83.5
352.538	86.5
352.765	91.5
352.992	90.5
353.22	91.5
353.447	88.5
353.674	75.5
353.901	100.5
354.128	99.5
354.355	90.5
354.583	86.5
354.81	83.5
355.037	92.5
355.264	96.5
355.491	95.5
355.718	73.5
355.945	77.5
356.172	80.5
356.399	79.5
356.626	75.5
356.853	94.5
357.08	101.5
357.307	93.5
357.534	82.5
357.761	85.5
357.988	89.5
358.215	82.5
358.441	87.5
358.668	81.5
358.895	91.5
359.122	72.5
359.349	87.5
359.576	93.5
359.802	94.5
360.029	72.5
360.256	83.5
360.483	85.5
360.709	94.5
360.936	108.5
361.163	95.5
361.39	88.5
361.616	85.5
361.843	76.5
362.07	91.5
362.296	97.5
362.523	83.5
362.749	97.5
362.976	90.5
363.203	93.5
363.429	88.5
363.656	99.5
363.882	69.5
364.109	78.5
364.335	102.5
364.562	80.5
364.788	99.5
365.015	100.5
365.241	82.5
365.468	100.5
365.694	81.5
365.92	83.5
366.147	89.5
366.373	91.5
366.599	94.5
366.826	92.5
367.052	89.5
367.278	79.5
367.505	85.5
367.731	86.5
367.957	94.5
368.184	98.5
368.41	87.5
368.636	103.5
368.862	84.5
369.089	80.5
369.315	79.5
369.541	90.5
369.767	101.5
369.993	78.5
370.219	76.5
370.445	71.5
370.672	80.5
370.898	85.5
371.124	95.5
371.35	88.5
371.576	74.5
371.802	90.5
372.028	94.5
372.254	110.5
372.48	101.5
372.706	98.5
372.932	84.5
373.158	94.5
373.384	95.5
373.61	93.5
373.835	97.5
374.061	93.5
374.287	92.5
374.513	77.5
374.739	78.5
374.965	77.5
375.191	94.5
375.416	95.5
375.642	81.5
375.868	98.5
376.094	99.5
376.319	93.5
376.545	83.5
376.771	86.5
376.997	87.5
377.222	85.5
377.448	91.5
377.674	94.5
377.899	91.5
378.125	83.5
378.35	75.5
378.576	88.5
378.802	89.5
379.027	80.5
379.253	90.5
379.478	80.5
379.704	86.5
379.929	99.5
380.155	84.5
380.38	83.5
380.606	97.5
380.831	80.5
381.057	82.5
381.282	89.5
381.507	70.5
381.733	93.5
381.958	90.5
382.184	98.5
382.409	88.5
382.634	86.5
382.86	91.5
383.085	101.5
383.31	107.5
383.535	89.5
383.761	87.5
383.986	88.5
384.211	98.5
384.436	88.5
384.662	69.5
384.887	85.5
385.112	89.5
385.337	86.5
385.562	93.5
385.787	82.5
386.013	83.5
386.238	98.5
386.463	99.5
386.688	94.5
386.913	100.5
387.138	100.5
387.363	93.5
387.588	80.5
387.813	102.5
388.038	82.5
388.263	84.5
388.488	75.5
388.713	95.5
388.938	90.5
389.163	96.5
389.387	95.5
389.612	81.5
389.837	76.5
390.062	86.5
390.287	87.5
390.512	92.5
390.736	88.5
390.961	93.5
391.186	99.5
391.411	94.5
391.636	102.5
391.86	87.5
392.085	87.5
392.31	90.5
392.534	90.5
392.759	101.5
392.984	97.5
393.208	85.5
393.433	89.5
393.658	88.5
393.882	81.5
394.107	93.5
394.331	105.5
394.556	111.5
394.78	93.5
395.005	85.5
395.229	92.5
395.454	89.5
395.678	102.5
395.903	97.5
396.127	96.5
396.352	97.5
396.576	91.5
396.801	100.5
397.025	105.5
397.249	92.5
397.474	95.5
397.698	70.5
397.922	91.5
398.147	81.5
398.371	93.5
398.595	105.5
398.82	94.5
399.044	100.5
399.268	91.5
399.492	89.5
399.717	98.5
399.941	95.5
400.165	89.5
400.389	97.5
400.613	93.5
400.837	91.5
401.062	91.5
401.286	95.5
401.51	92.5
401.734	89.5
401.958	84.5
402.182	97.5
402.406	81.5
402.63	110.5
402.854	89.5
403.078	80.5
403.302	82.5
403.526	89.5
403.75	94.5
403.974	87.5
404.198	98.5
404.422	98.5
404.645	89.5
404.869	88.5
405.093	79.5
405.317	88.5
405.541	92.5
405.765	92.5
405.988	90.5
406.212	98.5
406.436	79.5
406.66	82.5
406.883	101.5
407.107	88.5
407.331	96.5
407.555	111.5
407.778	99.5
408.002	106.5
408.226	91.5
408.449	87.5
408.673	96.5
408.896	97.5
409.12	91.5
409.344	106.5
409.567	91.5
409.791	95.5
410.014	91.5
410.238	93.5
410.461	75.5
410.685	108.5
410.908	105.5
411.132	105.5
411.355	98.5
411.578	94.5
411.802	97.5
412.025	97.5
412.249	87.5
412.472	89.5
412.695	107.5
412.919	86.5
413.142	92.5
413.365	85.5
413.589	82.5
413.812	94.5
414.035	91.5
414.258	92.5
414.482	86.5
414.705	96.5
414.928	99.5
415.151	94.5
415.374	93.5
415.597	100.5
415.821	94.5
416.044	106.5
416.267	96.5
416.49	94.5
416.713	94.5
416.936	89.5
417.159	85.5
417.382	86.5
417.605	70.5
417.828	97.5
418.051	77.5
418.274	84.5
418.497	80.5
418.72	98.5
418.943	103.5
419.166	98.5
419.389	83.5
419.611	79.5
419.834	85.5
420.057	105.5
420.28	92.5
420.503	76.5
420.726	89.5
420.948	88.5
421.171	93.5
421.394	90.5
421.617	104.5
421.839	82.5
422.062	92.5
422.285	74.5
422.507	86.5
422.73	90.5
422.953	97.5
423.175	94.5
423.398	103.5
423.621	106.5
423.843	96.5
424.066	94.5
424.288	94.5
424.511	78.5
424.733	88.5
424.956	91.5
425.178	101.5
425.401	104.5
425.623	85.5
425.846	82.5
426.068	94.5
426.291	87.5
426.513	94.5
426.735	94.5
426.958	90.5
427.18	102.5
427.402	98.5
427.625	87.5
427.847	88.5
428.069	81.5
428.292	90.5
428.514	75.5
428.736	87.5
428.958	87.5
429.181	91.5
429.403	106.5
429.625	85.5
429.847	91.5
430.069	113.5
430.292	91.5
430.514	96.5
430.736	88.5
430.958	86.5
431.18	77.5
431.402	90.5
431.624	103.5
431.846	90.5
432.068	90.5
432.29	83.5
432.512	86.5
432.734	103.5
432.956	89.5
433.178	78.5
433.4	74.5
433.622	85.5
433.844	100.5
434.066	88.5
434.287	85.5
434.509	95.5
434.731	90.5
434.953	86.5
435.175	71.5
435.397	89.5
435.618	100.5
435.84	94.5
436.062	96.5
436.284	84.5
436.505	99.5
436.727	95.5
436.949	89.5
437.17	93.5
437.392	97.5
437.614	106.5
437.835	85.5
438.057	95.5
438.278	104.5
438.5	83.5
438.721	96.5
438.943	97.5
439.165	90.5
439.386	100.5
439.608	86.5
439.829	96.5
440.05	102.5
440.272	85.5
440.493	92.5
440.715	77.5
440.936	94.5
441.158	81.5
441.379	88.5
441.6	90.5
441.822	101.5
442.043	91.5
442.264	93.5
442.486	98.5
442.707	96.5
442.928	89.5
443.149	87.5
443.371	98.5
443.592	83.5
443.813	96.5
444.034	91.5
444.255	104.5
444.476	96.5
444.698	99.5
444.919	103.5
445.14	237.5
445.361	139.5
445.582	99.5
445.803	92.5
446.024	88.5
446.245	82.5
446.466	94.5
446.687	91.5
446.908	97.5
447.129	91.5
447.35	92.5
447.571	103.5
447.792	91.5
448.013	78.5
448.234	90.5
448.455	96.5
448.675	77.5
448.896	87.5
449.117	92.5
449.338	75.5
449.559	84.5
449.779	92.5
450	76.5
450.221	94.5
450.442	77.5
450.662	95.5
450.883	98.5
451.104	89.5
451.324	82.5
451.545	96.5
451.766	86.5
451.986	81.5
452.207	90.5
452.428	73.5
452.648	90.5
452.869	92.5
453.089	87.5
453.31	102.5
453.53	87.5
453.751	70.5
453.971	93.5
454.192	83.5
454.412	79.5
454.633	93.5
454.853	89.5
455.073	90.5
455.294	99.5
455.514	101.5
455.734	92.5
455.955	85.5
456.175	81.5
456.395	89.5
456.616	94.5
456.836	87.5
457.056	75.5
457.276	95.5
457.497	90.5
457.717	93.5
457.937	83.5
458.157	86.5
458.377	87.5
458.598	95.5
458.818	81.5
459.038	88.5
459.258	86.5
459.478	84.5
459.698	94.5
459.918	89.5
460.138	84.5
460.358	98.5
460.578	99.5
460.798	89.5
461.018	100.5
461.238	103.5
461.458	98.5
461.678	98.5
461.898	86.5
462.118	103.5
462.338	98.5
462.558	102.5
462.777	97.5
462.997	90.5
463.217	102.5
463.437	91.5
463.657	88.5
463.876	91.5
464.096	87.5
464.316	111.5
464.536	88.5
464.755	113.5
464.975	103.5
465.195	93.5
465.414	100.5
465.634	97.5
465.854	93.5
466.073	105.5
466.293	89.5
466.512	89.5
466.732	99.5
466.951	99.5
467.171	102.5
467.391	98.5
467.61	71.5
467.829	97.5
468.049	82.5
468.268	92.5
468.488	97.5
468.707	94.5
468.927	86.5
469.146	86.5
469.365	83.5
469.585	83.5
469.804	94.5
470.023	96.5
470.243	99.5
470.462	105.5
470.681	88.5
470.901	101.5
471.12	84.5
471.339	90.5
471.558	86.5
471.777	86.5
471.997	76.5
472.216	91.5
472.435	87.5
472.654	82.5
472.873	102.5
473.092	103.5
473.311	97.5
473.53	95.5
473.749	98.5
473.968	98.5
474.187	101.5
474.406	102.5
474.625	102.5
474.844	96.5
475.063	95.5
475.282	104.5
475.501	98.5
475.72	108.5
475.939	98.5
476.158	88.5
476.377	84.5
476.596	86.5
476.814	96.5
477.033	101.5
477.252	97.5
477.471	94.5
477.69	83.5
477.908	107.5
478.127	104.5
478.346	91.5
478.564	99.5
478.783	97.5
479.002	80.5
479.22	99.5
479.439	101.5
479.658	105.5
479.876	86.5
480.095	94.5
480.313	111.5
480.532	98.5
480.751	94.5
480.969	91.5
481.188	97.5
481.406	93.5
481.624	97.5
481.843	85.5
482.061	89.5
482.28	77.5
482.498	75.5
482.717	94.5
482.935	102.5
483.153	105.5
483.372	109.5
483.59	103.5
483.808	78.5
484.027	99.5
484.245	89.5
484.463	112.5
484.681	115.5
484.9	102.5
485.118	90.5
485.336	86.5
485.554	96.5
485.772	110.5
485.99	104.5
486.209	110.5
486.427	100.5
486.645	101.5
486.863	91.5
487.081	100.5
487.299	100.5
487.517	89.5
487.735	107.5
487.953	111.5
488.171	118.5
488.389	96.5
488.607	93.5
488.825	98.5
489.043	85.5
489.261	102.5
489.479	110.5
489.696	110.5
489.914	90.5
490.132	98.5
490.35	105.5
490.568	103.5
490.786	101.5
491.003	94.5
491.221	103.5
491.439	93.5
491.657	121.5
491.874	111.5
492.092	104.5
492.31	131.5
492.527	121.5
492.745	120.5
492.963	98.5
493.18	109.5
493.398	105.5
493.615	102.5
493.833	114.5
494.05	94.5
494.268	109.5
494.485	118.5
494.703	107.5
494.92	89.5
495.138	101.5
495.355	106.5
495.573	100.5
495.79	122.5
496.008	104.5
496.225	96.5
496.442	92.5
496.66	101.5
496.877	120.5
497.094	118.5
497.312	105.5
497.529	97.5
497.746	90.5
497.963	109.5
498.181	85.5
498.398	112.5
498.615	97.5
498.832	110.5
499.049	116.5
499.267	110.5
499.484	122.5
499.701	131.5
499.918	131.5
500.135	126.5
500.352	144.5
500.569	142.5
500.786	149.5
501.003	130.5
501.22	133.5
501.437	133.5
501.654	121.5
501.871	123.5
502.088	105.5
502.305	121.5
502.522	113.5
502.739	116.5
502.956	117.5
503.172	122.5
503.389	120.5
503.606	121.5
503.823	112.5
504.04	112.5
504.256	105.5
504.473	109.5
504.69	112.5
504.907	103.5
505.123	107.5
505.34	99.5
505.557	100.5
505.773	107.5
505.99	88.5
506.207	102.5
506.423	105.5
506.64	102.5
506.856	104.5
507.073	95.5
507.289	103.5
507.506	117.5
507.722	91.5
507.939	106.5
508.155	103.5
508.372	91.5
508.588	115.5
508.805	103.5
509.021	101.5
509.238	105.5
509.454	102.5
509.67	97.5
509.887	107.5
510.103	89.5
510.319	71.5
510.536	92.5
510.752	103.5
510.968	96.5
511.184	106.5
511.401	103.5
511.617	106.5
511.833	95.5
512.049	93.5
512.265	88.5
512.481	100.5
512.698	96.5
512.914	109.5
513.13	101.5
513.346	93.5
513.562	99.5
513.778	98.5
513.994	94.5
514.21	99.5
514.426	93.5
514.642	102.5
514.858	103.5
515.074	98.5
515.29	82.5
515.506	90.5
515.721	89.5
515.937	96.5
516.153	101.5
516.369	104.5
516.585	93.5
516.801	102.5
517.016	86.5
517.232	106.5
517.448	111.5
517.664	101.5
517.879	103.5
518.095	114.5
518.311	103.5
518.527	123.5
518.742	95.5
518.958	112.5
519.173	113.5
519.389	96.5
519.605	97.5
519.82	88.5
520.036	106.5
520.251	93.5
520.467	87.5
520.682	88.5
520.898	96.5
521.113	90.5
521.329	81.5
521.544	95.5
521.76	94.5
521.975	90.5
522.19	77.5
522.406	90.5
522.621	103.5
522.836	81.5
523.052	98.5
523.267	95.5
523.482	110.5
523.698	93.5
523.913	79.5
524.128	109.5
524.343	104.5
524.559	102.5
524.774	93.5
524.989	93.5
525.204	96.5
525.419	99.5
525.634	95.5
525.849	93.5
526.064	102.5
526.28	101.5
526.495	89.5
526.71	98.5
526.925	96.5
527.14	87.5
527.355	98.5
527.57	87.5
527.785	113.5
527.999	100.5
528.214	106.5
528.429	99.5
528.644	93.5
528.859	98.5
529.074	116.5
529.289	102.5
529.503	122.5
529.718	99.5
529.933	87.5
530.148	102.5
530.363	84.5
530.577	85.5
530.792	87.5
531.007	83.5
531.221	98.5
531.436	105.5
531.651	101.5
531.865	90.5
532.08	80.5
532.295	94.5
532.509	85.5
532.724	93.5
532.938	95.5
533.153	77.5
533.367	102.5
533.582	98.5
533.796	89.5
534.011	95.5
534.225	101.5
534.44	91.5
534.654	93.5
534.868	93.5
535.083	95.5
535.297	93.5
535.511	91.5
535.726	100.5
535.94	96.5
