Data from Location5.07152019.Energy5.Lamp.07192019.3%Agarose_HRD10591_16-04-52-629.txt Node
Date: Fri Jul 19 16:04:52 EDT 2019
User: cochatt
Spectrometer: HR+D1059
Trigger mode: 1
Integration Time (sec): 1.000000E-1
Scans to average: 1
Electric dark correction enabled: true
Nonlinearity correction enabled: false
Boxcar width: 0
XAxis mode: Wavelengths
Number of Pixels in Spectrum: 2048
>>>>>Begin Spectral Data<<<<<
223.165	-22.06
223.4	-22.06
223.635	-22.06
223.869	-16.06
224.104	-24.06
224.338	-6.06
224.573	-12.06
224.808	-23.06
225.042	-8.06
225.277	-2.06
225.511	-8.06
225.746	4.94
225.98	-1.06
226.215	1.94
226.449	26.94
226.683	23.94
226.918	30.94
227.152	33.94
227.387	38.94
227.621	34.94
227.856	32.94
228.09	38.94
228.324	46.94
228.559	47.94
228.793	56.94
229.027	58.94
229.262	66.94
229.496	63.94
229.73	58.94
229.964	76.94
230.199	71.94
230.433	69.94
230.667	82.94
230.901	84.94
231.136	81.94
231.37	89.94
231.604	83.94
231.838	69.94
232.072	82.94
232.306	79.94
232.541	75.94
232.775	79.94
233.009	68.94
233.243	71.94
233.477	95.94
233.711	91.94
233.945	81.94
234.179	84.94
234.413	92.94
234.647	82.94
234.881	84.94
235.115	78.94
235.349	71.94
235.583	73.94
235.817	88.94
236.051	82.94
236.285	82.94
236.519	79.94
236.753	78.94
236.987	84.94
237.221	79.94
237.455	70.94
237.689	79.94
237.922	76.94
238.156	77.94
238.39	85.94
238.624	74.94
238.858	72.94
239.091	73.94
239.325	78.94
239.559	79.94
239.793	97.94
240.027	87.94
240.26	89.94
240.494	85.94
240.728	94.94
240.961	69.94
241.195	74.94
241.429	78.94
241.662	78.94
241.896	80.94
242.13	84.94
242.363	83.94
242.597	82.94
242.83	80.94
243.064	78.94
243.298	78.94
243.531	59.94
243.765	83.94
243.998	84.94
244.232	73.94
244.465	76.94
244.699	68.94
244.932	72.94
245.166	76.94
245.399	68.94
245.633	81.94
245.866	77.94
246.099	87.94
246.333	83.94
246.566	88.94
246.8	75.94
247.033	83.94
247.266	83.94
247.5	80.94
247.733	81.94
247.966	86.94
248.2	85.94
248.433	86.94
248.666	70.94
248.899	83.94
249.133	86.94
249.366	87.94
249.599	83.94
249.832	87.94
250.066	83.94
250.299	75.94
250.532	86.94
250.765	71.94
250.998	82.94
251.231	79.94
251.465	84.94
251.698	75.94
251.931	85.94
252.164	83.94
252.397	77.94
252.63	82.94
252.863	90.94
253.096	81.94
253.329	71.94
253.562	93.94
253.795	90.94
254.028	87.94
254.261	83.94
254.494	82.94
254.727	86.94
254.96	79.94
255.193	74.94
255.426	72.94
255.659	78.94
255.892	84.94
256.124	79.94
256.357	80.94
256.59	70.94
256.823	85.94
257.056	86.94
257.289	81.94
257.521	83.94
257.754	85.94
257.987	82.94
258.22	79.94
258.452	91.94
258.685	87.94
258.918	81.94
259.151	88.94
259.383	76.94
259.616	72.94
259.849	94.94
260.081	90.94
260.314	89.94
260.547	78.94
260.779	85.94
261.012	82.94
261.244	82.94
261.477	87.94
261.71	84.94
261.942	86.94
262.175	80.94
262.407	88.94
262.64	98.94
262.872	87.94
263.105	84.94
263.337	91.94
263.57	95.94
263.802	89.94
264.035	84.94
264.267	80.94
264.499	79.94
264.732	87.94
264.964	73.94
265.197	84.94
265.429	79.94
265.661	88.94
265.894	88.94
266.126	70.94
266.358	90.94
266.591	96.94
266.823	102.94
267.055	81.94
267.287	84.94
267.52	72.94
267.752	95.94
267.984	77.94
268.216	79.94
268.448	79.94
268.681	98.94
268.913	83.94
269.145	89.94
269.377	91.94
269.609	84.94
269.841	85.94
270.073	91.94
270.306	77.94
270.538	85.94
270.77	94.94
271.002	97.94
271.234	85.94
271.466	87.94
271.698	85.94
271.93	79.94
272.162	79.94
272.394	84.94
272.626	81.94
272.858	82.94
273.09	79.94
273.322	83.94
273.553	72.94
273.785	84.94
274.017	91.94
274.249	96.94
274.481	83.94
274.713	95.94
274.945	69.94
275.176	85.94
275.408	75.94
275.64	86.94
275.872	82.94
276.104	84.94
276.335	90.94
276.567	79.94
276.799	84.94
277.031	95.94
277.262	81.94
277.494	81.94
277.726	79.94
277.957	77.94
278.189	99.94
278.421	92.94
278.652	92.94
278.884	94.94
279.115	74.94
279.347	86.94
279.579	81.94
279.81	89.94
280.042	88.94
280.273	78.94
280.505	85.94
280.736	92.94
280.968	75.94
281.199	85.94
281.431	81.94
281.662	88.94
281.894	89.94
282.125	83.94
282.356	82.94
282.588	85.94
282.819	80.94
283.051	104.94
283.282	85.94
283.513	91.94
283.745	84.94
283.976	92.94
284.207	91.94
284.439	93.94
284.67	95.94
284.901	90.94
285.132	87.94
285.364	85.94
285.595	89.94
285.826	98.94
286.057	90.94
286.288	89.94
286.52	80.94
286.751	86.94
286.982	89.94
287.213	93.94
287.444	83.94
287.675	84.94
287.906	87.94
288.138	86.94
288.369	79.94
288.6	82.94
288.831	77.94
289.062	104.94
289.293	87.94
289.524	84.94
289.755	88.94
289.986	100.94
290.217	85.94
290.448	96.94
290.679	86.94
290.91	86.94
291.141	76.94
291.371	78.94
291.602	97.94
291.833	84.94
292.064	90.94
292.295	101.94
292.526	80.94
292.757	73.94
292.987	79.94
293.218	98.94
293.449	88.94
293.68	86.94
293.91	94.94
294.141	85.94
294.372	93.94
294.603	89.94
294.833	94.94
295.064	85.94
295.295	84.94
295.525	97.94
295.756	97.94
295.987	86.94
296.217	82.94
296.448	86.94
296.679	81.94
296.909	96.94
297.14	93.94
297.37	102.94
297.601	99.94
297.831	87.94
298.062	93.94
298.292	86.94
298.523	99.94
298.753	92.94
298.984	105.94
299.214	89.94
299.445	95.94
299.675	91.94
299.905	94.94
300.136	86.94
300.366	85.94
300.597	95.94
300.827	91.94
301.057	94.94
301.288	75.94
301.518	94.94
301.748	87.94
301.979	97.94
302.209	93.94
302.439	84.94
302.669	110.94
302.9	88.94
303.13	93.94
303.36	94.94
303.59	92.94
303.82	95.94
304.051	85.94
304.281	86.94
304.511	81.94
304.741	84.94
304.971	86.94
305.201	86.94
305.431	85.94
305.661	90.94
305.891	91.94
306.121	87.94
306.352	86.94
306.582	81.94
306.812	75.94
307.042	88.94
307.272	97.94
307.502	72.94
307.731	101.94
307.961	79.94
308.191	93.94
308.421	89.94
308.651	92.94
308.881	102.94
309.111	96.94
309.341	84.94
309.571	88.94
309.8	101.94
310.03	84.94
310.26	96.94
310.49	84.94
310.72	89.94
310.949	86.94
311.179	70.94
311.409	74.94
311.639	78.94
311.868	81.94
312.098	92.94
312.328	83.94
312.557	90.94
312.787	87.94
313.017	89.94
313.246	87.94
313.476	89.94
313.706	96.94
313.935	82.94
314.165	106.94
314.394	96.94
314.624	91.94
314.853	92.94
315.083	90.94
315.312	89.94
315.542	86.94
315.771	96.94
316.001	94.94
316.23	86.94
316.46	77.94
316.689	84.94
316.919	87.94
317.148	93.94
317.377	98.94
317.607	95.94
317.836	98.94
318.065	88.94
318.295	78.94
318.524	82.94
318.753	97.94
318.983	85.94
319.212	76.94
319.441	80.94
319.67	91.94
319.9	77.94
320.129	76.94
320.358	90.94
320.587	85.94
320.816	71.94
321.046	78.94
321.275	88.94
321.504	84.94
321.733	82.94
321.962	85.94
322.191	93.94
322.42	74.94
322.649	85.94
322.878	83.94
323.108	88.94
323.337	110.94
323.566	95.94
323.795	79.94
324.024	103.94
324.253	109.94
324.482	91.94
324.71	86.94
324.939	94.94
325.168	92.94
325.397	82.94
325.626	82.94
325.855	84.94
326.084	95.94
326.313	86.94
326.542	77.94
326.77	80.94
326.999	90.94
327.228	100.94
327.457	89.94
327.686	102.94
327.914	87.94
328.143	99.94
328.372	90.94
328.6	74.94
328.829	94.94
329.058	66.94
329.287	95.94
329.515	85.94
329.744	74.94
329.972	80.94
330.201	101.94
330.43	83.94
330.658	87.94
330.887	98.94
331.115	98.94
331.344	99.94
331.572	89.94
331.801	95.94
332.03	94.94
332.258	81.94
332.486	75.94
332.715	85.94
332.943	77.94
333.172	85.94
333.4	103.94
333.629	95.94
333.857	100.94
334.085	93.94
334.314	93.94
334.542	97.94
334.771	98.94
334.999	94.94
335.227	96.94
335.455	104.94
335.684	85.94
335.912	88.94
336.14	79.94
336.369	88.94
336.597	94.94
336.825	81.94
337.053	99.94
337.281	103.94
337.51	89.94
337.738	100.94
337.966	77.94
338.194	82.94
338.422	88.94
338.65	99.94
338.878	92.94
339.106	87.94
339.334	101.94
339.562	91.94
339.79	89.94
340.018	74.94
340.246	88.94
340.474	95.94
340.702	89.94
340.93	98.94
341.158	100.94
341.386	106.94
341.614	98.94
341.842	88.94
342.07	92.94
342.298	93.94
342.526	75.94
342.754	83.94
342.981	100.94
343.209	101.94
343.437	90.94
343.665	89.94
343.893	90.94
344.12	81.94
344.348	96.94
344.576	90.94
344.804	89.94
345.031	90.94
345.259	80.94
345.487	93.94
345.714	99.94
345.942	89.94
346.17	99.94
346.397	94.94
346.625	102.94
346.853	76.94
347.08	92.94
347.308	90.94
347.535	100.94
347.763	79.94
347.99	84.94
348.218	94.94
348.445	86.94
348.673	101.94
348.9	92.94
349.128	90.94
349.355	81.94
349.583	97.94
349.81	101.94
350.037	88.94
350.265	80.94
350.492	89.94
350.72	87.94
350.947	99.94
351.174	90.94
351.402	71.94
351.629	82.94
351.856	99.94
352.083	88.94
352.311	91.94
352.538	82.94
352.765	92.94
352.992	106.94
353.22	99.94
353.447	80.94
353.674	98.94
353.901	74.94
354.128	97.94
354.355	105.94
354.583	75.94
354.81	74.94
355.037	98.94
355.264	79.94
355.491	94.94
355.718	88.94
355.945	89.94
356.172	85.94
356.399	87.94
356.626	96.94
356.853	87.94
357.08	88.94
357.307	81.94
357.534	88.94
357.761	92.94
357.988	99.94
358.215	95.94
358.441	75.94
358.668	85.94
358.895	94.94
359.122	79.94
359.349	97.94
359.576	84.94
359.802	89.94
360.029	95.94
360.256	101.94
360.483	93.94
360.709	83.94
360.936	101.94
361.163	84.94
361.39	98.94
361.616	90.94
361.843	89.94
362.07	73.94
362.296	81.94
362.523	91.94
362.749	80.94
362.976	95.94
363.203	88.94
363.429	90.94
363.656	87.94
363.882	91.94
364.109	94.94
364.335	93.94
364.562	97.94
364.788	102.94
365.015	91.94
365.241	98.94
365.468	101.94
365.694	86.94
365.92	92.94
366.147	77.94
366.373	79.94
366.599	92.94
366.826	84.94
367.052	85.94
367.278	84.94
367.505	90.94
367.731	82.94
367.957	83.94
368.184	111.94
368.41	96.94
368.636	95.94
368.862	81.94
369.089	90.94
369.315	93.94
369.541	75.94
369.767	85.94
369.993	79.94
370.219	85.94
370.445	79.94
370.672	101.94
370.898	80.94
371.124	101.94
371.35	83.94
371.576	77.94
371.802	96.94
372.028	77.94
372.254	88.94
372.48	88.94
372.706	90.94
372.932	83.94
373.158	83.94
373.384	79.94
373.61	90.94
373.835	98.94
374.061	81.94
374.287	102.94
374.513	86.94
374.739	81.94
374.965	78.94
375.191	100.94
375.416	93.94
375.642	75.94
375.868	83.94
376.094	83.94
376.319	75.94
376.545	85.94
376.771	94.94
376.997	93.94
377.222	90.94
377.448	85.94
377.674	84.94
377.899	95.94
378.125	79.94
378.35	88.94
378.576	93.94
378.802	86.94
379.027	74.94
379.253	86.94
379.478	92.94
379.704	91.94
379.929	83.94
380.155	94.94
380.38	95.94
380.606	84.94
380.831	99.94
381.057	103.94
381.282	86.94
381.507	101.94
381.733	86.94
381.958	101.94
382.184	82.94
382.409	84.94
382.634	106.94
382.86	84.94
383.085	83.94
383.31	86.94
383.535	96.94
383.761	85.94
383.986	98.94
384.211	81.94
384.436	91.94
384.662	96.94
384.887	78.94
385.112	83.94
385.337	109.94
385.562	90.94
385.787	88.94
386.013	116.94
386.238	82.94
386.463	89.94
386.688	84.94
386.913	87.94
387.138	96.94
387.363	94.94
387.588	88.94
387.813	77.94
388.038	90.94
388.263	90.94
388.488	86.94
388.713	111.94
388.938	86.94
389.163	89.94
389.387	95.94
389.612	91.94
389.837	98.94
390.062	94.94
390.287	78.94
390.512	80.94
390.736	91.94
390.961	103.94
391.186	80.94
391.411	87.94
391.636	93.94
391.86	89.94
392.085	81.94
392.31	97.94
392.534	95.94
392.759	88.94
392.984	88.94
393.208	87.94
393.433	102.94
393.658	91.94
393.882	95.94
394.107	79.94
394.331	91.94
394.556	96.94
394.78	86.94
395.005	85.94
395.229	82.94
395.454	85.94
395.678	90.94
395.903	82.94
396.127	95.94
396.352	88.94
396.576	97.94
396.801	90.94
397.025	95.94
397.249	98.94
397.474	90.94
397.698	94.94
397.922	84.94
398.147	85.94
398.371	87.94
398.595	88.94
398.82	86.94
399.044	91.94
399.268	85.94
399.492	79.94
399.717	106.94
399.941	96.94
400.165	101.94
400.389	99.94
400.613	90.94
400.837	95.94
401.062	87.94
401.286	98.94
401.51	92.94
401.734	99.94
401.958	92.94
402.182	97.94
402.406	90.94
402.63	87.94
402.854	90.94
403.078	80.94
403.302	82.94
403.526	91.94
403.75	95.94
403.974	101.94
404.198	101.94
404.422	95.94
404.645	99.94
404.869	99.94
405.093	91.94
405.317	105.94
405.541	88.94
405.765	84.94
405.988	90.94
406.212	80.94
406.436	98.94
406.66	98.94
406.883	82.94
407.107	98.94
407.331	94.94
407.555	109.94
407.778	86.94
408.002	81.94
408.226	98.94
408.449	91.94
408.673	82.94
408.896	91.94
409.12	97.94
409.344	98.94
409.567	84.94
409.791	98.94
410.014	99.94
410.238	94.94
410.461	99.94
410.685	104.94
410.908	89.94
411.132	88.94
411.355	86.94
411.578	95.94
411.802	75.94
412.025	97.94
412.249	89.94
412.472	101.94
412.695	97.94
412.919	108.94
413.142	81.94
413.365	92.94
413.589	108.94
413.812	83.94
414.035	103.94
414.258	102.94
414.482	103.94
414.705	101.94
414.928	99.94
415.151	102.94
415.374	92.94
415.597	86.94
415.821	91.94
416.044	92.94
416.267	89.94
416.49	89.94
416.713	87.94
416.936	86.94
417.159	96.94
417.382	85.94
417.605	90.94
417.828	83.94
418.051	94.94
418.274	102.94
418.497	101.94
418.72	105.94
418.943	89.94
419.166	100.94
419.389	98.94
419.611	100.94
419.834	102.94
420.057	97.94
420.28	91.94
420.503	85.94
420.726	98.94
420.948	101.94
421.171	89.94
421.394	94.94
421.617	89.94
421.839	96.94
422.062	96.94
422.285	93.94
422.507	104.94
422.73	93.94
422.953	87.94
423.175	97.94
423.398	88.94
423.621	92.94
423.843	106.94
424.066	93.94
424.288	84.94
424.511	91.94
424.733	96.94
424.956	100.94
425.178	94.94
425.401	94.94
425.623	96.94
425.846	94.94
426.068	85.94
426.291	82.94
426.513	77.94
426.735	95.94
426.958	93.94
427.18	93.94
427.402	90.94
427.625	91.94
427.847	92.94
428.069	93.94
428.292	89.94
428.514	94.94
428.736	95.94
428.958	99.94
429.181	83.94
429.403	85.94
429.625	95.94
429.847	80.94
430.069	97.94
430.292	99.94
430.514	81.94
430.736	94.94
430.958	98.94
431.18	76.94
431.402	91.94
431.624	94.94
431.846	94.94
432.068	101.94
432.29	93.94
432.512	102.94
432.734	91.94
432.956	89.94
433.178	90.94
433.4	85.94
433.622	88.94
433.844	96.94
434.066	99.94
434.287	86.94
434.509	102.94
434.731	85.94
434.953	92.94
435.175	98.94
435.397	84.94
435.618	95.94
435.84	95.94
436.062	90.94
436.284	96.94
436.505	82.94
436.727	100.94
436.949	77.94
437.17	93.94
437.392	84.94
437.614	97.94
437.835	86.94
438.057	82.94
438.278	90.94
438.5	85.94
438.721	86.94
438.943	91.94
439.165	105.94
439.386	97.94
439.608	92.94
439.829	86.94
440.05	100.94
440.272	75.94
440.493	83.94
440.715	102.94
440.936	96.94
441.158	92.94
441.379	82.94
441.6	83.94
441.822	83.94
442.043	104.94
442.264	87.94
442.486	85.94
442.707	92.94
442.928	93.94
443.149	87.94
443.371	83.94
443.592	90.94
443.813	98.94
444.034	87.94
444.255	82.94
444.476	100.94
444.698	103.94
444.919	98.94
445.14	227.94
445.361	144.94
445.582	93.94
445.803	97.94
446.024	90.94
446.245	109.94
446.466	85.94
446.687	83.94
446.908	98.94
447.129	102.94
447.35	93.94
447.571	90.94
447.792	104.94
448.013	87.94
448.234	92.94
448.455	97.94
448.675	84.94
448.896	92.94
449.117	72.94
449.338	85.94
449.559	87.94
449.779	86.94
450	93.94
450.221	96.94
450.442	100.94
450.662	97.94
450.883	103.94
451.104	83.94
451.324	88.94
451.545	95.94
451.766	82.94
451.986	78.94
452.207	75.94
452.428	91.94
452.648	87.94
452.869	86.94
453.089	79.94
453.31	100.94
453.53	87.94
453.751	77.94
453.971	102.94
454.192	75.94
454.412	98.94
454.633	91.94
454.853	96.94
455.073	95.94
455.294	94.94
455.514	91.94
455.734	86.94
455.955	85.94
456.175	97.94
456.395	99.94
456.616	89.94
456.836	93.94
457.056	91.94
457.276	82.94
457.497	85.94
457.717	89.94
457.937	78.94
458.157	88.94
458.377	96.94
458.598	80.94
458.818	82.94
459.038	81.94
459.258	90.94
459.478	98.94
459.698	87.94
459.918	93.94
460.138	95.94
460.358	95.94
460.578	102.94
460.798	102.94
461.018	93.94
461.238	105.94
461.458	103.94
461.678	96.94
461.898	93.94
462.118	90.94
462.338	103.94
462.558	97.94
462.777	110.94
462.997	99.94
463.217	94.94
463.437	109.94
463.657	98.94
463.876	97.94
464.096	93.94
464.316	75.94
464.536	108.94
464.755	89.94
464.975	95.94
465.195	93.94
465.414	99.94
465.634	85.94
465.854	90.94
466.073	97.94
466.293	96.94
466.512	86.94
466.732	90.94
466.951	86.94
467.171	87.94
467.391	90.94
467.61	105.94
467.829	112.94
468.049	100.94
468.268	100.94
468.488	86.94
468.707	87.94
468.927	81.94
469.146	101.94
469.365	96.94
469.585	86.94
469.804	105.94
470.023	93.94
470.243	95.94
470.462	102.94
470.681	105.94
470.901	91.94
471.12	105.94
471.339	95.94
471.558	98.94
471.777	87.94
471.997	102.94
472.216	94.94
472.435	99.94
472.654	98.94
472.873	95.94
473.092	109.94
473.311	82.94
473.53	85.94
473.749	90.94
473.968	96.94
474.187	93.94
474.406	99.94
474.625	111.94
474.844	87.94
475.063	93.94
475.282	104.94
475.501	81.94
475.72	109.94
475.939	99.94
476.158	96.94
476.377	85.94
476.596	98.94
476.814	82.94
477.033	82.94
477.252	94.94
477.471	96.94
477.69	105.94
477.908	95.94
478.127	109.94
478.346	101.94
478.564	92.94
478.783	100.94
479.002	103.94
479.22	107.94
479.439	90.94
479.658	102.94
479.876	100.94
480.095	94.94
480.313	101.94
480.532	103.94
480.751	106.94
480.969	87.94
481.188	97.94
481.406	96.94
481.624	94.94
481.843	102.94
482.061	96.94
482.28	103.94
482.498	90.94
482.717	98.94
482.935	109.94
483.153	97.94
483.372	106.94
483.59	103.94
483.808	97.94
484.027	95.94
484.245	95.94
484.463	99.94
484.681	116.94
484.9	99.94
485.118	97.94
485.336	92.94
485.554	86.94
485.772	83.94
485.99	89.94
486.209	92.94
486.427	99.94
486.645	90.94
486.863	99.94
487.081	99.94
487.299	99.94
487.517	84.94
487.735	96.94
487.953	106.94
488.171	110.94
488.389	90.94
488.607	100.94
488.825	103.94
489.043	101.94
489.261	111.94
489.479	94.94
489.696	97.94
489.914	105.94
490.132	98.94
490.35	111.94
490.568	102.94
490.786	101.94
491.003	110.94
491.221	108.94
491.439	101.94
491.657	110.94
491.874	125.94
492.092	111.94
492.31	118.94
492.527	105.94
492.745	111.94
492.963	106.94
493.18	112.94
493.398	120.94
493.615	102.94
493.833	97.94
494.05	100.94
494.268	108.94
494.485	123.94
494.703	105.94
494.92	107.94
495.138	90.94
495.355	101.94
495.573	113.94
495.79	106.94
496.008	117.94
496.225	103.94
496.442	109.94
496.66	117.94
496.877	93.94
497.094	113.94
497.312	103.94
497.529	98.94
497.746	117.94
497.963	115.94
498.181	112.94
498.398	100.94
498.615	117.94
498.832	94.94
499.049	117.94
499.267	119.94
499.484	106.94
499.701	125.94
499.918	137.94
500.135	129.94
500.352	124.94
500.569	136.94
500.786	131.94
501.003	162.94
501.22	136.94
501.437	123.94
501.654	125.94
501.871	125.94
502.088	127.94
502.305	112.94
502.522	122.94
502.739	119.94
502.956	118.94
503.172	106.94
503.389	99.94
503.606	101.94
503.823	120.94
504.04	96.94
504.256	102.94
504.473	107.94
504.69	122.94
504.907	96.94
505.123	88.94
505.34	98.94
505.557	96.94
505.773	100.94
505.99	113.94
506.207	103.94
506.423	97.94
506.64	135.94
506.856	106.94
507.073	106.94
507.289	107.94
507.506	98.94
507.722	99.94
507.939	105.94
508.155	115.94
508.372	96.94
508.588	115.94
508.805	115.94
509.021	104.94
509.238	91.94
509.454	95.94
509.67	89.94
509.887	91.94
510.103	101.94
510.319	106.94
510.536	99.94
510.752	102.94
510.968	91.94
511.184	103.94
511.401	99.94
511.617	84.94
511.833	97.94
512.049	105.94
512.265	103.94
512.481	111.94
512.698	103.94
512.914	103.94
513.13	98.94
513.346	96.94
513.562	87.94
513.778	95.94
513.994	94.94
514.21	95.94
514.426	96.94
514.642	98.94
514.858	102.94
515.074	92.94
515.29	97.94
515.506	100.94
515.721	93.94
515.937	102.94
516.153	106.94
516.369	101.94
