Data from Location5.07152019.Energy5.Lamp.07192019.3%Agarose_HRD10591_16-05-27-630.txt Node
Date: Fri Jul 19 16:05:27 EDT 2019
User: cochatt
Spectrometer: HR+D1059
Trigger mode: 1
Integration Time (sec): 1.000000E-1
Scans to average: 1
Electric dark correction enabled: true
Nonlinearity correction enabled: false
Boxcar width: 0
XAxis mode: Wavelengths
Number of Pixels in Spectrum: 2048
>>>>>Begin Spectral Data<<<<<
223.165	-14.88
223.4	-14.88
223.635	-14.88
223.869	-1.88
224.104	-28.88
224.338	-4.88
224.573	-6.88
224.808	-20.88
225.042	-3.88
225.277	-12.88
225.511	-0.88
225.746	8.12
225.98	18.12
226.215	-0.88
226.449	4.12
226.683	16.12
226.918	20.12
227.152	30.12
227.387	37.12
227.621	44.12
227.856	46.12
228.09	43.12
228.324	46.12
228.559	58.12
228.793	50.12
229.027	60.12
229.262	56.12
229.496	71.12
229.73	64.12
229.964	71.12
230.199	76.12
230.433	71.12
230.667	78.12
230.901	95.12
231.136	79.12
231.37	75.12
231.604	88.12
231.838	97.12
232.072	83.12
232.306	80.12
232.541	83.12
232.775	93.12
233.009	86.12
233.243	97.12
233.477	73.12
233.711	85.12
233.945	94.12
234.179	85.12
234.413	89.12
234.647	84.12
234.881	78.12
235.115	83.12
235.349	83.12
235.583	74.12
235.817	82.12
236.051	81.12
236.285	75.12
236.519	85.12
236.753	73.12
236.987	69.12
237.221	84.12
237.455	76.12
237.689	81.12
237.922	82.12
238.156	69.12
238.39	73.12
238.624	73.12
238.858	86.12
239.091	84.12
239.325	73.12
239.559	73.12
239.793	85.12
240.027	73.12
240.26	79.12
240.494	86.12
240.728	76.12
240.961	81.12
241.195	85.12
241.429	86.12
241.662	67.12
241.896	83.12
242.13	72.12
242.363	86.12
242.597	79.12
242.83	73.12
243.064	72.12
243.298	67.12
243.531	66.12
243.765	77.12
243.998	99.12
244.232	77.12
244.465	84.12
244.699	70.12
244.932	68.12
245.166	82.12
245.399	81.12
245.633	66.12
245.866	81.12
246.099	73.12
246.333	73.12
246.566	89.12
246.8	67.12
247.033	86.12
247.266	75.12
247.5	93.12
247.733	73.12
247.966	71.12
248.2	83.12
248.433	82.12
248.666	83.12
248.899	89.12
249.133	88.12
249.366	91.12
249.599	72.12
249.832	75.12
250.066	90.12
250.299	81.12
250.532	76.12
250.765	86.12
250.998	70.12
251.231	85.12
251.465	71.12
251.698	89.12
251.931	77.12
252.164	76.12
252.397	75.12
252.63	79.12
252.863	66.12
253.096	90.12
253.329	80.12
253.562	85.12
253.795	81.12
254.028	82.12
254.261	74.12
254.494	82.12
254.727	81.12
254.96	72.12
255.193	84.12
255.426	70.12
255.659	80.12
255.892	85.12
256.124	85.12
256.357	87.12
256.59	80.12
256.823	75.12
257.056	89.12
257.289	81.12
257.521	77.12
257.754	90.12
257.987	81.12
258.22	75.12
258.452	71.12
258.685	90.12
258.918	74.12
259.151	93.12
259.383	87.12
259.616	90.12
259.849	77.12
260.081	75.12
260.314	83.12
260.547	96.12
260.779	82.12
261.012	76.12
261.244	85.12
261.477	85.12
261.71	80.12
261.942	89.12
262.175	88.12
262.407	87.12
262.64	83.12
262.872	84.12
263.105	87.12
263.337	94.12
263.57	83.12
263.802	86.12
264.035	81.12
264.267	82.12
264.499	93.12
264.732	90.12
264.964	83.12
265.197	79.12
265.429	79.12
265.661	66.12
265.894	78.12
266.126	88.12
266.358	78.12
266.591	85.12
266.823	97.12
267.055	67.12
267.287	79.12
267.52	89.12
267.752	82.12
267.984	88.12
268.216	66.12
268.448	83.12
268.681	89.12
268.913	86.12
269.145	84.12
269.377	74.12
269.609	78.12
269.841	77.12
270.073	76.12
270.306	80.12
270.538	84.12
270.77	76.12
271.002	83.12
271.234	90.12
271.466	90.12
271.698	78.12
271.93	87.12
272.162	85.12
272.394	79.12
272.626	82.12
272.858	88.12
273.09	82.12
273.322	97.12
273.553	104.12
273.785	86.12
274.017	91.12
274.249	84.12
274.481	83.12
274.713	84.12
274.945	72.12
275.176	69.12
275.408	86.12
275.64	94.12
275.872	87.12
276.104	83.12
276.335	78.12
276.567	94.12
276.799	80.12
277.031	79.12
277.262	88.12
277.494	79.12
277.726	96.12
277.957	87.12
278.189	77.12
278.421	100.12
278.652	94.12
278.884	92.12
279.115	88.12
279.347	83.12
279.579	79.12
279.81	83.12
280.042	76.12
280.273	103.12
280.505	92.12
280.736	86.12
280.968	87.12
281.199	81.12
281.431	74.12
281.662	84.12
281.894	77.12
282.125	87.12
282.356	81.12
282.588	80.12
282.819	81.12
283.051	80.12
283.282	90.12
283.513	85.12
283.745	89.12
283.976	84.12
284.207	81.12
284.439	96.12
284.67	101.12
284.901	97.12
285.132	80.12
285.364	93.12
285.595	88.12
285.826	87.12
286.057	86.12
286.288	93.12
286.52	101.12
286.751	91.12
286.982	86.12
287.213	90.12
287.444	96.12
287.675	81.12
287.906	87.12
288.138	86.12
288.369	75.12
288.6	82.12
288.831	83.12
289.062	94.12
289.293	76.12
289.524	94.12
289.755	74.12
289.986	77.12
290.217	83.12
290.448	85.12
290.679	96.12
290.91	81.12
291.141	90.12
291.371	88.12
291.602	92.12
291.833	95.12
292.064	75.12
292.295	84.12
292.526	83.12
292.757	74.12
292.987	97.12
293.218	82.12
293.449	93.12
293.68	89.12
293.91	72.12
294.141	93.12
294.372	92.12
294.603	96.12
294.833	86.12
295.064	96.12
295.295	87.12
295.525	80.12
295.756	84.12
295.987	88.12
296.217	82.12
296.448	104.12
296.679	90.12
296.909	95.12
297.14	87.12
297.37	98.12
297.601	81.12
297.831	81.12
298.062	91.12
298.292	90.12
298.523	85.12
298.753	95.12
298.984	91.12
299.214	87.12
299.445	87.12
299.675	103.12
299.905	100.12
300.136	100.12
300.366	102.12
300.597	107.12
300.827	90.12
301.057	77.12
301.288	102.12
301.518	104.12
301.748	105.12
301.979	90.12
302.209	95.12
302.439	96.12
302.669	94.12
302.9	105.12
303.13	94.12
303.36	101.12
303.59	96.12
303.82	91.12
304.051	92.12
304.281	72.12
304.511	94.12
304.741	88.12
304.971	95.12
305.201	95.12
305.431	87.12
305.661	81.12
305.891	112.12
306.121	90.12
306.352	93.12
306.582	91.12
306.812	90.12
307.042	98.12
307.272	71.12
307.502	75.12
307.731	91.12
307.961	85.12
308.191	87.12
308.421	96.12
308.651	95.12
308.881	84.12
309.111	88.12
309.341	91.12
309.571	90.12
309.8	89.12
310.03	86.12
310.26	75.12
310.49	84.12
310.72	88.12
310.949	84.12
311.179	91.12
311.409	83.12
311.639	89.12
311.868	81.12
312.098	75.12
312.328	96.12
312.557	95.12
312.787	82.12
313.017	87.12
313.246	95.12
313.476	93.12
313.706	80.12
313.935	91.12
314.165	87.12
314.394	80.12
314.624	106.12
314.853	93.12
315.083	85.12
315.312	95.12
315.542	94.12
315.771	81.12
316.001	98.12
316.23	80.12
316.46	105.12
316.689	88.12
316.919	96.12
317.148	95.12
317.377	96.12
317.607	104.12
317.836	83.12
318.065	86.12
318.295	93.12
318.524	76.12
318.753	94.12
318.983	75.12
319.212	101.12
319.441	92.12
319.67	84.12
319.9	88.12
320.129	81.12
320.358	97.12
320.587	88.12
320.816	92.12
321.046	86.12
321.275	94.12
321.504	96.12
321.733	99.12
321.962	84.12
322.191	95.12
322.42	78.12
322.649	97.12
322.878	91.12
323.108	90.12
323.337	83.12
323.566	89.12
323.795	93.12
324.024	98.12
324.253	88.12
324.482	80.12
324.71	94.12
324.939	106.12
325.168	79.12
325.397	94.12
325.626	105.12
325.855	89.12
326.084	80.12
326.313	93.12
326.542	97.12
326.77	96.12
326.999	88.12
327.228	82.12
327.457	91.12
327.686	87.12
327.914	88.12
328.143	82.12
328.372	104.12
328.6	95.12
328.829	90.12
329.058	97.12
329.287	95.12
329.515	85.12
329.744	87.12
329.972	86.12
330.201	88.12
330.43	89.12
330.658	89.12
330.887	88.12
331.115	94.12
331.344	85.12
331.572	102.12
331.801	87.12
332.03	86.12
332.258	91.12
332.486	79.12
332.715	101.12
332.943	94.12
333.172	83.12
333.4	96.12
333.629	93.12
333.857	98.12
334.085	102.12
334.314	96.12
334.542	106.12
334.771	101.12
334.999	104.12
335.227	99.12
335.455	104.12
335.684	97.12
335.912	97.12
336.14	93.12
336.369	108.12
336.597	92.12
336.825	111.12
337.053	114.12
337.281	100.12
337.51	86.12
337.738	94.12
337.966	91.12
338.194	86.12
338.422	89.12
338.65	95.12
338.878	98.12
339.106	106.12
339.334	101.12
339.562	95.12
339.79	96.12
340.018	79.12
340.246	89.12
340.474	88.12
340.702	80.12
340.93	87.12
341.158	81.12
341.386	100.12
341.614	93.12
341.842	99.12
342.07	89.12
342.298	81.12
342.526	90.12
342.754	101.12
342.981	97.12
343.209	88.12
343.437	94.12
343.665	103.12
343.893	88.12
344.12	100.12
344.348	89.12
344.576	99.12
344.804	94.12
345.031	98.12
345.259	89.12
345.487	82.12
345.714	99.12
345.942	103.12
346.17	92.12
346.397	89.12
346.625	88.12
346.853	81.12
347.08	93.12
347.308	97.12
347.535	93.12
347.763	83.12
347.99	87.12
348.218	107.12
348.445	97.12
348.673	83.12
348.9	103.12
349.128	102.12
349.355	91.12
349.583	88.12
349.81	98.12
350.037	80.12
350.265	98.12
350.492	87.12
350.72	97.12
350.947	81.12
351.174	85.12
351.402	83.12
351.629	94.12
351.856	99.12
352.083	84.12
352.311	98.12
352.538	92.12
352.765	97.12
352.992	88.12
353.22	77.12
353.447	79.12
353.674	97.12
353.901	83.12
354.128	78.12
354.355	89.12
354.583	80.12
354.81	82.12
355.037	79.12
355.264	86.12
355.491	106.12
355.718	91.12
355.945	99.12
356.172	79.12
356.399	74.12
356.626	91.12
356.853	82.12
357.08	97.12
357.307	93.12
357.534	86.12
357.761	95.12
357.988	91.12
358.215	94.12
358.441	88.12
358.668	106.12
358.895	89.12
359.122	72.12
359.349	94.12
359.576	85.12
359.802	92.12
360.029	88.12
360.256	94.12
360.483	85.12
360.709	80.12
360.936	104.12
361.163	99.12
361.39	103.12
361.616	92.12
361.843	90.12
362.07	91.12
362.296	98.12
362.523	86.12
362.749	99.12
362.976	95.12
363.203	85.12
363.429	105.12
363.656	95.12
363.882	88.12
364.109	75.12
364.335	99.12
364.562	90.12
364.788	96.12
365.015	68.12
365.241	94.12
365.468	90.12
365.694	80.12
365.92	90.12
366.147	82.12
366.373	85.12
366.599	81.12
366.826	83.12
367.052	99.12
367.278	79.12
367.505	106.12
367.731	99.12
367.957	81.12
368.184	97.12
368.41	78.12
368.636	92.12
368.862	87.12
369.089	92.12
369.315	92.12
369.541	82.12
369.767	88.12
369.993	82.12
370.219	90.12
370.445	100.12
370.672	82.12
370.898	90.12
371.124	93.12
371.35	95.12
371.576	76.12
371.802	94.12
372.028	73.12
372.254	76.12
372.48	102.12
372.706	87.12
372.932	85.12
373.158	99.12
373.384	95.12
373.61	93.12
373.835	94.12
374.061	79.12
374.287	82.12
374.513	104.12
374.739	94.12
374.965	92.12
375.191	106.12
375.416	87.12
375.642	103.12
375.868	88.12
376.094	96.12
376.319	87.12
376.545	94.12
376.771	79.12
376.997	82.12
377.222	96.12
377.448	81.12
377.674	82.12
377.899	89.12
378.125	80.12
378.35	88.12
378.576	81.12
378.802	84.12
379.027	82.12
379.253	87.12
379.478	112.12
379.704	91.12
379.929	86.12
380.155	95.12
380.38	108.12
380.606	82.12
380.831	87.12
381.057	88.12
381.282	91.12
381.507	97.12
381.733	92.12
381.958	97.12
382.184	95.12
382.409	81.12
382.634	84.12
382.86	98.12
383.085	79.12
383.31	99.12
383.535	100.12
383.761	93.12
383.986	91.12
384.211	97.12
384.436	95.12
384.662	103.12
384.887	96.12
385.112	87.12
385.337	85.12
385.562	95.12
385.787	76.12
386.013	96.12
386.238	97.12
386.463	91.12
386.688	89.12
386.913	87.12
387.138	99.12
387.363	85.12
387.588	90.12
387.813	99.12
388.038	107.12
388.263	96.12
388.488	98.12
388.713	82.12
388.938	96.12
389.163	77.12
389.387	92.12
389.612	103.12
389.837	78.12
390.062	95.12
390.287	83.12
390.512	96.12
390.736	78.12
390.961	93.12
391.186	81.12
391.411	85.12
391.636	99.12
391.86	95.12
392.085	98.12
392.31	88.12
392.534	91.12
392.759	96.12
392.984	91.12
393.208	95.12
393.433	98.12
393.658	75.12
393.882	92.12
394.107	99.12
394.331	93.12
394.556	101.12
394.78	99.12
395.005	102.12
395.229	93.12
395.454	105.12
395.678	85.12
395.903	104.12
396.127	86.12
396.352	86.12
396.576	84.12
396.801	99.12
397.025	83.12
397.249	85.12
397.474	81.12
397.698	88.12
397.922	101.12
398.147	85.12
398.371	88.12
398.595	94.12
398.82	99.12
399.044	87.12
399.268	91.12
399.492	108.12
399.717	107.12
399.941	92.12
400.165	102.12
400.389	100.12
400.613	97.12
400.837	86.12
401.062	92.12
401.286	95.12
401.51	89.12
401.734	87.12
401.958	92.12
402.182	91.12
402.406	83.12
402.63	96.12
402.854	83.12
403.078	114.12
403.302	90.12
403.526	80.12
403.75	96.12
403.974	90.12
404.198	99.12
404.422	90.12
404.645	104.12
404.869	99.12
405.093	97.12
405.317	86.12
405.541	100.12
405.765	95.12
405.988	100.12
406.212	89.12
406.436	92.12
406.66	91.12
406.883	93.12
407.107	98.12
407.331	94.12
407.555	115.12
407.778	91.12
408.002	100.12
408.226	103.12
408.449	83.12
408.673	105.12
408.896	96.12
409.12	107.12
409.344	99.12
409.567	96.12
409.791	89.12
410.014	87.12
410.238	97.12
410.461	98.12
410.685	83.12
410.908	101.12
411.132	103.12
411.355	114.12
411.578	95.12
411.802	91.12
412.025	94.12
412.249	92.12
412.472	104.12
412.695	85.12
412.919	97.12
413.142	81.12
413.365	92.12
413.589	88.12
413.812	84.12
414.035	98.12
414.258	92.12
414.482	86.12
414.705	95.12
414.928	104.12
415.151	98.12
415.374	96.12
415.597	100.12
415.821	89.12
416.044	101.12
416.267	98.12
416.49	87.12
416.713	92.12
416.936	86.12
417.159	101.12
417.382	95.12
417.605	80.12
417.828	96.12
418.051	87.12
418.274	86.12
418.497	75.12
418.72	88.12
418.943	107.12
419.166	102.12
419.389	97.12
419.611	78.12
419.834	90.12
420.057	96.12
420.28	92.12
420.503	94.12
420.726	99.12
420.948	110.12
421.171	92.12
421.394	97.12
421.617	95.12
421.839	80.12
422.062	99.12
422.285	95.12
422.507	96.12
422.73	97.12
422.953	73.12
423.175	88.12
423.398	84.12
423.621	94.12
423.843	82.12
424.066	106.12
424.288	83.12
424.511	103.12
424.733	91.12
424.956	93.12
425.178	88.12
425.401	97.12
425.623	89.12
425.846	100.12
426.068	91.12
426.291	93.12
426.513	103.12
426.735	84.12
426.958	89.12
427.18	95.12
427.402	73.12
427.625	92.12
427.847	100.12
428.069	83.12
428.292	87.12
428.514	92.12
428.736	90.12
428.958	82.12
429.181	96.12
429.403	95.12
429.625	92.12
429.847	90.12
430.069	97.12
430.292	90.12
430.514	98.12
430.736	96.12
430.958	103.12
431.18	97.12
431.402	79.12
431.624	94.12
431.846	94.12
432.068	86.12
432.29	91.12
432.512	93.12
432.734	94.12
432.956	94.12
433.178	82.12
433.4	77.12
433.622	87.12
433.844	83.12
434.066	91.12
434.287	95.12
434.509	86.12
434.731	92.12
434.953	66.12
435.175	96.12
435.397	104.12
435.618	97.12
435.84	81.12
436.062	92.12
436.284	96.12
436.505	88.12
436.727	101.12
436.949	87.12
437.17	93.12
437.392	94.12
437.614	105.12
437.835	95.12
438.057	82.12
438.278	97.12
438.5	87.12
438.721	98.12
438.943	85.12
439.165	91.12
439.386	102.12
439.608	92.12
439.829	92.12
440.05	92.12
440.272	82.12
440.493	99.12
440.715	84.12
440.936	75.12
441.158	85.12
441.379	109.12
441.6	104.12
441.822	90.12
442.043	87.12
442.264	98.12
442.486	91.12
442.707	91.12
442.928	100.12
443.149	84.12
443.371	89.12
443.592	75.12
443.813	84.12
444.034	100.12
444.255	96.12
444.476	92.12
444.698	82.12
444.919	105.12
445.14	207.12
445.361	146.12
445.582	97.12
445.803	99.12
446.024	104.12
446.245	92.12
446.466	90.12
446.687	95.12
446.908	90.12
447.129	104.12
447.35	91.12
447.571	98.12
447.792	93.12
448.013	80.12
448.234	80.12
448.455	87.12
448.675	95.12
448.896	98.12
449.117	86.12
449.338	94.12
449.559	79.12
449.779	104.12
450	86.12
450.221	73.12
450.442	87.12
450.662	83.12
450.883	96.12
451.104	86.12
451.324	89.12
451.545	85.12
451.766	94.12
451.986	76.12
452.207	75.12
452.428	92.12
452.648	96.12
452.869	96.12
453.089	87.12
453.31	97.12
453.53	77.12
453.751	88.12
453.971	83.12
454.192	72.12
454.412	87.12
454.633	86.12
454.853	79.12
455.073	83.12
455.294	85.12
455.514	83.12
455.734	91.12
455.955	84.12
456.175	83.12
456.395	91.12
456.616	99.12
456.836	96.12
457.056	95.12
457.276	87.12
457.497	86.12
457.717	83.12
457.937	84.12
458.157	81.12
458.377	79.12
458.598	89.12
458.818	93.12
459.038	97.12
459.258	74.12
459.478	87.12
459.698	90.12
459.918	97.12
460.138	86.12
460.358	92.12
460.578	104.12
460.798	99.12
461.018	92.12
461.238	95.12
461.458	110.12
461.678	105.12
461.898	90.12
462.118	95.12
462.338	106.12
462.558	83.12
462.777	102.12
462.997	98.12
463.217	107.12
463.437	105.12
463.657	98.12
463.876	100.12
464.096	108.12
464.316	102.12
464.536	101.12
464.755	104.12
464.975	98.12
465.195	104.12
465.414	103.12
465.634	87.12
465.854	100.12
466.073	93.12
466.293	98.12
466.512	98.12
466.732	90.12
466.951	98.12
467.171	84.12
467.391	94.12
467.61	103.12
467.829	96.12
468.049	98.12
468.268	91.12
468.488	93.12
468.707	76.12
468.927	99.12
469.146	108.12
469.365	87.12
469.585	94.12
469.804	85.12
470.023	92.12
470.243	87.12
470.462	102.12
470.681	104.12
470.901	91.12
471.12	89.12
471.339	95.12
471.558	91.12
471.777	89.12
471.997	99.12
472.216	90.12
472.435	88.12
472.654	94.12
472.873	89.12
473.092	101.12
473.311	82.12
473.53	92.12
473.749	74.12
473.968	97.12
474.187	97.12
474.406	83.12
474.625	90.12
474.844	96.12
475.063	102.12
475.282	98.12
475.501	88.12
475.72	86.12
475.939	90.12
476.158	100.12
476.377	105.12
476.596	93.12
476.814	86.12
477.033	89.12
477.252	93.12
477.471	93.12
477.69	88.12
477.908	94.12
478.127	94.12
478.346	95.12
478.564	112.12
478.783	105.12
479.002	107.12
479.22	98.12
479.439	102.12
479.658	97.12
479.876	101.12
480.095	83.12
480.313	92.12
480.532	95.12
480.751	106.12
480.969	97.12
481.188	102.12
481.406	97.12
481.624	98.12
481.843	94.12
482.061	91.12
482.28	87.12
482.498	95.12
482.717	97.12
482.935	98.12
483.153	106.12
483.372	93.12
483.59	110.12
483.808	100.12
484.027	97.12
484.245	89.12
484.463	107.12
484.681	103.12
484.9	103.12
485.118	96.12
485.336	87.12
485.554	100.12
485.772	98.12
485.99	97.12
486.209	105.12
486.427	88.12
486.645	97.12
486.863	104.12
487.081	92.12
487.299	102.12
487.517	103.12
487.735	112.12
487.953	104.12
488.171	96.12
488.389	104.12
488.607	94.12
488.825	102.12
489.043	106.12
489.261	105.12
489.479	93.12
489.696	101.12
489.914	98.12
490.132	110.12
490.35	108.12
490.568	107.12
490.786	105.12
491.003	108.12
491.221	111.12
491.439	103.12
491.657	104.12
491.874	111.12
492.092	118.12
492.31	105.12
492.527	119.12
492.745	118.12
492.963	107.12
493.18	104.12
493.398	116.12
493.615	89.12
493.833	91.12
494.05	93.12
494.268	104.12
494.485	104.12
494.703	99.12
494.92	114.12
495.138	97.12
495.355	111.12
495.573	94.12
495.79	108.12
496.008	112.12
496.225	123.12
496.442	112.12
496.66	106.12
496.877	114.12
497.094	102.12
497.312	110.12
497.529	107.12
497.746	98.12
497.963	107.12
498.181	107.12
498.398	108.12
498.615	113.12
498.832	106.12
499.049	118.12
499.267	112.12
499.484	114.12
499.701	113.12
499.918	131.12
500.135	131.12
500.352	139.12
500.569	146.12
500.786	148.12
501.003	145.12
501.22	133.12
501.437	122.12
501.654	123.12
501.871	124.12
502.088	122.12
502.305	118.12
502.522	110.12
502.739	107.12
502.956	113.12
503.172	117.12
503.389	116.12
503.606	93.12
503.823	109.12
504.04	97.12
504.256	93.12
504.473	91.12
504.69	114.12
504.907	115.12
505.123	123.12
505.34	101.12
505.557	103.12
505.773	99.12
505.99	85.12
506.207	107.12
506.423	114.12
506.64	100.12
506.856	105.12
507.073	103.12
507.289	103.12
507.506	93.12
507.722	104.12
507.939	111.12
508.155	94.12
508.372	99.12
508.588	105.12
508.805	114.12
509.021	104.12
509.238	97.12
509.454	99.12
509.67	94.12
509.887	98.12
510.103	86.12
510.319	80.12
510.536	87.12
510.752	99.12
510.968	108.12
511.184	93.12
511.401	107.12
511.617	110.12
511.833	96.12
512.049	107.12
512.265	102.12
512.481	90.12
512.698	106.12
512.914	102.12
513.13	91.12
513.346	95.12
513.562	85.12
513.778	103.12
513.994	90.12
514.21	87.12
514.426	99.12
514.642	101.12
514.858	101.12
515.074	103.12
515.29	107.12
515.506	98.12
515.721	105.12
515.937	99.12
