Data from Location5.07152019.Energy5.Lamp.07192019.3%Agarose_HRD10591_15-36-29-386.txt Node
Date: Fri Jul 19 15:36:29 EDT 2019
User: cochatt
Spectrometer: HR+D1059
Trigger mode: 1
Integration Time (sec): 1.000000E-1
Scans to average: 1
Electric dark correction enabled: true
Nonlinearity correction enabled: false
Boxcar width: 0
XAxis mode: Wavelengths
Number of Pixels in Spectrum: 2048
>>>>>Begin Spectral Data<<<<<
223.165	-15.25
223.4	-15.25
223.635	-15.25
223.869	-14.25
224.104	-23.25
224.338	-28.25
224.573	-25.25
224.808	-19.25
225.042	4.75
225.277	11.75
225.511	-3.25
225.746	0.75
225.98	3.75
226.215	17.75
226.449	11.75
226.683	24.75
226.918	16.75
227.152	36.75
227.387	25.75
227.621	41.75
227.856	41.75
228.09	55.75
228.324	56.75
228.559	59.75
228.793	67.75
229.027	41.75
229.262	64.75
229.496	69.75
229.73	71.75
229.964	71.75
230.199	95.75
230.433	84.75
230.667	82.75
230.901	70.75
231.136	71.75
231.37	86.75
231.604	69.75
231.838	85.75
232.072	89.75
232.306	96.75
232.541	85.75
232.775	81.75
233.009	84.75
233.243	91.75
233.477	93.75
233.711	78.75
233.945	93.75
234.179	82.75
234.413	69.75
234.647	89.75
234.881	74.75
235.115	81.75
235.349	73.75
235.583	98.75
235.817	101.75
236.051	85.75
236.285	77.75
236.519	92.75
236.753	87.75
236.987	81.75
237.221	83.75
237.455	73.75
237.689	74.75
237.922	90.75
238.156	73.75
238.39	77.75
238.624	92.75
238.858	84.75
239.091	79.75
239.325	72.75
239.559	80.75
239.793	73.75
240.027	81.75
240.26	93.75
240.494	75.75
240.728	76.75
240.961	74.75
241.195	76.75
241.429	74.75
241.662	66.75
241.896	70.75
242.13	93.75
242.363	93.75
242.597	81.75
242.83	84.75
243.064	77.75
243.298	65.75
243.531	79.75
243.765	79.75
243.998	75.75
244.232	84.75
244.465	86.75
244.699	87.75
244.932	81.75
245.166	76.75
245.399	70.75
245.633	84.75
245.866	73.75
246.099	66.75
246.333	77.75
246.566	81.75
246.8	85.75
247.033	83.75
247.266	81.75
247.5	86.75
247.733	75.75
247.966	87.75
248.2	78.75
248.433	84.75
248.666	77.75
248.899	91.75
249.133	85.75
249.366	67.75
249.599	86.75
249.832	68.75
250.066	82.75
250.299	85.75
250.532	88.75
250.765	86.75
250.998	81.75
251.231	79.75
251.465	81.75
251.698	88.75
251.931	88.75
252.164	89.75
252.397	86.75
252.63	83.75
252.863	83.75
253.096	69.75
253.329	85.75
253.562	70.75
253.795	81.75
254.028	85.75
254.261	92.75
254.494	74.75
254.727	77.75
254.96	78.75
255.193	73.75
255.426	76.75
255.659	80.75
255.892	76.75
256.124	75.75
256.357	72.75
256.59	68.75
256.823	86.75
257.056	82.75
257.289	78.75
257.521	83.75
257.754	97.75
257.987	74.75
258.22	87.75
258.452	85.75
258.685	79.75
258.918	67.75
259.151	87.75
259.383	74.75
259.616	75.75
259.849	58.75
260.081	69.75
260.314	81.75
260.547	84.75
260.779	79.75
261.012	92.75
261.244	77.75
261.477	82.75
261.71	75.75
261.942	80.75
262.175	83.75
262.407	74.75
262.64	80.75
262.872	89.75
263.105	81.75
263.337	71.75
263.57	80.75
263.802	87.75
264.035	82.75
264.267	93.75
264.499	83.75
264.732	79.75
264.964	86.75
265.197	85.75
265.429	83.75
265.661	89.75
265.894	82.75
266.126	85.75
266.358	99.75
266.591	94.75
266.823	93.75
267.055	93.75
267.287	78.75
267.52	80.75
267.752	91.75
267.984	81.75
268.216	93.75
268.448	92.75
268.681	95.75
268.913	71.75
269.145	81.75
269.377	89.75
269.609	83.75
269.841	78.75
270.073	95.75
270.306	87.75
270.538	84.75
270.77	78.75
271.002	90.75
271.234	86.75
271.466	84.75
271.698	101.75
271.93	90.75
272.162	85.75
272.394	91.75
272.626	85.75
272.858	89.75
273.09	90.75
273.322	83.75
273.553	89.75
273.785	70.75
274.017	77.75
274.249	84.75
274.481	78.75
274.713	84.75
274.945	88.75
275.176	79.75
275.408	78.75
275.64	86.75
275.872	91.75
276.104	83.75
276.335	91.75
276.567	87.75
276.799	95.75
277.031	87.75
277.262	81.75
277.494	74.75
277.726	85.75
277.957	79.75
278.189	86.75
278.421	85.75
278.652	96.75
278.884	92.75
279.115	79.75
279.347	85.75
279.579	95.75
279.81	86.75
280.042	83.75
280.273	85.75
280.505	97.75
280.736	87.75
280.968	89.75
281.199	88.75
281.431	79.75
281.662	92.75
281.894	88.75
282.125	84.75
282.356	88.75
282.588	100.75
282.819	80.75
283.051	95.75
283.282	81.75
283.513	71.75
283.745	93.75
283.976	90.75
284.207	93.75
284.439	85.75
284.67	82.75
284.901	87.75
285.132	82.75
285.364	73.75
285.595	88.75
285.826	83.75
286.057	83.75
286.288	79.75
286.52	84.75
286.751	91.75
286.982	98.75
287.213	93.75
287.444	76.75
287.675	79.75
287.906	86.75
288.138	91.75
288.369	83.75
288.6	91.75
288.831	83.75
289.062	80.75
289.293	83.75
289.524	77.75
289.755	104.75
289.986	78.75
290.217	85.75
290.448	94.75
290.679	83.75
290.91	84.75
291.141	97.75
291.371	95.75
291.602	89.75
291.833	84.75
292.064	84.75
292.295	86.75
292.526	85.75
292.757	87.75
292.987	85.75
293.218	81.75
293.449	74.75
293.68	87.75
293.91	83.75
294.141	77.75
294.372	83.75
294.603	76.75
294.833	104.75
295.064	84.75
295.295	88.75
295.525	86.75
295.756	85.75
295.987	87.75
296.217	95.75
296.448	95.75
296.679	92.75
296.909	80.75
297.14	86.75
297.37	84.75
297.601	68.75
297.831	83.75
298.062	93.75
298.292	79.75
298.523	87.75
298.753	95.75
298.984	88.75
299.214	96.75
299.445	87.75
299.675	90.75
299.905	80.75
300.136	80.75
300.366	107.75
300.597	84.75
300.827	92.75
301.057	88.75
301.288	93.75
301.518	80.75
301.748	82.75
301.979	89.75
302.209	89.75
302.439	86.75
302.669	85.75
302.9	76.75
303.13	75.75
303.36	93.75
303.59	80.75
303.82	87.75
304.051	92.75
304.281	88.75
304.511	74.75
304.741	83.75
304.971	99.75
305.201	83.75
305.431	87.75
305.661	83.75
305.891	77.75
306.121	86.75
306.352	81.75
306.582	74.75
306.812	86.75
307.042	70.75
307.272	88.75
307.502	93.75
307.731	77.75
307.961	83.75
308.191	86.75
308.421	83.75
308.651	95.75
308.881	88.75
309.111	86.75
309.341	79.75
309.571	74.75
309.8	94.75
310.03	91.75
310.26	90.75
310.49	80.75
310.72	78.75
310.949	94.75
311.179	86.75
311.409	86.75
311.639	91.75
311.868	105.75
312.098	96.75
312.328	74.75
312.557	90.75
312.787	88.75
313.017	85.75
313.246	88.75
313.476	76.75
313.706	74.75
313.935	83.75
314.165	95.75
314.394	87.75
314.624	81.75
314.853	90.75
315.083	77.75
315.312	99.75
315.542	86.75
315.771	88.75
316.001	81.75
316.23	85.75
316.46	76.75
316.689	76.75
316.919	91.75
317.148	97.75
317.377	94.75
317.607	84.75
317.836	97.75
318.065	78.75
318.295	87.75
318.524	70.75
318.753	78.75
318.983	74.75
319.212	95.75
319.441	86.75
319.67	97.75
319.9	87.75
320.129	98.75
320.358	85.75
320.587	83.75
320.816	78.75
321.046	88.75
321.275	108.75
321.504	103.75
321.733	72.75
321.962	81.75
322.191	80.75
322.42	87.75
322.649	87.75
322.878	86.75
323.108	68.75
323.337	86.75
323.566	76.75
323.795	88.75
324.024	90.75
324.253	78.75
324.482	86.75
324.71	83.75
324.939	86.75
325.168	87.75
325.397	88.75
325.626	96.75
325.855	79.75
326.084	87.75
326.313	94.75
326.542	89.75
326.77	90.75
326.999	88.75
327.228	97.75
327.457	85.75
327.686	89.75
327.914	89.75
328.143	91.75
328.372	85.75
328.6	82.75
328.829	85.75
329.058	94.75
329.287	98.75
329.515	84.75
329.744	89.75
329.972	87.75
330.201	70.75
330.43	82.75
330.658	76.75
330.887	86.75
331.115	84.75
331.344	90.75
331.572	86.75
331.801	79.75
332.03	87.75
332.258	80.75
332.486	81.75
332.715	87.75
332.943	79.75
333.172	88.75
333.4	86.75
333.629	94.75
333.857	71.75
334.085	101.75
334.314	98.75
334.542	96.75
334.771	87.75
334.999	90.75
335.227	73.75
335.455	95.75
335.684	81.75
335.912	91.75
336.14	98.75
336.369	81.75
336.597	92.75
336.825	81.75
337.053	77.75
337.281	77.75
337.51	88.75
337.738	89.75
337.966	87.75
338.194	83.75
338.422	86.75
338.65	95.75
338.878	68.75
339.106	71.75
339.334	80.75
339.562	73.75
339.79	88.75
340.018	86.75
340.246	75.75
340.474	93.75
340.702	74.75
340.93	88.75
341.158	84.75
341.386	91.75
341.614	84.75
341.842	107.75
342.07	91.75
342.298	84.75
342.526	100.75
342.754	75.75
342.981	79.75
343.209	87.75
343.437	100.75
343.665	103.75
343.893	81.75
344.12	73.75
344.348	89.75
344.576	93.75
344.804	88.75
345.031	86.75
345.259	75.75
345.487	83.75
345.714	96.75
345.942	93.75
346.17	92.75
346.397	92.75
346.625	88.75
346.853	92.75
347.08	72.75
347.308	90.75
347.535	74.75
347.763	85.75
347.99	94.75
348.218	79.75
348.445	85.75
348.673	83.75
348.9	87.75
349.128	75.75
349.355	93.75
349.583	95.75
349.81	86.75
350.037	80.75
350.265	71.75
350.492	83.75
350.72	99.75
350.947	98.75
351.174	106.75
351.402	87.75
351.629	84.75
351.856	96.75
352.083	89.75
352.311	76.75
352.538	92.75
352.765	88.75
352.992	70.75
353.22	81.75
353.447	86.75
353.674	85.75
353.901	103.75
354.128	89.75
354.355	67.75
354.583	73.75
354.81	101.75
355.037	85.75
355.264	75.75
355.491	91.75
355.718	73.75
355.945	80.75
356.172	86.75
356.399	85.75
356.626	81.75
356.853	72.75
357.08	86.75
357.307	87.75
357.534	82.75
357.761	78.75
357.988	93.75
358.215	85.75
358.441	77.75
358.668	84.75
358.895	81.75
359.122	86.75
359.349	84.75
359.576	77.75
359.802	78.75
360.029	76.75
360.256	91.75
360.483	93.75
360.709	96.75
360.936	82.75
361.163	88.75
361.39	71.75
361.616	85.75
361.843	92.75
362.07	82.75
362.296	76.75
362.523	76.75
362.749	75.75
362.976	80.75
363.203	76.75
363.429	71.75
363.656	83.75
363.882	88.75
364.109	94.75
364.335	84.75
364.562	79.75
364.788	90.75
365.015	96.75
365.241	80.75
365.468	88.75
365.694	76.75
365.92	94.75
366.147	87.75
366.373	80.75
366.599	76.75
366.826	75.75
367.052	95.75
367.278	98.75
367.505	83.75
367.731	101.75
367.957	80.75
368.184	90.75
368.41	91.75
368.636	79.75
368.862	82.75
369.089	80.75
369.315	79.75
369.541	89.75
369.767	85.75
369.993	81.75
370.219	67.75
370.445	95.75
370.672	92.75
370.898	89.75
371.124	93.75
371.35	88.75
371.576	94.75
371.802	81.75
372.028	84.75
372.254	85.75
372.48	89.75
372.706	99.75
372.932	92.75
373.158	85.75
373.384	102.75
373.61	101.75
373.835	89.75
374.061	67.75
374.287	76.75
374.513	72.75
374.739	77.75
374.965	84.75
375.191	87.75
375.416	108.75
375.642	102.75
375.868	100.75
376.094	76.75
376.319	76.75
376.545	85.75
376.771	68.75
376.997	93.75
377.222	82.75
377.448	95.75
377.674	83.75
377.899	75.75
378.125	91.75
378.35	92.75
378.576	83.75
378.802	88.75
379.027	87.75
379.253	95.75
379.478	93.75
379.704	88.75
379.929	75.75
380.155	98.75
380.38	81.75
380.606	78.75
380.831	79.75
381.057	99.75
381.282	90.75
381.507	90.75
381.733	92.75
381.958	85.75
382.184	81.75
382.409	88.75
382.634	87.75
382.86	103.75
383.085	74.75
383.31	82.75
383.535	84.75
383.761	73.75
383.986	88.75
384.211	84.75
384.436	88.75
384.662	77.75
384.887	89.75
385.112	93.75
385.337	90.75
385.562	73.75
385.787	98.75
386.013	77.75
386.238	91.75
386.463	91.75
386.688	85.75
386.913	74.75
387.138	83.75
387.363	91.75
387.588	95.75
387.813	77.75
388.038	79.75
388.263	77.75
388.488	85.75
388.713	82.75
388.938	92.75
389.163	91.75
389.387	86.75
389.612	90.75
389.837	91.75
390.062	95.75
390.287	87.75
390.512	81.75
390.736	79.75
390.961	96.75
391.186	75.75
391.411	83.75
391.636	76.75
391.86	99.75
392.085	81.75
392.31	95.75
392.534	105.75
392.759	90.75
392.984	89.75
393.208	91.75
393.433	72.75
393.658	87.75
393.882	100.75
394.107	94.75
394.331	86.75
394.556	85.75
394.78	89.75
395.005	94.75
395.229	89.75
395.454	88.75
395.678	92.75
395.903	93.75
396.127	94.75
396.352	88.75
396.576	76.75
396.801	69.75
397.025	76.75
397.249	86.75
397.474	95.75
397.698	98.75
397.922	83.75
398.147	77.75
398.371	87.75
398.595	92.75
398.82	95.75
399.044	103.75
399.268	82.75
399.492	86.75
399.717	92.75
399.941	97.75
400.165	91.75
400.389	78.75
400.613	82.75
400.837	95.75
401.062	101.75
401.286	81.75
401.51	95.75
401.734	88.75
401.958	95.75
402.182	78.75
402.406	92.75
402.63	87.75
402.854	93.75
403.078	83.75
403.302	96.75
403.526	91.75
403.75	73.75
403.974	85.75
404.198	99.75
404.422	97.75
404.645	81.75
404.869	83.75
405.093	83.75
405.317	92.75
405.541	95.75
405.765	84.75
405.988	89.75
406.212	76.75
406.436	91.75
406.66	99.75
406.883	97.75
407.107	90.75
407.331	88.75
407.555	90.75
407.778	87.75
408.002	89.75
408.226	93.75
408.449	86.75
408.673	88.75
408.896	91.75
409.12	92.75
409.344	96.75
409.567	84.75
409.791	87.75
410.014	100.75
410.238	85.75
410.461	98.75
410.685	88.75
410.908	97.75
411.132	104.75
411.355	97.75
411.578	81.75
411.802	84.75
412.025	87.75
412.249	91.75
412.472	77.75
412.695	84.75
412.919	95.75
413.142	89.75
413.365	89.75
413.589	104.75
413.812	99.75
414.035	92.75
414.258	99.75
414.482	84.75
414.705	99.75
414.928	92.75
415.151	91.75
415.374	91.75
415.597	89.75
415.821	89.75
416.044	76.75
416.267	101.75
416.49	92.75
416.713	82.75
416.936	86.75
417.159	90.75
417.382	88.75
417.605	78.75
417.828	89.75
418.051	87.75
418.274	95.75
418.497	98.75
418.72	87.75
418.943	91.75
419.166	87.75
419.389	100.75
419.611	84.75
419.834	95.75
420.057	94.75
420.28	90.75
420.503	95.75
420.726	89.75
420.948	95.75
421.171	100.75
421.394	90.75
421.617	95.75
421.839	94.75
422.062	93.75
422.285	112.75
422.507	99.75
422.73	92.75
422.953	79.75
423.175	84.75
423.398	86.75
423.621	97.75
423.843	78.75
424.066	108.75
424.288	95.75
424.511	99.75
424.733	92.75
424.956	82.75
425.178	100.75
425.401	90.75
425.623	104.75
425.846	87.75
426.068	78.75
426.291	87.75
426.513	97.75
426.735	86.75
426.958	97.75
427.18	97.75
427.402	92.75
427.625	83.75
427.847	84.75
428.069	83.75
428.292	97.75
428.514	89.75
428.736	83.75
428.958	96.75
429.181	80.75
429.403	92.75
429.625	100.75
429.847	79.75
430.069	96.75
430.292	101.75
430.514	102.75
430.736	97.75
430.958	114.75
431.18	86.75
431.402	89.75
431.624	91.75
431.846	93.75
432.068	91.75
432.29	94.75
432.512	95.75
432.734	86.75
432.956	103.75
433.178	92.75
433.4	104.75
433.622	104.75
433.844	109.75
434.066	95.75
434.287	84.75
434.509	74.75
434.731	89.75
434.953	106.75
435.175	87.75
435.397	106.75
435.618	95.75
435.84	95.75
436.062	83.75
436.284	95.75
436.505	97.75
436.727	85.75
436.949	94.75
437.17	90.75
437.392	99.75
437.614	91.75
437.835	75.75
438.057	97.75
438.278	95.75
438.5	85.75
438.721	105.75
438.943	108.75
439.165	108.75
439.386	81.75
439.608	92.75
439.829	97.75
440.05	107.75
440.272	107.75
440.493	90.75
440.715	95.75
440.936	92.75
441.158	87.75
441.379	81.75
441.6	105.75
441.822	100.75
442.043	98.75
442.264	101.75
442.486	96.75
442.707	95.75
442.928	107.75
443.149	98.75
443.371	98.75
443.592	95.75
443.813	93.75
444.034	95.75
444.255	94.75
444.476	90.75
444.698	105.75
444.919	99.75
445.14	229.75
445.361	145.75
445.582	113.75
445.803	85.75
446.024	105.75
446.245	90.75
446.466	117.75
446.687	85.75
446.908	98.75
447.129	101.75
447.35	112.75
447.571	96.75
447.792	99.75
448.013	107.75
448.234	111.75
448.455	105.75
448.675	99.75
448.896	93.75
449.117	90.75
449.338	103.75
449.559	93.75
449.779	72.75
450	93.75
450.221	89.75
450.442	96.75
450.662	86.75
450.883	108.75
451.104	109.75
451.324	95.75
451.545	89.75
451.766	89.75
451.986	80.75
452.207	83.75
452.428	95.75
452.648	110.75
452.869	108.75
453.089	95.75
453.31	79.75
453.53	93.75
453.751	81.75
453.971	92.75
454.192	77.75
454.412	95.75
454.633	92.75
454.853	88.75
455.073	90.75
455.294	91.75
455.514	85.75
455.734	99.75
455.955	92.75
456.175	83.75
456.395	74.75
456.616	96.75
456.836	98.75
457.056	94.75
457.276	94.75
457.497	87.75
457.717	84.75
457.937	102.75
458.157	87.75
458.377	73.75
458.598	97.75
458.818	92.75
459.038	95.75
459.258	74.75
459.478	72.75
459.698	93.75
459.918	89.75
460.138	79.75
460.358	93.75
460.578	91.75
460.798	89.75
461.018	79.75
461.238	91.75
461.458	87.75
461.678	93.75
461.898	81.75
462.118	85.75
462.338	100.75
462.558	88.75
462.777	83.75
462.997	107.75
463.217	85.75
463.437	84.75
463.657	77.75
463.876	89.75
464.096	85.75
464.316	95.75
464.536	93.75
464.755	85.75
464.975	81.75
465.195	75.75
465.414	93.75
465.634	93.75
465.854	79.75
466.073	88.75
466.293	89.75
466.512	101.75
466.732	92.75
466.951	88.75
467.171	101.75
467.391	92.75
467.61	87.75
467.829	90.75
468.049	91.75
468.268	105.75
468.488	95.75
468.707	95.75
468.927	91.75
469.146	94.75
469.365	97.75
469.585	86.75
469.804	97.75
470.023	98.75
470.243	104.75
470.462	100.75
470.681	104.75
470.901	101.75
471.12	93.75
471.339	96.75
471.558	89.75
471.777	98.75
471.997	96.75
472.216	90.75
472.435	92.75
472.654	100.75
472.873	92.75
473.092	95.75
473.311	82.75
473.53	85.75
473.749	97.75
473.968	116.75
474.187	87.75
474.406	96.75
474.625	96.75
474.844	90.75
475.063	104.75
475.282	106.75
475.501	82.75
475.72	101.75
475.939	94.75
476.158	90.75
476.377	83.75
476.596	93.75
476.814	87.75
477.033	82.75
477.252	73.75
477.471	91.75
477.69	92.75
477.908	91.75
478.127	80.75
478.346	89.75
478.564	105.75
478.783	100.75
479.002	102.75
479.22	92.75
479.439	109.75
479.658	93.75
479.876	91.75
480.095	97.75
480.313	88.75
480.532	87.75
480.751	85.75
480.969	89.75
481.188	74.75
481.406	73.75
481.624	98.75
481.843	73.75
482.061	83.75
482.28	88.75
482.498	93.75
482.717	84.75
482.935	86.75
483.153	101.75
483.372	113.75
483.59	99.75
483.808	98.75
484.027	102.75
484.245	109.75
484.463	90.75
484.681	97.75
484.9	100.75
485.118	110.75
485.336	100.75
485.554	93.75
485.772	91.75
485.99	83.75
486.209	105.75
486.427	101.75
486.645	88.75
486.863	86.75
487.081	95.75
487.299	87.75
487.517	90.75
487.735	97.75
487.953	119.75
488.171	125.75
488.389	111.75
488.607	101.75
488.825	93.75
489.043	96.75
489.261	94.75
489.479	95.75
489.696	97.75
489.914	91.75
490.132	99.75
490.35	96.75
490.568	105.75
490.786	111.75
491.003	113.75
491.221	121.75
491.439	109.75
491.657	117.75
491.874	103.75
492.092	133.75
492.31	127.75
492.527	122.75
492.745	119.75
492.963	109.75
493.18	118.75
493.398	107.75
493.615	96.75
493.833	110.75
494.05	106.75
494.268	106.75
494.485	113.75
494.703	104.75
494.92	107.75
495.138	97.75
495.355	113.75
495.573	113.75
495.79	111.75
496.008	115.75
496.225	100.75
496.442	103.75
496.66	92.75
496.877	109.75
497.094	107.75
497.312	96.75
497.529	100.75
497.746	91.75
497.963	103.75
498.181	92.75
498.398	103.75
498.615	91.75
498.832	99.75
499.049	91.75
499.267	94.75
499.484	106.75
499.701	100.75
499.918	88.75
500.135	105.75
500.352	97.75
500.569	101.75
500.786	99.75
501.003	86.75
501.22	97.75
501.437	108.75
501.654	113.75
501.871	99.75
502.088	100.75
502.305	97.75
502.522	87.75
502.739	102.75
502.956	96.75
503.172	95.75
503.389	96.75
503.606	89.75
503.823	88.75
504.04	95.75
504.256	92.75
504.473	103.75
504.69	92.75
504.907	96.75
505.123	103.75
505.34	99.75
505.557	105.75
505.773	94.75
505.99	95.75
506.207	78.75
506.423	92.75
506.64	86.75
506.856	97.75
507.073	96.75
507.289	93.75
507.506	86.75
507.722	110.75
507.939	100.75
508.155	89.75
508.372	80.75
508.588	77.75
508.805	95.75
509.021	84.75
509.238	90.75
509.454	91.75
509.67	91.75
509.887	76.75
510.103	77.75
510.319	91.75
510.536	80.75
510.752	86.75
510.968	92.75
511.184	81.75
511.401	94.75
511.617	97.75
511.833	91.75
512.049	91.75
512.265	90.75
512.481	97.75
512.698	105.75
512.914	90.75
513.13	91.75
513.346	89.75
513.562	73.75
513.778	84.75
513.994	88.75
514.21	82.75
514.426	86.75
514.642	76.75
514.858	94.75
515.074	88.75
515.29	92.75
515.506	92.75
515.721	85.75
515.937	76.75
516.153	92.75
516.369	80.75
516.585	83.75
516.801	84.75
517.016	87.75
517.232	87.75
517.448	81.75
