Data from Location5.07152019.Energy5.Lamp.07192019.3%Agarose_HRD10591_15-36-47-386.txt Node
Date: Fri Jul 19 15:36:47 EDT 2019
User: cochatt
Spectrometer: HR+D1059
Trigger mode: 1
Integration Time (sec): 1.000000E-1
Scans to average: 1
Electric dark correction enabled: true
Nonlinearity correction enabled: false
Boxcar width: 0
XAxis mode: Wavelengths
Number of Pixels in Spectrum: 2048
>>>>>Begin Spectral Data<<<<<
223.165	-9.44
223.4	-9.44
223.635	-9.44
223.869	-21.44
224.104	-15.44
224.338	-8.44
224.573	-18.44
224.808	-17.44
225.042	-20.44
225.277	-2.44
225.511	3.56
225.746	-1.44
225.98	1.56
226.215	16.56
226.449	25.56
226.683	13.56
226.918	22.56
227.152	31.56
227.387	35.56
227.621	44.56
227.856	47.56
228.09	46.56
228.324	36.56
228.559	41.56
228.793	74.56
229.027	69.56
229.262	63.56
229.496	61.56
229.73	61.56
229.964	69.56
230.199	73.56
230.433	84.56
230.667	85.56
230.901	72.56
231.136	68.56
231.37	83.56
231.604	76.56
231.838	69.56
232.072	85.56
232.306	81.56
232.541	83.56
232.775	93.56
233.009	79.56
233.243	87.56
233.477	90.56
233.711	87.56
233.945	75.56
234.179	78.56
234.413	80.56
234.647	73.56
234.881	83.56
235.115	88.56
235.349	89.56
235.583	77.56
235.817	60.56
236.051	82.56
236.285	84.56
236.519	79.56
236.753	88.56
236.987	75.56
237.221	78.56
237.455	73.56
237.689	86.56
237.922	71.56
238.156	63.56
238.39	85.56
238.624	66.56
238.858	87.56
239.091	89.56
239.325	69.56
239.559	78.56
239.793	79.56
240.027	87.56
240.26	80.56
240.494	78.56
240.728	70.56
240.961	69.56
241.195	75.56
241.429	68.56
241.662	67.56
241.896	54.56
242.13	82.56
242.363	88.56
242.597	87.56
242.83	79.56
243.064	68.56
243.298	78.56
243.531	78.56
243.765	74.56
243.998	68.56
244.232	81.56
244.465	73.56
244.699	79.56
244.932	79.56
245.166	82.56
245.399	82.56
245.633	77.56
245.866	84.56
246.099	69.56
246.333	84.56
246.566	73.56
246.8	72.56
247.033	81.56
247.266	70.56
247.5	70.56
247.733	71.56
247.966	82.56
248.2	75.56
248.433	87.56
248.666	75.56
248.899	66.56
249.133	72.56
249.366	81.56
249.599	83.56
249.832	78.56
250.066	79.56
250.299	81.56
250.532	70.56
250.765	83.56
250.998	79.56
251.231	84.56
251.465	89.56
251.698	76.56
251.931	75.56
252.164	85.56
252.397	66.56
252.63	65.56
252.863	66.56
253.096	79.56
253.329	87.56
253.562	86.56
253.795	82.56
254.028	81.56
254.261	78.56
254.494	81.56
254.727	80.56
254.96	74.56
255.193	91.56
255.426	72.56
255.659	81.56
255.892	90.56
256.124	83.56
256.357	81.56
256.59	79.56
256.823	83.56
257.056	67.56
257.289	75.56
257.521	71.56
257.754	79.56
257.987	78.56
258.22	66.56
258.452	85.56
258.685	98.56
258.918	84.56
259.151	79.56
259.383	77.56
259.616	70.56
259.849	87.56
260.081	82.56
260.314	81.56
260.547	83.56
260.779	81.56
261.012	66.56
261.244	75.56
261.477	80.56
261.71	83.56
261.942	70.56
262.175	75.56
262.407	75.56
262.64	84.56
262.872	88.56
263.105	70.56
263.337	85.56
263.57	72.56
263.802	80.56
264.035	62.56
264.267	72.56
264.499	82.56
264.732	90.56
264.964	85.56
265.197	90.56
265.429	81.56
265.661	73.56
265.894	74.56
266.126	90.56
266.358	86.56
266.591	82.56
266.823	80.56
267.055	89.56
267.287	85.56
267.52	72.56
267.752	79.56
267.984	80.56
268.216	87.56
268.448	76.56
268.681	81.56
268.913	69.56
269.145	77.56
269.377	82.56
269.609	94.56
269.841	77.56
270.073	87.56
270.306	90.56
270.538	74.56
270.77	89.56
271.002	77.56
271.234	84.56
271.466	79.56
271.698	90.56
271.93	82.56
272.162	84.56
272.394	73.56
272.626	74.56
272.858	81.56
273.09	72.56
273.322	80.56
273.553	91.56
273.785	80.56
274.017	83.56
274.249	79.56
274.481	79.56
274.713	86.56
274.945	69.56
275.176	82.56
275.408	87.56
275.64	81.56
275.872	91.56
276.104	87.56
276.335	79.56
276.567	77.56
276.799	88.56
277.031	66.56
277.262	99.56
277.494	86.56
277.726	71.56
277.957	84.56
278.189	83.56
278.421	96.56
278.652	109.56
278.884	91.56
279.115	89.56
279.347	89.56
279.579	78.56
279.81	77.56
280.042	77.56
280.273	77.56
280.505	88.56
280.736	93.56
280.968	75.56
281.199	88.56
281.431	93.56
281.662	83.56
281.894	80.56
282.125	81.56
282.356	90.56
282.588	75.56
282.819	85.56
283.051	86.56
283.282	81.56
283.513	86.56
283.745	86.56
283.976	86.56
284.207	79.56
284.439	75.56
284.67	85.56
284.901	77.56
285.132	79.56
285.364	76.56
285.595	69.56
285.826	79.56
286.057	78.56
286.288	68.56
286.52	88.56
286.751	98.56
286.982	81.56
287.213	85.56
287.444	89.56
287.675	96.56
287.906	86.56
288.138	70.56
288.369	84.56
288.6	80.56
288.831	82.56
289.062	88.56
289.293	83.56
289.524	75.56
289.755	72.56
289.986	79.56
290.217	90.56
290.448	93.56
290.679	85.56
290.91	87.56
291.141	89.56
291.371	81.56
291.602	89.56
291.833	75.56
292.064	78.56
292.295	88.56
292.526	73.56
292.757	72.56
292.987	81.56
293.218	82.56
293.449	79.56
293.68	78.56
293.91	78.56
294.141	82.56
294.372	80.56
294.603	79.56
294.833	84.56
295.064	81.56
295.295	83.56
295.525	93.56
295.756	87.56
295.987	79.56
296.217	74.56
296.448	84.56
296.679	85.56
296.909	87.56
297.14	81.56
297.37	89.56
297.601	75.56
297.831	82.56
298.062	69.56
298.292	93.56
298.523	97.56
298.753	78.56
298.984	80.56
299.214	71.56
299.445	93.56
299.675	91.56
299.905	75.56
300.136	82.56
300.366	70.56
300.597	83.56
300.827	82.56
301.057	100.56
301.288	89.56
301.518	79.56
301.748	90.56
301.979	81.56
302.209	70.56
302.439	82.56
302.669	85.56
302.9	80.56
303.13	87.56
303.36	82.56
303.59	76.56
303.82	83.56
304.051	82.56
304.281	74.56
304.511	93.56
304.741	83.56
304.971	87.56
305.201	81.56
305.431	93.56
305.661	78.56
305.891	80.56
306.121	82.56
306.352	86.56
306.582	86.56
306.812	86.56
307.042	84.56
307.272	74.56
307.502	74.56
307.731	84.56
307.961	100.56
308.191	95.56
308.421	97.56
308.651	86.56
308.881	82.56
309.111	88.56
309.341	81.56
309.571	72.56
309.8	86.56
310.03	84.56
310.26	73.56
310.49	81.56
310.72	67.56
310.949	87.56
311.179	90.56
311.409	90.56
311.639	89.56
311.868	79.56
312.098	91.56
312.328	81.56
312.557	74.56
312.787	74.56
313.017	99.56
313.246	85.56
313.476	68.56
313.706	83.56
313.935	94.56
314.165	80.56
314.394	79.56
314.624	78.56
314.853	72.56
315.083	82.56
315.312	78.56
315.542	90.56
315.771	71.56
316.001	71.56
316.23	78.56
316.46	77.56
316.689	76.56
316.919	83.56
317.148	81.56
317.377	94.56
317.607	76.56
317.836	82.56
318.065	87.56
318.295	82.56
318.524	87.56
318.753	75.56
318.983	81.56
319.212	94.56
319.441	86.56
319.67	88.56
319.9	95.56
320.129	92.56
320.358	76.56
320.587	83.56
320.816	84.56
321.046	87.56
321.275	81.56
321.504	75.56
321.733	97.56
321.962	74.56
322.191	82.56
322.42	73.56
322.649	76.56
322.878	79.56
323.108	86.56
323.337	83.56
323.566	79.56
323.795	84.56
324.024	69.56
324.253	78.56
324.482	75.56
324.71	84.56
324.939	75.56
325.168	73.56
325.397	63.56
325.626	91.56
325.855	63.56
326.084	85.56
326.313	84.56
326.542	88.56
326.77	88.56
326.999	83.56
327.228	74.56
327.457	87.56
327.686	81.56
327.914	79.56
328.143	84.56
328.372	75.56
328.6	86.56
328.829	83.56
329.058	93.56
329.287	90.56
329.515	87.56
329.744	85.56
329.972	83.56
330.201	76.56
330.43	101.56
330.658	85.56
330.887	66.56
331.115	74.56
331.344	80.56
331.572	83.56
331.801	81.56
332.03	71.56
332.258	91.56
332.486	85.56
332.715	86.56
332.943	79.56
333.172	70.56
333.4	64.56
333.629	95.56
333.857	83.56
334.085	92.56
334.314	79.56
334.542	76.56
334.771	84.56
334.999	85.56
335.227	82.56
335.455	86.56
335.684	87.56
335.912	84.56
336.14	82.56
336.369	81.56
336.597	97.56
336.825	88.56
337.053	77.56
337.281	75.56
337.51	89.56
337.738	86.56
337.966	77.56
338.194	88.56
338.422	75.56
338.65	79.56
338.878	76.56
339.106	81.56
339.334	83.56
339.562	86.56
339.79	75.56
340.018	81.56
340.246	89.56
340.474	75.56
340.702	73.56
340.93	86.56
341.158	90.56
341.386	78.56
341.614	81.56
341.842	83.56
342.07	82.56
342.298	85.56
342.526	84.56
342.754	89.56
342.981	76.56
343.209	83.56
343.437	94.56
343.665	82.56
343.893	89.56
344.12	93.56
344.348	75.56
344.576	93.56
344.804	79.56
345.031	85.56
345.259	97.56
345.487	73.56
345.714	81.56
345.942	73.56
346.17	78.56
346.397	85.56
346.625	81.56
346.853	86.56
347.08	84.56
347.308	86.56
347.535	94.56
347.763	82.56
347.99	81.56
348.218	74.56
348.445	81.56
348.673	77.56
348.9	81.56
349.128	100.56
349.355	77.56
349.583	89.56
349.81	78.56
350.037	73.56
350.265	74.56
350.492	80.56
350.72	81.56
350.947	78.56
351.174	81.56
351.402	75.56
351.629	87.56
351.856	66.56
352.083	93.56
352.311	84.56
352.538	80.56
352.765	103.56
352.992	83.56
353.22	94.56
353.447	79.56
353.674	86.56
353.901	91.56
354.128	87.56
354.355	74.56
354.583	77.56
354.81	71.56
355.037	89.56
355.264	81.56
355.491	77.56
355.718	80.56
355.945	88.56
356.172	84.56
356.399	78.56
356.626	65.56
356.853	79.56
357.08	73.56
357.307	79.56
357.534	89.56
357.761	83.56
357.988	82.56
358.215	97.56
358.441	97.56
358.668	86.56
358.895	78.56
359.122	87.56
359.349	87.56
359.576	74.56
359.802	81.56
360.029	75.56
360.256	81.56
360.483	89.56
360.709	75.56
360.936	78.56
361.163	83.56
361.39	83.56
361.616	92.56
361.843	83.56
362.07	97.56
362.296	84.56
362.523	87.56
362.749	90.56
362.976	92.56
363.203	82.56
363.429	76.56
363.656	91.56
363.882	87.56
364.109	86.56
364.335	79.56
364.562	83.56
364.788	78.56
365.015	90.56
365.241	78.56
365.468	89.56
365.694	75.56
365.92	72.56
366.147	70.56
366.373	67.56
366.599	84.56
366.826	77.56
367.052	87.56
367.278	78.56
367.505	86.56
367.731	82.56
367.957	71.56
368.184	86.56
368.41	82.56
368.636	101.56
368.862	84.56
369.089	82.56
369.315	74.56
369.541	76.56
369.767	85.56
369.993	70.56
370.219	85.56
370.445	85.56
370.672	89.56
370.898	86.56
371.124	86.56
371.35	83.56
371.576	98.56
371.802	84.56
372.028	87.56
372.254	75.56
372.48	79.56
372.706	91.56
372.932	78.56
373.158	77.56
373.384	83.56
373.61	75.56
373.835	78.56
374.061	83.56
374.287	103.56
374.513	90.56
374.739	111.56
374.965	88.56
375.191	75.56
375.416	67.56
375.642	67.56
375.868	82.56
376.094	75.56
376.319	81.56
376.545	79.56
376.771	83.56
376.997	81.56
377.222	79.56
377.448	81.56
377.674	76.56
377.899	82.56
378.125	88.56
378.35	77.56
378.576	94.56
378.802	73.56
379.027	85.56
379.253	90.56
379.478	77.56
379.704	84.56
379.929	87.56
380.155	70.56
380.38	71.56
380.606	85.56
380.831	70.56
381.057	79.56
381.282	91.56
381.507	81.56
381.733	74.56
381.958	83.56
382.184	89.56
382.409	75.56
382.634	84.56
382.86	86.56
383.085	84.56
383.31	88.56
383.535	78.56
383.761	91.56
383.986	85.56
384.211	69.56
384.436	72.56
384.662	79.56
384.887	89.56
385.112	92.56
385.337	83.56
385.562	91.56
385.787	88.56
386.013	96.56
386.238	85.56
386.463	76.56
386.688	86.56
386.913	75.56
387.138	80.56
387.363	77.56
387.588	85.56
387.813	78.56
388.038	77.56
388.263	69.56
388.488	80.56
388.713	70.56
388.938	83.56
389.163	67.56
389.387	82.56
389.612	82.56
389.837	79.56
390.062	83.56
390.287	75.56
390.512	81.56
390.736	82.56
390.961	93.56
391.186	70.56
391.411	96.56
391.636	97.56
391.86	91.56
392.085	84.56
392.31	92.56
392.534	82.56
392.759	88.56
392.984	87.56
393.208	73.56
393.433	84.56
393.658	75.56
393.882	97.56
394.107	82.56
394.331	91.56
394.556	84.56
394.78	97.56
395.005	83.56
395.229	84.56
395.454	82.56
395.678	91.56
395.903	80.56
396.127	99.56
396.352	79.56
396.576	89.56
396.801	90.56
397.025	84.56
397.249	90.56
397.474	79.56
397.698	76.56
397.922	95.56
398.147	91.56
398.371	78.56
398.595	89.56
398.82	90.56
399.044	81.56
399.268	93.56
399.492	87.56
399.717	85.56
399.941	83.56
400.165	88.56
400.389	94.56
400.613	87.56
400.837	82.56
401.062	81.56
401.286	94.56
401.51	81.56
401.734	78.56
401.958	83.56
402.182	81.56
402.406	94.56
402.63	84.56
402.854	87.56
403.078	87.56
403.302	85.56
403.526	83.56
403.75	87.56
403.974	92.56
404.198	88.56
404.422	86.56
404.645	84.56
404.869	88.56
405.093	98.56
405.317	86.56
405.541	93.56
405.765	90.56
405.988	74.56
406.212	93.56
406.436	98.56
406.66	76.56
406.883	82.56
407.107	74.56
407.331	102.56
407.555	89.56
407.778	77.56
408.002	88.56
408.226	89.56
408.449	78.56
408.673	78.56
408.896	91.56
409.12	94.56
409.344	92.56
409.567	90.56
409.791	87.56
410.014	82.56
410.238	80.56
410.461	89.56
410.685	89.56
410.908	100.56
411.132	102.56
411.355	82.56
411.578	83.56
411.802	97.56
412.025	86.56
412.249	85.56
412.472	81.56
412.695	96.56
412.919	95.56
413.142	95.56
413.365	88.56
413.589	95.56
413.812	87.56
414.035	97.56
414.258	106.56
414.482	98.56
414.705	98.56
414.928	94.56
415.151	94.56
415.374	105.56
415.597	76.56
415.821	95.56
416.044	82.56
416.267	94.56
416.49	83.56
416.713	83.56
416.936	75.56
417.159	80.56
417.382	94.56
417.605	88.56
417.828	93.56
418.051	99.56
418.274	85.56
418.497	82.56
418.72	93.56
418.943	98.56
419.166	87.56
419.389	84.56
419.611	100.56
419.834	92.56
420.057	101.56
420.28	95.56
420.503	78.56
420.726	95.56
420.948	75.56
421.171	103.56
421.394	83.56
421.617	95.56
421.839	89.56
422.062	94.56
422.285	88.56
422.507	101.56
422.73	85.56
422.953	92.56
423.175	97.56
423.398	97.56
423.621	92.56
423.843	91.56
424.066	97.56
424.288	92.56
424.511	91.56
424.733	106.56
424.956	107.56
425.178	106.56
425.401	85.56
425.623	94.56
425.846	91.56
426.068	112.56
426.291	95.56
426.513	83.56
426.735	85.56
426.958	89.56
427.18	86.56
427.402	100.56
427.625	97.56
427.847	80.56
428.069	87.56
428.292	95.56
428.514	87.56
428.736	83.56
428.958	78.56
429.181	81.56
429.403	92.56
429.625	93.56
429.847	81.56
430.069	87.56
430.292	97.56
430.514	103.56
430.736	84.56
430.958	92.56
431.18	93.56
431.402	96.56
431.624	86.56
431.846	83.56
432.068	85.56
432.29	74.56
432.512	94.56
432.734	89.56
432.956	89.56
433.178	95.56
433.4	93.56
433.622	80.56
433.844	106.56
434.066	79.56
434.287	86.56
434.509	87.56
434.731	94.56
434.953	101.56
435.175	88.56
435.397	90.56
435.618	90.56
435.84	93.56
436.062	96.56
436.284	91.56
436.505	97.56
436.727	83.56
436.949	94.56
437.17	99.56
437.392	92.56
437.614	83.56
437.835	89.56
438.057	87.56
438.278	92.56
438.5	102.56
438.721	87.56
438.943	101.56
439.165	93.56
439.386	93.56
439.608	91.56
439.829	85.56
440.05	96.56
440.272	108.56
440.493	93.56
440.715	88.56
440.936	97.56
441.158	96.56
441.379	105.56
441.6	91.56
441.822	98.56
442.043	98.56
442.264	90.56
442.486	101.56
442.707	83.56
442.928	91.56
443.149	86.56
443.371	97.56
443.592	103.56
443.813	79.56
444.034	97.56
444.255	107.56
444.476	86.56
444.698	96.56
444.919	98.56
445.14	222.56
445.361	149.56
445.582	82.56
445.803	81.56
446.024	83.56
446.245	93.56
446.466	93.56
446.687	115.56
446.908	81.56
447.129	96.56
447.35	96.56
447.571	101.56
447.792	92.56
448.013	97.56
448.234	86.56
448.455	80.56
448.675	91.56
448.896	90.56
449.117	110.56
449.338	103.56
449.559	79.56
449.779	84.56
450	98.56
450.221	100.56
450.442	97.56
450.662	89.56
450.883	82.56
451.104	86.56
451.324	91.56
451.545	87.56
451.766	94.56
451.986	90.56
452.207	96.56
452.428	101.56
452.648	95.56
452.869	97.56
453.089	103.56
453.31	80.56
453.53	93.56
453.751	84.56
453.971	79.56
454.192	83.56
454.412	85.56
454.633	85.56
454.853	77.56
455.073	92.56
455.294	86.56
455.514	99.56
455.734	80.56
455.955	97.56
456.175	82.56
456.395	85.56
456.616	82.56
456.836	88.56
457.056	68.56
457.276	93.56
457.497	87.56
457.717	84.56
457.937	91.56
458.157	84.56
458.377	81.56
458.598	74.56
458.818	77.56
459.038	74.56
459.258	79.56
459.478	90.56
459.698	81.56
459.918	97.56
460.138	85.56
460.358	88.56
460.578	88.56
460.798	71.56
461.018	95.56
461.238	93.56
461.458	89.56
461.678	87.56
461.898	88.56
462.118	87.56
462.338	100.56
462.558	83.56
462.777	74.56
462.997	90.56
463.217	81.56
463.437	81.56
463.657	92.56
463.876	86.56
464.096	95.56
464.316	96.56
464.536	95.56
464.755	96.56
464.975	84.56
465.195	89.56
465.414	99.56
465.634	95.56
465.854	79.56
466.073	81.56
466.293	98.56
466.512	89.56
466.732	98.56
466.951	94.56
467.171	87.56
467.391	94.56
467.61	82.56
467.829	106.56
468.049	115.56
468.268	104.56
468.488	93.56
468.707	102.56
468.927	98.56
469.146	95.56
469.365	89.56
469.585	91.56
469.804	86.56
470.023	96.56
470.243	99.56
470.462	101.56
470.681	88.56
470.901	96.56
471.12	110.56
471.339	98.56
471.558	93.56
471.777	116.56
471.997	88.56
472.216	93.56
472.435	93.56
472.654	90.56
472.873	82.56
473.092	88.56
473.311	85.56
473.53	98.56
473.749	85.56
473.968	77.56
474.187	99.56
474.406	98.56
474.625	85.56
474.844	92.56
475.063	82.56
475.282	90.56
475.501	103.56
475.72	90.56
475.939	93.56
476.158	81.56
476.377	78.56
476.596	83.56
476.814	97.56
477.033	81.56
477.252	95.56
477.471	87.56
477.69	101.56
477.908	88.56
478.127	89.56
478.346	102.56
478.564	84.56
478.783	105.56
479.002	110.56
479.22	88.56
479.439	86.56
479.658	96.56
479.876	81.56
480.095	93.56
480.313	77.56
480.532	93.56
480.751	78.56
480.969	85.56
481.188	97.56
481.406	86.56
481.624	69.56
481.843	78.56
482.061	72.56
482.28	83.56
482.498	88.56
482.717	97.56
482.935	80.56
483.153	92.56
483.372	102.56
483.59	103.56
483.808	94.56
484.027	89.56
484.245	82.56
484.463	94.56
484.681	90.56
484.9	86.56
485.118	95.56
485.336	91.56
485.554	87.56
485.772	88.56
485.99	84.56
486.209	93.56
486.427	83.56
486.645	86.56
486.863	102.56
487.081	93.56
487.299	81.56
487.517	96.56
487.735	112.56
487.953	99.56
488.171	119.56
488.389	110.56
488.607	96.56
488.825	98.56
489.043	95.56
489.261	84.56
489.479	102.56
489.696	90.56
489.914	98.56
490.132	95.56
490.35	101.56
490.568	117.56
490.786	100.56
491.003	112.56
491.221	102.56
491.439	108.56
491.657	108.56
491.874	121.56
492.092	110.56
492.31	130.56
492.527	136.56
492.745	103.56
492.963	105.56
493.18	112.56
493.398	113.56
493.615	101.56
493.833	98.56
494.05	104.56
494.268	109.56
494.485	106.56
494.703	108.56
494.92	119.56
495.138	105.56
495.355	118.56
495.573	104.56
495.79	112.56
496.008	97.56
496.225	99.56
496.442	106.56
496.66	106.56
496.877	90.56
497.094	110.56
497.312	107.56
497.529	98.56
497.746	89.56
497.963	89.56
498.181	91.56
498.398	95.56
498.615	95.56
498.832	85.56
499.049	83.56
499.267	95.56
499.484	76.56
499.701	93.56
499.918	84.56
500.135	94.56
500.352	93.56
500.569	96.56
500.786	100.56
501.003	99.56
501.22	102.56
501.437	93.56
501.654	101.56
501.871	96.56
502.088	102.56
502.305	95.56
502.522	117.56
502.739	85.56
502.956	102.56
503.172	89.56
503.389	92.56
503.606	94.56
503.823	98.56
504.04	102.56
504.256	101.56
504.473	95.56
504.69	84.56
504.907	84.56
505.123	96.56
505.34	100.56
505.557	87.56
505.773	98.56
505.99	80.56
506.207	83.56
506.423	85.56
506.64	90.56
506.856	95.56
507.073	95.56
507.289	87.56
507.506	79.56
507.722	101.56
507.939	96.56
508.155	82.56
508.372	75.56
508.588	83.56
508.805	84.56
509.021	87.56
509.238	80.56
509.454	89.56
509.67	78.56
509.887	83.56
510.103	81.56
510.319	65.56
510.536	90.56
510.752	93.56
510.968	81.56
511.184	83.56
511.401	86.56
511.617	92.56
511.833	89.56
512.049	93.56
512.265	84.56
512.481	88.56
512.698	94.56
512.914	84.56
513.13	101.56
513.346	90.56
513.562	77.56
513.778	86.56
513.994	68.56
514.21	86.56
514.426	72.56
514.642	86.56
514.858	89.56
515.074	86.56
515.29	83.56
515.506	86.56
515.721	78.56
515.937	81.56
516.153	78.56
516.369	77.56
516.585	75.56
516.801	93.56
517.016	94.56
517.232	84.56
517.448	71.56
517.664	94.56
517.879	89.56
518.095	87.56
