Data from Location5.07152019.Energy5.Lamp.07192019.3%Agarose_HRD10591_16-04-09-629.txt Node
Date: Fri Jul 19 16:04:09 EDT 2019
User: cochatt
Spectrometer: HR+D1059
Trigger mode: 1
Integration Time (sec): 1.000000E-1
Scans to average: 1
Electric dark correction enabled: true
Nonlinearity correction enabled: false
Boxcar width: 0
XAxis mode: Wavelengths
Number of Pixels in Spectrum: 2048
>>>>>Begin Spectral Data<<<<<
223.165	-6.06
223.4	-6.06
223.635	-6.06
223.869	-21.06
224.104	-13.06
224.338	-15.06
224.573	-22.06
224.808	-13.06
225.042	-10.06
225.277	-4.06
225.511	-3.06
225.746	3.94
225.98	9.94
226.215	4.94
226.449	13.94
226.683	28.94
226.918	35.94
227.152	9.94
227.387	27.94
227.621	29.94
227.856	54.94
228.09	52.94
228.324	49.94
228.559	56.94
228.793	62.94
229.027	70.94
229.262	68.94
229.496	68.94
229.73	69.94
229.964	81.94
230.199	76.94
230.433	61.94
230.667	75.94
230.901	84.94
231.136	79.94
231.37	88.94
231.604	80.94
231.838	82.94
232.072	85.94
232.306	85.94
232.541	84.94
232.775	92.94
233.009	64.94
233.243	76.94
233.477	75.94
233.711	90.94
233.945	85.94
234.179	90.94
234.413	93.94
234.647	83.94
234.881	67.94
235.115	100.94
235.349	84.94
235.583	85.94
235.817	86.94
236.051	74.94
236.285	93.94
236.519	64.94
236.753	71.94
236.987	77.94
237.221	97.94
237.455	82.94
237.689	75.94
237.922	66.94
238.156	68.94
238.39	69.94
238.624	76.94
238.858	92.94
239.091	82.94
239.325	76.94
239.559	70.94
239.793	80.94
240.027	80.94
240.26	74.94
240.494	81.94
240.728	70.94
240.961	87.94
241.195	74.94
241.429	82.94
241.662	73.94
241.896	84.94
242.13	88.94
242.363	83.94
242.597	73.94
242.83	81.94
243.064	86.94
243.298	74.94
243.531	71.94
243.765	76.94
243.998	81.94
244.232	86.94
244.465	73.94
244.699	82.94
244.932	87.94
245.166	80.94
245.399	84.94
245.633	76.94
245.866	85.94
246.099	74.94
246.333	80.94
246.566	82.94
246.8	84.94
247.033	79.94
247.266	88.94
247.5	90.94
247.733	74.94
247.966	77.94
248.2	99.94
248.433	76.94
248.666	76.94
248.899	82.94
249.133	78.94
249.366	85.94
249.599	66.94
249.832	88.94
250.066	100.94
250.299	75.94
250.532	80.94
250.765	77.94
250.998	81.94
251.231	90.94
251.465	85.94
251.698	85.94
251.931	92.94
252.164	80.94
252.397	88.94
252.63	93.94
252.863	85.94
253.096	83.94
253.329	102.94
253.562	89.94
253.795	84.94
254.028	87.94
254.261	97.94
254.494	68.94
254.727	80.94
254.96	72.94
255.193	80.94
255.426	79.94
255.659	91.94
255.892	61.94
256.124	87.94
256.357	90.94
256.59	80.94
256.823	83.94
257.056	81.94
257.289	87.94
257.521	84.94
257.754	84.94
257.987	75.94
258.22	77.94
258.452	83.94
258.685	83.94
258.918	79.94
259.151	88.94
259.383	88.94
259.616	87.94
259.849	86.94
260.081	92.94
260.314	81.94
260.547	92.94
260.779	90.94
261.012	86.94
261.244	84.94
261.477	94.94
261.71	93.94
261.942	95.94
262.175	83.94
262.407	79.94
262.64	76.94
262.872	93.94
263.105	99.94
263.337	98.94
263.57	88.94
263.802	82.94
264.035	91.94
264.267	101.94
264.499	89.94
264.732	76.94
264.964	84.94
265.197	77.94
265.429	89.94
265.661	92.94
265.894	90.94
266.126	73.94
266.358	95.94
266.591	96.94
266.823	83.94
267.055	81.94
267.287	90.94
267.52	88.94
267.752	79.94
267.984	91.94
268.216	78.94
268.448	93.94
268.681	90.94
268.913	89.94
269.145	93.94
269.377	98.94
269.609	91.94
269.841	78.94
270.073	85.94
270.306	84.94
270.538	86.94
270.77	84.94
271.002	87.94
271.234	71.94
271.466	97.94
271.698	95.94
271.93	85.94
272.162	93.94
272.394	88.94
272.626	89.94
272.858	83.94
273.09	87.94
273.322	89.94
273.553	88.94
273.785	96.94
274.017	86.94
274.249	90.94
274.481	92.94
274.713	90.94
274.945	90.94
275.176	109.94
275.408	99.94
275.64	83.94
275.872	77.94
276.104	91.94
276.335	83.94
276.567	99.94
276.799	77.94
277.031	74.94
277.262	77.94
277.494	102.94
277.726	95.94
277.957	95.94
278.189	98.94
278.421	87.94
278.652	107.94
278.884	81.94
279.115	88.94
279.347	94.94
279.579	92.94
279.81	94.94
280.042	100.94
280.273	101.94
280.505	93.94
280.736	74.94
280.968	88.94
281.199	85.94
281.431	92.94
281.662	77.94
281.894	77.94
282.125	91.94
282.356	87.94
282.588	88.94
282.819	86.94
283.051	75.94
283.282	94.94
283.513	98.94
283.745	100.94
283.976	80.94
284.207	82.94
284.439	94.94
284.67	89.94
284.901	91.94
285.132	95.94
285.364	85.94
285.595	84.94
285.826	94.94
286.057	110.94
286.288	92.94
286.52	82.94
286.751	95.94
286.982	78.94
287.213	102.94
287.444	84.94
287.675	87.94
287.906	93.94
288.138	95.94
288.369	85.94
288.6	91.94
288.831	101.94
289.062	97.94
289.293	108.94
289.524	87.94
289.755	95.94
289.986	84.94
290.217	95.94
290.448	91.94
290.679	86.94
290.91	96.94
291.141	91.94
291.371	98.94
291.602	107.94
291.833	106.94
292.064	99.94
292.295	93.94
292.526	102.94
292.757	101.94
292.987	87.94
293.218	97.94
293.449	104.94
293.68	99.94
293.91	100.94
294.141	106.94
294.372	108.94
294.603	100.94
294.833	92.94
295.064	93.94
295.295	99.94
295.525	90.94
295.756	77.94
295.987	93.94
296.217	96.94
296.448	96.94
296.679	98.94
296.909	82.94
297.14	102.94
297.37	94.94
297.601	91.94
297.831	101.94
298.062	97.94
298.292	96.94
298.523	85.94
298.753	101.94
298.984	82.94
299.214	93.94
299.445	108.94
299.675	84.94
299.905	97.94
300.136	101.94
300.366	91.94
300.597	92.94
300.827	113.94
301.057	90.94
301.288	96.94
301.518	102.94
301.748	97.94
301.979	103.94
302.209	81.94
302.439	91.94
302.669	122.94
302.9	81.94
303.13	92.94
303.36	103.94
303.59	86.94
303.82	105.94
304.051	90.94
304.281	98.94
304.511	91.94
304.741	99.94
304.971	87.94
305.201	102.94
305.431	93.94
305.661	88.94
305.891	90.94
306.121	102.94
306.352	88.94
306.582	84.94
306.812	86.94
307.042	97.94
307.272	85.94
307.502	97.94
307.731	93.94
307.961	97.94
308.191	88.94
308.421	88.94
308.651	104.94
308.881	82.94
309.111	92.94
309.341	87.94
309.571	98.94
309.8	88.94
310.03	101.94
310.26	97.94
310.49	93.94
310.72	100.94
310.949	78.94
311.179	94.94
311.409	90.94
311.639	101.94
311.868	96.94
312.098	88.94
312.328	90.94
312.557	98.94
312.787	85.94
313.017	93.94
313.246	82.94
313.476	99.94
313.706	99.94
313.935	106.94
314.165	85.94
314.394	82.94
314.624	92.94
314.853	90.94
315.083	91.94
315.312	97.94
315.542	93.94
315.771	113.94
316.001	93.94
316.23	102.94
316.46	88.94
316.689	90.94
316.919	99.94
317.148	103.94
317.377	101.94
317.607	95.94
317.836	93.94
318.065	87.94
318.295	96.94
318.524	88.94
318.753	102.94
318.983	89.94
319.212	101.94
319.441	89.94
319.67	85.94
319.9	110.94
320.129	87.94
320.358	93.94
320.587	103.94
320.816	92.94
321.046	79.94
321.275	106.94
321.504	98.94
321.733	86.94
321.962	92.94
322.191	89.94
322.42	86.94
322.649	89.94
322.878	94.94
323.108	109.94
323.337	90.94
323.566	88.94
323.795	94.94
324.024	101.94
324.253	92.94
324.482	86.94
324.71	93.94
324.939	92.94
325.168	91.94
325.397	98.94
325.626	110.94
325.855	94.94
326.084	90.94
326.313	104.94
326.542	89.94
326.77	85.94
326.999	96.94
327.228	86.94
327.457	106.94
327.686	98.94
327.914	90.94
328.143	97.94
328.372	100.94
328.6	92.94
328.829	97.94
329.058	93.94
329.287	96.94
329.515	91.94
329.744	92.94
329.972	101.94
330.201	91.94
330.43	82.94
330.658	87.94
330.887	86.94
331.115	106.94
331.344	94.94
331.572	87.94
331.801	99.94
332.03	100.94
332.258	92.94
332.486	91.94
332.715	90.94
332.943	103.94
333.172	98.94
333.4	101.94
333.629	87.94
333.857	91.94
334.085	102.94
334.314	106.94
334.542	89.94
334.771	91.94
334.999	101.94
335.227	91.94
335.455	91.94
335.684	96.94
335.912	96.94
336.14	100.94
336.369	97.94
336.597	98.94
336.825	107.94
337.053	96.94
337.281	107.94
337.51	96.94
337.738	93.94
337.966	100.94
338.194	98.94
338.422	88.94
338.65	93.94
338.878	91.94
339.106	78.94
339.334	87.94
339.562	100.94
339.79	101.94
340.018	88.94
340.246	93.94
340.474	90.94
340.702	97.94
340.93	95.94
341.158	88.94
341.386	81.94
341.614	97.94
341.842	91.94
342.07	99.94
342.298	103.94
342.526	94.94
342.754	97.94
342.981	86.94
343.209	99.94
343.437	103.94
343.665	103.94
343.893	100.94
344.12	94.94
344.348	97.94
344.576	102.94
344.804	110.94
345.031	91.94
345.259	114.94
345.487	105.94
345.714	101.94
345.942	87.94
346.17	100.94
346.397	89.94
346.625	101.94
346.853	97.94
347.08	85.94
347.308	99.94
347.535	101.94
347.763	91.94
347.99	99.94
348.218	97.94
348.445	94.94
348.673	88.94
348.9	93.94
349.128	94.94
349.355	92.94
349.583	101.94
349.81	88.94
350.037	84.94
350.265	88.94
350.492	99.94
350.72	92.94
350.947	119.94
351.174	94.94
351.402	102.94
351.629	90.94
351.856	93.94
352.083	91.94
352.311	100.94
352.538	90.94
352.765	96.94
352.992	95.94
353.22	100.94
353.447	83.94
353.674	75.94
353.901	95.94
354.128	97.94
354.355	100.94
354.583	87.94
354.81	96.94
355.037	102.94
355.264	82.94
355.491	82.94
355.718	93.94
355.945	89.94
356.172	100.94
356.399	84.94
356.626	84.94
356.853	78.94
357.08	98.94
357.307	91.94
357.534	92.94
357.761	84.94
357.988	94.94
358.215	83.94
358.441	91.94
358.668	92.94
358.895	89.94
359.122	102.94
359.349	102.94
359.576	102.94
359.802	101.94
360.029	83.94
360.256	98.94
360.483	108.94
360.709	98.94
360.936	98.94
361.163	97.94
361.39	93.94
361.616	94.94
361.843	104.94
362.07	108.94
362.296	107.94
362.523	82.94
362.749	73.94
362.976	98.94
363.203	104.94
363.429	99.94
363.656	95.94
363.882	94.94
364.109	98.94
364.335	101.94
364.562	98.94
364.788	93.94
365.015	90.94
365.241	94.94
365.468	84.94
365.694	88.94
365.92	96.94
366.147	90.94
366.373	74.94
366.599	87.94
366.826	86.94
367.052	93.94
367.278	86.94
367.505	87.94
367.731	91.94
367.957	89.94
368.184	93.94
368.41	89.94
368.636	94.94
368.862	85.94
369.089	92.94
369.315	92.94
369.541	83.94
369.767	94.94
369.993	91.94
370.219	100.94
370.445	100.94
370.672	98.94
370.898	79.94
371.124	94.94
371.35	99.94
371.576	102.94
371.802	94.94
372.028	97.94
372.254	96.94
372.48	109.94
372.706	92.94
372.932	101.94
373.158	95.94
373.384	86.94
373.61	92.94
373.835	104.94
374.061	92.94
374.287	90.94
374.513	93.94
374.739	94.94
374.965	94.94
375.191	97.94
375.416	93.94
375.642	102.94
375.868	97.94
376.094	81.94
376.319	101.94
376.545	92.94
376.771	96.94
376.997	92.94
377.222	87.94
377.448	96.94
377.674	80.94
377.899	90.94
378.125	96.94
378.35	91.94
378.576	81.94
378.802	82.94
379.027	88.94
379.253	98.94
379.478	88.94
379.704	89.94
379.929	93.94
380.155	89.94
380.38	87.94
380.606	97.94
380.831	86.94
381.057	102.94
381.282	99.94
381.507	108.94
381.733	92.94
381.958	85.94
382.184	93.94
382.409	77.94
382.634	106.94
382.86	87.94
383.085	95.94
383.31	79.94
383.535	96.94
383.761	97.94
383.986	100.94
384.211	100.94
384.436	114.94
384.662	91.94
384.887	90.94
385.112	102.94
385.337	92.94
385.562	99.94
385.787	96.94
386.013	105.94
386.238	89.94
386.463	114.94
386.688	104.94
386.913	97.94
387.138	106.94
387.363	88.94
387.588	97.94
387.813	97.94
388.038	102.94
388.263	107.94
388.488	89.94
388.713	104.94
388.938	84.94
389.163	103.94
389.387	98.94
389.612	87.94
389.837	86.94
390.062	99.94
390.287	91.94
390.512	98.94
390.736	102.94
390.961	105.94
391.186	86.94
391.411	91.94
391.636	96.94
391.86	99.94
392.085	96.94
392.31	101.94
392.534	93.94
392.759	92.94
392.984	101.94
393.208	102.94
393.433	100.94
393.658	105.94
393.882	102.94
394.107	87.94
394.331	81.94
394.556	104.94
394.78	100.94
395.005	97.94
395.229	93.94
395.454	108.94
395.678	100.94
395.903	102.94
396.127	93.94
396.352	94.94
396.576	88.94
396.801	108.94
397.025	104.94
397.249	96.94
397.474	102.94
397.698	88.94
397.922	96.94
398.147	101.94
398.371	93.94
398.595	91.94
398.82	91.94
399.044	89.94
399.268	95.94
399.492	108.94
399.717	100.94
399.941	104.94
400.165	112.94
400.389	116.94
400.613	93.94
400.837	86.94
401.062	94.94
401.286	98.94
401.51	114.94
401.734	95.94
401.958	91.94
402.182	102.94
402.406	106.94
402.63	96.94
402.854	92.94
403.078	97.94
403.302	97.94
403.526	113.94
403.75	96.94
403.974	103.94
404.198	113.94
404.422	100.94
404.645	80.94
404.869	97.94
405.093	108.94
405.317	103.94
405.541	101.94
405.765	109.94
405.988	112.94
406.212	95.94
406.436	103.94
406.66	104.94
406.883	104.94
407.107	98.94
407.331	96.94
407.555	101.94
407.778	112.94
408.002	90.94
408.226	108.94
408.449	122.94
408.673	85.94
408.896	93.94
409.12	92.94
409.344	94.94
409.567	96.94
409.791	88.94
410.014	99.94
410.238	96.94
410.461	112.94
410.685	98.94
410.908	90.94
411.132	112.94
411.355	94.94
411.578	91.94
411.802	88.94
412.025	98.94
412.249	93.94
412.472	102.94
412.695	89.94
412.919	101.94
413.142	97.94
413.365	93.94
413.589	104.94
413.812	107.94
414.035	100.94
414.258	93.94
414.482	94.94
414.705	104.94
414.928	96.94
415.151	96.94
415.374	98.94
415.597	99.94
415.821	108.94
416.044	107.94
416.267	109.94
416.49	96.94
416.713	92.94
416.936	96.94
417.159	87.94
417.382	81.94
417.605	103.94
417.828	91.94
418.051	93.94
418.274	93.94
418.497	102.94
418.72	100.94
418.943	114.94
419.166	102.94
419.389	99.94
419.611	112.94
419.834	100.94
420.057	94.94
420.28	105.94
420.503	109.94
420.726	92.94
420.948	99.94
421.171	88.94
421.394	92.94
421.617	106.94
421.839	102.94
422.062	96.94
422.285	97.94
422.507	102.94
422.73	113.94
422.953	102.94
423.175	105.94
423.398	99.94
423.621	96.94
423.843	90.94
424.066	107.94
424.288	91.94
424.511	103.94
424.733	97.94
424.956	88.94
425.178	94.94
425.401	89.94
425.623	99.94
425.846	82.94
426.068	93.94
426.291	85.94
426.513	104.94
426.735	93.94
426.958	98.94
427.18	88.94
427.402	91.94
427.625	87.94
427.847	96.94
428.069	103.94
428.292	96.94
428.514	90.94
428.736	104.94
428.958	86.94
429.181	101.94
429.403	100.94
429.625	93.94
429.847	99.94
430.069	92.94
430.292	90.94
430.514	91.94
430.736	86.94
430.958	92.94
431.18	89.94
431.402	93.94
431.624	76.94
431.846	99.94
432.068	83.94
432.29	105.94
432.512	90.94
432.734	99.94
432.956	99.94
433.178	110.94
433.4	89.94
433.622	87.94
433.844	99.94
434.066	100.94
434.287	96.94
434.509	99.94
434.731	104.94
434.953	110.94
435.175	98.94
435.397	96.94
435.618	91.94
435.84	109.94
436.062	85.94
436.284	82.94
436.505	104.94
436.727	92.94
436.949	96.94
437.17	87.94
437.392	96.94
437.614	78.94
437.835	96.94
438.057	101.94
438.278	88.94
438.5	90.94
438.721	104.94
438.943	94.94
439.165	96.94
439.386	106.94
439.608	92.94
439.829	88.94
440.05	108.94
440.272	98.94
440.493	87.94
440.715	94.94
440.936	89.94
441.158	95.94
441.379	88.94
441.6	90.94
441.822	105.94
442.043	101.94
442.264	106.94
442.486	106.94
442.707	103.94
442.928	103.94
443.149	93.94
443.371	109.94
443.592	95.94
443.813	99.94
444.034	101.94
444.255	91.94
444.476	104.94
444.698	93.94
444.919	98.94
445.14	206.94
445.361	142.94
445.582	113.94
445.803	104.94
446.024	100.94
446.245	93.94
446.466	94.94
446.687	91.94
446.908	88.94
447.129	82.94
447.35	104.94
447.571	92.94
447.792	86.94
448.013	91.94
448.234	92.94
448.455	95.94
448.675	92.94
448.896	81.94
449.117	95.94
449.338	87.94
449.559	103.94
449.779	92.94
450	92.94
450.221	83.94
450.442	101.94
450.662	93.94
450.883	89.94
451.104	96.94
451.324	73.94
451.545	94.94
451.766	87.94
451.986	76.94
452.207	99.94
452.428	94.94
452.648	94.94
452.869	89.94
453.089	94.94
453.31	109.94
453.53	100.94
453.751	94.94
453.971	93.94
454.192	92.94
454.412	98.94
454.633	94.94
454.853	99.94
455.073	89.94
455.294	91.94
455.514	99.94
455.734	93.94
455.955	85.94
456.175	93.94
456.395	89.94
456.616	99.94
456.836	107.94
457.056	82.94
457.276	90.94
457.497	97.94
457.717	82.94
457.937	94.94
458.157	91.94
458.377	86.94
458.598	87.94
458.818	98.94
459.038	106.94
459.258	108.94
459.478	82.94
459.698	97.94
459.918	93.94
460.138	84.94
460.358	97.94
460.578	94.94
460.798	89.94
461.018	104.94
461.238	101.94
461.458	108.94
461.678	89.94
461.898	94.94
462.118	98.94
462.338	103.94
462.558	106.94
462.777	106.94
462.997	103.94
463.217	120.94
463.437	122.94
463.657	104.94
463.876	108.94
464.096	104.94
464.316	107.94
464.536	98.94
464.755	107.94
464.975	101.94
465.195	90.94
465.414	81.94
465.634	78.94
465.854	99.94
466.073	83.94
466.293	101.94
466.512	81.94
466.732	98.94
466.951	83.94
467.171	98.94
467.391	101.94
467.61	76.94
467.829	82.94
468.049	112.94
468.268	98.94
468.488	99.94
468.707	96.94
468.927	93.94
469.146	101.94
469.365	90.94
469.585	104.94
469.804	108.94
470.023	107.94
470.243	88.94
470.462	112.94
470.681	110.94
470.901	93.94
471.12	114.94
471.339	104.94
471.558	108.94
471.777	96.94
471.997	97.94
472.216	90.94
472.435	101.94
472.654	92.94
472.873	92.94
473.092	105.94
473.311	102.94
473.53	107.94
473.749	104.94
473.968	93.94
474.187	110.94
474.406	77.94
474.625	100.94
474.844	105.94
475.063	92.94
475.282	102.94
475.501	107.94
475.72	97.94
475.939	86.94
476.158	95.94
476.377	114.94
476.596	112.94
476.814	112.94
477.033	102.94
477.252	102.94
477.471	97.94
477.69	94.94
477.908	96.94
478.127	108.94
478.346	100.94
478.564	97.94
478.783	115.94
479.002	92.94
479.22	106.94
479.439	93.94
479.658	93.94
479.876	112.94
480.095	116.94
480.313	110.94
480.532	93.94
480.751	103.94
480.969	110.94
481.188	89.94
481.406	105.94
481.624	89.94
481.843	100.94
482.061	110.94
482.28	109.94
482.498	106.94
482.717	95.94
482.935	84.94
483.153	92.94
483.372	119.94
483.59	121.94
483.808	98.94
484.027	118.94
484.245	97.94
484.463	104.94
484.681	112.94
484.9	108.94
485.118	105.94
485.336	87.94
485.554	98.94
485.772	100.94
485.99	109.94
486.209	114.94
486.427	94.94
486.645	98.94
486.863	115.94
487.081	118.94
487.299	104.94
487.517	92.94
487.735	98.94
487.953	109.94
488.171	95.94
488.389	105.94
488.607	116.94
488.825	111.94
489.043	96.94
489.261	92.94
489.479	107.94
489.696	96.94
489.914	90.94
490.132	108.94
490.35	109.94
490.568	104.94
490.786	98.94
491.003	116.94
491.221	109.94
491.439	123.94
491.657	118.94
491.874	109.94
492.092	112.94
492.31	113.94
492.527	114.94
492.745	121.94
492.963	114.94
493.18	106.94
493.398	108.94
493.615	116.94
493.833	123.94
494.05	113.94
494.268	105.94
494.485	120.94
494.703	118.94
494.92	117.94
495.138	109.94
495.355	111.94
495.573	116.94
495.79	118.94
496.008	97.94
496.225	117.94
496.442	103.94
496.66	116.94
496.877	100.94
497.094	124.94
497.312	101.94
497.529	122.94
497.746	120.94
497.963	104.94
498.181	103.94
498.398	118.94
498.615	107.94
498.832	122.94
499.049	115.94
499.267	124.94
499.484	114.94
499.701	139.94
499.918	140.94
500.135	147.94
500.352	165.94
500.569	166.94
500.786	160.94
501.003	150.94
501.22	134.94
501.437	141.94
501.654	136.94
501.871	130.94
502.088	137.94
502.305	123.94
502.522	111.94
502.739	123.94
502.956	121.94
503.172	101.94
503.389	110.94
503.606	103.94
503.823	113.94
504.04	122.94
504.256	115.94
504.473	121.94
504.69	110.94
504.907	118.94
505.123	102.94
505.34	97.94
505.557	102.94
505.773	118.94
505.99	102.94
506.207	109.94
506.423	98.94
506.64	107.94
506.856	101.94
507.073	99.94
507.289	105.94
507.506	111.94
507.722	96.94
507.939	101.94
508.155	118.94
508.372	108.94
508.588	103.94
508.805	104.94
509.021	101.94
509.238	118.94
509.454	104.94
509.67	101.94
509.887	94.94
510.103	94.94
510.319	103.94
510.536	96.94
510.752	94.94
510.968	107.94
511.184	98.94
511.401	94.94
511.617	106.94
511.833	108.94
512.049	104.94
512.265	94.94
512.481	95.94
512.698	87.94
512.914	103.94
513.13	99.94
513.346	99.94
513.562	109.94
513.778	92.94
