Data from Location5.07152019.Energy5.Lamp.07192019.3%Agarose_HRD10591_16-02-54-628.txt Node
Date: Fri Jul 19 16:02:54 EDT 2019
User: cochatt
Spectrometer: HR+D1059
Trigger mode: 1
Integration Time (sec): 1.000000E-1
Scans to average: 1
Electric dark correction enabled: true
Nonlinearity correction enabled: false
Boxcar width: 0
XAxis mode: Wavelengths
Number of Pixels in Spectrum: 2048
>>>>>Begin Spectral Data<<<<<
223.165	-17.19
223.4	-17.19
223.635	-17.19
223.869	-26.19
224.104	-2.19
224.338	-13.19
224.573	-10.19
224.808	-9.19
225.042	-12.19
225.277	-10.19
225.511	-1.19
225.746	-0.19
225.98	-1.19
226.215	7.81
226.449	5.81
226.683	33.81
226.918	22.81
227.152	32.81
227.387	34.81
227.621	33.81
227.856	47.81
228.09	33.81
228.324	52.81
228.559	69.81
228.793	56.81
229.027	63.81
229.262	60.81
229.496	59.81
229.73	85.81
229.964	75.81
230.199	51.81
230.433	79.81
230.667	78.81
230.901	81.81
231.136	78.81
231.37	78.81
231.604	67.81
231.838	81.81
232.072	71.81
232.306	82.81
232.541	90.81
232.775	87.81
233.009	75.81
233.243	79.81
233.477	86.81
233.711	105.81
233.945	75.81
234.179	71.81
234.413	84.81
234.647	84.81
234.881	80.81
235.115	78.81
235.349	76.81
235.583	87.81
235.817	83.81
236.051	88.81
236.285	61.81
236.519	79.81
236.753	80.81
236.987	74.81
237.221	71.81
237.455	92.81
237.689	71.81
237.922	79.81
238.156	73.81
238.39	61.81
238.624	73.81
238.858	80.81
239.091	78.81
239.325	87.81
239.559	76.81
239.793	75.81
240.027	83.81
240.26	75.81
240.494	81.81
240.728	74.81
240.961	68.81
241.195	77.81
241.429	70.81
241.662	85.81
241.896	62.81
242.13	87.81
242.363	80.81
242.597	74.81
242.83	87.81
243.064	75.81
243.298	71.81
243.531	77.81
243.765	82.81
243.998	84.81
244.232	80.81
244.465	82.81
244.699	75.81
244.932	66.81
245.166	77.81
245.399	80.81
245.633	62.81
245.866	88.81
246.099	94.81
246.333	82.81
246.566	81.81
246.8	86.81
247.033	85.81
247.266	70.81
247.5	79.81
247.733	74.81
247.966	73.81
248.2	73.81
248.433	78.81
248.666	79.81
248.899	85.81
249.133	88.81
249.366	78.81
249.599	82.81
249.832	71.81
250.066	68.81
250.299	81.81
250.532	86.81
250.765	85.81
250.998	66.81
251.231	88.81
251.465	99.81
251.698	87.81
251.931	86.81
252.164	85.81
252.397	61.81
252.63	84.81
252.863	73.81
253.096	89.81
253.329	80.81
253.562	78.81
253.795	78.81
254.028	86.81
254.261	86.81
254.494	54.81
254.727	67.81
254.96	99.81
255.193	76.81
255.426	71.81
255.659	64.81
255.892	92.81
256.124	84.81
256.357	70.81
256.59	89.81
256.823	68.81
257.056	77.81
257.289	93.81
257.521	87.81
257.754	60.81
257.987	69.81
258.22	78.81
258.452	75.81
258.685	82.81
258.918	87.81
259.151	82.81
259.383	86.81
259.616	89.81
259.849	60.81
260.081	85.81
260.314	71.81
260.547	87.81
260.779	88.81
261.012	85.81
261.244	61.81
261.477	85.81
261.71	67.81
261.942	88.81
262.175	88.81
262.407	79.81
262.64	75.81
262.872	95.81
263.105	82.81
263.337	93.81
263.57	89.81
263.802	94.81
264.035	91.81
264.267	86.81
264.499	93.81
264.732	72.81
264.964	86.81
265.197	86.81
265.429	91.81
265.661	99.81
265.894	79.81
266.126	66.81
266.358	74.81
266.591	66.81
266.823	90.81
267.055	77.81
267.287	93.81
267.52	96.81
267.752	97.81
267.984	88.81
268.216	85.81
268.448	87.81
268.681	88.81
268.913	79.81
269.145	86.81
269.377	83.81
269.609	92.81
269.841	93.81
270.073	79.81
270.306	80.81
270.538	83.81
270.77	98.81
271.002	83.81
271.234	87.81
271.466	85.81
271.698	75.81
271.93	73.81
272.162	85.81
272.394	99.81
272.626	91.81
272.858	86.81
273.09	89.81
273.322	86.81
273.553	95.81
273.785	104.81
274.017	85.81
274.249	75.81
274.481	88.81
274.713	85.81
274.945	93.81
275.176	94.81
275.408	98.81
275.64	89.81
275.872	92.81
276.104	85.81
276.335	85.81
276.567	80.81
276.799	87.81
277.031	86.81
277.262	83.81
277.494	82.81
277.726	89.81
277.957	87.81
278.189	89.81
278.421	87.81
278.652	93.81
278.884	89.81
279.115	91.81
279.347	75.81
279.579	84.81
279.81	85.81
280.042	76.81
280.273	85.81
280.505	82.81
280.736	100.81
280.968	94.81
281.199	83.81
281.431	78.81
281.662	80.81
281.894	83.81
282.125	86.81
282.356	74.81
282.588	86.81
282.819	88.81
283.051	89.81
283.282	78.81
283.513	90.81
283.745	77.81
283.976	77.81
284.207	78.81
284.439	80.81
284.67	78.81
284.901	78.81
285.132	97.81
285.364	86.81
285.595	73.81
285.826	96.81
286.057	85.81
286.288	77.81
286.52	78.81
286.751	93.81
286.982	93.81
287.213	90.81
287.444	89.81
287.675	75.81
287.906	85.81
288.138	97.81
288.369	88.81
288.6	70.81
288.831	79.81
289.062	96.81
289.293	92.81
289.524	93.81
289.755	83.81
289.986	90.81
290.217	85.81
290.448	89.81
290.679	85.81
290.91	87.81
291.141	83.81
291.371	99.81
291.602	86.81
291.833	99.81
292.064	91.81
292.295	91.81
292.526	98.81
292.757	95.81
292.987	93.81
293.218	83.81
293.449	88.81
293.68	92.81
293.91	89.81
294.141	85.81
294.372	94.81
294.603	89.81
294.833	98.81
295.064	72.81
295.295	89.81
295.525	83.81
295.756	81.81
295.987	94.81
296.217	82.81
296.448	84.81
296.679	79.81
296.909	96.81
297.14	91.81
297.37	80.81
297.601	88.81
297.831	82.81
298.062	89.81
298.292	83.81
298.523	86.81
298.753	92.81
298.984	93.81
299.214	108.81
299.445	84.81
299.675	109.81
299.905	83.81
300.136	84.81
300.366	90.81
300.597	86.81
300.827	100.81
301.057	85.81
301.288	97.81
301.518	97.81
301.748	98.81
301.979	82.81
302.209	92.81
302.439	85.81
302.669	97.81
302.9	90.81
303.13	80.81
303.36	94.81
303.59	80.81
303.82	98.81
304.051	102.81
304.281	78.81
304.511	87.81
304.741	91.81
304.971	78.81
305.201	83.81
305.431	95.81
305.661	84.81
305.891	94.81
306.121	92.81
306.352	90.81
306.582	103.81
306.812	97.81
307.042	74.81
307.272	83.81
307.502	82.81
307.731	74.81
307.961	73.81
308.191	86.81
308.421	94.81
308.651	93.81
308.881	88.81
309.111	84.81
309.341	78.81
309.571	94.81
309.8	96.81
310.03	95.81
310.26	93.81
310.49	90.81
310.72	104.81
310.949	106.81
311.179	94.81
311.409	105.81
311.639	76.81
311.868	97.81
312.098	95.81
312.328	97.81
312.557	99.81
312.787	85.81
313.017	92.81
313.246	106.81
313.476	98.81
313.706	77.81
313.935	86.81
314.165	97.81
314.394	77.81
314.624	91.81
314.853	96.81
315.083	95.81
315.312	83.81
315.542	87.81
315.771	89.81
316.001	91.81
316.23	95.81
316.46	97.81
316.689	105.81
316.919	95.81
317.148	89.81
317.377	100.81
317.607	97.81
317.836	91.81
318.065	80.81
318.295	101.81
318.524	93.81
318.753	80.81
318.983	86.81
319.212	104.81
319.441	92.81
319.67	84.81
319.9	91.81
320.129	83.81
320.358	91.81
320.587	91.81
320.816	93.81
321.046	90.81
321.275	91.81
321.504	89.81
321.733	98.81
321.962	97.81
322.191	101.81
322.42	86.81
322.649	87.81
322.878	85.81
323.108	77.81
323.337	91.81
323.566	81.81
323.795	100.81
324.024	82.81
324.253	86.81
324.482	96.81
324.71	93.81
324.939	97.81
325.168	103.81
325.397	91.81
325.626	89.81
325.855	99.81
326.084	103.81
326.313	87.81
326.542	100.81
326.77	87.81
326.999	86.81
327.228	83.81
327.457	80.81
327.686	82.81
327.914	100.81
328.143	100.81
328.372	78.81
328.6	96.81
328.829	82.81
329.058	90.81
329.287	90.81
329.515	83.81
329.744	78.81
329.972	86.81
330.201	81.81
330.43	88.81
330.658	83.81
330.887	87.81
331.115	100.81
331.344	96.81
331.572	96.81
331.801	103.81
332.03	93.81
332.258	101.81
332.486	96.81
332.715	105.81
332.943	97.81
333.172	91.81
333.4	94.81
333.629	105.81
333.857	104.81
334.085	87.81
334.314	117.81
334.542	96.81
334.771	79.81
334.999	95.81
335.227	94.81
335.455	109.81
335.684	89.81
335.912	104.81
336.14	97.81
336.369	86.81
336.597	95.81
336.825	95.81
337.053	100.81
337.281	91.81
337.51	90.81
337.738	92.81
337.966	96.81
338.194	105.81
338.422	97.81
338.65	93.81
338.878	87.81
339.106	81.81
339.334	84.81
339.562	90.81
339.79	118.81
340.018	90.81
340.246	98.81
340.474	88.81
340.702	84.81
340.93	85.81
341.158	81.81
341.386	89.81
341.614	101.81
341.842	106.81
342.07	72.81
342.298	106.81
342.526	82.81
342.754	103.81
342.981	86.81
343.209	86.81
343.437	82.81
343.665	95.81
343.893	105.81
344.12	104.81
344.348	89.81
344.576	100.81
344.804	80.81
345.031	89.81
345.259	97.81
345.487	99.81
345.714	86.81
345.942	91.81
346.17	90.81
346.397	77.81
346.625	84.81
346.853	100.81
347.08	99.81
347.308	75.81
347.535	89.81
347.763	89.81
347.99	90.81
348.218	99.81
348.445	98.81
348.673	96.81
348.9	101.81
349.128	97.81
349.355	94.81
349.583	93.81
349.81	88.81
350.037	95.81
350.265	95.81
350.492	90.81
350.72	80.81
350.947	95.81
351.174	92.81
351.402	94.81
351.629	101.81
351.856	81.81
352.083	81.81
352.311	79.81
352.538	99.81
352.765	96.81
352.992	81.81
353.22	85.81
353.447	107.81
353.674	94.81
353.901	95.81
354.128	83.81
354.355	99.81
354.583	92.81
354.81	94.81
355.037	86.81
355.264	101.81
355.491	75.81
355.718	85.81
355.945	92.81
356.172	93.81
356.399	80.81
356.626	97.81
356.853	81.81
357.08	96.81
357.307	85.81
357.534	86.81
357.761	102.81
357.988	92.81
358.215	90.81
358.441	81.81
358.668	98.81
358.895	80.81
359.122	92.81
359.349	85.81
359.576	95.81
359.802	89.81
360.029	87.81
360.256	87.81
360.483	82.81
360.709	94.81
360.936	104.81
361.163	101.81
361.39	103.81
361.616	90.81
361.843	88.81
362.07	90.81
362.296	94.81
362.523	102.81
362.749	82.81
362.976	88.81
363.203	97.81
363.429	103.81
363.656	94.81
363.882	99.81
364.109	88.81
364.335	88.81
364.562	85.81
364.788	95.81
365.015	89.81
365.241	103.81
365.468	94.81
365.694	91.81
365.92	97.81
366.147	89.81
366.373	89.81
366.599	88.81
366.826	84.81
367.052	90.81
367.278	89.81
367.505	83.81
367.731	79.81
367.957	86.81
368.184	86.81
368.41	90.81
368.636	87.81
368.862	91.81
369.089	98.81
369.315	91.81
369.541	91.81
369.767	79.81
369.993	102.81
370.219	96.81
370.445	77.81
370.672	69.81
370.898	84.81
371.124	91.81
371.35	80.81
371.576	89.81
371.802	91.81
372.028	83.81
372.254	88.81
372.48	88.81
372.706	92.81
372.932	85.81
373.158	102.81
373.384	95.81
373.61	88.81
373.835	78.81
374.061	95.81
374.287	95.81
374.513	94.81
374.739	96.81
374.965	91.81
375.191	88.81
375.416	87.81
375.642	106.81
375.868	90.81
376.094	92.81
376.319	95.81
376.545	79.81
376.771	98.81
376.997	98.81
377.222	103.81
377.448	86.81
377.674	84.81
377.899	86.81
378.125	83.81
378.35	90.81
378.576	101.81
378.802	89.81
379.027	95.81
379.253	82.81
379.478	84.81
379.704	94.81
379.929	93.81
380.155	99.81
380.38	95.81
380.606	91.81
380.831	88.81
381.057	106.81
381.282	92.81
381.507	87.81
381.733	85.81
381.958	92.81
382.184	88.81
382.409	89.81
382.634	91.81
382.86	99.81
383.085	106.81
383.31	86.81
383.535	77.81
383.761	90.81
383.986	91.81
384.211	86.81
384.436	99.81
384.662	99.81
384.887	98.81
385.112	87.81
385.337	100.81
385.562	104.81
385.787	93.81
386.013	104.81
386.238	99.81
386.463	91.81
386.688	112.81
386.913	98.81
387.138	91.81
387.363	100.81
387.588	79.81
387.813	88.81
388.038	88.81
388.263	97.81
388.488	88.81
388.713	85.81
388.938	85.81
389.163	101.81
389.387	90.81
389.612	87.81
389.837	80.81
390.062	97.81
390.287	77.81
390.512	98.81
390.736	79.81
390.961	90.81
391.186	86.81
391.411	90.81
391.636	94.81
391.86	90.81
392.085	88.81
392.31	102.81
392.534	80.81
392.759	100.81
392.984	91.81
393.208	100.81
393.433	105.81
393.658	108.81
393.882	93.81
394.107	95.81
394.331	100.81
394.556	93.81
394.78	83.81
395.005	93.81
395.229	90.81
395.454	101.81
395.678	98.81
395.903	83.81
396.127	89.81
396.352	93.81
396.576	106.81
396.801	105.81
397.025	94.81
397.249	90.81
397.474	86.81
397.698	98.81
397.922	104.81
398.147	102.81
398.371	104.81
398.595	91.81
398.82	84.81
399.044	82.81
399.268	101.81
399.492	104.81
399.717	99.81
399.941	102.81
400.165	102.81
400.389	93.81
400.613	95.81
400.837	96.81
401.062	110.81
401.286	102.81
401.51	106.81
401.734	96.81
401.958	96.81
402.182	93.81
402.406	104.81
402.63	115.81
402.854	94.81
403.078	93.81
403.302	118.81
403.526	103.81
403.75	111.81
403.974	94.81
404.198	82.81
404.422	98.81
404.645	116.81
404.869	104.81
405.093	103.81
405.317	105.81
405.541	96.81
405.765	89.81
405.988	94.81
406.212	100.81
406.436	96.81
406.66	90.81
406.883	85.81
407.107	109.81
407.331	101.81
407.555	101.81
407.778	94.81
408.002	105.81
408.226	100.81
408.449	105.81
408.673	93.81
408.896	98.81
409.12	107.81
409.344	105.81
409.567	110.81
409.791	107.81
410.014	95.81
410.238	96.81
410.461	103.81
410.685	93.81
410.908	97.81
411.132	85.81
411.355	94.81
411.578	108.81
411.802	101.81
412.025	85.81
412.249	105.81
412.472	102.81
412.695	104.81
412.919	85.81
413.142	96.81
413.365	86.81
413.589	93.81
413.812	99.81
414.035	99.81
414.258	102.81
414.482	90.81
414.705	97.81
414.928	89.81
415.151	103.81
415.374	112.81
415.597	97.81
415.821	89.81
416.044	98.81
416.267	111.81
416.49	97.81
416.713	87.81
416.936	105.81
417.159	114.81
417.382	109.81
417.605	98.81
417.828	100.81
418.051	94.81
418.274	100.81
418.497	97.81
418.72	86.81
418.943	96.81
419.166	97.81
419.389	117.81
419.611	100.81
419.834	102.81
420.057	101.81
420.28	87.81
420.503	96.81
420.726	90.81
420.948	90.81
421.171	110.81
421.394	93.81
421.617	93.81
421.839	98.81
422.062	84.81
422.285	89.81
422.507	112.81
422.73	84.81
422.953	89.81
423.175	88.81
423.398	95.81
423.621	86.81
423.843	94.81
424.066	111.81
424.288	93.81
424.511	91.81
424.733	105.81
424.956	87.81
425.178	97.81
425.401	111.81
425.623	99.81
425.846	95.81
426.068	95.81
426.291	92.81
426.513	90.81
426.735	94.81
426.958	96.81
427.18	89.81
427.402	95.81
427.625	99.81
427.847	88.81
428.069	94.81
428.292	82.81
428.514	79.81
428.736	98.81
428.958	88.81
429.181	87.81
429.403	84.81
429.625	82.81
429.847	81.81
430.069	104.81
430.292	88.81
430.514	95.81
430.736	88.81
430.958	104.81
431.18	101.81
431.402	98.81
431.624	79.81
431.846	91.81
432.068	88.81
432.29	82.81
432.512	94.81
432.734	103.81
432.956	101.81
433.178	106.81
433.4	92.81
433.622	90.81
433.844	97.81
434.066	99.81
434.287	87.81
434.509	92.81
434.731	88.81
434.953	89.81
435.175	98.81
435.397	112.81
435.618	96.81
435.84	94.81
436.062	99.81
436.284	94.81
436.505	88.81
436.727	95.81
436.949	87.81
437.17	93.81
437.392	103.81
437.614	98.81
437.835	103.81
438.057	94.81
438.278	91.81
438.5	102.81
438.721	96.81
438.943	95.81
439.165	92.81
439.386	88.81
439.608	92.81
439.829	86.81
440.05	84.81
440.272	89.81
440.493	93.81
440.715	86.81
440.936	99.81
441.158	112.81
441.379	93.81
441.6	104.81
441.822	95.81
442.043	101.81
442.264	89.81
442.486	96.81
442.707	81.81
442.928	97.81
443.149	80.81
443.371	92.81
443.592	99.81
443.813	102.81
444.034	100.81
444.255	97.81
444.476	109.81
444.698	99.81
444.919	107.81
445.14	224.81
445.361	151.81
445.582	83.81
445.803	96.81
446.024	106.81
446.245	98.81
446.466	93.81
446.687	102.81
446.908	94.81
447.129	87.81
447.35	112.81
447.571	101.81
447.792	93.81
448.013	94.81
448.234	86.81
448.455	100.81
448.675	97.81
448.896	97.81
449.117	86.81
449.338	89.81
449.559	95.81
449.779	101.81
450	96.81
450.221	78.81
450.442	96.81
450.662	96.81
450.883	93.81
451.104	101.81
451.324	90.81
451.545	98.81
451.766	77.81
451.986	95.81
452.207	96.81
452.428	98.81
452.648	100.81
452.869	99.81
453.089	81.81
453.31	88.81
453.53	88.81
453.751	97.81
453.971	93.81
454.192	96.81
454.412	97.81
454.633	80.81
454.853	87.81
455.073	84.81
455.294	77.81
455.514	90.81
455.734	96.81
455.955	94.81
456.175	96.81
456.395	89.81
456.616	90.81
456.836	103.81
457.056	85.81
457.276	97.81
457.497	80.81
457.717	97.81
457.937	84.81
458.157	95.81
458.377	89.81
458.598	93.81
458.818	91.81
459.038	95.81
459.258	111.81
459.478	91.81
459.698	94.81
459.918	89.81
460.138	88.81
460.358	79.81
460.578	115.81
460.798	91.81
461.018	96.81
461.238	101.81
461.458	98.81
461.678	107.81
461.898	116.81
462.118	102.81
462.338	107.81
462.558	83.81
462.777	83.81
462.997	94.81
463.217	124.81
463.437	102.81
463.657	106.81
463.876	99.81
464.096	96.81
464.316	111.81
464.536	92.81
464.755	106.81
464.975	104.81
465.195	115.81
465.414	82.81
465.634	103.81
465.854	98.81
466.073	106.81
466.293	94.81
466.512	105.81
466.732	103.81
466.951	85.81
467.171	106.81
467.391	101.81
467.61	86.81
467.829	104.81
468.049	90.81
468.268	91.81
468.488	96.81
468.707	92.81
468.927	105.81
469.146	88.81
469.365	98.81
469.585	101.81
469.804	89.81
470.023	93.81
470.243	98.81
470.462	92.81
470.681	90.81
470.901	101.81
471.12	104.81
471.339	113.81
471.558	102.81
471.777	104.81
471.997	101.81
472.216	97.81
472.435	85.81
472.654	97.81
472.873	95.81
473.092	89.81
473.311	92.81
473.53	89.81
473.749	106.81
473.968	94.81
474.187	84.81
474.406	94.81
474.625	98.81
474.844	98.81
475.063	101.81
475.282	101.81
475.501	93.81
475.72	102.81
475.939	102.81
476.158	102.81
476.377	93.81
476.596	96.81
476.814	84.81
477.033	87.81
477.252	97.81
477.471	102.81
477.69	110.81
477.908	97.81
478.127	112.81
478.346	93.81
478.564	103.81
478.783	112.81
479.002	107.81
479.22	111.81
479.439	104.81
479.658	113.81
479.876	99.81
480.095	119.81
480.313	110.81
480.532	98.81
480.751	99.81
480.969	101.81
481.188	97.81
481.406	106.81
481.624	96.81
481.843	99.81
482.061	97.81
482.28	102.81
482.498	109.81
482.717	114.81
482.935	101.81
483.153	104.81
483.372	101.81
483.59	103.81
483.808	115.81
484.027	117.81
484.245	103.81
484.463	95.81
484.681	110.81
484.9	102.81
485.118	98.81
485.336	94.81
485.554	105.81
485.772	100.81
485.99	94.81
486.209	104.81
486.427	109.81
486.645	103.81
486.863	108.81
487.081	107.81
487.299	93.81
487.517	90.81
487.735	111.81
487.953	117.81
488.171	123.81
488.389	97.81
488.607	111.81
488.825	102.81
489.043	98.81
489.261	108.81
489.479	133.81
489.696	113.81
489.914	96.81
490.132	115.81
490.35	105.81
490.568	79.81
490.786	106.81
491.003	111.81
491.221	110.81
491.439	105.81
491.657	100.81
491.874	114.81
492.092	121.81
492.31	118.81
492.527	113.81
492.745	98.81
492.963	109.81
493.18	111.81
493.398	113.81
493.615	104.81
493.833	117.81
494.05	117.81
494.268	105.81
494.485	119.81
494.703	104.81
494.92	119.81
495.138	119.81
495.355	122.81
495.573	97.81
495.79	104.81
496.008	118.81
496.225	119.81
496.442	122.81
496.66	117.81
496.877	129.81
497.094	100.81
497.312	123.81
497.529	103.81
497.746	115.81
497.963	102.81
498.181	102.81
498.398	107.81
498.615	119.81
498.832	118.81
499.049	121.81
499.267	118.81
499.484	130.81
499.701	129.81
499.918	137.81
500.135	151.81
500.352	152.81
500.569	159.81
500.786	170.81
501.003	173.81
501.22	147.81
501.437	153.81
501.654	131.81
501.871	133.81
502.088	116.81
502.305	126.81
502.522	127.81
502.739	126.81
502.956	117.81
503.172	125.81
503.389	106.81
503.606	106.81
503.823	106.81
504.04	107.81
504.256	123.81
504.473	117.81
504.69	119.81
504.907	119.81
505.123	110.81
505.34	104.81
505.557	105.81
505.773	109.81
505.99	98.81
506.207	94.81
506.423	96.81
506.64	99.81
506.856	113.81
507.073	119.81
507.289	104.81
507.506	106.81
507.722	103.81
507.939	103.81
508.155	117.81
508.372	113.81
508.588	109.81
508.805	102.81
509.021	93.81
509.238	85.81
509.454	106.81
509.67	127.81
509.887	98.81
510.103	97.81
510.319	98.81
510.536	96.81
510.752	105.81
510.968	98.81
511.184	101.81
511.401	107.81
511.617	97.81
511.833	91.81
512.049	92.81
512.265	95.81
512.481	99.81
512.698	90.81
512.914	82.81
513.13	91.81
513.346	96.81
513.562	115.81
513.778	100.81
513.994	89.81
514.21	111.81
514.426	91.81
514.642	105.81
514.858	104.81
