Data from Location5.07152019.Energy5.Lamp.07192019.3%Agarose_HRD10591_15-38-36-388.txt Node
Date: Fri Jul 19 15:38:36 EDT 2019
User: cochatt
Spectrometer: HR+D1059
Trigger mode: 1
Integration Time (sec): 1.000000E-1
Scans to average: 1
Electric dark correction enabled: true
Nonlinearity correction enabled: false
Boxcar width: 0
XAxis mode: Wavelengths
Number of Pixels in Spectrum: 2048
>>>>>Begin Spectral Data<<<<<
223.165	-9.75
223.4	-9.75
223.635	-9.75
223.869	-15.75
224.104	-16.75
224.338	-20.75
224.573	-13.75
224.808	-22.75
225.042	-7.75
225.277	-5.75
225.511	5.25
225.746	7.25
225.98	12.25
226.215	11.25
226.449	16.25
226.683	4.25
226.918	25.25
227.152	31.25
227.387	40.25
227.621	45.25
227.856	26.25
228.09	47.25
228.324	62.25
228.559	43.25
228.793	49.25
229.027	54.25
229.262	53.25
229.496	69.25
229.73	77.25
229.964	65.25
230.199	73.25
230.433	76.25
230.667	79.25
230.901	89.25
231.136	83.25
231.37	94.25
231.604	80.25
231.838	80.25
232.072	87.25
232.306	86.25
232.541	76.25
232.775	85.25
233.009	79.25
233.243	80.25
233.477	91.25
233.711	83.25
233.945	81.25
234.179	84.25
234.413	88.25
234.647	64.25
234.881	73.25
235.115	82.25
235.349	80.25
235.583	70.25
235.817	70.25
236.051	83.25
236.285	94.25
236.519	85.25
236.753	90.25
236.987	89.25
237.221	76.25
237.455	76.25
237.689	73.25
237.922	84.25
238.156	66.25
238.39	81.25
238.624	66.25
238.858	67.25
239.091	75.25
239.325	67.25
239.559	78.25
239.793	61.25
240.027	74.25
240.26	75.25
240.494	74.25
240.728	79.25
240.961	66.25
241.195	94.25
241.429	86.25
241.662	89.25
241.896	80.25
242.13	70.25
242.363	72.25
242.597	89.25
242.83	74.25
243.064	74.25
243.298	72.25
243.531	71.25
243.765	64.25
243.998	75.25
244.232	80.25
244.465	78.25
244.699	67.25
244.932	87.25
245.166	73.25
245.399	81.25
245.633	94.25
245.866	84.25
246.099	83.25
246.333	76.25
246.566	66.25
246.8	82.25
247.033	76.25
247.266	73.25
247.5	83.25
247.733	82.25
247.966	74.25
248.2	83.25
248.433	78.25
248.666	75.25
248.899	73.25
249.133	82.25
249.366	83.25
249.599	80.25
249.832	87.25
250.066	82.25
250.299	86.25
250.532	84.25
250.765	71.25
250.998	79.25
251.231	78.25
251.465	71.25
251.698	82.25
251.931	81.25
252.164	89.25
252.397	84.25
252.63	84.25
252.863	76.25
253.096	65.25
253.329	77.25
253.562	81.25
253.795	86.25
254.028	77.25
254.261	89.25
254.494	69.25
254.727	79.25
254.96	84.25
255.193	84.25
255.426	80.25
255.659	84.25
255.892	70.25
256.124	71.25
256.357	85.25
256.59	76.25
256.823	70.25
257.056	76.25
257.289	89.25
257.521	82.25
257.754	77.25
257.987	87.25
258.22	81.25
258.452	80.25
258.685	88.25
258.918	84.25
259.151	73.25
259.383	85.25
259.616	76.25
259.849	94.25
260.081	77.25
260.314	90.25
260.547	73.25
260.779	95.25
261.012	87.25
261.244	78.25
261.477	77.25
261.71	83.25
261.942	87.25
262.175	68.25
262.407	67.25
262.64	84.25
262.872	96.25
263.105	73.25
263.337	83.25
263.57	82.25
263.802	76.25
264.035	77.25
264.267	74.25
264.499	81.25
264.732	82.25
264.964	77.25
265.197	69.25
265.429	72.25
265.661	70.25
265.894	88.25
266.126	90.25
266.358	85.25
266.591	84.25
266.823	94.25
267.055	81.25
267.287	74.25
267.52	87.25
267.752	85.25
267.984	75.25
268.216	80.25
268.448	78.25
268.681	81.25
268.913	101.25
269.145	99.25
269.377	79.25
269.609	83.25
269.841	79.25
270.073	72.25
270.306	68.25
270.538	79.25
270.77	77.25
271.002	95.25
271.234	75.25
271.466	83.25
271.698	80.25
271.93	77.25
272.162	90.25
272.394	93.25
272.626	71.25
272.858	75.25
273.09	84.25
273.322	85.25
273.553	80.25
273.785	79.25
274.017	72.25
274.249	81.25
274.481	81.25
274.713	91.25
274.945	75.25
275.176	83.25
275.408	79.25
275.64	85.25
275.872	77.25
276.104	86.25
276.335	80.25
276.567	85.25
276.799	80.25
277.031	83.25
277.262	80.25
277.494	106.25
277.726	78.25
277.957	96.25
278.189	94.25
278.421	79.25
278.652	91.25
278.884	86.25
279.115	73.25
279.347	89.25
279.579	99.25
279.81	77.25
280.042	79.25
280.273	90.25
280.505	85.25
280.736	75.25
280.968	85.25
281.199	73.25
281.431	61.25
281.662	74.25
281.894	91.25
282.125	93.25
282.356	82.25
282.588	72.25
282.819	86.25
283.051	93.25
283.282	79.25
283.513	73.25
283.745	86.25
283.976	79.25
284.207	74.25
284.439	78.25
284.67	86.25
284.901	85.25
285.132	81.25
285.364	71.25
285.595	81.25
285.826	88.25
286.057	84.25
286.288	80.25
286.52	85.25
286.751	83.25
286.982	82.25
287.213	85.25
287.444	88.25
287.675	84.25
287.906	74.25
288.138	82.25
288.369	94.25
288.6	77.25
288.831	79.25
289.062	81.25
289.293	90.25
289.524	82.25
289.755	103.25
289.986	81.25
290.217	84.25
290.448	90.25
290.679	90.25
290.91	80.25
291.141	75.25
291.371	82.25
291.602	79.25
291.833	92.25
292.064	82.25
292.295	84.25
292.526	71.25
292.757	87.25
292.987	97.25
293.218	81.25
293.449	85.25
293.68	87.25
293.91	85.25
294.141	84.25
294.372	96.25
294.603	68.25
294.833	89.25
295.064	83.25
295.295	83.25
295.525	75.25
295.756	83.25
295.987	82.25
296.217	88.25
296.448	85.25
296.679	67.25
296.909	92.25
297.14	71.25
297.37	84.25
297.601	84.25
297.831	83.25
298.062	75.25
298.292	82.25
298.523	80.25
298.753	80.25
298.984	74.25
299.214	69.25
299.445	80.25
299.675	86.25
299.905	90.25
300.136	88.25
300.366	94.25
300.597	92.25
300.827	89.25
301.057	70.25
301.288	82.25
301.518	74.25
301.748	63.25
301.979	81.25
302.209	87.25
302.439	85.25
302.669	84.25
302.9	76.25
303.13	75.25
303.36	78.25
303.59	76.25
303.82	72.25
304.051	83.25
304.281	83.25
304.511	75.25
304.741	69.25
304.971	79.25
305.201	80.25
305.431	88.25
305.661	78.25
305.891	73.25
306.121	99.25
306.352	85.25
306.582	79.25
306.812	85.25
307.042	83.25
307.272	75.25
307.502	99.25
307.731	83.25
307.961	88.25
308.191	80.25
308.421	78.25
308.651	87.25
308.881	103.25
309.111	83.25
309.341	88.25
309.571	86.25
309.8	71.25
310.03	85.25
310.26	95.25
310.49	87.25
310.72	95.25
310.949	79.25
311.179	83.25
311.409	85.25
311.639	83.25
311.868	85.25
312.098	80.25
312.328	80.25
312.557	82.25
312.787	92.25
313.017	73.25
313.246	82.25
313.476	92.25
313.706	87.25
313.935	82.25
314.165	87.25
314.394	80.25
314.624	76.25
314.853	86.25
315.083	81.25
315.312	89.25
315.542	67.25
315.771	80.25
316.001	91.25
316.23	75.25
316.46	76.25
316.689	90.25
316.919	85.25
317.148	71.25
317.377	82.25
317.607	80.25
317.836	91.25
318.065	85.25
318.295	78.25
318.524	76.25
318.753	71.25
318.983	86.25
319.212	101.25
319.441	79.25
319.67	69.25
319.9	89.25
320.129	77.25
320.358	86.25
320.587	97.25
320.816	91.25
321.046	89.25
321.275	81.25
321.504	77.25
321.733	65.25
321.962	77.25
322.191	72.25
322.42	92.25
322.649	89.25
322.878	101.25
323.108	88.25
323.337	72.25
323.566	84.25
323.795	86.25
324.024	86.25
324.253	68.25
324.482	71.25
324.71	92.25
324.939	73.25
325.168	70.25
325.397	91.25
325.626	76.25
325.855	90.25
326.084	73.25
326.313	73.25
326.542	86.25
326.77	84.25
326.999	94.25
327.228	80.25
327.457	94.25
327.686	74.25
327.914	85.25
328.143	90.25
328.372	93.25
328.6	85.25
328.829	80.25
329.058	88.25
329.287	78.25
329.515	96.25
329.744	73.25
329.972	70.25
330.201	81.25
330.43	89.25
330.658	85.25
330.887	67.25
331.115	81.25
331.344	82.25
331.572	79.25
331.801	80.25
332.03	84.25
332.258	85.25
332.486	84.25
332.715	89.25
332.943	88.25
333.172	78.25
333.4	79.25
333.629	84.25
333.857	80.25
334.085	68.25
334.314	93.25
334.542	84.25
334.771	96.25
334.999	95.25
335.227	77.25
335.455	75.25
335.684	99.25
335.912	91.25
336.14	81.25
336.369	77.25
336.597	76.25
336.825	78.25
337.053	85.25
337.281	91.25
337.51	90.25
337.738	86.25
337.966	71.25
338.194	89.25
338.422	69.25
338.65	83.25
338.878	85.25
339.106	79.25
339.334	88.25
339.562	83.25
339.79	84.25
340.018	86.25
340.246	95.25
340.474	75.25
340.702	74.25
340.93	99.25
341.158	90.25
341.386	71.25
341.614	78.25
341.842	100.25
342.07	89.25
342.298	76.25
342.526	73.25
342.754	85.25
342.981	78.25
343.209	80.25
343.437	89.25
343.665	86.25
343.893	73.25
344.12	101.25
344.348	71.25
344.576	104.25
344.804	78.25
345.031	89.25
345.259	82.25
345.487	90.25
345.714	79.25
345.942	74.25
346.17	88.25
346.397	86.25
346.625	73.25
346.853	62.25
347.08	88.25
347.308	79.25
347.535	83.25
347.763	83.25
347.99	83.25
348.218	90.25
348.445	85.25
348.673	84.25
348.9	91.25
349.128	93.25
349.355	85.25
349.583	103.25
349.81	89.25
350.037	91.25
350.265	67.25
350.492	72.25
350.72	76.25
350.947	68.25
351.174	87.25
351.402	91.25
351.629	79.25
351.856	91.25
352.083	95.25
352.311	86.25
352.538	86.25
352.765	89.25
352.992	86.25
353.22	86.25
353.447	75.25
353.674	75.25
353.901	91.25
354.128	87.25
354.355	77.25
354.583	91.25
354.81	88.25
355.037	68.25
355.264	81.25
355.491	82.25
355.718	101.25
355.945	78.25
356.172	96.25
356.399	76.25
356.626	85.25
356.853	76.25
357.08	77.25
357.307	83.25
357.534	90.25
357.761	88.25
357.988	79.25
358.215	99.25
358.441	84.25
358.668	81.25
358.895	89.25
359.122	82.25
359.349	83.25
359.576	72.25
359.802	88.25
360.029	89.25
360.256	88.25
360.483	79.25
360.709	84.25
360.936	87.25
361.163	79.25
361.39	89.25
361.616	71.25
361.843	79.25
362.07	62.25
362.296	64.25
362.523	77.25
362.749	79.25
362.976	80.25
363.203	73.25
363.429	81.25
363.656	94.25
363.882	93.25
364.109	69.25
364.335	74.25
364.562	97.25
364.788	80.25
365.015	82.25
365.241	82.25
365.468	81.25
365.694	78.25
365.92	60.25
366.147	87.25
366.373	82.25
366.599	79.25
366.826	80.25
367.052	80.25
367.278	83.25
367.505	78.25
367.731	89.25
367.957	70.25
368.184	87.25
368.41	89.25
368.636	83.25
368.862	86.25
369.089	76.25
369.315	87.25
369.541	87.25
369.767	85.25
369.993	90.25
370.219	71.25
370.445	68.25
370.672	78.25
370.898	72.25
371.124	74.25
371.35	88.25
371.576	91.25
371.802	91.25
372.028	85.25
372.254	83.25
372.48	82.25
372.706	85.25
372.932	81.25
373.158	71.25
373.384	81.25
373.61	83.25
373.835	87.25
374.061	83.25
374.287	76.25
374.513	100.25
374.739	78.25
374.965	74.25
375.191	82.25
375.416	91.25
375.642	86.25
375.868	94.25
376.094	84.25
376.319	71.25
376.545	84.25
376.771	91.25
376.997	83.25
377.222	83.25
377.448	85.25
377.674	82.25
377.899	66.25
378.125	80.25
378.35	84.25
378.576	82.25
378.802	70.25
379.027	92.25
379.253	77.25
379.478	83.25
379.704	81.25
379.929	74.25
380.155	91.25
380.38	93.25
380.606	79.25
380.831	71.25
381.057	89.25
381.282	82.25
381.507	85.25
381.733	83.25
381.958	86.25
382.184	87.25
382.409	72.25
382.634	86.25
382.86	90.25
383.085	82.25
383.31	75.25
383.535	93.25
383.761	85.25
383.986	89.25
384.211	91.25
384.436	88.25
384.662	84.25
384.887	88.25
385.112	92.25
385.337	104.25
385.562	85.25
385.787	86.25
386.013	97.25
386.238	95.25
386.463	91.25
386.688	84.25
386.913	78.25
387.138	81.25
387.363	77.25
387.588	71.25
387.813	88.25
388.038	80.25
388.263	85.25
388.488	70.25
388.713	85.25
388.938	78.25
389.163	82.25
389.387	88.25
389.612	82.25
389.837	91.25
390.062	91.25
390.287	88.25
390.512	101.25
390.736	78.25
390.961	88.25
391.186	92.25
391.411	92.25
391.636	86.25
391.86	90.25
392.085	74.25
392.31	77.25
392.534	86.25
392.759	82.25
392.984	97.25
393.208	84.25
393.433	87.25
393.658	83.25
393.882	79.25
394.107	68.25
394.331	81.25
394.556	94.25
394.78	83.25
395.005	94.25
395.229	81.25
395.454	71.25
395.678	82.25
395.903	88.25
396.127	84.25
396.352	67.25
396.576	95.25
396.801	87.25
397.025	92.25
397.249	93.25
397.474	101.25
397.698	83.25
397.922	88.25
398.147	83.25
398.371	70.25
398.595	90.25
398.82	96.25
399.044	84.25
399.268	94.25
399.492	75.25
399.717	70.25
399.941	86.25
400.165	80.25
400.389	76.25
400.613	74.25
400.837	73.25
401.062	95.25
401.286	85.25
401.51	76.25
401.734	93.25
401.958	81.25
402.182	88.25
402.406	89.25
402.63	87.25
402.854	80.25
403.078	86.25
403.302	85.25
403.526	86.25
403.75	92.25
403.974	84.25
404.198	95.25
404.422	93.25
404.645	87.25
404.869	92.25
405.093	97.25
405.317	90.25
405.541	88.25
405.765	80.25
405.988	85.25
406.212	79.25
406.436	77.25
406.66	87.25
406.883	95.25
407.107	95.25
407.331	113.25
407.555	98.25
407.778	96.25
408.002	85.25
408.226	74.25
408.449	79.25
408.673	80.25
408.896	83.25
409.12	96.25
409.344	92.25
409.567	83.25
409.791	95.25
410.014	82.25
410.238	96.25
410.461	82.25
410.685	93.25
410.908	95.25
411.132	79.25
411.355	99.25
411.578	96.25
411.802	94.25
412.025	93.25
412.249	85.25
412.472	88.25
412.695	99.25
412.919	82.25
413.142	89.25
413.365	85.25
413.589	107.25
413.812	95.25
414.035	84.25
414.258	94.25
414.482	83.25
414.705	89.25
414.928	95.25
415.151	101.25
415.374	98.25
415.597	90.25
415.821	91.25
416.044	98.25
416.267	88.25
416.49	95.25
416.713	91.25
416.936	93.25
417.159	91.25
417.382	88.25
417.605	93.25
417.828	82.25
418.051	100.25
418.274	83.25
418.497	89.25
418.72	79.25
418.943	87.25
419.166	100.25
419.389	79.25
419.611	80.25
419.834	102.25
420.057	96.25
420.28	79.25
420.503	95.25
420.726	92.25
420.948	92.25
421.171	93.25
421.394	94.25
421.617	104.25
421.839	87.25
422.062	84.25
422.285	95.25
422.507	96.25
422.73	99.25
422.953	80.25
423.175	87.25
423.398	91.25
423.621	80.25
423.843	89.25
424.066	96.25
424.288	96.25
424.511	100.25
424.733	81.25
424.956	102.25
425.178	95.25
425.401	86.25
425.623	88.25
425.846	96.25
426.068	86.25
426.291	90.25
426.513	89.25
426.735	91.25
426.958	96.25
427.18	95.25
427.402	111.25
427.625	88.25
427.847	99.25
428.069	91.25
428.292	97.25
428.514	90.25
428.736	85.25
428.958	75.25
429.181	93.25
429.403	86.25
429.625	83.25
429.847	81.25
430.069	100.25
430.292	100.25
430.514	103.25
430.736	90.25
430.958	87.25
431.18	97.25
431.402	102.25
431.624	85.25
431.846	89.25
432.068	95.25
432.29	86.25
432.512	80.25
432.734	93.25
432.956	94.25
433.178	88.25
433.4	92.25
433.622	98.25
433.844	99.25
434.066	82.25
434.287	88.25
434.509	96.25
434.731	81.25
434.953	95.25
435.175	90.25
435.397	96.25
435.618	88.25
435.84	96.25
436.062	89.25
436.284	99.25
436.505	100.25
436.727	98.25
436.949	105.25
437.17	94.25
437.392	94.25
437.614	80.25
437.835	82.25
438.057	74.25
438.278	80.25
438.5	89.25
438.721	102.25
438.943	96.25
439.165	89.25
439.386	88.25
439.608	89.25
439.829	95.25
440.05	96.25
440.272	97.25
440.493	87.25
440.715	96.25
440.936	93.25
441.158	86.25
441.379	91.25
441.6	84.25
441.822	102.25
442.043	89.25
442.264	96.25
442.486	90.25
442.707	102.25
442.928	83.25
443.149	95.25
443.371	98.25
443.592	85.25
443.813	94.25
444.034	93.25
444.255	89.25
444.476	99.25
444.698	94.25
444.919	91.25
445.14	205.25
445.361	139.25
445.582	103.25
445.803	110.25
446.024	102.25
446.245	99.25
446.466	99.25
446.687	100.25
446.908	100.25
447.129	94.25
447.35	95.25
447.571	98.25
447.792	100.25
448.013	83.25
448.234	84.25
448.455	95.25
448.675	91.25
448.896	90.25
449.117	96.25
449.338	91.25
449.559	100.25
449.779	92.25
450	86.25
450.221	85.25
450.442	97.25
450.662	102.25
450.883	96.25
451.104	91.25
451.324	91.25
451.545	86.25
451.766	90.25
451.986	89.25
452.207	87.25
452.428	102.25
452.648	85.25
452.869	91.25
453.089	86.25
453.31	105.25
453.53	71.25
453.751	90.25
453.971	81.25
454.192	84.25
454.412	94.25
454.633	110.25
454.853	98.25
455.073	96.25
455.294	88.25
455.514	86.25
455.734	88.25
455.955	82.25
456.175	81.25
456.395	82.25
456.616	85.25
456.836	91.25
457.056	87.25
457.276	67.25
457.497	76.25
457.717	82.25
457.937	73.25
458.157	90.25
458.377	82.25
458.598	84.25
458.818	85.25
459.038	88.25
459.258	89.25
459.478	78.25
459.698	95.25
459.918	90.25
460.138	83.25
460.358	82.25
460.578	90.25
460.798	83.25
461.018	88.25
461.238	86.25
461.458	96.25
461.678	83.25
461.898	80.25
462.118	87.25
462.338	98.25
462.558	98.25
462.777	88.25
462.997	95.25
463.217	100.25
463.437	83.25
463.657	86.25
463.876	72.25
464.096	68.25
464.316	69.25
464.536	95.25
464.755	92.25
464.975	85.25
465.195	68.25
465.414	103.25
465.634	89.25
465.854	84.25
466.073	89.25
466.293	99.25
466.512	103.25
466.732	73.25
466.951	94.25
467.171	105.25
467.391	78.25
467.61	99.25
467.829	95.25
468.049	88.25
468.268	99.25
468.488	90.25
468.707	82.25
468.927	75.25
469.146	86.25
469.365	90.25
469.585	90.25
469.804	107.25
470.023	97.25
470.243	90.25
470.462	86.25
470.681	87.25
470.901	82.25
471.12	80.25
471.339	99.25
471.558	93.25
471.777	97.25
471.997	96.25
472.216	88.25
472.435	94.25
472.654	82.25
472.873	81.25
473.092	86.25
473.311	87.25
473.53	88.25
473.749	94.25
473.968	81.25
474.187	94.25
474.406	90.25
474.625	91.25
474.844	91.25
475.063	87.25
475.282	89.25
475.501	91.25
475.72	89.25
475.939	79.25
476.158	82.25
476.377	92.25
476.596	92.25
476.814	91.25
477.033	105.25
477.252	78.25
477.471	93.25
477.69	83.25
477.908	106.25
478.127	100.25
478.346	91.25
478.564	91.25
478.783	90.25
479.002	88.25
479.22	87.25
479.439	84.25
479.658	90.25
479.876	91.25
480.095	101.25
480.313	94.25
480.532	94.25
480.751	100.25
480.969	107.25
481.188	92.25
481.406	80.25
481.624	85.25
481.843	80.25
482.061	71.25
482.28	84.25
482.498	81.25
482.717	101.25
482.935	88.25
483.153	97.25
483.372	103.25
483.59	87.25
483.808	98.25
484.027	89.25
484.245	87.25
484.463	91.25
484.681	93.25
484.9	109.25
485.118	110.25
485.336	76.25
485.554	92.25
485.772	86.25
485.99	84.25
486.209	81.25
486.427	90.25
486.645	79.25
486.863	91.25
487.081	90.25
487.299	91.25
487.517	103.25
487.735	104.25
487.953	112.25
488.171	114.25
488.389	103.25
488.607	108.25
488.825	96.25
489.043	96.25
489.261	104.25
489.479	101.25
489.696	92.25
489.914	116.25
490.132	108.25
490.35	119.25
490.568	107.25
490.786	110.25
491.003	99.25
491.221	105.25
491.439	101.25
491.657	118.25
491.874	118.25
492.092	132.25
492.31	114.25
492.527	129.25
492.745	105.25
492.963	102.25
493.18	116.25
493.398	99.25
493.615	91.25
493.833	104.25
494.05	114.25
494.268	106.25
494.485	116.25
494.703	113.25
494.92	103.25
495.138	101.25
495.355	104.25
495.573	92.25
495.79	98.25
496.008	99.25
496.225	106.25
496.442	103.25
496.66	94.25
496.877	102.25
497.094	115.25
497.312	93.25
497.529	109.25
497.746	112.25
497.963	98.25
498.181	90.25
498.398	82.25
498.615	67.25
498.832	79.25
499.049	81.25
499.267	92.25
499.484	96.25
499.701	100.25
499.918	95.25
500.135	95.25
500.352	99.25
500.569	95.25
500.786	107.25
501.003	98.25
501.22	85.25
501.437	95.25
501.654	101.25
501.871	95.25
502.088	85.25
502.305	96.25
502.522	107.25
502.739	92.25
502.956	88.25
503.172	92.25
503.389	89.25
503.606	96.25
503.823	89.25
504.04	81.25
504.256	96.25
504.473	82.25
504.69	97.25
504.907	99.25
505.123	98.25
505.34	91.25
505.557	90.25
505.773	114.25
505.99	110.25
506.207	91.25
506.423	88.25
506.64	87.25
506.856	86.25
507.073	92.25
507.289	98.25
507.506	103.25
507.722	98.25
507.939	84.25
508.155	106.25
508.372	85.25
508.588	98.25
508.805	97.25
509.021	81.25
509.238	88.25
509.454	96.25
509.67	91.25
509.887	63.25
510.103	82.25
510.319	83.25
510.536	86.25
510.752	80.25
510.968	93.25
511.184	75.25
511.401	91.25
511.617	85.25
511.833	84.25
512.049	97.25
512.265	76.25
512.481	83.25
512.698	84.25
512.914	79.25
513.13	92.25
513.346	83.25
513.562	83.25
513.778	88.25
513.994	86.25
514.21	79.25
514.426	75.25
514.642	86.25
514.858	92.25
515.074	82.25
515.29	82.25
515.506	73.25
515.721	96.25
515.937	72.25
516.153	95.25
516.369	85.25
516.585	91.25
516.801	82.25
517.016	83.25
517.232	94.25
517.448	82.25
517.664	94.25
517.879	59.25
518.095	78.25
