Data from Location5.07152019.Energy5.Lamp.07192019.3%Agarose_HRD10591_16-02-44-629.txt Node
Date: Fri Jul 19 16:02:44 EDT 2019
User: cochatt
Spectrometer: HR+D1059
Trigger mode: 1
Integration Time (sec): 1.000000E-1
Scans to average: 1
Electric dark correction enabled: true
Nonlinearity correction enabled: false
Boxcar width: 0
XAxis mode: Wavelengths
Number of Pixels in Spectrum: 2048
>>>>>Begin Spectral Data<<<<<
223.165	-21.44
223.4	-21.44
223.635	-21.44
223.869	-4.44
224.104	-21.44
224.338	-14.44
224.573	-13.44
224.808	-27.44
225.042	-4.44
225.277	-8.44
225.511	0.56
225.746	13.56
225.98	-2.44
226.215	7.56
226.449	20.56
226.683	27.56
226.918	25.56
227.152	22.56
227.387	28.56
227.621	23.56
227.856	25.56
228.09	38.56
228.324	49.56
228.559	43.56
228.793	49.56
229.027	54.56
229.262	75.56
229.496	70.56
229.73	62.56
229.964	65.56
230.199	70.56
230.433	78.56
230.667	67.56
230.901	68.56
231.136	68.56
231.37	83.56
231.604	93.56
231.838	76.56
232.072	70.56
232.306	62.56
232.541	76.56
232.775	71.56
233.009	70.56
233.243	76.56
233.477	85.56
233.711	76.56
233.945	89.56
234.179	76.56
234.413	70.56
234.647	93.56
234.881	77.56
235.115	72.56
235.349	68.56
235.583	68.56
235.817	68.56
236.051	83.56
236.285	81.56
236.519	75.56
236.753	69.56
236.987	79.56
237.221	78.56
237.455	72.56
237.689	74.56
237.922	82.56
238.156	74.56
238.39	80.56
238.624	83.56
238.858	89.56
239.091	70.56
239.325	71.56
239.559	67.56
239.793	96.56
240.027	72.56
240.26	89.56
240.494	66.56
240.728	74.56
240.961	85.56
241.195	68.56
241.429	73.56
241.662	75.56
241.896	69.56
242.13	77.56
242.363	72.56
242.597	84.56
242.83	75.56
243.064	79.56
243.298	78.56
243.531	77.56
243.765	60.56
243.998	92.56
244.232	67.56
244.465	80.56
244.699	81.56
244.932	79.56
245.166	78.56
245.399	83.56
245.633	69.56
245.866	68.56
246.099	84.56
246.333	76.56
246.566	79.56
246.8	82.56
247.033	68.56
247.266	67.56
247.5	79.56
247.733	76.56
247.966	73.56
248.2	74.56
248.433	81.56
248.666	72.56
248.899	80.56
249.133	69.56
249.366	83.56
249.599	79.56
249.832	72.56
250.066	67.56
250.299	67.56
250.532	58.56
250.765	76.56
250.998	74.56
251.231	79.56
251.465	71.56
251.698	73.56
251.931	57.56
252.164	80.56
252.397	69.56
252.63	63.56
252.863	79.56
253.096	65.56
253.329	71.56
253.562	64.56
253.795	93.56
254.028	75.56
254.261	78.56
254.494	73.56
254.727	79.56
254.96	91.56
255.193	71.56
255.426	87.56
255.659	73.56
255.892	83.56
256.124	82.56
256.357	75.56
256.59	76.56
256.823	75.56
257.056	78.56
257.289	82.56
257.521	78.56
257.754	93.56
257.987	79.56
258.22	77.56
258.452	72.56
258.685	97.56
258.918	69.56
259.151	86.56
259.383	78.56
259.616	76.56
259.849	86.56
260.081	67.56
260.314	77.56
260.547	84.56
260.779	70.56
261.012	80.56
261.244	81.56
261.477	84.56
261.71	79.56
261.942	65.56
262.175	76.56
262.407	81.56
262.64	86.56
262.872	91.56
263.105	78.56
263.337	86.56
263.57	83.56
263.802	62.56
264.035	87.56
264.267	79.56
264.499	74.56
264.732	81.56
264.964	87.56
265.197	72.56
265.429	80.56
265.661	95.56
265.894	82.56
266.126	82.56
266.358	80.56
266.591	78.56
266.823	77.56
267.055	66.56
267.287	74.56
267.52	74.56
267.752	84.56
267.984	86.56
268.216	80.56
268.448	80.56
268.681	76.56
268.913	78.56
269.145	84.56
269.377	77.56
269.609	84.56
269.841	80.56
270.073	71.56
270.306	88.56
270.538	89.56
270.77	69.56
271.002	86.56
271.234	83.56
271.466	76.56
271.698	83.56
271.93	57.56
272.162	86.56
272.394	79.56
272.626	85.56
272.858	84.56
273.09	80.56
273.322	75.56
273.553	76.56
273.785	83.56
274.017	66.56
274.249	81.56
274.481	82.56
274.713	91.56
274.945	79.56
275.176	78.56
275.408	75.56
275.64	79.56
275.872	77.56
276.104	80.56
276.335	92.56
276.567	78.56
276.799	77.56
277.031	86.56
277.262	82.56
277.494	85.56
277.726	86.56
277.957	78.56
278.189	84.56
278.421	60.56
278.652	88.56
278.884	81.56
279.115	79.56
279.347	83.56
279.579	98.56
279.81	82.56
280.042	98.56
280.273	96.56
280.505	81.56
280.736	80.56
280.968	76.56
281.199	87.56
281.431	77.56
281.662	77.56
281.894	94.56
282.125	82.56
282.356	71.56
282.588	77.56
282.819	89.56
283.051	93.56
283.282	93.56
283.513	85.56
283.745	80.56
283.976	92.56
284.207	92.56
284.439	90.56
284.67	94.56
284.901	80.56
285.132	81.56
285.364	78.56
285.595	77.56
285.826	84.56
286.057	70.56
286.288	82.56
286.52	89.56
286.751	87.56
286.982	94.56
287.213	76.56
287.444	68.56
287.675	86.56
287.906	79.56
288.138	83.56
288.369	89.56
288.6	91.56
288.831	78.56
289.062	101.56
289.293	90.56
289.524	91.56
289.755	80.56
289.986	80.56
290.217	94.56
290.448	84.56
290.679	92.56
290.91	97.56
291.141	71.56
291.371	84.56
291.602	90.56
291.833	68.56
292.064	100.56
292.295	97.56
292.526	77.56
292.757	84.56
292.987	85.56
293.218	74.56
293.449	91.56
293.68	74.56
293.91	83.56
294.141	83.56
294.372	91.56
294.603	74.56
294.833	69.56
295.064	85.56
295.295	88.56
295.525	100.56
295.756	75.56
295.987	77.56
296.217	85.56
296.448	75.56
296.679	90.56
296.909	88.56
297.14	81.56
297.37	95.56
297.601	89.56
297.831	81.56
298.062	81.56
298.292	87.56
298.523	79.56
298.753	94.56
298.984	87.56
299.214	86.56
299.445	103.56
299.675	91.56
299.905	83.56
300.136	95.56
300.366	84.56
300.597	83.56
300.827	83.56
301.057	83.56
301.288	95.56
301.518	86.56
301.748	94.56
301.979	92.56
302.209	90.56
302.439	83.56
302.669	94.56
302.9	79.56
303.13	87.56
303.36	79.56
303.59	78.56
303.82	82.56
304.051	78.56
304.281	87.56
304.511	87.56
304.741	91.56
304.971	71.56
305.201	96.56
305.431	95.56
305.661	92.56
305.891	90.56
306.121	96.56
306.352	78.56
306.582	87.56
306.812	83.56
307.042	87.56
307.272	84.56
307.502	94.56
307.731	89.56
307.961	92.56
308.191	76.56
308.421	89.56
308.651	77.56
308.881	96.56
309.111	90.56
309.341	82.56
309.571	93.56
309.8	84.56
310.03	103.56
310.26	89.56
310.49	93.56
310.72	92.56
310.949	94.56
311.179	82.56
311.409	84.56
311.639	92.56
311.868	83.56
312.098	76.56
312.328	72.56
312.557	107.56
312.787	71.56
313.017	86.56
313.246	93.56
313.476	90.56
313.706	93.56
313.935	81.56
314.165	85.56
314.394	101.56
314.624	84.56
314.853	96.56
315.083	79.56
315.312	79.56
315.542	83.56
315.771	86.56
316.001	85.56
316.23	90.56
316.46	98.56
316.689	88.56
316.919	98.56
317.148	88.56
317.377	95.56
317.607	79.56
317.836	86.56
318.065	83.56
318.295	86.56
318.524	89.56
318.753	78.56
318.983	83.56
319.212	89.56
319.441	83.56
319.67	81.56
319.9	91.56
320.129	67.56
320.358	76.56
320.587	95.56
320.816	89.56
321.046	84.56
321.275	86.56
321.504	90.56
321.733	80.56
321.962	84.56
322.191	95.56
322.42	79.56
322.649	99.56
322.878	82.56
323.108	83.56
323.337	82.56
323.566	90.56
323.795	90.56
324.024	88.56
324.253	100.56
324.482	101.56
324.71	86.56
324.939	93.56
325.168	95.56
325.397	84.56
325.626	81.56
325.855	88.56
326.084	83.56
326.313	93.56
326.542	94.56
326.77	83.56
326.999	97.56
327.228	96.56
327.457	87.56
327.686	90.56
327.914	91.56
328.143	85.56
328.372	78.56
328.6	87.56
328.829	94.56
329.058	97.56
329.287	90.56
329.515	87.56
329.744	87.56
329.972	82.56
330.201	85.56
330.43	93.56
330.658	91.56
330.887	83.56
331.115	93.56
331.344	88.56
331.572	103.56
331.801	87.56
332.03	85.56
332.258	80.56
332.486	90.56
332.715	85.56
332.943	94.56
333.172	84.56
333.4	84.56
333.629	87.56
333.857	90.56
334.085	96.56
334.314	94.56
334.542	94.56
334.771	93.56
334.999	98.56
335.227	81.56
335.455	77.56
335.684	92.56
335.912	103.56
336.14	89.56
336.369	89.56
336.597	81.56
336.825	86.56
337.053	107.56
337.281	90.56
337.51	95.56
337.738	93.56
337.966	89.56
338.194	101.56
338.422	82.56
338.65	98.56
338.878	107.56
339.106	82.56
339.334	84.56
339.562	70.56
339.79	87.56
340.018	70.56
340.246	84.56
340.474	89.56
340.702	93.56
340.93	86.56
341.158	86.56
341.386	84.56
341.614	74.56
341.842	84.56
342.07	81.56
342.298	101.56
342.526	88.56
342.754	96.56
342.981	91.56
343.209	87.56
343.437	86.56
343.665	92.56
343.893	75.56
344.12	94.56
344.348	83.56
344.576	94.56
344.804	78.56
345.031	90.56
345.259	92.56
345.487	89.56
345.714	94.56
345.942	89.56
346.17	95.56
346.397	91.56
346.625	75.56
346.853	85.56
347.08	88.56
347.308	91.56
347.535	97.56
347.763	97.56
347.99	87.56
348.218	97.56
348.445	103.56
348.673	97.56
348.9	105.56
349.128	97.56
349.355	92.56
349.583	96.56
349.81	85.56
350.037	89.56
350.265	98.56
350.492	82.56
350.72	87.56
350.947	85.56
351.174	78.56
351.402	86.56
351.629	82.56
351.856	86.56
352.083	79.56
352.311	88.56
352.538	101.56
352.765	81.56
352.992	77.56
353.22	85.56
353.447	93.56
353.674	90.56
353.901	90.56
354.128	94.56
354.355	99.56
354.583	79.56
354.81	81.56
355.037	98.56
355.264	94.56
355.491	99.56
355.718	92.56
355.945	96.56
356.172	95.56
356.399	106.56
356.626	94.56
356.853	86.56
357.08	88.56
357.307	82.56
357.534	81.56
357.761	88.56
357.988	83.56
358.215	72.56
358.441	95.56
358.668	94.56
358.895	87.56
359.122	94.56
359.349	87.56
359.576	86.56
359.802	81.56
360.029	87.56
360.256	78.56
360.483	100.56
360.709	83.56
360.936	92.56
361.163	82.56
361.39	85.56
361.616	91.56
361.843	70.56
362.07	84.56
362.296	76.56
362.523	85.56
362.749	86.56
362.976	89.56
363.203	93.56
363.429	87.56
363.656	85.56
363.882	74.56
364.109	89.56
364.335	99.56
364.562	96.56
364.788	79.56
365.015	93.56
365.241	95.56
365.468	86.56
365.694	81.56
365.92	83.56
366.147	83.56
366.373	87.56
366.599	78.56
366.826	102.56
367.052	84.56
367.278	87.56
367.505	80.56
367.731	97.56
367.957	97.56
368.184	92.56
368.41	85.56
368.636	81.56
368.862	99.56
369.089	94.56
369.315	84.56
369.541	90.56
369.767	84.56
369.993	89.56
370.219	79.56
370.445	92.56
370.672	85.56
370.898	84.56
371.124	90.56
371.35	83.56
371.576	97.56
371.802	83.56
372.028	90.56
372.254	93.56
372.48	89.56
372.706	82.56
372.932	98.56
373.158	102.56
373.384	91.56
373.61	114.56
373.835	92.56
374.061	86.56
374.287	76.56
374.513	112.56
374.739	78.56
374.965	82.56
375.191	74.56
375.416	85.56
375.642	84.56
375.868	90.56
376.094	101.56
376.319	83.56
376.545	92.56
376.771	87.56
376.997	83.56
377.222	86.56
377.448	106.56
377.674	77.56
377.899	90.56
378.125	81.56
378.35	96.56
378.576	86.56
378.802	86.56
379.027	91.56
379.253	84.56
379.478	94.56
379.704	77.56
379.929	96.56
380.155	89.56
380.38	74.56
380.606	91.56
380.831	85.56
381.057	96.56
381.282	93.56
381.507	99.56
381.733	91.56
381.958	89.56
382.184	85.56
382.409	93.56
382.634	82.56
382.86	75.56
383.085	92.56
383.31	93.56
383.535	78.56
383.761	80.56
383.986	98.56
384.211	93.56
384.436	81.56
384.662	86.56
384.887	95.56
385.112	93.56
385.337	100.56
385.562	90.56
385.787	92.56
386.013	99.56
386.238	98.56
386.463	93.56
386.688	98.56
386.913	99.56
387.138	91.56
387.363	98.56
387.588	101.56
387.813	90.56
388.038	90.56
388.263	91.56
388.488	105.56
388.713	86.56
388.938	84.56
389.163	81.56
389.387	90.56
389.612	99.56
389.837	76.56
390.062	89.56
390.287	95.56
390.512	96.56
390.736	82.56
390.961	77.56
391.186	77.56
391.411	97.56
391.636	90.56
391.86	101.56
392.085	90.56
392.31	86.56
392.534	91.56
392.759	100.56
392.984	87.56
393.208	96.56
393.433	94.56
393.658	90.56
393.882	108.56
394.107	83.56
394.331	93.56
394.556	101.56
394.78	84.56
395.005	89.56
395.229	88.56
395.454	86.56
395.678	88.56
395.903	94.56
396.127	84.56
396.352	93.56
396.576	97.56
396.801	107.56
397.025	87.56
397.249	85.56
397.474	97.56
397.698	83.56
397.922	86.56
398.147	94.56
398.371	86.56
398.595	92.56
398.82	100.56
399.044	100.56
399.268	105.56
399.492	93.56
399.717	97.56
399.941	116.56
400.165	92.56
400.389	97.56
400.613	88.56
400.837	94.56
401.062	97.56
401.286	98.56
401.51	107.56
401.734	84.56
401.958	86.56
402.182	80.56
402.406	91.56
402.63	94.56
402.854	105.56
403.078	100.56
403.302	95.56
403.526	95.56
403.75	102.56
403.974	94.56
404.198	95.56
404.422	106.56
404.645	87.56
404.869	88.56
405.093	101.56
405.317	100.56
405.541	104.56
405.765	90.56
405.988	89.56
406.212	89.56
406.436	101.56
406.66	102.56
406.883	97.56
407.107	97.56
407.331	97.56
407.555	91.56
407.778	112.56
408.002	108.56
408.226	110.56
408.449	98.56
408.673	91.56
408.896	106.56
409.12	99.56
409.344	93.56
409.567	94.56
409.791	107.56
410.014	108.56
410.238	97.56
410.461	87.56
410.685	90.56
410.908	95.56
411.132	95.56
411.355	110.56
411.578	115.56
411.802	100.56
412.025	96.56
412.249	106.56
412.472	107.56
412.695	99.56
412.919	81.56
413.142	97.56
413.365	97.56
413.589	85.56
413.812	87.56
414.035	95.56
414.258	90.56
414.482	81.56
414.705	89.56
414.928	80.56
415.151	83.56
415.374	96.56
415.597	90.56
415.821	89.56
416.044	88.56
416.267	98.56
416.49	78.56
416.713	102.56
416.936	82.56
417.159	99.56
417.382	96.56
417.605	101.56
417.828	93.56
418.051	78.56
418.274	92.56
418.497	83.56
418.72	84.56
418.943	97.56
419.166	103.56
419.389	99.56
419.611	90.56
419.834	98.56
420.057	101.56
420.28	89.56
420.503	95.56
420.726	90.56
420.948	83.56
421.171	96.56
421.394	92.56
421.617	91.56
421.839	95.56
422.062	82.56
422.285	97.56
422.507	105.56
422.73	97.56
422.953	90.56
423.175	107.56
423.398	102.56
423.621	95.56
423.843	98.56
424.066	77.56
424.288	100.56
424.511	90.56
424.733	83.56
424.956	101.56
425.178	107.56
425.401	94.56
425.623	102.56
425.846	94.56
426.068	78.56
426.291	82.56
426.513	94.56
426.735	98.56
426.958	92.56
427.18	77.56
427.402	79.56
427.625	96.56
427.847	84.56
428.069	92.56
428.292	79.56
428.514	85.56
428.736	78.56
428.958	80.56
429.181	72.56
429.403	94.56
429.625	94.56
429.847	90.56
430.069	103.56
430.292	99.56
430.514	91.56
430.736	101.56
430.958	99.56
431.18	89.56
431.402	94.56
431.624	83.56
431.846	103.56
432.068	88.56
432.29	100.56
432.512	100.56
432.734	105.56
432.956	88.56
433.178	90.56
433.4	87.56
433.622	96.56
433.844	102.56
434.066	94.56
434.287	92.56
434.509	98.56
434.731	87.56
434.953	90.56
435.175	87.56
435.397	98.56
435.618	83.56
435.84	93.56
436.062	94.56
436.284	103.56
436.505	103.56
436.727	79.56
436.949	75.56
437.17	86.56
437.392	80.56
437.614	88.56
437.835	80.56
438.057	88.56
438.278	93.56
438.5	91.56
438.721	92.56
438.943	77.56
439.165	73.56
439.386	83.56
439.608	96.56
439.829	96.56
440.05	89.56
440.272	91.56
440.493	99.56
440.715	98.56
440.936	101.56
441.158	90.56
441.379	103.56
441.6	96.56
441.822	84.56
442.043	102.56
442.264	101.56
442.486	88.56
442.707	93.56
442.928	91.56
443.149	98.56
443.371	97.56
443.592	88.56
443.813	84.56
444.034	80.56
444.255	92.56
444.476	83.56
444.698	103.56
444.919	105.56
445.14	235.56
445.361	146.56
445.582	89.56
445.803	97.56
446.024	82.56
446.245	81.56
446.466	89.56
446.687	90.56
446.908	86.56
447.129	98.56
447.35	89.56
447.571	94.56
447.792	84.56
448.013	90.56
448.234	100.56
448.455	83.56
448.675	99.56
448.896	85.56
449.117	92.56
449.338	93.56
449.559	89.56
449.779	90.56
450	82.56
450.221	97.56
450.442	86.56
450.662	102.56
450.883	91.56
451.104	83.56
451.324	91.56
451.545	97.56
451.766	87.56
451.986	79.56
452.207	83.56
452.428	75.56
452.648	96.56
452.869	91.56
453.089	88.56
453.31	97.56
453.53	92.56
453.751	91.56
453.971	88.56
454.192	81.56
454.412	106.56
454.633	88.56
454.853	99.56
455.073	82.56
455.294	96.56
455.514	91.56
455.734	93.56
455.955	81.56
456.175	94.56
456.395	85.56
456.616	86.56
456.836	88.56
457.056	88.56
457.276	85.56
457.497	86.56
457.717	84.56
457.937	106.56
458.157	93.56
458.377	87.56
458.598	93.56
458.818	100.56
459.038	85.56
459.258	100.56
459.478	92.56
459.698	97.56
459.918	97.56
460.138	97.56
460.358	85.56
460.578	102.56
460.798	85.56
461.018	97.56
461.238	94.56
461.458	108.56
461.678	91.56
461.898	102.56
462.118	106.56
462.338	111.56
462.558	134.56
462.777	99.56
462.997	86.56
463.217	91.56
463.437	110.56
463.657	88.56
463.876	101.56
464.096	103.56
464.316	109.56
464.536	92.56
464.755	89.56
464.975	102.56
465.195	93.56
465.414	81.56
465.634	98.56
465.854	97.56
466.073	105.56
466.293	84.56
466.512	89.56
466.732	96.56
466.951	105.56
467.171	82.56
467.391	91.56
467.61	89.56
467.829	101.56
468.049	98.56
468.268	102.56
468.488	99.56
468.707	101.56
468.927	72.56
469.146	86.56
469.365	92.56
469.585	96.56
469.804	87.56
470.023	94.56
470.243	96.56
470.462	81.56
470.681	98.56
470.901	101.56
471.12	88.56
471.339	109.56
471.558	91.56
471.777	105.56
471.997	95.56
472.216	99.56
472.435	90.56
472.654	92.56
472.873	93.56
473.092	92.56
473.311	96.56
473.53	81.56
473.749	91.56
473.968	109.56
474.187	98.56
474.406	95.56
474.625	91.56
474.844	91.56
475.063	100.56
475.282	95.56
475.501	85.56
475.72	91.56
475.939	97.56
476.158	85.56
476.377	94.56
476.596	85.56
476.814	101.56
477.033	114.56
477.252	98.56
477.471	89.56
477.69	103.56
477.908	98.56
478.127	104.56
478.346	98.56
478.564	84.56
478.783	98.56
479.002	95.56
479.22	102.56
479.439	108.56
479.658	110.56
479.876	102.56
480.095	107.56
480.313	93.56
480.532	110.56
480.751	97.56
480.969	97.56
481.188	97.56
481.406	105.56
481.624	104.56
481.843	101.56
482.061	90.56
482.28	100.56
482.498	101.56
482.717	97.56
482.935	101.56
483.153	102.56
483.372	109.56
483.59	84.56
483.808	90.56
484.027	88.56
484.245	90.56
484.463	96.56
484.681	103.56
484.9	84.56
485.118	100.56
485.336	76.56
485.554	104.56
485.772	113.56
485.99	98.56
486.209	98.56
486.427	76.56
486.645	113.56
486.863	100.56
487.081	107.56
487.299	93.56
487.517	111.56
487.735	102.56
487.953	116.56
488.171	105.56
488.389	103.56
488.607	96.56
488.825	106.56
489.043	107.56
489.261	105.56
489.479	100.56
489.696	100.56
489.914	106.56
490.132	102.56
490.35	113.56
490.568	107.56
490.786	111.56
491.003	93.56
491.221	129.56
491.439	118.56
491.657	99.56
491.874	125.56
492.092	117.56
492.31	112.56
492.527	107.56
492.745	118.56
492.963	123.56
493.18	114.56
493.398	108.56
493.615	106.56
493.833	106.56
494.05	115.56
494.268	109.56
494.485	118.56
494.703	105.56
494.92	102.56
495.138	112.56
495.355	100.56
495.573	109.56
495.79	105.56
496.008	115.56
496.225	105.56
496.442	114.56
496.66	125.56
496.877	108.56
497.094	121.56
497.312	117.56
497.529	127.56
497.746	124.56
497.963	111.56
498.181	115.56
498.398	110.56
498.615	100.56
498.832	112.56
499.049	114.56
499.267	116.56
499.484	136.56
499.701	129.56
499.918	145.56
500.135	141.56
500.352	170.56
500.569	164.56
500.786	158.56
501.003	151.56
501.22	146.56
501.437	151.56
501.654	145.56
501.871	121.56
502.088	120.56
502.305	125.56
502.522	113.56
502.739	114.56
502.956	95.56
503.172	121.56
503.389	105.56
503.606	109.56
503.823	112.56
504.04	121.56
504.256	117.56
504.473	109.56
504.69	125.56
504.907	119.56
505.123	110.56
505.34	101.56
505.557	111.56
505.773	111.56
505.99	101.56
506.207	111.56
506.423	114.56
506.64	112.56
506.856	122.56
507.073	114.56
507.289	116.56
507.506	102.56
507.722	102.56
507.939	111.56
508.155	107.56
508.372	109.56
508.588	111.56
508.805	115.56
509.021	101.56
509.238	98.56
509.454	100.56
509.67	99.56
509.887	91.56
510.103	104.56
510.319	91.56
510.536	89.56
510.752	111.56
510.968	105.56
511.184	78.56
511.401	96.56
511.617	97.56
511.833	95.56
512.049	88.56
512.265	89.56
512.481	110.56
512.698	102.56
512.914	91.56
513.13	91.56
513.346	92.56
513.562	109.56
513.778	106.56
513.994	101.56
514.21	105.56
514.426	97.56
514.642	105.56
514.858	101.56
515.074	103.56
515.29	83.56
515.506	109.56
515.721	101.56
515.937	103.56
