Data from Location5.07152019.Energy5.Lamp.07192019.3%Agarose_HRD10591_15-37-21-387.txt Node
Date: Fri Jul 19 15:37:21 EDT 2019
User: cochatt
Spectrometer: HR+D1059
Trigger mode: 1
Integration Time (sec): 1.000000E-1
Scans to average: 1
Electric dark correction enabled: true
Nonlinearity correction enabled: false
Boxcar width: 0
XAxis mode: Wavelengths
Number of Pixels in Spectrum: 2048
>>>>>Begin Spectral Data<<<<<
223.165	-27.19
223.4	-27.19
223.635	-27.19
223.869	-16.19
224.104	-16.19
224.338	-20.19
224.573	-6.19
224.808	-19.19
225.042	-4.19
225.277	-10.19
225.511	3.81
225.746	-16.19
225.98	3.81
226.215	16.81
226.449	6.81
226.683	27.81
226.918	35.81
227.152	40.81
227.387	38.81
227.621	37.81
227.856	51.81
228.09	43.81
228.324	52.81
228.559	54.81
228.793	49.81
229.027	64.81
229.262	67.81
229.496	67.81
229.73	71.81
229.964	73.81
230.199	64.81
230.433	68.81
230.667	75.81
230.901	78.81
231.136	84.81
231.37	81.81
231.604	71.81
231.838	72.81
232.072	76.81
232.306	88.81
232.541	88.81
232.775	93.81
233.009	78.81
233.243	80.81
233.477	69.81
233.711	86.81
233.945	81.81
234.179	70.81
234.413	90.81
234.647	79.81
234.881	83.81
235.115	65.81
235.349	86.81
235.583	86.81
235.817	82.81
236.051	85.81
236.285	75.81
236.519	63.81
236.753	70.81
236.987	84.81
237.221	79.81
237.455	65.81
237.689	76.81
237.922	74.81
238.156	74.81
238.39	71.81
238.624	68.81
238.858	71.81
239.091	68.81
239.325	88.81
239.559	70.81
239.793	83.81
240.027	70.81
240.26	68.81
240.494	79.81
240.728	87.81
240.961	86.81
241.195	79.81
241.429	81.81
241.662	86.81
241.896	66.81
242.13	89.81
242.363	92.81
242.597	75.81
242.83	86.81
243.064	66.81
243.298	82.81
243.531	92.81
243.765	84.81
243.998	77.81
244.232	98.81
244.465	69.81
244.699	83.81
244.932	73.81
245.166	71.81
245.399	84.81
245.633	82.81
245.866	66.81
246.099	79.81
246.333	83.81
246.566	82.81
246.8	79.81
247.033	66.81
247.266	86.81
247.5	78.81
247.733	89.81
247.966	69.81
248.2	81.81
248.433	84.81
248.666	70.81
248.899	66.81
249.133	79.81
249.366	80.81
249.599	78.81
249.832	85.81
250.066	77.81
250.299	88.81
250.532	98.81
250.765	80.81
250.998	84.81
251.231	88.81
251.465	82.81
251.698	82.81
251.931	84.81
252.164	79.81
252.397	85.81
252.63	80.81
252.863	87.81
253.096	71.81
253.329	84.81
253.562	86.81
253.795	84.81
254.028	94.81
254.261	71.81
254.494	73.81
254.727	91.81
254.96	80.81
255.193	82.81
255.426	76.81
255.659	80.81
255.892	72.81
256.124	69.81
256.357	93.81
256.59	90.81
256.823	100.81
257.056	81.81
257.289	73.81
257.521	88.81
257.754	78.81
257.987	76.81
258.22	72.81
258.452	83.81
258.685	86.81
258.918	84.81
259.151	60.81
259.383	74.81
259.616	82.81
259.849	77.81
260.081	74.81
260.314	85.81
260.547	81.81
260.779	75.81
261.012	87.81
261.244	75.81
261.477	88.81
261.71	75.81
261.942	83.81
262.175	91.81
262.407	89.81
262.64	76.81
262.872	80.81
263.105	86.81
263.337	92.81
263.57	83.81
263.802	65.81
264.035	69.81
264.267	92.81
264.499	90.81
264.732	88.81
264.964	69.81
265.197	76.81
265.429	71.81
265.661	82.81
265.894	86.81
266.126	74.81
266.358	65.81
266.591	82.81
266.823	82.81
267.055	85.81
267.287	84.81
267.52	91.81
267.752	86.81
267.984	81.81
268.216	92.81
268.448	92.81
268.681	75.81
268.913	77.81
269.145	88.81
269.377	73.81
269.609	76.81
269.841	80.81
270.073	79.81
270.306	90.81
270.538	75.81
270.77	86.81
271.002	80.81
271.234	79.81
271.466	72.81
271.698	85.81
271.93	68.81
272.162	68.81
272.394	88.81
272.626	94.81
272.858	82.81
273.09	85.81
273.322	74.81
273.553	86.81
273.785	87.81
274.017	90.81
274.249	81.81
274.481	73.81
274.713	83.81
274.945	82.81
275.176	71.81
275.408	88.81
275.64	81.81
275.872	77.81
276.104	84.81
276.335	91.81
276.567	76.81
276.799	89.81
277.031	80.81
277.262	76.81
277.494	82.81
277.726	69.81
277.957	77.81
278.189	94.81
278.421	96.81
278.652	80.81
278.884	87.81
279.115	73.81
279.347	82.81
279.579	89.81
279.81	78.81
280.042	75.81
280.273	78.81
280.505	84.81
280.736	75.81
280.968	83.81
281.199	75.81
281.431	80.81
281.662	71.81
281.894	74.81
282.125	68.81
282.356	75.81
282.588	76.81
282.819	80.81
283.051	89.81
283.282	95.81
283.513	106.81
283.745	89.81
283.976	100.81
284.207	76.81
284.439	81.81
284.67	77.81
284.901	86.81
285.132	85.81
285.364	66.81
285.595	85.81
285.826	83.81
286.057	92.81
286.288	96.81
286.52	83.81
286.751	91.81
286.982	78.81
287.213	92.81
287.444	84.81
287.675	68.81
287.906	78.81
288.138	90.81
288.369	75.81
288.6	89.81
288.831	73.81
289.062	78.81
289.293	62.81
289.524	82.81
289.755	82.81
289.986	86.81
290.217	76.81
290.448	87.81
290.679	85.81
290.91	93.81
291.141	85.81
291.371	91.81
291.602	85.81
291.833	86.81
292.064	79.81
292.295	82.81
292.526	88.81
292.757	92.81
292.987	97.81
293.218	78.81
293.449	80.81
293.68	82.81
293.91	89.81
294.141	76.81
294.372	90.81
294.603	74.81
294.833	71.81
295.064	84.81
295.295	80.81
295.525	81.81
295.756	83.81
295.987	84.81
296.217	82.81
296.448	89.81
296.679	97.81
296.909	75.81
297.14	90.81
297.37	81.81
297.601	77.81
297.831	85.81
298.062	79.81
298.292	86.81
298.523	83.81
298.753	95.81
298.984	91.81
299.214	80.81
299.445	82.81
299.675	95.81
299.905	87.81
300.136	82.81
300.366	81.81
300.597	83.81
300.827	70.81
301.057	80.81
301.288	75.81
301.518	113.81
301.748	81.81
301.979	94.81
302.209	84.81
302.439	86.81
302.669	90.81
302.9	73.81
303.13	100.81
303.36	90.81
303.59	83.81
303.82	91.81
304.051	73.81
304.281	85.81
304.511	88.81
304.741	92.81
304.971	79.81
305.201	87.81
305.431	90.81
305.661	90.81
305.891	87.81
306.121	88.81
306.352	86.81
306.582	80.81
306.812	95.81
307.042	83.81
307.272	71.81
307.502	91.81
307.731	86.81
307.961	95.81
308.191	95.81
308.421	95.81
308.651	82.81
308.881	85.81
309.111	82.81
309.341	68.81
309.571	101.81
309.8	87.81
310.03	74.81
310.26	89.81
310.49	87.81
310.72	77.81
310.949	102.81
311.179	82.81
311.409	77.81
311.639	95.81
311.868	74.81
312.098	84.81
312.328	79.81
312.557	97.81
312.787	79.81
313.017	74.81
313.246	89.81
313.476	91.81
313.706	82.81
313.935	91.81
314.165	84.81
314.394	89.81
314.624	88.81
314.853	83.81
315.083	87.81
315.312	82.81
315.542	94.81
315.771	93.81
316.001	91.81
316.23	73.81
316.46	77.81
316.689	81.81
316.919	90.81
317.148	82.81
317.377	87.81
317.607	89.81
317.836	102.81
318.065	86.81
318.295	89.81
318.524	88.81
318.753	84.81
318.983	72.81
319.212	85.81
319.441	71.81
319.67	76.81
319.9	74.81
320.129	59.81
320.358	77.81
320.587	66.81
320.816	88.81
321.046	68.81
321.275	80.81
321.504	88.81
321.733	83.81
321.962	87.81
322.191	87.81
322.42	84.81
322.649	101.81
322.878	90.81
323.108	85.81
323.337	88.81
323.566	97.81
323.795	96.81
324.024	76.81
324.253	89.81
324.482	88.81
324.71	102.81
324.939	85.81
325.168	79.81
325.397	94.81
325.626	99.81
325.855	97.81
326.084	91.81
326.313	82.81
326.542	78.81
326.77	84.81
326.999	86.81
327.228	95.81
327.457	92.81
327.686	85.81
327.914	85.81
328.143	90.81
328.372	85.81
328.6	74.81
328.829	88.81
329.058	86.81
329.287	87.81
329.515	84.81
329.744	100.81
329.972	76.81
330.201	94.81
330.43	90.81
330.658	83.81
330.887	76.81
331.115	87.81
331.344	86.81
331.572	87.81
331.801	104.81
332.03	83.81
332.258	78.81
332.486	75.81
332.715	77.81
332.943	74.81
333.172	79.81
333.4	78.81
333.629	80.81
333.857	73.81
334.085	82.81
334.314	89.81
334.542	76.81
334.771	72.81
334.999	87.81
335.227	87.81
335.455	90.81
335.684	84.81
335.912	80.81
336.14	82.81
336.369	83.81
336.597	91.81
336.825	90.81
337.053	77.81
337.281	86.81
337.51	83.81
337.738	80.81
337.966	73.81
338.194	82.81
338.422	76.81
338.65	84.81
338.878	90.81
339.106	79.81
339.334	90.81
339.562	79.81
339.79	81.81
340.018	84.81
340.246	91.81
340.474	83.81
340.702	90.81
340.93	83.81
341.158	72.81
341.386	77.81
341.614	84.81
341.842	75.81
342.07	95.81
342.298	93.81
342.526	86.81
342.754	88.81
342.981	86.81
343.209	80.81
343.437	67.81
343.665	89.81
343.893	75.81
344.12	84.81
344.348	76.81
344.576	80.81
344.804	80.81
345.031	76.81
345.259	101.81
345.487	75.81
345.714	87.81
345.942	72.81
346.17	77.81
346.397	75.81
346.625	90.81
346.853	77.81
347.08	96.81
347.308	90.81
347.535	81.81
347.763	72.81
347.99	77.81
348.218	80.81
348.445	85.81
348.673	81.81
348.9	89.81
349.128	80.81
349.355	96.81
349.583	98.81
349.81	90.81
350.037	90.81
350.265	95.81
350.492	88.81
350.72	91.81
350.947	89.81
351.174	91.81
351.402	82.81
351.629	89.81
351.856	76.81
352.083	89.81
352.311	86.81
352.538	74.81
352.765	86.81
352.992	83.81
353.22	83.81
353.447	73.81
353.674	73.81
353.901	91.81
354.128	95.81
354.355	95.81
354.583	89.81
354.81	83.81
355.037	87.81
355.264	72.81
355.491	75.81
355.718	93.81
355.945	76.81
356.172	86.81
356.399	93.81
356.626	86.81
356.853	74.81
357.08	83.81
357.307	84.81
357.534	80.81
357.761	80.81
357.988	100.81
358.215	84.81
358.441	86.81
358.668	69.81
358.895	81.81
359.122	85.81
359.349	79.81
359.576	86.81
359.802	100.81
360.029	94.81
360.256	84.81
360.483	76.81
360.709	89.81
360.936	86.81
361.163	82.81
361.39	76.81
361.616	82.81
361.843	91.81
362.07	73.81
362.296	83.81
362.523	73.81
362.749	73.81
362.976	92.81
363.203	89.81
363.429	73.81
363.656	87.81
363.882	83.81
364.109	84.81
364.335	83.81
364.562	87.81
364.788	90.81
365.015	91.81
365.241	91.81
365.468	82.81
365.694	81.81
365.92	83.81
366.147	79.81
366.373	76.81
366.599	88.81
366.826	82.81
367.052	84.81
367.278	79.81
367.505	79.81
367.731	91.81
367.957	81.81
368.184	70.81
368.41	73.81
368.636	82.81
368.862	77.81
369.089	100.81
369.315	87.81
369.541	87.81
369.767	81.81
369.993	81.81
370.219	85.81
370.445	90.81
370.672	84.81
370.898	73.81
371.124	76.81
371.35	80.81
371.576	103.81
371.802	101.81
372.028	81.81
372.254	88.81
372.48	79.81
372.706	94.81
372.932	79.81
373.158	66.81
373.384	83.81
373.61	86.81
373.835	72.81
374.061	97.81
374.287	87.81
374.513	80.81
374.739	86.81
374.965	89.81
375.191	74.81
375.416	69.81
375.642	76.81
375.868	72.81
376.094	110.81
376.319	78.81
376.545	82.81
376.771	76.81
376.997	80.81
377.222	63.81
377.448	85.81
377.674	86.81
377.899	93.81
378.125	95.81
378.35	77.81
378.576	84.81
378.802	99.81
379.027	85.81
379.253	85.81
379.478	79.81
379.704	85.81
379.929	84.81
380.155	86.81
380.38	90.81
380.606	92.81
380.831	96.81
381.057	100.81
381.282	72.81
381.507	74.81
381.733	90.81
381.958	87.81
382.184	76.81
382.409	84.81
382.634	85.81
382.86	77.81
383.085	92.81
383.31	87.81
383.535	94.81
383.761	74.81
383.986	87.81
384.211	67.81
384.436	89.81
384.662	88.81
384.887	91.81
385.112	81.81
385.337	92.81
385.562	85.81
385.787	84.81
386.013	95.81
386.238	86.81
386.463	91.81
386.688	90.81
386.913	83.81
387.138	83.81
387.363	92.81
387.588	86.81
387.813	93.81
388.038	90.81
388.263	96.81
388.488	76.81
388.713	89.81
388.938	74.81
389.163	89.81
389.387	92.81
389.612	72.81
389.837	76.81
390.062	93.81
390.287	80.81
390.512	90.81
390.736	76.81
390.961	94.81
391.186	107.81
391.411	93.81
391.636	82.81
391.86	84.81
392.085	84.81
392.31	85.81
392.534	79.81
392.759	76.81
392.984	86.81
393.208	81.81
393.433	94.81
393.658	83.81
393.882	82.81
394.107	90.81
394.331	95.81
394.556	76.81
394.78	79.81
395.005	96.81
395.229	99.81
395.454	83.81
395.678	92.81
395.903	84.81
396.127	92.81
396.352	102.81
396.576	92.81
396.801	79.81
397.025	87.81
397.249	87.81
397.474	82.81
397.698	93.81
397.922	90.81
398.147	86.81
398.371	83.81
398.595	76.81
398.82	70.81
399.044	72.81
399.268	95.81
399.492	93.81
399.717	88.81
399.941	89.81
400.165	94.81
400.389	79.81
400.613	86.81
400.837	87.81
401.062	81.81
401.286	74.81
401.51	101.81
401.734	74.81
401.958	88.81
402.182	85.81
402.406	91.81
402.63	97.81
402.854	85.81
403.078	86.81
403.302	82.81
403.526	91.81
403.75	84.81
403.974	84.81
404.198	95.81
404.422	94.81
404.645	91.81
404.869	86.81
405.093	101.81
405.317	81.81
405.541	84.81
405.765	84.81
405.988	90.81
406.212	80.81
406.436	77.81
406.66	95.81
406.883	87.81
407.107	92.81
407.331	89.81
407.555	90.81
407.778	90.81
408.002	90.81
408.226	82.81
408.449	97.81
408.673	92.81
408.896	98.81
409.12	90.81
409.344	83.81
409.567	74.81
409.791	83.81
410.014	86.81
410.238	90.81
410.461	92.81
410.685	93.81
410.908	86.81
411.132	92.81
411.355	88.81
411.578	92.81
411.802	96.81
412.025	89.81
412.249	94.81
412.472	84.81
412.695	87.81
412.919	82.81
413.142	96.81
413.365	99.81
413.589	101.81
413.812	87.81
414.035	92.81
414.258	88.81
414.482	85.81
414.705	72.81
414.928	97.81
415.151	87.81
415.374	101.81
415.597	86.81
415.821	98.81
416.044	88.81
416.267	82.81
416.49	93.81
416.713	84.81
416.936	87.81
417.159	76.81
417.382	86.81
417.605	81.81
417.828	89.81
418.051	105.81
418.274	97.81
418.497	86.81
418.72	98.81
418.943	85.81
419.166	101.81
419.389	96.81
419.611	88.81
419.834	94.81
420.057	96.81
420.28	88.81
420.503	96.81
420.726	101.81
420.948	86.81
421.171	77.81
421.394	91.81
421.617	89.81
421.839	89.81
422.062	101.81
422.285	102.81
422.507	79.81
422.73	96.81
422.953	80.81
423.175	96.81
423.398	93.81
423.621	83.81
423.843	100.81
424.066	82.81
424.288	87.81
424.511	87.81
424.733	82.81
424.956	93.81
425.178	95.81
425.401	83.81
425.623	80.81
425.846	88.81
426.068	81.81
426.291	96.81
426.513	88.81
426.735	94.81
426.958	91.81
427.18	99.81
427.402	99.81
427.625	97.81
427.847	93.81
428.069	88.81
428.292	91.81
428.514	88.81
428.736	79.81
428.958	105.81
429.181	104.81
429.403	103.81
429.625	82.81
429.847	91.81
430.069	98.81
430.292	91.81
430.514	88.81
430.736	98.81
430.958	80.81
431.18	76.81
431.402	89.81
431.624	92.81
431.846	93.81
432.068	90.81
432.29	80.81
432.512	88.81
432.734	91.81
432.956	96.81
433.178	93.81
433.4	96.81
433.622	98.81
433.844	89.81
434.066	84.81
434.287	97.81
434.509	79.81
434.731	87.81
434.953	80.81
435.175	88.81
435.397	78.81
435.618	99.81
435.84	78.81
436.062	88.81
436.284	84.81
436.505	76.81
436.727	79.81
436.949	82.81
437.17	86.81
437.392	112.81
437.614	82.81
437.835	86.81
438.057	80.81
438.278	91.81
438.5	99.81
438.721	92.81
438.943	103.81
439.165	76.81
439.386	90.81
439.608	102.81
439.829	98.81
440.05	104.81
440.272	104.81
440.493	97.81
440.715	90.81
440.936	92.81
441.158	99.81
441.379	94.81
441.6	90.81
441.822	98.81
442.043	95.81
442.264	94.81
442.486	93.81
442.707	84.81
442.928	91.81
443.149	103.81
443.371	106.81
443.592	101.81
443.813	93.81
444.034	105.81
444.255	91.81
444.476	95.81
444.698	84.81
444.919	103.81
445.14	228.81
445.361	154.81
445.582	89.81
445.803	94.81
446.024	98.81
446.245	104.81
446.466	89.81
446.687	100.81
446.908	111.81
447.129	107.81
447.35	94.81
447.571	105.81
447.792	99.81
448.013	91.81
448.234	100.81
448.455	91.81
448.675	89.81
448.896	102.81
449.117	88.81
449.338	93.81
449.559	92.81
449.779	87.81
450	84.81
450.221	84.81
450.442	96.81
450.662	93.81
450.883	89.81
451.104	81.81
451.324	101.81
451.545	85.81
451.766	95.81
451.986	82.81
452.207	90.81
452.428	82.81
452.648	88.81
452.869	83.81
453.089	85.81
453.31	94.81
453.53	88.81
453.751	79.81
453.971	87.81
454.192	80.81
454.412	83.81
454.633	98.81
454.853	95.81
455.073	92.81
455.294	95.81
455.514	98.81
455.734	87.81
455.955	79.81
456.175	84.81
456.395	95.81
456.616	88.81
456.836	70.81
457.056	78.81
457.276	91.81
457.497	78.81
457.717	92.81
457.937	97.81
458.157	93.81
458.377	96.81
458.598	84.81
458.818	89.81
459.038	90.81
459.258	79.81
459.478	89.81
459.698	81.81
459.918	86.81
460.138	82.81
460.358	90.81
460.578	75.81
460.798	95.81
461.018	98.81
461.238	84.81
461.458	91.81
461.678	88.81
461.898	77.81
462.118	90.81
462.338	83.81
462.558	83.81
462.777	86.81
462.997	73.81
463.217	85.81
463.437	85.81
463.657	100.81
463.876	96.81
464.096	82.81
464.316	81.81
464.536	89.81
464.755	80.81
464.975	92.81
465.195	84.81
465.414	84.81
465.634	79.81
465.854	73.81
466.073	99.81
466.293	91.81
466.512	91.81
466.732	95.81
466.951	91.81
467.171	103.81
467.391	90.81
467.61	88.81
467.829	93.81
468.049	85.81
468.268	89.81
468.488	90.81
468.707	89.81
468.927	98.81
469.146	79.81
469.365	91.81
469.585	94.81
469.804	89.81
470.023	103.81
470.243	97.81
470.462	97.81
470.681	89.81
470.901	101.81
471.12	97.81
471.339	99.81
471.558	98.81
471.777	96.81
471.997	99.81
472.216	97.81
472.435	89.81
472.654	87.81
472.873	94.81
473.092	83.81
473.311	92.81
473.53	90.81
473.749	86.81
473.968	78.81
474.187	80.81
474.406	100.81
474.625	80.81
474.844	87.81
475.063	86.81
475.282	90.81
475.501	94.81
475.72	87.81
475.939	97.81
476.158	84.81
476.377	104.81
476.596	80.81
476.814	80.81
477.033	91.81
477.252	87.81
477.471	89.81
477.69	105.81
477.908	100.81
478.127	82.81
478.346	84.81
478.564	85.81
478.783	96.81
479.002	105.81
479.22	107.81
479.439	82.81
479.658	82.81
479.876	89.81
480.095	90.81
480.313	102.81
480.532	82.81
480.751	76.81
480.969	90.81
481.188	84.81
481.406	85.81
481.624	96.81
481.843	83.81
482.061	95.81
482.28	74.81
482.498	79.81
482.717	84.81
482.935	101.81
483.153	98.81
483.372	114.81
483.59	105.81
483.808	99.81
484.027	89.81
484.245	98.81
484.463	80.81
484.681	92.81
484.9	95.81
485.118	99.81
485.336	95.81
485.554	86.81
485.772	86.81
485.99	73.81
486.209	94.81
486.427	88.81
486.645	92.81
486.863	94.81
487.081	112.81
487.299	99.81
487.517	95.81
487.735	95.81
487.953	102.81
488.171	104.81
488.389	104.81
488.607	101.81
488.825	103.81
489.043	87.81
489.261	97.81
489.479	103.81
489.696	102.81
489.914	107.81
490.132	88.81
490.35	99.81
490.568	109.81
490.786	111.81
491.003	95.81
491.221	81.81
491.439	103.81
491.657	99.81
491.874	115.81
492.092	115.81
492.31	126.81
492.527	118.81
492.745	114.81
492.963	111.81
493.18	120.81
493.398	115.81
493.615	116.81
493.833	102.81
494.05	102.81
494.268	100.81
494.485	106.81
494.703	94.81
494.92	102.81
495.138	107.81
495.355	106.81
495.573	92.81
495.79	112.81
496.008	114.81
496.225	99.81
496.442	114.81
496.66	110.81
496.877	93.81
497.094	104.81
497.312	112.81
497.529	110.81
497.746	106.81
497.963	106.81
498.181	98.81
498.398	87.81
498.615	97.81
498.832	96.81
499.049	84.81
499.267	87.81
499.484	106.81
499.701	103.81
499.918	108.81
500.135	90.81
500.352	110.81
500.569	104.81
500.786	90.81
501.003	81.81
501.22	83.81
501.437	84.81
501.654	112.81
501.871	87.81
502.088	87.81
502.305	88.81
502.522	86.81
502.739	104.81
502.956	95.81
503.172	79.81
503.389	86.81
503.606	103.81
503.823	79.81
504.04	90.81
504.256	86.81
504.473	91.81
504.69	84.81
504.907	97.81
505.123	92.81
505.34	82.81
505.557	89.81
505.773	98.81
505.99	86.81
506.207	89.81
506.423	85.81
506.64	98.81
506.856	80.81
507.073	86.81
507.289	86.81
507.506	86.81
507.722	88.81
507.939	85.81
508.155	80.81
508.372	89.81
508.588	78.81
508.805	82.81
509.021	97.81
509.238	91.81
509.454	93.81
509.67	92.81
509.887	76.81
510.103	87.81
510.319	91.81
510.536	77.81
510.752	94.81
510.968	79.81
511.184	86.81
511.401	92.81
511.617	86.81
511.833	82.81
512.049	87.81
512.265	95.81
512.481	89.81
512.698	90.81
512.914	75.81
513.13	77.81
513.346	86.81
513.562	84.81
513.778	65.81
513.994	84.81
514.21	87.81
514.426	89.81
514.642	90.81
514.858	92.81
515.074	74.81
515.29	87.81
515.506	71.81
515.721	79.81
515.937	70.81
516.153	94.81
516.369	92.81
516.585	78.81
516.801	86.81
517.016	98.81
517.232	84.81
517.448	87.81
517.664	92.81
517.879	91.81
