Data from Location5.07152019.Energy5.Lamp.07192019.3%Agarose_HRD10591_15-37-50-393.txt Node
Date: Fri Jul 19 15:37:50 EDT 2019
User: cochatt
Spectrometer: HR+D1059
Trigger mode: 1
Integration Time (sec): 1.000000E-1
Scans to average: 1
Electric dark correction enabled: true
Nonlinearity correction enabled: false
Boxcar width: 0
XAxis mode: Wavelengths
Number of Pixels in Spectrum: 2048
>>>>>Begin Spectral Data<<<<<
223.165	-10.69
223.4	-10.69
223.635	-10.69
223.869	-13.69
224.104	-20.69
224.338	-15.69
224.573	-5.69
224.808	-17.69
225.042	-14.69
225.277	-9.69
225.511	-5.69
225.746	16.31
225.98	7.31
226.215	7.31
226.449	18.31
226.683	14.31
226.918	32.31
227.152	18.31
227.387	52.31
227.621	33.31
227.856	33.31
228.09	40.31
228.324	50.31
228.559	47.31
228.793	63.31
229.027	58.31
229.262	51.31
229.496	73.31
229.73	64.31
229.964	80.31
230.199	80.31
230.433	66.31
230.667	72.31
230.901	73.31
231.136	86.31
231.37	79.31
231.604	80.31
231.838	94.31
232.072	82.31
232.306	85.31
232.541	85.31
232.775	90.31
233.009	87.31
233.243	84.31
233.477	83.31
233.711	74.31
233.945	82.31
234.179	70.31
234.413	88.31
234.647	74.31
234.881	81.31
235.115	84.31
235.349	83.31
235.583	91.31
235.817	73.31
236.051	67.31
236.285	76.31
236.519	83.31
236.753	84.31
236.987	64.31
237.221	74.31
237.455	70.31
237.689	77.31
237.922	78.31
238.156	86.31
238.39	71.31
238.624	69.31
238.858	76.31
239.091	73.31
239.325	74.31
239.559	63.31
239.793	73.31
240.027	88.31
240.26	73.31
240.494	74.31
240.728	80.31
240.961	81.31
241.195	75.31
241.429	78.31
241.662	71.31
241.896	66.31
242.13	77.31
242.363	79.31
242.597	82.31
242.83	76.31
243.064	79.31
243.298	80.31
243.531	63.31
243.765	54.31
243.998	74.31
244.232	79.31
244.465	86.31
244.699	81.31
244.932	83.31
245.166	77.31
245.399	67.31
245.633	82.31
245.866	73.31
246.099	71.31
246.333	70.31
246.566	77.31
246.8	88.31
247.033	79.31
247.266	70.31
247.5	67.31
247.733	85.31
247.966	92.31
248.2	73.31
248.433	75.31
248.666	83.31
248.899	87.31
249.133	74.31
249.366	84.31
249.599	76.31
249.832	88.31
250.066	77.31
250.299	86.31
250.532	79.31
250.765	91.31
250.998	88.31
251.231	70.31
251.465	76.31
251.698	93.31
251.931	91.31
252.164	85.31
252.397	84.31
252.63	85.31
252.863	76.31
253.096	72.31
253.329	81.31
253.562	76.31
253.795	68.31
254.028	87.31
254.261	71.31
254.494	81.31
254.727	84.31
254.96	82.31
255.193	79.31
255.426	84.31
255.659	70.31
255.892	82.31
256.124	76.31
256.357	80.31
256.59	95.31
256.823	63.31
257.056	97.31
257.289	71.31
257.521	79.31
257.754	87.31
257.987	76.31
258.22	86.31
258.452	68.31
258.685	78.31
258.918	70.31
259.151	88.31
259.383	75.31
259.616	61.31
259.849	86.31
260.081	74.31
260.314	69.31
260.547	91.31
260.779	94.31
261.012	87.31
261.244	96.31
261.477	90.31
261.71	92.31
261.942	78.31
262.175	73.31
262.407	74.31
262.64	88.31
262.872	82.31
263.105	74.31
263.337	81.31
263.57	84.31
263.802	87.31
264.035	80.31
264.267	77.31
264.499	92.31
264.732	84.31
264.964	71.31
265.197	77.31
265.429	95.31
265.661	65.31
265.894	77.31
266.126	85.31
266.358	78.31
266.591	80.31
266.823	72.31
267.055	65.31
267.287	77.31
267.52	68.31
267.752	78.31
267.984	90.31
268.216	83.31
268.448	98.31
268.681	66.31
268.913	71.31
269.145	71.31
269.377	68.31
269.609	84.31
269.841	76.31
270.073	74.31
270.306	76.31
270.538	84.31
270.77	86.31
271.002	82.31
271.234	81.31
271.466	78.31
271.698	78.31
271.93	98.31
272.162	85.31
272.394	86.31
272.626	88.31
272.858	76.31
273.09	80.31
273.322	74.31
273.553	91.31
273.785	83.31
274.017	80.31
274.249	83.31
274.481	79.31
274.713	88.31
274.945	92.31
275.176	83.31
275.408	91.31
275.64	56.31
275.872	76.31
276.104	88.31
276.335	87.31
276.567	78.31
276.799	67.31
277.031	71.31
277.262	73.31
277.494	94.31
277.726	82.31
277.957	90.31
278.189	67.31
278.421	80.31
278.652	86.31
278.884	83.31
279.115	90.31
279.347	89.31
279.579	81.31
279.81	85.31
280.042	87.31
280.273	85.31
280.505	88.31
280.736	91.31
280.968	77.31
281.199	76.31
281.431	85.31
281.662	84.31
281.894	91.31
282.125	96.31
282.356	92.31
282.588	85.31
282.819	83.31
283.051	86.31
283.282	83.31
283.513	82.31
283.745	95.31
283.976	69.31
284.207	95.31
284.439	93.31
284.67	90.31
284.901	86.31
285.132	87.31
285.364	91.31
285.595	78.31
285.826	97.31
286.057	90.31
286.288	74.31
286.52	85.31
286.751	101.31
286.982	81.31
287.213	87.31
287.444	78.31
287.675	82.31
287.906	80.31
288.138	89.31
288.369	85.31
288.6	94.31
288.831	93.31
289.062	82.31
289.293	82.31
289.524	79.31
289.755	69.31
289.986	84.31
290.217	67.31
290.448	73.31
290.679	86.31
290.91	88.31
291.141	87.31
291.371	81.31
291.602	70.31
291.833	89.31
292.064	81.31
292.295	86.31
292.526	73.31
292.757	88.31
292.987	87.31
293.218	92.31
293.449	80.31
293.68	81.31
293.91	74.31
294.141	83.31
294.372	77.31
294.603	87.31
294.833	87.31
295.064	80.31
295.295	88.31
295.525	76.31
295.756	87.31
295.987	80.31
296.217	71.31
296.448	92.31
296.679	81.31
296.909	95.31
297.14	89.31
297.37	84.31
297.601	100.31
297.831	83.31
298.062	78.31
298.292	91.31
298.523	84.31
298.753	89.31
298.984	88.31
299.214	81.31
299.445	77.31
299.675	83.31
299.905	83.31
300.136	72.31
300.366	89.31
300.597	88.31
300.827	80.31
301.057	79.31
301.288	70.31
301.518	76.31
301.748	77.31
301.979	80.31
302.209	88.31
302.439	82.31
302.669	81.31
302.9	85.31
303.13	87.31
303.36	94.31
303.59	85.31
303.82	78.31
304.051	87.31
304.281	86.31
304.511	93.31
304.741	96.31
304.971	85.31
305.201	75.31
305.431	98.31
305.661	83.31
305.891	75.31
306.121	93.31
306.352	79.31
306.582	74.31
306.812	99.31
307.042	93.31
307.272	94.31
307.502	65.31
307.731	86.31
307.961	90.31
308.191	78.31
308.421	92.31
308.651	84.31
308.881	88.31
309.111	92.31
309.341	88.31
309.571	84.31
309.8	75.31
310.03	85.31
310.26	92.31
310.49	86.31
310.72	86.31
310.949	88.31
311.179	101.31
311.409	80.31
311.639	94.31
311.868	70.31
312.098	82.31
312.328	89.31
312.557	88.31
312.787	81.31
313.017	82.31
313.246	95.31
313.476	97.31
313.706	87.31
313.935	78.31
314.165	86.31
314.394	84.31
314.624	91.31
314.853	91.31
315.083	95.31
315.312	77.31
315.542	73.31
315.771	89.31
316.001	89.31
316.23	90.31
316.46	79.31
316.689	86.31
316.919	88.31
317.148	85.31
317.377	99.31
317.607	80.31
317.836	82.31
318.065	82.31
318.295	73.31
318.524	87.31
318.753	91.31
318.983	84.31
319.212	81.31
319.441	78.31
319.67	79.31
319.9	77.31
320.129	72.31
320.358	95.31
320.587	80.31
320.816	86.31
321.046	72.31
321.275	94.31
321.504	75.31
321.733	80.31
321.962	85.31
322.191	89.31
322.42	87.31
322.649	81.31
322.878	73.31
323.108	86.31
323.337	85.31
323.566	78.31
323.795	92.31
324.024	91.31
324.253	82.31
324.482	82.31
324.71	82.31
324.939	88.31
325.168	79.31
325.397	92.31
325.626	81.31
325.855	79.31
326.084	85.31
326.313	81.31
326.542	89.31
326.77	79.31
326.999	75.31
327.228	92.31
327.457	77.31
327.686	84.31
327.914	91.31
328.143	95.31
328.372	79.31
328.6	85.31
328.829	79.31
329.058	92.31
329.287	92.31
329.515	87.31
329.744	86.31
329.972	91.31
330.201	85.31
330.43	76.31
330.658	75.31
330.887	86.31
331.115	67.31
331.344	85.31
331.572	80.31
331.801	91.31
332.03	87.31
332.258	84.31
332.486	73.31
332.715	69.31
332.943	88.31
333.172	86.31
333.4	79.31
333.629	84.31
333.857	86.31
334.085	89.31
334.314	86.31
334.542	90.31
334.771	79.31
334.999	84.31
335.227	99.31
335.455	75.31
335.684	91.31
335.912	86.31
336.14	82.31
336.369	71.31
336.597	79.31
336.825	82.31
337.053	84.31
337.281	72.31
337.51	77.31
337.738	72.31
337.966	81.31
338.194	74.31
338.422	84.31
338.65	95.31
338.878	83.31
339.106	77.31
339.334	79.31
339.562	82.31
339.79	88.31
340.018	78.31
340.246	78.31
340.474	71.31
340.702	86.31
340.93	74.31
341.158	85.31
341.386	81.31
341.614	85.31
341.842	78.31
342.07	75.31
342.298	81.31
342.526	85.31
342.754	79.31
342.981	69.31
343.209	92.31
343.437	82.31
343.665	74.31
343.893	90.31
344.12	93.31
344.348	83.31
344.576	95.31
344.804	81.31
345.031	83.31
345.259	83.31
345.487	69.31
345.714	76.31
345.942	86.31
346.17	75.31
346.397	83.31
346.625	91.31
346.853	93.31
347.08	80.31
347.308	82.31
347.535	83.31
347.763	84.31
347.99	72.31
348.218	77.31
348.445	85.31
348.673	91.31
348.9	95.31
349.128	103.31
349.355	83.31
349.583	78.31
349.81	99.31
350.037	80.31
350.265	96.31
350.492	85.31
350.72	80.31
350.947	82.31
351.174	77.31
351.402	94.31
351.629	75.31
351.856	87.31
352.083	71.31
352.311	86.31
352.538	70.31
352.765	90.31
352.992	82.31
353.22	75.31
353.447	72.31
353.674	86.31
353.901	88.31
354.128	74.31
354.355	78.31
354.583	77.31
354.81	65.31
355.037	84.31
355.264	78.31
355.491	76.31
355.718	78.31
355.945	86.31
356.172	87.31
356.399	80.31
356.626	82.31
356.853	91.31
357.08	90.31
357.307	77.31
357.534	73.31
357.761	79.31
357.988	93.31
358.215	85.31
358.441	89.31
358.668	89.31
358.895	81.31
359.122	77.31
359.349	87.31
359.576	73.31
359.802	89.31
360.029	90.31
360.256	93.31
360.483	76.31
360.709	80.31
360.936	93.31
361.163	86.31
361.39	80.31
361.616	72.31
361.843	84.31
362.07	94.31
362.296	80.31
362.523	78.31
362.749	65.31
362.976	87.31
363.203	87.31
363.429	87.31
363.656	80.31
363.882	84.31
364.109	83.31
364.335	87.31
364.562	83.31
364.788	87.31
365.015	87.31
365.241	76.31
365.468	97.31
365.694	81.31
365.92	80.31
366.147	88.31
366.373	79.31
366.599	86.31
366.826	85.31
367.052	80.31
367.278	80.31
367.505	89.31
367.731	86.31
367.957	72.31
368.184	83.31
368.41	88.31
368.636	95.31
368.862	77.31
369.089	89.31
369.315	83.31
369.541	89.31
369.767	91.31
369.993	71.31
370.219	90.31
370.445	73.31
370.672	93.31
370.898	77.31
371.124	83.31
371.35	82.31
371.576	80.31
371.802	79.31
372.028	90.31
372.254	92.31
372.48	84.31
372.706	94.31
372.932	80.31
373.158	81.31
373.384	91.31
373.61	74.31
373.835	75.31
374.061	99.31
374.287	71.31
374.513	87.31
374.739	86.31
374.965	87.31
375.191	85.31
375.416	73.31
375.642	78.31
375.868	87.31
376.094	88.31
376.319	82.31
376.545	90.31
376.771	95.31
376.997	81.31
377.222	87.31
377.448	96.31
377.674	90.31
377.899	87.31
378.125	81.31
378.35	89.31
378.576	85.31
378.802	75.31
379.027	67.31
379.253	92.31
379.478	72.31
379.704	85.31
379.929	95.31
380.155	75.31
380.38	71.31
380.606	87.31
380.831	77.31
381.057	86.31
381.282	87.31
381.507	77.31
381.733	84.31
381.958	75.31
382.184	71.31
382.409	81.31
382.634	90.31
382.86	82.31
383.085	103.31
383.31	82.31
383.535	81.31
383.761	74.31
383.986	85.31
384.211	86.31
384.436	96.31
384.662	80.31
384.887	80.31
385.112	80.31
385.337	86.31
385.562	81.31
385.787	72.31
386.013	86.31
386.238	83.31
386.463	78.31
386.688	70.31
386.913	87.31
387.138	83.31
387.363	101.31
387.588	88.31
387.813	87.31
388.038	92.31
388.263	98.31
388.488	69.31
388.713	86.31
388.938	77.31
389.163	102.31
389.387	83.31
389.612	75.31
389.837	95.31
390.062	86.31
390.287	107.31
390.512	95.31
390.736	96.31
390.961	67.31
391.186	86.31
391.411	84.31
391.636	82.31
391.86	91.31
392.085	82.31
392.31	80.31
392.534	83.31
392.759	79.31
392.984	87.31
393.208	86.31
393.433	79.31
393.658	85.31
393.882	71.31
394.107	78.31
394.331	88.31
394.556	91.31
394.78	84.31
395.005	90.31
395.229	87.31
395.454	96.31
395.678	86.31
395.903	86.31
396.127	84.31
396.352	75.31
396.576	74.31
396.801	88.31
397.025	88.31
397.249	85.31
397.474	82.31
397.698	99.31
397.922	92.31
398.147	87.31
398.371	66.31
398.595	88.31
398.82	82.31
399.044	90.31
399.268	82.31
399.492	80.31
399.717	92.31
399.941	90.31
400.165	86.31
400.389	99.31
400.613	91.31
400.837	79.31
401.062	82.31
401.286	91.31
401.51	94.31
401.734	72.31
401.958	82.31
402.182	107.31
402.406	106.31
402.63	71.31
402.854	77.31
403.078	91.31
403.302	81.31
403.526	92.31
403.75	90.31
403.974	94.31
404.198	88.31
404.422	91.31
404.645	103.31
404.869	92.31
405.093	96.31
405.317	67.31
405.541	90.31
405.765	99.31
405.988	87.31
406.212	86.31
406.436	79.31
406.66	95.31
406.883	78.31
407.107	88.31
407.331	89.31
407.555	87.31
407.778	86.31
408.002	76.31
408.226	87.31
408.449	91.31
408.673	96.31
408.896	89.31
409.12	89.31
409.344	104.31
409.567	83.31
409.791	88.31
410.014	96.31
410.238	90.31
410.461	79.31
410.685	80.31
410.908	90.31
411.132	99.31
411.355	98.31
411.578	75.31
411.802	69.31
412.025	98.31
412.249	85.31
412.472	84.31
412.695	76.31
412.919	78.31
413.142	92.31
413.365	76.31
413.589	103.31
413.812	93.31
414.035	84.31
414.258	86.31
414.482	90.31
414.705	99.31
414.928	101.31
415.151	83.31
415.374	91.31
415.597	94.31
415.821	82.31
416.044	91.31
416.267	90.31
416.49	98.31
416.713	91.31
416.936	87.31
417.159	94.31
417.382	82.31
417.605	97.31
417.828	103.31
418.051	99.31
418.274	83.31
418.497	97.31
418.72	85.31
418.943	84.31
419.166	104.31
419.389	83.31
419.611	96.31
419.834	88.31
420.057	91.31
420.28	87.31
420.503	102.31
420.726	92.31
420.948	93.31
421.171	85.31
421.394	90.31
421.617	103.31
421.839	103.31
422.062	84.31
422.285	86.31
422.507	95.31
422.73	85.31
422.953	98.31
423.175	90.31
423.398	95.31
423.621	84.31
423.843	95.31
424.066	84.31
424.288	90.31
424.511	79.31
424.733	98.31
424.956	98.31
425.178	99.31
425.401	102.31
425.623	85.31
425.846	86.31
426.068	79.31
426.291	94.31
426.513	87.31
426.735	90.31
426.958	103.31
427.18	86.31
427.402	92.31
427.625	98.31
427.847	92.31
428.069	94.31
428.292	80.31
428.514	102.31
428.736	106.31
428.958	83.31
429.181	96.31
429.403	89.31
429.625	92.31
429.847	101.31
430.069	108.31
430.292	95.31
430.514	96.31
430.736	95.31
430.958	89.31
431.18	90.31
431.402	89.31
431.624	102.31
431.846	101.31
432.068	94.31
432.29	90.31
432.512	89.31
432.734	85.31
432.956	89.31
433.178	115.31
433.4	88.31
433.622	112.31
433.844	94.31
434.066	80.31
434.287	81.31
434.509	74.31
434.731	77.31
434.953	82.31
435.175	93.31
435.397	97.31
435.618	100.31
435.84	94.31
436.062	89.31
436.284	96.31
436.505	96.31
436.727	78.31
436.949	93.31
437.17	89.31
437.392	88.31
437.614	87.31
437.835	100.31
438.057	80.31
438.278	86.31
438.5	86.31
438.721	91.31
438.943	105.31
439.165	105.31
439.386	90.31
439.608	99.31
439.829	84.31
440.05	104.31
440.272	91.31
440.493	78.31
440.715	97.31
440.936	95.31
441.158	112.31
441.379	88.31
441.6	91.31
441.822	91.31
442.043	105.31
442.264	97.31
442.486	93.31
442.707	90.31
442.928	88.31
443.149	94.31
443.371	94.31
443.592	95.31
443.813	98.31
444.034	98.31
444.255	95.31
444.476	92.31
444.698	104.31
444.919	92.31
445.14	196.31
445.361	140.31
445.582	89.31
445.803	96.31
446.024	85.31
446.245	104.31
446.466	98.31
446.687	112.31
446.908	100.31
447.129	105.31
447.35	96.31
447.571	101.31
447.792	106.31
448.013	91.31
448.234	102.31
448.455	87.31
448.675	103.31
448.896	96.31
449.117	104.31
449.338	100.31
449.559	103.31
449.779	93.31
450	88.31
450.221	90.31
450.442	90.31
450.662	104.31
450.883	87.31
451.104	103.31
451.324	88.31
451.545	79.31
451.766	92.31
451.986	87.31
452.207	91.31
452.428	100.31
452.648	102.31
452.869	89.31
453.089	95.31
453.31	104.31
453.53	95.31
453.751	76.31
453.971	82.31
454.192	89.31
454.412	81.31
454.633	96.31
454.853	93.31
455.073	79.31
455.294	90.31
455.514	82.31
455.734	92.31
455.955	108.31
456.175	95.31
456.395	94.31
456.616	89.31
456.836	68.31
457.056	98.31
457.276	95.31
457.497	81.31
457.717	88.31
457.937	79.31
458.157	88.31
458.377	88.31
458.598	86.31
458.818	82.31
459.038	77.31
459.258	87.31
459.478	76.31
459.698	94.31
459.918	79.31
460.138	73.31
460.358	87.31
460.578	92.31
460.798	103.31
461.018	94.31
461.238	89.31
461.458	94.31
461.678	88.31
461.898	87.31
462.118	91.31
462.338	89.31
462.558	95.31
462.777	79.31
462.997	85.31
463.217	82.31
463.437	82.31
463.657	85.31
463.876	80.31
464.096	86.31
464.316	85.31
464.536	83.31
464.755	100.31
464.975	106.31
465.195	81.31
465.414	91.31
465.634	86.31
465.854	101.31
466.073	77.31
466.293	86.31
466.512	87.31
466.732	102.31
466.951	89.31
467.171	92.31
467.391	87.31
467.61	107.31
467.829	111.31
468.049	84.31
468.268	103.31
468.488	89.31
468.707	87.31
468.927	100.31
469.146	91.31
469.365	92.31
469.585	103.31
469.804	82.31
470.023	106.31
470.243	92.31
470.462	103.31
470.681	82.31
470.901	97.31
471.12	106.31
471.339	99.31
471.558	101.31
471.777	99.31
471.997	81.31
472.216	95.31
472.435	99.31
472.654	76.31
472.873	92.31
473.092	80.31
473.311	78.31
473.53	101.31
473.749	94.31
473.968	90.31
474.187	90.31
474.406	103.31
474.625	92.31
474.844	99.31
475.063	90.31
475.282	103.31
475.501	96.31
475.72	94.31
475.939	100.31
476.158	97.31
476.377	95.31
476.596	87.31
476.814	87.31
477.033	86.31
477.252	89.31
477.471	90.31
477.69	91.31
477.908	92.31
478.127	92.31
478.346	109.31
478.564	102.31
478.783	97.31
479.002	97.31
479.22	86.31
479.439	95.31
479.658	93.31
479.876	81.31
480.095	87.31
480.313	88.31
480.532	97.31
480.751	99.31
480.969	92.31
481.188	94.31
481.406	82.31
481.624	81.31
481.843	74.31
482.061	97.31
482.28	90.31
482.498	91.31
482.717	88.31
482.935	107.31
483.153	99.31
483.372	97.31
483.59	109.31
483.808	108.31
484.027	94.31
484.245	80.31
484.463	103.31
484.681	115.31
484.9	94.31
485.118	90.31
485.336	91.31
485.554	99.31
485.772	101.31
485.99	76.31
486.209	90.31
486.427	87.31
486.645	91.31
486.863	96.31
487.081	98.31
487.299	82.31
487.517	100.31
487.735	94.31
487.953	101.31
488.171	122.31
488.389	107.31
488.607	102.31
488.825	102.31
489.043	82.31
489.261	89.31
489.479	98.31
489.696	94.31
489.914	97.31
490.132	94.31
490.35	96.31
490.568	107.31
490.786	102.31
491.003	117.31
491.221	116.31
491.439	117.31
491.657	102.31
491.874	115.31
492.092	117.31
492.31	123.31
492.527	105.31
492.745	116.31
492.963	120.31
493.18	128.31
493.398	115.31
493.615	103.31
493.833	111.31
494.05	110.31
494.268	116.31
494.485	102.31
494.703	118.31
494.92	101.31
495.138	88.31
495.355	120.31
495.573	117.31
495.79	94.31
496.008	94.31
496.225	106.31
496.442	106.31
496.66	101.31
496.877	111.31
497.094	118.31
497.312	100.31
497.529	115.31
497.746	100.31
497.963	89.31
498.181	85.31
498.398	97.31
498.615	91.31
498.832	91.31
499.049	92.31
499.267	112.31
499.484	88.31
499.701	106.31
499.918	106.31
500.135	103.31
500.352	95.31
500.569	103.31
500.786	103.31
501.003	102.31
501.22	110.31
501.437	91.31
501.654	96.31
501.871	101.31
502.088	89.31
502.305	95.31
502.522	103.31
502.739	84.31
502.956	87.31
503.172	87.31
503.389	89.31
503.606	90.31
503.823	97.31
504.04	96.31
504.256	95.31
504.473	94.31
504.69	95.31
504.907	83.31
505.123	95.31
505.34	80.31
505.557	100.31
505.773	101.31
505.99	97.31
506.207	84.31
506.423	83.31
506.64	81.31
506.856	110.31
507.073	86.31
507.289	99.31
507.506	98.31
507.722	93.31
507.939	93.31
508.155	86.31
508.372	73.31
508.588	83.31
508.805	94.31
509.021	81.31
509.238	82.31
509.454	92.31
509.67	84.31
509.887	93.31
510.103	82.31
510.319	92.31
510.536	92.31
510.752	83.31
510.968	84.31
511.184	82.31
511.401	81.31
511.617	72.31
511.833	81.31
512.049	80.31
512.265	88.31
512.481	91.31
512.698	80.31
512.914	75.31
513.13	91.31
513.346	72.31
513.562	81.31
513.778	81.31
513.994	86.31
514.21	81.31
514.426	91.31
514.642	72.31
514.858	81.31
515.074	77.31
515.29	96.31
515.506	87.31
515.721	96.31
515.937	86.31
516.153	69.31
516.369	82.31
516.585	77.31
516.801	86.31
517.016	91.31
517.232	82.31
517.448	97.31
517.664	86.31
