Data from Location5.07152019.Energy5.Lamp.07192019.3%Agarose_HRD10591_15-38-18-387.txt Node
Date: Fri Jul 19 15:38:18 EDT 2019
User: cochatt
Spectrometer: HR+D1059
Trigger mode: 1
Integration Time (sec): 1.000000E-1
Scans to average: 1
Electric dark correction enabled: true
Nonlinearity correction enabled: false
Boxcar width: 0
XAxis mode: Wavelengths
Number of Pixels in Spectrum: 2048
>>>>>Begin Spectral Data<<<<<
223.165	-21.06
223.4	-21.06
223.635	-21.06
223.869	-23.06
224.104	-21.06
224.338	-5.06
224.573	-2.06
224.808	-11.06
225.042	-21.06
225.277	-2.06
225.511	-3.06
225.746	10.94
225.98	3.94
226.215	14.94
226.449	5.94
226.683	17.94
226.918	20.94
227.152	34.94
227.387	35.94
227.621	45.94
227.856	41.94
228.09	47.94
228.324	43.94
228.559	56.94
228.793	36.94
229.027	57.94
229.262	69.94
229.496	68.94
229.73	78.94
229.964	64.94
230.199	70.94
230.433	73.94
230.667	69.94
230.901	67.94
231.136	76.94
231.37	72.94
231.604	81.94
231.838	70.94
232.072	80.94
232.306	97.94
232.541	91.94
232.775	76.94
233.009	86.94
233.243	70.94
233.477	68.94
233.711	89.94
233.945	75.94
234.179	79.94
234.413	82.94
234.647	79.94
234.881	83.94
235.115	80.94
235.349	80.94
235.583	88.94
235.817	93.94
236.051	85.94
236.285	82.94
236.519	73.94
236.753	73.94
236.987	79.94
237.221	76.94
237.455	86.94
237.689	71.94
237.922	73.94
238.156	80.94
238.39	70.94
238.624	91.94
238.858	81.94
239.091	90.94
239.325	91.94
239.559	73.94
239.793	75.94
240.027	67.94
240.26	60.94
240.494	86.94
240.728	79.94
240.961	69.94
241.195	82.94
241.429	80.94
241.662	76.94
241.896	69.94
242.13	82.94
242.363	64.94
242.597	68.94
242.83	91.94
243.064	72.94
243.298	80.94
243.531	76.94
243.765	75.94
243.998	87.94
244.232	78.94
244.465	63.94
244.699	97.94
244.932	87.94
245.166	78.94
245.399	90.94
245.633	87.94
245.866	74.94
246.099	70.94
246.333	73.94
246.566	92.94
246.8	81.94
247.033	75.94
247.266	82.94
247.5	75.94
247.733	74.94
247.966	71.94
248.2	81.94
248.433	71.94
248.666	74.94
248.899	66.94
249.133	71.94
249.366	58.94
249.599	65.94
249.832	75.94
250.066	85.94
250.299	67.94
250.532	90.94
250.765	84.94
250.998	72.94
251.231	81.94
251.465	73.94
251.698	80.94
251.931	82.94
252.164	90.94
252.397	85.94
252.63	83.94
252.863	91.94
253.096	87.94
253.329	80.94
253.562	89.94
253.795	85.94
254.028	80.94
254.261	74.94
254.494	73.94
254.727	83.94
254.96	60.94
255.193	84.94
255.426	84.94
255.659	72.94
255.892	92.94
256.124	74.94
256.357	63.94
256.59	87.94
256.823	67.94
257.056	81.94
257.289	80.94
257.521	76.94
257.754	74.94
257.987	95.94
258.22	80.94
258.452	87.94
258.685	80.94
258.918	75.94
259.151	85.94
259.383	87.94
259.616	80.94
259.849	86.94
260.081	83.94
260.314	83.94
260.547	83.94
260.779	76.94
261.012	73.94
261.244	75.94
261.477	82.94
261.71	100.94
261.942	71.94
262.175	90.94
262.407	98.94
262.64	78.94
262.872	79.94
263.105	87.94
263.337	85.94
263.57	89.94
263.802	79.94
264.035	84.94
264.267	87.94
264.499	62.94
264.732	91.94
264.964	82.94
265.197	76.94
265.429	94.94
265.661	76.94
265.894	89.94
266.126	90.94
266.358	74.94
266.591	91.94
266.823	91.94
267.055	77.94
267.287	82.94
267.52	81.94
267.752	72.94
267.984	77.94
268.216	80.94
268.448	104.94
268.681	75.94
268.913	83.94
269.145	81.94
269.377	82.94
269.609	83.94
269.841	85.94
270.073	83.94
270.306	77.94
270.538	79.94
270.77	90.94
271.002	73.94
271.234	84.94
271.466	93.94
271.698	78.94
271.93	86.94
272.162	77.94
272.394	95.94
272.626	76.94
272.858	79.94
273.09	89.94
273.322	84.94
273.553	81.94
273.785	95.94
274.017	80.94
274.249	68.94
274.481	75.94
274.713	92.94
274.945	78.94
275.176	72.94
275.408	75.94
275.64	89.94
275.872	75.94
276.104	87.94
276.335	80.94
276.567	70.94
276.799	81.94
277.031	83.94
277.262	85.94
277.494	91.94
277.726	76.94
277.957	89.94
278.189	94.94
278.421	90.94
278.652	89.94
278.884	66.94
279.115	83.94
279.347	87.94
279.579	75.94
279.81	82.94
280.042	87.94
280.273	82.94
280.505	84.94
280.736	82.94
280.968	83.94
281.199	78.94
281.431	87.94
281.662	82.94
281.894	77.94
282.125	88.94
282.356	92.94
282.588	75.94
282.819	82.94
283.051	82.94
283.282	79.94
283.513	83.94
283.745	69.94
283.976	86.94
284.207	88.94
284.439	86.94
284.67	86.94
284.901	92.94
285.132	73.94
285.364	85.94
285.595	73.94
285.826	86.94
286.057	84.94
286.288	89.94
286.52	79.94
286.751	89.94
286.982	96.94
287.213	89.94
287.444	87.94
287.675	81.94
287.906	73.94
288.138	82.94
288.369	91.94
288.6	94.94
288.831	81.94
289.062	91.94
289.293	87.94
289.524	86.94
289.755	74.94
289.986	89.94
290.217	98.94
290.448	82.94
290.679	99.94
290.91	97.94
291.141	77.94
291.371	98.94
291.602	90.94
291.833	78.94
292.064	71.94
292.295	73.94
292.526	78.94
292.757	86.94
292.987	73.94
293.218	82.94
293.449	80.94
293.68	81.94
293.91	77.94
294.141	94.94
294.372	73.94
294.603	78.94
294.833	84.94
295.064	63.94
295.295	80.94
295.525	88.94
295.756	82.94
295.987	94.94
296.217	86.94
296.448	79.94
296.679	76.94
296.909	98.94
297.14	87.94
297.37	88.94
297.601	89.94
297.831	82.94
298.062	88.94
298.292	90.94
298.523	82.94
298.753	90.94
298.984	85.94
299.214	72.94
299.445	96.94
299.675	82.94
299.905	89.94
300.136	83.94
300.366	89.94
300.597	104.94
300.827	95.94
301.057	85.94
301.288	85.94
301.518	82.94
301.748	84.94
301.979	89.94
302.209	88.94
302.439	81.94
302.669	89.94
302.9	85.94
303.13	93.94
303.36	88.94
303.59	88.94
303.82	103.94
304.051	88.94
304.281	82.94
304.511	88.94
304.741	82.94
304.971	82.94
305.201	98.94
305.431	83.94
305.661	77.94
305.891	89.94
306.121	81.94
306.352	95.94
306.582	81.94
306.812	86.94
307.042	75.94
307.272	75.94
307.502	64.94
307.731	81.94
307.961	77.94
308.191	86.94
308.421	84.94
308.651	78.94
308.881	91.94
309.111	80.94
309.341	80.94
309.571	83.94
309.8	81.94
310.03	86.94
310.26	89.94
310.49	88.94
310.72	89.94
310.949	86.94
311.179	88.94
311.409	82.94
311.639	78.94
311.868	87.94
312.098	90.94
312.328	72.94
312.557	83.94
312.787	79.94
313.017	95.94
313.246	64.94
313.476	73.94
313.706	85.94
313.935	79.94
314.165	79.94
314.394	81.94
314.624	76.94
314.853	89.94
315.083	72.94
315.312	95.94
315.542	80.94
315.771	91.94
316.001	85.94
316.23	90.94
316.46	90.94
316.689	84.94
316.919	88.94
317.148	84.94
317.377	92.94
317.607	97.94
317.836	87.94
318.065	83.94
318.295	87.94
318.524	75.94
318.753	88.94
318.983	85.94
319.212	86.94
319.441	95.94
319.67	80.94
319.9	78.94
320.129	89.94
320.358	87.94
320.587	81.94
320.816	84.94
321.046	84.94
321.275	73.94
321.504	76.94
321.733	78.94
321.962	72.94
322.191	87.94
322.42	74.94
322.649	86.94
322.878	81.94
323.108	77.94
323.337	86.94
323.566	81.94
323.795	86.94
324.024	89.94
324.253	75.94
324.482	77.94
324.71	66.94
324.939	95.94
325.168	88.94
325.397	83.94
325.626	91.94
325.855	79.94
326.084	74.94
326.313	90.94
326.542	72.94
326.77	80.94
326.999	84.94
327.228	80.94
327.457	82.94
327.686	83.94
327.914	98.94
328.143	69.94
328.372	93.94
328.6	90.94
328.829	98.94
329.058	75.94
329.287	77.94
329.515	80.94
329.744	92.94
329.972	75.94
330.201	83.94
330.43	89.94
330.658	86.94
330.887	83.94
331.115	76.94
331.344	81.94
331.572	76.94
331.801	87.94
332.03	83.94
332.258	83.94
332.486	83.94
332.715	83.94
332.943	90.94
333.172	86.94
333.4	90.94
333.629	99.94
333.857	78.94
334.085	88.94
334.314	88.94
334.542	72.94
334.771	88.94
334.999	92.94
335.227	83.94
335.455	81.94
335.684	81.94
335.912	75.94
336.14	81.94
336.369	76.94
336.597	86.94
336.825	76.94
337.053	87.94
337.281	74.94
337.51	76.94
337.738	90.94
337.966	79.94
338.194	74.94
338.422	80.94
338.65	67.94
338.878	81.94
339.106	82.94
339.334	89.94
339.562	98.94
339.79	91.94
340.018	84.94
340.246	82.94
340.474	79.94
340.702	84.94
340.93	87.94
341.158	95.94
341.386	85.94
341.614	82.94
341.842	80.94
342.07	71.94
342.298	80.94
342.526	89.94
342.754	85.94
342.981	83.94
343.209	82.94
343.437	70.94
343.665	90.94
343.893	73.94
344.12	99.94
344.348	84.94
344.576	80.94
344.804	74.94
345.031	94.94
345.259	70.94
345.487	90.94
345.714	88.94
345.942	81.94
346.17	84.94
346.397	78.94
346.625	94.94
346.853	84.94
347.08	88.94
347.308	76.94
347.535	73.94
347.763	90.94
347.99	88.94
348.218	79.94
348.445	78.94
348.673	74.94
348.9	89.94
349.128	102.94
349.355	81.94
349.583	82.94
349.81	85.94
350.037	83.94
350.265	78.94
350.492	66.94
350.72	83.94
350.947	74.94
351.174	82.94
351.402	85.94
351.629	87.94
351.856	80.94
352.083	91.94
352.311	98.94
352.538	87.94
352.765	84.94
352.992	79.94
353.22	79.94
353.447	73.94
353.674	85.94
353.901	89.94
354.128	94.94
354.355	70.94
354.583	83.94
354.81	82.94
355.037	88.94
355.264	90.94
355.491	82.94
355.718	72.94
355.945	76.94
356.172	73.94
356.399	72.94
356.626	85.94
356.853	88.94
357.08	93.94
357.307	77.94
357.534	71.94
357.761	93.94
357.988	103.94
358.215	78.94
358.441	73.94
358.668	81.94
358.895	77.94
359.122	99.94
359.349	83.94
359.576	77.94
359.802	85.94
360.029	74.94
360.256	83.94
360.483	77.94
360.709	91.94
360.936	88.94
361.163	93.94
361.39	83.94
361.616	70.94
361.843	82.94
362.07	83.94
362.296	81.94
362.523	72.94
362.749	78.94
362.976	88.94
363.203	84.94
363.429	74.94
363.656	91.94
363.882	82.94
364.109	73.94
364.335	86.94
364.562	94.94
364.788	83.94
365.015	94.94
365.241	83.94
365.468	79.94
365.694	81.94
365.92	87.94
366.147	94.94
366.373	82.94
366.599	75.94
366.826	88.94
367.052	86.94
367.278	85.94
367.505	83.94
367.731	107.94
367.957	83.94
368.184	89.94
368.41	88.94
368.636	88.94
368.862	85.94
369.089	81.94
369.315	75.94
369.541	73.94
369.767	79.94
369.993	81.94
370.219	75.94
370.445	97.94
370.672	83.94
370.898	83.94
371.124	74.94
371.35	70.94
371.576	84.94
371.802	78.94
372.028	82.94
372.254	97.94
372.48	87.94
372.706	74.94
372.932	91.94
373.158	80.94
373.384	79.94
373.61	87.94
373.835	95.94
374.061	75.94
374.287	94.94
374.513	87.94
374.739	81.94
374.965	77.94
375.191	82.94
375.416	75.94
375.642	74.94
375.868	93.94
376.094	90.94
376.319	88.94
376.545	78.94
376.771	82.94
376.997	77.94
377.222	85.94
377.448	87.94
377.674	90.94
377.899	82.94
378.125	86.94
378.35	89.94
378.576	78.94
378.802	68.94
379.027	81.94
379.253	90.94
379.478	89.94
379.704	78.94
379.929	92.94
380.155	96.94
380.38	84.94
380.606	74.94
380.831	80.94
381.057	87.94
381.282	64.94
381.507	84.94
381.733	83.94
381.958	96.94
382.184	80.94
382.409	83.94
382.634	88.94
382.86	70.94
383.085	79.94
383.31	80.94
383.535	90.94
383.761	92.94
383.986	84.94
384.211	77.94
384.436	90.94
384.662	87.94
384.887	83.94
385.112	69.94
385.337	90.94
385.562	82.94
385.787	94.94
386.013	94.94
386.238	80.94
386.463	80.94
386.688	76.94
386.913	68.94
387.138	94.94
387.363	83.94
387.588	94.94
387.813	83.94
388.038	80.94
388.263	73.94
388.488	68.94
388.713	79.94
388.938	80.94
389.163	71.94
389.387	84.94
389.612	88.94
389.837	74.94
390.062	66.94
390.287	94.94
390.512	83.94
390.736	90.94
390.961	89.94
391.186	92.94
391.411	80.94
391.636	97.94
391.86	85.94
392.085	90.94
392.31	90.94
392.534	80.94
392.759	90.94
392.984	80.94
393.208	86.94
393.433	93.94
393.658	90.94
393.882	78.94
394.107	89.94
394.331	93.94
394.556	82.94
394.78	82.94
395.005	81.94
395.229	82.94
395.454	81.94
395.678	83.94
395.903	85.94
396.127	88.94
396.352	91.94
396.576	73.94
396.801	92.94
397.025	76.94
397.249	83.94
397.474	82.94
397.698	75.94
397.922	75.94
398.147	84.94
398.371	86.94
398.595	94.94
398.82	86.94
399.044	75.94
399.268	94.94
399.492	84.94
399.717	73.94
399.941	102.94
400.165	99.94
400.389	85.94
400.613	79.94
400.837	77.94
401.062	79.94
401.286	90.94
401.51	92.94
401.734	85.94
401.958	78.94
402.182	80.94
402.406	100.94
402.63	90.94
402.854	83.94
403.078	79.94
403.302	93.94
403.526	83.94
403.75	85.94
403.974	92.94
404.198	95.94
404.422	102.94
404.645	101.94
404.869	76.94
405.093	85.94
405.317	80.94
405.541	97.94
405.765	88.94
405.988	94.94
406.212	80.94
406.436	81.94
406.66	94.94
406.883	82.94
407.107	75.94
407.331	87.94
407.555	83.94
407.778	105.94
408.002	72.94
408.226	80.94
408.449	96.94
408.673	89.94
408.896	88.94
409.12	98.94
409.344	81.94
409.567	100.94
409.791	84.94
410.014	89.94
410.238	90.94
410.461	84.94
410.685	83.94
410.908	74.94
411.132	83.94
411.355	92.94
411.578	87.94
411.802	97.94
412.025	98.94
412.249	84.94
412.472	83.94
412.695	87.94
412.919	96.94
413.142	85.94
413.365	93.94
413.589	86.94
413.812	82.94
414.035	97.94
414.258	80.94
414.482	95.94
414.705	85.94
414.928	85.94
415.151	101.94
415.374	103.94
415.597	100.94
415.821	92.94
416.044	90.94
416.267	69.94
416.49	69.94
416.713	81.94
416.936	91.94
417.159	85.94
417.382	98.94
417.605	92.94
417.828	84.94
418.051	82.94
418.274	87.94
418.497	92.94
418.72	88.94
418.943	89.94
419.166	105.94
419.389	103.94
419.611	93.94
419.834	94.94
420.057	90.94
420.28	95.94
420.503	91.94
420.726	101.94
420.948	92.94
421.171	95.94
421.394	102.94
421.617	93.94
421.839	87.94
422.062	92.94
422.285	92.94
422.507	83.94
422.73	93.94
422.953	87.94
423.175	80.94
423.398	94.94
423.621	100.94
423.843	106.94
424.066	87.94
424.288	86.94
424.511	89.94
424.733	107.94
424.956	100.94
425.178	90.94
425.401	103.94
425.623	83.94
425.846	82.94
426.068	89.94
426.291	98.94
426.513	76.94
426.735	91.94
426.958	89.94
427.18	85.94
427.402	91.94
427.625	87.94
427.847	90.94
428.069	93.94
428.292	73.94
428.514	84.94
428.736	93.94
428.958	85.94
429.181	75.94
429.403	98.94
429.625	90.94
429.847	91.94
430.069	83.94
430.292	81.94
430.514	86.94
430.736	94.94
430.958	88.94
431.18	79.94
431.402	90.94
431.624	72.94
431.846	80.94
432.068	93.94
432.29	82.94
432.512	90.94
432.734	92.94
432.956	95.94
433.178	84.94
433.4	100.94
433.622	95.94
433.844	91.94
434.066	86.94
434.287	87.94
434.509	89.94
434.731	79.94
434.953	85.94
435.175	104.94
435.397	96.94
435.618	82.94
435.84	91.94
436.062	88.94
436.284	98.94
436.505	89.94
436.727	105.94
436.949	96.94
437.17	81.94
437.392	89.94
437.614	103.94
437.835	87.94
438.057	86.94
438.278	82.94
438.5	90.94
438.721	93.94
438.943	101.94
439.165	100.94
439.386	106.94
439.608	93.94
439.829	100.94
440.05	100.94
440.272	88.94
440.493	101.94
440.715	89.94
440.936	78.94
441.158	101.94
441.379	94.94
441.6	95.94
441.822	105.94
442.043	83.94
442.264	90.94
442.486	71.94
442.707	90.94
442.928	91.94
443.149	96.94
443.371	101.94
443.592	96.94
443.813	83.94
444.034	102.94
444.255	92.94
444.476	78.94
444.698	82.94
444.919	99.94
445.14	234.94
445.361	158.94
445.582	96.94
445.803	94.94
446.024	105.94
446.245	71.94
446.466	81.94
446.687	89.94
446.908	102.94
447.129	103.94
447.35	87.94
447.571	98.94
447.792	107.94
448.013	89.94
448.234	88.94
448.455	77.94
448.675	81.94
448.896	105.94
449.117	90.94
449.338	87.94
449.559	89.94
449.779	93.94
450	96.94
450.221	97.94
450.442	112.94
450.662	92.94
450.883	100.94
451.104	87.94
451.324	80.94
451.545	104.94
451.766	107.94
451.986	93.94
452.207	97.94
452.428	91.94
452.648	87.94
452.869	90.94
453.089	84.94
453.31	68.94
453.53	87.94
453.751	77.94
453.971	82.94
454.192	95.94
454.412	99.94
454.633	80.94
454.853	89.94
455.073	88.94
455.294	77.94
455.514	94.94
455.734	80.94
455.955	84.94
456.175	96.94
456.395	93.94
456.616	85.94
456.836	80.94
457.056	75.94
457.276	95.94
457.497	80.94
457.717	83.94
457.937	91.94
458.157	88.94
458.377	89.94
458.598	105.94
458.818	80.94
459.038	87.94
459.258	89.94
459.478	74.94
459.698	90.94
459.918	77.94
460.138	83.94
460.358	81.94
460.578	97.94
460.798	89.94
461.018	84.94
461.238	90.94
461.458	76.94
461.678	83.94
461.898	89.94
462.118	108.94
462.338	95.94
462.558	95.94
462.777	98.94
462.997	103.94
463.217	85.94
463.437	84.94
463.657	76.94
463.876	87.94
464.096	89.94
464.316	90.94
464.536	75.94
464.755	90.94
464.975	79.94
465.195	85.94
465.414	86.94
465.634	89.94
465.854	84.94
466.073	98.94
466.293	100.94
466.512	74.94
466.732	96.94
466.951	100.94
467.171	92.94
467.391	78.94
467.61	98.94
467.829	97.94
468.049	111.94
468.268	95.94
468.488	88.94
468.707	92.94
468.927	91.94
469.146	100.94
469.365	92.94
469.585	93.94
469.804	100.94
470.023	89.94
470.243	98.94
470.462	88.94
470.681	94.94
470.901	87.94
471.12	102.94
471.339	92.94
471.558	88.94
471.777	88.94
471.997	92.94
472.216	107.94
472.435	92.94
472.654	90.94
472.873	79.94
473.092	71.94
473.311	99.94
473.53	87.94
473.749	92.94
473.968	101.94
474.187	101.94
474.406	92.94
474.625	83.94
474.844	103.94
475.063	102.94
475.282	86.94
475.501	104.94
475.72	99.94
475.939	97.94
476.158	92.94
476.377	91.94
476.596	81.94
476.814	91.94
477.033	94.94
477.252	90.94
477.471	91.94
477.69	87.94
477.908	102.94
478.127	92.94
478.346	96.94
478.564	96.94
478.783	91.94
479.002	82.94
479.22	96.94
479.439	95.94
479.658	84.94
479.876	91.94
480.095	86.94
480.313	74.94
480.532	85.94
480.751	89.94
480.969	80.94
481.188	73.94
481.406	83.94
481.624	83.94
481.843	67.94
482.061	91.94
482.28	90.94
482.498	90.94
482.717	90.94
482.935	103.94
483.153	91.94
483.372	106.94
483.59	99.94
483.808	90.94
484.027	96.94
484.245	88.94
484.463	102.94
484.681	106.94
484.9	89.94
485.118	91.94
485.336	84.94
485.554	82.94
485.772	92.94
485.99	91.94
486.209	76.94
486.427	75.94
486.645	100.94
486.863	91.94
487.081	91.94
487.299	89.94
487.517	99.94
487.735	90.94
487.953	102.94
488.171	106.94
488.389	102.94
488.607	106.94
488.825	96.94
489.043	95.94
489.261	101.94
489.479	102.94
489.696	94.94
489.914	87.94
490.132	98.94
490.35	99.94
490.568	96.94
490.786	96.94
491.003	118.94
491.221	114.94
491.439	105.94
491.657	103.94
491.874	116.94
492.092	115.94
492.31	119.94
492.527	119.94
492.745	111.94
492.963	110.94
493.18	112.94
493.398	88.94
493.615	115.94
493.833	112.94
494.05	99.94
494.268	85.94
494.485	99.94
494.703	99.94
494.92	119.94
495.138	116.94
495.355	103.94
495.573	105.94
495.79	111.94
496.008	108.94
496.225	113.94
496.442	111.94
496.66	96.94
496.877	88.94
497.094	110.94
497.312	102.94
497.529	102.94
497.746	91.94
497.963	100.94
498.181	96.94
498.398	103.94
498.615	90.94
498.832	79.94
499.049	82.94
499.267	84.94
499.484	104.94
499.701	88.94
499.918	105.94
500.135	99.94
500.352	99.94
500.569	103.94
500.786	88.94
501.003	98.94
501.22	112.94
501.437	98.94
501.654	88.94
501.871	114.94
502.088	95.94
502.305	98.94
502.522	105.94
502.739	105.94
502.956	107.94
503.172	102.94
503.389	97.94
503.606	107.94
503.823	107.94
504.04	89.94
504.256	102.94
504.473	86.94
504.69	91.94
504.907	107.94
505.123	99.94
505.34	91.94
505.557	94.94
505.773	88.94
505.99	97.94
506.207	101.94
506.423	92.94
506.64	78.94
506.856	88.94
507.073	85.94
507.289	92.94
507.506	84.94
507.722	90.94
507.939	93.94
508.155	103.94
508.372	82.94
508.588	85.94
508.805	92.94
509.021	94.94
509.238	91.94
509.454	84.94
509.67	74.94
509.887	88.94
510.103	91.94
510.319	91.94
510.536	87.94
510.752	74.94
510.968	76.94
511.184	79.94
511.401	78.94
511.617	78.94
511.833	84.94
512.049	88.94
512.265	72.94
512.481	89.94
512.698	89.94
512.914	88.94
513.13	84.94
513.346	93.94
513.562	94.94
513.778	105.94
513.994	87.94
514.21	83.94
514.426	86.94
514.642	86.94
514.858	86.94
515.074	71.94
515.29	82.94
515.506	82.94
515.721	87.94
515.937	78.94
516.153	74.94
516.369	80.94
516.585	89.94
516.801	94.94
517.016	92.94
517.232	79.94
517.448	101.94
517.664	74.94
517.879	70.94
