Data from Location5.07152019.Energy5.Lamp.07192019.3%Agarose_HRD10591_16-05-05-629.txt Node
Date: Fri Jul 19 16:05:05 EDT 2019
User: cochatt
Spectrometer: HR+D1059
Trigger mode: 1
Integration Time (sec): 1.000000E-1
Scans to average: 1
Electric dark correction enabled: true
Nonlinearity correction enabled: false
Boxcar width: 0
XAxis mode: Wavelengths
Number of Pixels in Spectrum: 2048
>>>>>Begin Spectral Data<<<<<
223.165	-24.69
223.4	-24.69
223.635	-24.69
223.869	-12.69
224.104	-20.69
224.338	-18.69
224.573	-22.69
224.808	-15.69
225.042	-0.69
225.277	3.31
225.511	-7.69
225.746	27.31
225.98	1.31
226.215	21.31
226.449	16.31
226.683	26.31
226.918	20.31
227.152	7.31
227.387	30.31
227.621	41.31
227.856	40.31
228.09	61.31
228.324	51.31
228.559	60.31
228.793	65.31
229.027	59.31
229.262	60.31
229.496	60.31
229.73	64.31
229.964	74.31
230.199	84.31
230.433	72.31
230.667	73.31
230.901	73.31
231.136	81.31
231.37	68.31
231.604	82.31
231.838	97.31
232.072	72.31
232.306	75.31
232.541	92.31
232.775	92.31
233.009	85.31
233.243	84.31
233.477	72.31
233.711	75.31
233.945	69.31
234.179	76.31
234.413	85.31
234.647	75.31
234.881	81.31
235.115	67.31
235.349	71.31
235.583	89.31
235.817	82.31
236.051	82.31
236.285	76.31
236.519	80.31
236.753	85.31
236.987	88.31
237.221	71.31
237.455	66.31
237.689	72.31
237.922	75.31
238.156	55.31
238.39	76.31
238.624	80.31
238.858	82.31
239.091	69.31
239.325	76.31
239.559	84.31
239.793	83.31
240.027	80.31
240.26	80.31
240.494	77.31
240.728	83.31
240.961	70.31
241.195	78.31
241.429	77.31
241.662	91.31
241.896	78.31
242.13	74.31
242.363	84.31
242.597	69.31
242.83	81.31
243.064	76.31
243.298	84.31
243.531	75.31
243.765	82.31
243.998	71.31
244.232	82.31
244.465	91.31
244.699	80.31
244.932	89.31
245.166	86.31
245.399	82.31
245.633	83.31
245.866	81.31
246.099	83.31
246.333	72.31
246.566	69.31
246.8	61.31
247.033	75.31
247.266	82.31
247.5	82.31
247.733	76.31
247.966	86.31
248.2	80.31
248.433	83.31
248.666	69.31
248.899	87.31
249.133	81.31
249.366	81.31
249.599	81.31
249.832	72.31
250.066	83.31
250.299	81.31
250.532	75.31
250.765	81.31
250.998	80.31
251.231	74.31
251.465	81.31
251.698	83.31
251.931	79.31
252.164	74.31
252.397	81.31
252.63	80.31
252.863	81.31
253.096	75.31
253.329	98.31
253.562	72.31
253.795	83.31
254.028	74.31
254.261	81.31
254.494	74.31
254.727	70.31
254.96	96.31
255.193	87.31
255.426	84.31
255.659	81.31
255.892	94.31
256.124	83.31
256.357	77.31
256.59	89.31
256.823	85.31
257.056	71.31
257.289	88.31
257.521	83.31
257.754	83.31
257.987	80.31
258.22	85.31
258.452	77.31
258.685	74.31
258.918	87.31
259.151	84.31
259.383	73.31
259.616	90.31
259.849	81.31
260.081	90.31
260.314	90.31
260.547	84.31
260.779	83.31
261.012	76.31
261.244	71.31
261.477	88.31
261.71	80.31
261.942	93.31
262.175	89.31
262.407	86.31
262.64	73.31
262.872	90.31
263.105	79.31
263.337	82.31
263.57	84.31
263.802	87.31
264.035	83.31
264.267	92.31
264.499	79.31
264.732	91.31
264.964	73.31
265.197	85.31
265.429	83.31
265.661	96.31
265.894	109.31
266.126	91.31
266.358	94.31
266.591	86.31
266.823	79.31
267.055	72.31
267.287	79.31
267.52	73.31
267.752	88.31
267.984	96.31
268.216	84.31
268.448	84.31
268.681	73.31
268.913	88.31
269.145	84.31
269.377	102.31
269.609	89.31
269.841	90.31
270.073	78.31
270.306	95.31
270.538	95.31
270.77	79.31
271.002	85.31
271.234	88.31
271.466	100.31
271.698	87.31
271.93	79.31
272.162	82.31
272.394	87.31
272.626	77.31
272.858	92.31
273.09	100.31
273.322	101.31
273.553	95.31
273.785	90.31
274.017	95.31
274.249	88.31
274.481	79.31
274.713	92.31
274.945	90.31
275.176	81.31
275.408	75.31
275.64	81.31
275.872	85.31
276.104	83.31
276.335	88.31
276.567	73.31
276.799	81.31
277.031	91.31
277.262	84.31
277.494	85.31
277.726	98.31
277.957	72.31
278.189	77.31
278.421	88.31
278.652	89.31
278.884	76.31
279.115	94.31
279.347	81.31
279.579	92.31
279.81	91.31
280.042	87.31
280.273	100.31
280.505	87.31
280.736	88.31
280.968	91.31
281.199	88.31
281.431	77.31
281.662	104.31
281.894	85.31
282.125	96.31
282.356	88.31
282.588	88.31
282.819	75.31
283.051	76.31
283.282	95.31
283.513	94.31
283.745	97.31
283.976	92.31
284.207	98.31
284.439	75.31
284.67	90.31
284.901	83.31
285.132	93.31
285.364	82.31
285.595	103.31
285.826	98.31
286.057	92.31
286.288	76.31
286.52	80.31
286.751	69.31
286.982	84.31
287.213	85.31
287.444	97.31
287.675	91.31
287.906	84.31
288.138	94.31
288.369	91.31
288.6	88.31
288.831	90.31
289.062	90.31
289.293	80.31
289.524	84.31
289.755	90.31
289.986	76.31
290.217	73.31
290.448	92.31
290.679	94.31
290.91	113.31
291.141	87.31
291.371	79.31
291.602	77.31
291.833	96.31
292.064	98.31
292.295	87.31
292.526	102.31
292.757	86.31
292.987	101.31
293.218	89.31
293.449	103.31
293.68	101.31
293.91	83.31
294.141	96.31
294.372	94.31
294.603	86.31
294.833	89.31
295.064	97.31
295.295	86.31
295.525	90.31
295.756	92.31
295.987	97.31
296.217	92.31
296.448	83.31
296.679	89.31
296.909	86.31
297.14	89.31
297.37	113.31
297.601	86.31
297.831	86.31
298.062	95.31
298.292	87.31
298.523	89.31
298.753	90.31
298.984	93.31
299.214	92.31
299.445	103.31
299.675	94.31
299.905	84.31
300.136	88.31
300.366	91.31
300.597	93.31
300.827	107.31
301.057	81.31
301.288	86.31
301.518	79.31
301.748	87.31
301.979	85.31
302.209	84.31
302.439	84.31
302.669	95.31
302.9	91.31
303.13	81.31
303.36	86.31
303.59	76.31
303.82	82.31
304.051	104.31
304.281	85.31
304.511	82.31
304.741	82.31
304.971	92.31
305.201	99.31
305.431	79.31
305.661	86.31
305.891	92.31
306.121	101.31
306.352	82.31
306.582	92.31
306.812	87.31
307.042	100.31
307.272	74.31
307.502	83.31
307.731	92.31
307.961	89.31
308.191	102.31
308.421	90.31
308.651	102.31
308.881	86.31
309.111	100.31
309.341	85.31
309.571	91.31
309.8	69.31
310.03	100.31
310.26	83.31
310.49	83.31
310.72	87.31
310.949	94.31
311.179	99.31
311.409	80.31
311.639	94.31
311.868	87.31
312.098	90.31
312.328	81.31
312.557	73.31
312.787	87.31
313.017	91.31
313.246	95.31
313.476	95.31
313.706	84.31
313.935	98.31
314.165	94.31
314.394	91.31
314.624	87.31
314.853	78.31
315.083	104.31
315.312	103.31
315.542	89.31
315.771	100.31
316.001	90.31
316.23	89.31
316.46	90.31
316.689	99.31
316.919	101.31
317.148	99.31
317.377	86.31
317.607	99.31
317.836	89.31
318.065	79.31
318.295	88.31
318.524	104.31
318.753	88.31
318.983	91.31
319.212	100.31
319.441	77.31
319.67	93.31
319.9	91.31
320.129	96.31
320.358	86.31
320.587	89.31
320.816	95.31
321.046	96.31
321.275	85.31
321.504	92.31
321.733	93.31
321.962	103.31
322.191	85.31
322.42	113.31
322.649	96.31
322.878	89.31
323.108	98.31
323.337	97.31
323.566	85.31
323.795	100.31
324.024	86.31
324.253	80.31
324.482	92.31
324.71	101.31
324.939	95.31
325.168	82.31
325.397	91.31
325.626	87.31
325.855	89.31
326.084	90.31
326.313	102.31
326.542	97.31
326.77	80.31
326.999	80.31
327.228	93.31
327.457	85.31
327.686	91.31
327.914	92.31
328.143	66.31
328.372	91.31
328.6	84.31
328.829	80.31
329.058	77.31
329.287	111.31
329.515	101.31
329.744	90.31
329.972	92.31
330.201	91.31
330.43	93.31
330.658	90.31
330.887	85.31
331.115	88.31
331.344	90.31
331.572	105.31
331.801	103.31
332.03	91.31
332.258	78.31
332.486	100.31
332.715	100.31
332.943	95.31
333.172	100.31
333.4	89.31
333.629	102.31
333.857	99.31
334.085	81.31
334.314	87.31
334.542	95.31
334.771	87.31
334.999	100.31
335.227	87.31
335.455	89.31
335.684	93.31
335.912	86.31
336.14	88.31
336.369	85.31
336.597	101.31
336.825	107.31
337.053	91.31
337.281	80.31
337.51	83.31
337.738	93.31
337.966	85.31
338.194	105.31
338.422	88.31
338.65	88.31
338.878	88.31
339.106	98.31
339.334	82.31
339.562	79.31
339.79	84.31
340.018	70.31
340.246	92.31
340.474	89.31
340.702	98.31
340.93	90.31
341.158	73.31
341.386	94.31
341.614	88.31
341.842	90.31
342.07	81.31
342.298	103.31
342.526	89.31
342.754	88.31
342.981	103.31
343.209	84.31
343.437	86.31
343.665	97.31
343.893	90.31
344.12	85.31
344.348	94.31
344.576	89.31
344.804	97.31
345.031	97.31
345.259	87.31
345.487	92.31
345.714	67.31
345.942	93.31
346.17	84.31
346.397	84.31
346.625	80.31
346.853	85.31
347.08	97.31
347.308	101.31
347.535	85.31
347.763	84.31
347.99	93.31
348.218	88.31
348.445	97.31
348.673	99.31
348.9	77.31
349.128	75.31
349.355	94.31
349.583	97.31
349.81	84.31
350.037	92.31
350.265	101.31
350.492	99.31
350.72	82.31
350.947	83.31
351.174	99.31
351.402	93.31
351.629	101.31
351.856	76.31
352.083	92.31
352.311	90.31
352.538	88.31
352.765	101.31
352.992	77.31
353.22	91.31
353.447	96.31
353.674	89.31
353.901	93.31
354.128	84.31
354.355	99.31
354.583	74.31
354.81	94.31
355.037	97.31
355.264	85.31
355.491	92.31
355.718	89.31
355.945	93.31
356.172	90.31
356.399	92.31
356.626	89.31
356.853	95.31
357.08	92.31
357.307	103.31
357.534	79.31
357.761	89.31
357.988	92.31
358.215	88.31
358.441	79.31
358.668	94.31
358.895	85.31
359.122	90.31
359.349	92.31
359.576	96.31
359.802	95.31
360.029	86.31
360.256	90.31
360.483	90.31
360.709	93.31
360.936	101.31
361.163	102.31
361.39	101.31
361.616	92.31
361.843	87.31
362.07	92.31
362.296	84.31
362.523	90.31
362.749	84.31
362.976	98.31
363.203	77.31
363.429	88.31
363.656	99.31
363.882	91.31
364.109	92.31
364.335	99.31
364.562	83.31
364.788	88.31
365.015	86.31
365.241	87.31
365.468	91.31
365.694	89.31
365.92	91.31
366.147	86.31
366.373	84.31
366.599	85.31
366.826	92.31
367.052	89.31
367.278	103.31
367.505	86.31
367.731	92.31
367.957	90.31
368.184	97.31
368.41	95.31
368.636	87.31
368.862	94.31
369.089	96.31
369.315	97.31
369.541	90.31
369.767	87.31
369.993	86.31
370.219	93.31
370.445	104.31
370.672	90.31
370.898	95.31
371.124	86.31
371.35	94.31
371.576	94.31
371.802	89.31
372.028	82.31
372.254	96.31
372.48	95.31
372.706	85.31
372.932	84.31
373.158	87.31
373.384	76.31
373.61	81.31
373.835	87.31
374.061	84.31
374.287	92.31
374.513	89.31
374.739	90.31
374.965	94.31
375.191	102.31
375.416	107.31
375.642	92.31
375.868	80.31
376.094	77.31
376.319	86.31
376.545	83.31
376.771	84.31
376.997	93.31
377.222	93.31
377.448	90.31
377.674	89.31
377.899	85.31
378.125	84.31
378.35	77.31
378.576	87.31
378.802	83.31
379.027	91.31
379.253	89.31
379.478	100.31
379.704	88.31
379.929	100.31
380.155	86.31
380.38	94.31
380.606	90.31
380.831	92.31
381.057	89.31
381.282	86.31
381.507	79.31
381.733	92.31
381.958	85.31
382.184	94.31
382.409	75.31
382.634	95.31
382.86	100.31
383.085	90.31
383.31	95.31
383.535	92.31
383.761	92.31
383.986	93.31
384.211	83.31
384.436	82.31
384.662	90.31
384.887	97.31
385.112	102.31
385.337	91.31
385.562	81.31
385.787	92.31
386.013	91.31
386.238	101.31
386.463	102.31
386.688	79.31
386.913	86.31
387.138	88.31
387.363	102.31
387.588	97.31
387.813	114.31
388.038	86.31
388.263	108.31
388.488	101.31
388.713	95.31
388.938	89.31
389.163	90.31
389.387	82.31
389.612	93.31
389.837	103.31
390.062	87.31
390.287	80.31
390.512	93.31
390.736	84.31
390.961	88.31
391.186	92.31
391.411	111.31
391.636	89.31
391.86	85.31
392.085	82.31
392.31	102.31
392.534	95.31
392.759	95.31
392.984	91.31
393.208	77.31
393.433	86.31
393.658	98.31
393.882	96.31
394.107	91.31
394.331	99.31
394.556	89.31
394.78	95.31
395.005	91.31
395.229	88.31
395.454	82.31
395.678	97.31
395.903	105.31
396.127	101.31
396.352	100.31
396.576	83.31
396.801	92.31
397.025	97.31
397.249	85.31
397.474	105.31
397.698	101.31
397.922	96.31
398.147	92.31
398.371	83.31
398.595	95.31
398.82	102.31
399.044	93.31
399.268	86.31
399.492	100.31
399.717	99.31
399.941	95.31
400.165	97.31
400.389	106.31
400.613	90.31
400.837	91.31
401.062	87.31
401.286	95.31
401.51	97.31
401.734	93.31
401.958	97.31
402.182	90.31
402.406	102.31
402.63	97.31
402.854	102.31
403.078	93.31
403.302	87.31
403.526	111.31
403.75	105.31
403.974	101.31
404.198	115.31
404.422	90.31
404.645	86.31
404.869	81.31
405.093	123.31
405.317	92.31
405.541	101.31
405.765	91.31
405.988	91.31
406.212	99.31
406.436	80.31
406.66	103.31
406.883	88.31
407.107	105.31
407.331	114.31
407.555	103.31
407.778	89.31
408.002	111.31
408.226	90.31
408.449	100.31
408.673	75.31
408.896	86.31
409.12	98.31
409.344	103.31
409.567	101.31
409.791	93.31
410.014	89.31
410.238	95.31
410.461	100.31
410.685	83.31
410.908	87.31
411.132	100.31
411.355	97.31
411.578	96.31
411.802	97.31
412.025	93.31
412.249	104.31
412.472	96.31
412.695	95.31
412.919	100.31
413.142	95.31
413.365	89.31
413.589	97.31
413.812	94.31
414.035	99.31
414.258	90.31
414.482	91.31
414.705	108.31
414.928	84.31
415.151	74.31
415.374	95.31
415.597	113.31
415.821	106.31
416.044	104.31
416.267	89.31
416.49	76.31
416.713	96.31
416.936	87.31
417.159	86.31
417.382	101.31
417.605	84.31
417.828	103.31
418.051	97.31
418.274	96.31
418.497	97.31
418.72	109.31
418.943	92.31
419.166	99.31
419.389	90.31
419.611	91.31
419.834	92.31
420.057	90.31
420.28	87.31
420.503	82.31
420.726	91.31
420.948	99.31
421.171	96.31
421.394	79.31
421.617	87.31
421.839	110.31
422.062	89.31
422.285	94.31
422.507	95.31
422.73	99.31
422.953	91.31
423.175	85.31
423.398	82.31
423.621	108.31
423.843	100.31
424.066	85.31
424.288	97.31
424.511	95.31
424.733	89.31
424.956	87.31
425.178	98.31
425.401	99.31
425.623	109.31
425.846	91.31
426.068	89.31
426.291	91.31
426.513	93.31
426.735	92.31
426.958	88.31
427.18	100.31
427.402	97.31
427.625	100.31
427.847	86.31
428.069	96.31
428.292	112.31
428.514	100.31
428.736	87.31
428.958	105.31
429.181	86.31
429.403	97.31
429.625	92.31
429.847	98.31
430.069	90.31
430.292	100.31
430.514	86.31
430.736	85.31
430.958	97.31
431.18	102.31
431.402	101.31
431.624	92.31
431.846	88.31
432.068	113.31
432.29	99.31
432.512	107.31
432.734	107.31
432.956	83.31
433.178	100.31
433.4	85.31
433.622	97.31
433.844	92.31
434.066	93.31
434.287	90.31
434.509	76.31
434.731	109.31
434.953	82.31
435.175	100.31
435.397	101.31
435.618	97.31
435.84	98.31
436.062	97.31
436.284	92.31
436.505	96.31
436.727	87.31
436.949	94.31
437.17	79.31
437.392	83.31
437.614	80.31
437.835	94.31
438.057	81.31
438.278	95.31
438.5	91.31
438.721	104.31
438.943	99.31
439.165	90.31
439.386	85.31
439.608	81.31
439.829	92.31
440.05	97.31
440.272	91.31
440.493	99.31
440.715	88.31
440.936	100.31
441.158	98.31
441.379	93.31
441.6	89.31
441.822	83.31
442.043	100.31
442.264	99.31
442.486	95.31
442.707	94.31
442.928	99.31
443.149	86.31
443.371	97.31
443.592	97.31
443.813	92.31
444.034	89.31
444.255	93.31
444.476	119.31
444.698	83.31
444.919	94.31
445.14	225.31
445.361	153.31
445.582	96.31
445.803	89.31
446.024	104.31
446.245	91.31
446.466	99.31
446.687	102.31
446.908	84.31
447.129	97.31
447.35	90.31
447.571	91.31
447.792	88.31
448.013	99.31
448.234	86.31
448.455	88.31
448.675	83.31
448.896	83.31
449.117	92.31
449.338	100.31
449.559	89.31
449.779	91.31
450	84.31
450.221	108.31
450.442	88.31
450.662	92.31
450.883	93.31
451.104	92.31
451.324	99.31
451.545	88.31
451.766	95.31
451.986	93.31
452.207	99.31
452.428	81.31
452.648	91.31
452.869	90.31
453.089	91.31
453.31	88.31
453.53	99.31
453.751	90.31
453.971	104.31
454.192	88.31
454.412	90.31
454.633	87.31
454.853	100.31
455.073	89.31
455.294	95.31
455.514	97.31
455.734	91.31
455.955	90.31
456.175	92.31
456.395	93.31
456.616	93.31
456.836	80.31
457.056	93.31
457.276	104.31
457.497	84.31
457.717	93.31
457.937	91.31
458.157	92.31
458.377	84.31
458.598	93.31
458.818	82.31
459.038	83.31
459.258	101.31
459.478	88.31
459.698	97.31
459.918	86.31
460.138	97.31
460.358	88.31
460.578	100.31
460.798	107.31
461.018	89.31
461.238	100.31
461.458	83.31
461.678	80.31
461.898	85.31
462.118	105.31
462.338	102.31
462.558	113.31
462.777	95.31
462.997	97.31
463.217	118.31
463.437	104.31
463.657	100.31
463.876	106.31
464.096	89.31
464.316	83.31
464.536	94.31
464.755	102.31
464.975	93.31
465.195	109.31
465.414	94.31
465.634	104.31
465.854	84.31
466.073	82.31
466.293	93.31
466.512	78.31
466.732	86.31
466.951	104.31
467.171	92.31
467.391	90.31
467.61	90.31
467.829	91.31
468.049	95.31
468.268	89.31
468.488	87.31
468.707	101.31
468.927	91.31
469.146	87.31
469.365	111.31
469.585	105.31
469.804	101.31
470.023	100.31
470.243	92.31
470.462	96.31
470.681	101.31
470.901	97.31
471.12	92.31
471.339	109.31
471.558	88.31
471.777	114.31
471.997	90.31
472.216	89.31
472.435	83.31
472.654	104.31
472.873	109.31
473.092	91.31
473.311	93.31
473.53	83.31
473.749	99.31
473.968	98.31
474.187	82.31
474.406	87.31
474.625	97.31
474.844	107.31
475.063	104.31
475.282	95.31
475.501	97.31
475.72	107.31
475.939	103.31
476.158	86.31
476.377	87.31
476.596	88.31
476.814	105.31
477.033	90.31
477.252	95.31
477.471	109.31
477.69	99.31
477.908	96.31
478.127	103.31
478.346	112.31
478.564	90.31
478.783	88.31
479.002	93.31
479.22	96.31
479.439	93.31
479.658	102.31
479.876	95.31
480.095	110.31
480.313	109.31
480.532	92.31
480.751	103.31
480.969	83.31
481.188	108.31
481.406	102.31
481.624	89.31
481.843	87.31
482.061	95.31
482.28	102.31
482.498	93.31
482.717	100.31
482.935	106.31
483.153	108.31
483.372	112.31
483.59	97.31
483.808	105.31
484.027	88.31
484.245	96.31
484.463	88.31
484.681	102.31
484.9	95.31
485.118	88.31
485.336	99.31
485.554	88.31
485.772	89.31
485.99	99.31
486.209	104.31
486.427	108.31
486.645	100.31
486.863	94.31
487.081	90.31
487.299	91.31
487.517	105.31
487.735	102.31
487.953	117.31
488.171	108.31
488.389	110.31
488.607	111.31
488.825	105.31
489.043	111.31
489.261	115.31
489.479	117.31
489.696	105.31
489.914	101.31
490.132	107.31
490.35	111.31
490.568	105.31
490.786	108.31
491.003	123.31
491.221	115.31
491.439	111.31
491.657	103.31
491.874	112.31
492.092	113.31
492.31	112.31
492.527	113.31
492.745	111.31
492.963	116.31
493.18	108.31
493.398	103.31
493.615	118.31
493.833	96.31
494.05	106.31
494.268	111.31
494.485	119.31
494.703	125.31
494.92	109.31
495.138	104.31
495.355	112.31
495.573	112.31
495.79	116.31
496.008	111.31
496.225	95.31
496.442	106.31
496.66	102.31
496.877	115.31
497.094	102.31
497.312	103.31
497.529	96.31
497.746	103.31
497.963	104.31
498.181	114.31
498.398	111.31
498.615	112.31
498.832	111.31
499.049	107.31
499.267	116.31
499.484	111.31
499.701	125.31
499.918	138.31
500.135	134.31
500.352	141.31
500.569	160.31
500.786	161.31
501.003	138.31
501.22	133.31
501.437	138.31
501.654	137.31
501.871	116.31
502.088	119.31
502.305	115.31
502.522	120.31
502.739	129.31
502.956	119.31
503.172	134.31
503.389	101.31
503.606	90.31
503.823	106.31
504.04	106.31
504.256	104.31
504.473	101.31
504.69	105.31
504.907	120.31
505.123	111.31
505.34	111.31
505.557	113.31
505.773	112.31
505.99	92.31
506.207	104.31
506.423	91.31
506.64	104.31
506.856	106.31
507.073	97.31
507.289	111.31
507.506	111.31
507.722	111.31
507.939	93.31
508.155	103.31
508.372	101.31
508.588	86.31
508.805	105.31
509.021	96.31
509.238	109.31
509.454	97.31
509.67	105.31
509.887	100.31
510.103	98.31
510.319	98.31
510.536	106.31
510.752	91.31
510.968	104.31
511.184	106.31
511.401	103.31
511.617	95.31
511.833	103.31
512.049	97.31
512.265	90.31
512.481	97.31
512.698	101.31
512.914	111.31
513.13	92.31
513.346	88.31
513.562	99.31
513.778	111.31
513.994	103.31
514.21	91.31
514.426	98.31
514.642	110.31
514.858	88.31
515.074	107.31
515.29	116.31
