Data from Location5.07152019.Energy5.Lamp.07192019.3%Agarose_HRD10591_16-04-41-629.txt Node
Date: Fri Jul 19 16:04:41 EDT 2019
User: cochatt
Spectrometer: HR+D1059
Trigger mode: 1
Integration Time (sec): 1.000000E-1
Scans to average: 1
Electric dark correction enabled: true
Nonlinearity correction enabled: false
Boxcar width: 0
XAxis mode: Wavelengths
Number of Pixels in Spectrum: 2048
>>>>>Begin Spectral Data<<<<<
223.165	-16.12
223.4	-16.12
223.635	-16.12
223.869	-26.12
224.104	-13.12
224.338	-13.12
224.573	-14.12
224.808	-18.12
225.042	-12.12
225.277	-0.12
225.511	-11.12
225.746	2.88
225.98	8.88
226.215	3.88
226.449	19.88
226.683	17.88
226.918	45.88
227.152	24.88
227.387	41.88
227.621	29.88
227.856	39.88
228.09	51.88
228.324	62.88
228.559	52.88
228.793	61.88
229.027	52.88
229.262	73.88
229.496	63.88
229.73	57.88
229.964	49.88
230.199	68.88
230.433	68.88
230.667	78.88
230.901	78.88
231.136	83.88
231.37	86.88
231.604	70.88
231.838	72.88
232.072	83.88
232.306	84.88
232.541	81.88
232.775	78.88
233.009	93.88
233.243	80.88
233.477	89.88
233.711	89.88
233.945	77.88
234.179	74.88
234.413	84.88
234.647	78.88
234.881	86.88
235.115	96.88
235.349	82.88
235.583	70.88
235.817	85.88
236.051	70.88
236.285	88.88
236.519	79.88
236.753	96.88
236.987	69.88
237.221	79.88
237.455	69.88
237.689	66.88
237.922	77.88
238.156	73.88
238.39	78.88
238.624	58.88
238.858	78.88
239.091	88.88
239.325	69.88
239.559	72.88
239.793	63.88
240.027	75.88
240.26	76.88
240.494	75.88
240.728	75.88
240.961	72.88
241.195	76.88
241.429	92.88
241.662	83.88
241.896	68.88
242.13	73.88
242.363	82.88
242.597	66.88
242.83	88.88
243.064	63.88
243.298	72.88
243.531	82.88
243.765	75.88
243.998	75.88
244.232	71.88
244.465	84.88
244.699	73.88
244.932	82.88
245.166	83.88
245.399	81.88
245.633	75.88
245.866	72.88
246.099	85.88
246.333	76.88
246.566	84.88
246.8	78.88
247.033	76.88
247.266	69.88
247.5	86.88
247.733	89.88
247.966	71.88
248.2	68.88
248.433	71.88
248.666	71.88
248.899	88.88
249.133	76.88
249.366	84.88
249.599	79.88
249.832	78.88
250.066	64.88
250.299	78.88
250.532	85.88
250.765	84.88
250.998	84.88
251.231	83.88
251.465	92.88
251.698	62.88
251.931	79.88
252.164	79.88
252.397	84.88
252.63	72.88
252.863	79.88
253.096	74.88
253.329	72.88
253.562	70.88
253.795	87.88
254.028	64.88
254.261	68.88
254.494	79.88
254.727	95.88
254.96	87.88
255.193	86.88
255.426	60.88
255.659	87.88
255.892	79.88
256.124	72.88
256.357	89.88
256.59	75.88
256.823	81.88
257.056	92.88
257.289	101.88
257.521	72.88
257.754	78.88
257.987	70.88
258.22	88.88
258.452	67.88
258.685	85.88
258.918	75.88
259.151	80.88
259.383	95.88
259.616	91.88
259.849	96.88
260.081	92.88
260.314	89.88
260.547	80.88
260.779	82.88
261.012	78.88
261.244	83.88
261.477	81.88
261.71	87.88
261.942	79.88
262.175	85.88
262.407	96.88
262.64	93.88
262.872	88.88
263.105	84.88
263.337	79.88
263.57	62.88
263.802	80.88
264.035	84.88
264.267	92.88
264.499	94.88
264.732	77.88
264.964	95.88
265.197	86.88
265.429	77.88
265.661	89.88
265.894	84.88
266.126	84.88
266.358	84.88
266.591	91.88
266.823	88.88
267.055	86.88
267.287	87.88
267.52	73.88
267.752	75.88
267.984	91.88
268.216	77.88
268.448	89.88
268.681	78.88
268.913	80.88
269.145	100.88
269.377	89.88
269.609	78.88
269.841	105.88
270.073	87.88
270.306	93.88
270.538	88.88
270.77	84.88
271.002	87.88
271.234	80.88
271.466	86.88
271.698	83.88
271.93	85.88
272.162	67.88
272.394	86.88
272.626	71.88
272.858	82.88
273.09	73.88
273.322	74.88
273.553	79.88
273.785	78.88
274.017	84.88
274.249	81.88
274.481	93.88
274.713	80.88
274.945	79.88
275.176	80.88
275.408	99.88
275.64	95.88
275.872	87.88
276.104	88.88
276.335	87.88
276.567	81.88
276.799	88.88
277.031	86.88
277.262	83.88
277.494	74.88
277.726	80.88
277.957	87.88
278.189	84.88
278.421	87.88
278.652	75.88
278.884	93.88
279.115	95.88
279.347	83.88
279.579	92.88
279.81	82.88
280.042	89.88
280.273	84.88
280.505	80.88
280.736	73.88
280.968	91.88
281.199	86.88
281.431	75.88
281.662	78.88
281.894	71.88
282.125	93.88
282.356	105.88
282.588	101.88
282.819	79.88
283.051	80.88
283.282	86.88
283.513	87.88
283.745	83.88
283.976	100.88
284.207	96.88
284.439	88.88
284.67	84.88
284.901	82.88
285.132	72.88
285.364	88.88
285.595	109.88
285.826	82.88
286.057	92.88
286.288	90.88
286.52	85.88
286.751	88.88
286.982	86.88
287.213	86.88
287.444	80.88
287.675	81.88
287.906	84.88
288.138	94.88
288.369	87.88
288.6	93.88
288.831	82.88
289.062	88.88
289.293	94.88
289.524	74.88
289.755	79.88
289.986	91.88
290.217	84.88
290.448	80.88
290.679	82.88
290.91	84.88
291.141	95.88
291.371	97.88
291.602	81.88
291.833	78.88
292.064	109.88
292.295	97.88
292.526	89.88
292.757	87.88
292.987	75.88
293.218	77.88
293.449	97.88
293.68	78.88
293.91	89.88
294.141	88.88
294.372	90.88
294.603	86.88
294.833	82.88
295.064	85.88
295.295	83.88
295.525	69.88
295.756	100.88
295.987	84.88
296.217	85.88
296.448	89.88
296.679	85.88
296.909	80.88
297.14	86.88
297.37	92.88
297.601	88.88
297.831	84.88
298.062	77.88
298.292	89.88
298.523	86.88
298.753	95.88
298.984	88.88
299.214	80.88
299.445	94.88
299.675	91.88
299.905	91.88
300.136	96.88
300.366	88.88
300.597	71.88
300.827	89.88
301.057	94.88
301.288	98.88
301.518	99.88
301.748	83.88
301.979	101.88
302.209	91.88
302.439	95.88
302.669	86.88
302.9	80.88
303.13	99.88
303.36	87.88
303.59	91.88
303.82	86.88
304.051	94.88
304.281	97.88
304.511	86.88
304.741	97.88
304.971	81.88
305.201	80.88
305.431	81.88
305.661	85.88
305.891	95.88
306.121	95.88
306.352	94.88
306.582	95.88
306.812	93.88
307.042	93.88
307.272	102.88
307.502	85.88
307.731	88.88
307.961	84.88
308.191	96.88
308.421	82.88
308.651	90.88
308.881	93.88
309.111	76.88
309.341	100.88
309.571	98.88
309.8	91.88
310.03	90.88
310.26	102.88
310.49	93.88
310.72	93.88
310.949	82.88
311.179	87.88
311.409	90.88
311.639	77.88
311.868	98.88
312.098	84.88
312.328	85.88
312.557	104.88
312.787	97.88
313.017	93.88
313.246	84.88
313.476	88.88
313.706	101.88
313.935	88.88
314.165	86.88
314.394	103.88
314.624	89.88
314.853	101.88
315.083	86.88
315.312	85.88
315.542	96.88
315.771	104.88
316.001	101.88
316.23	94.88
316.46	88.88
316.689	92.88
316.919	86.88
317.148	81.88
317.377	83.88
317.607	82.88
317.836	90.88
318.065	97.88
318.295	90.88
318.524	73.88
318.753	96.88
318.983	85.88
319.212	97.88
319.441	74.88
319.67	90.88
319.9	91.88
320.129	81.88
320.358	87.88
320.587	89.88
320.816	99.88
321.046	91.88
321.275	100.88
321.504	88.88
321.733	92.88
321.962	105.88
322.191	95.88
322.42	74.88
322.649	94.88
322.878	83.88
323.108	73.88
323.337	84.88
323.566	81.88
323.795	79.88
324.024	95.88
324.253	88.88
324.482	94.88
324.71	91.88
324.939	90.88
325.168	99.88
325.397	98.88
325.626	93.88
325.855	97.88
326.084	96.88
326.313	97.88
326.542	89.88
326.77	91.88
326.999	74.88
327.228	81.88
327.457	90.88
327.686	88.88
327.914	104.88
328.143	90.88
328.372	75.88
328.6	69.88
328.829	82.88
329.058	89.88
329.287	78.88
329.515	77.88
329.744	99.88
329.972	85.88
330.201	97.88
330.43	98.88
330.658	83.88
330.887	84.88
331.115	89.88
331.344	98.88
331.572	92.88
331.801	93.88
332.03	85.88
332.258	97.88
332.486	105.88
332.715	95.88
332.943	97.88
333.172	90.88
333.4	91.88
333.629	91.88
333.857	92.88
334.085	88.88
334.314	97.88
334.542	99.88
334.771	84.88
334.999	100.88
335.227	98.88
335.455	95.88
335.684	90.88
335.912	89.88
336.14	92.88
336.369	89.88
336.597	97.88
336.825	98.88
337.053	93.88
337.281	98.88
337.51	90.88
337.738	84.88
337.966	91.88
338.194	96.88
338.422	101.88
338.65	101.88
338.878	92.88
339.106	83.88
339.334	109.88
339.562	75.88
339.79	93.88
340.018	85.88
340.246	89.88
340.474	85.88
340.702	88.88
340.93	93.88
341.158	83.88
341.386	95.88
341.614	92.88
341.842	81.88
342.07	79.88
342.298	93.88
342.526	99.88
342.754	92.88
342.981	88.88
343.209	88.88
343.437	92.88
343.665	89.88
343.893	85.88
344.12	95.88
344.348	99.88
344.576	82.88
344.804	89.88
345.031	99.88
345.259	87.88
345.487	83.88
345.714	99.88
345.942	77.88
346.17	96.88
346.397	103.88
346.625	89.88
346.853	75.88
347.08	90.88
347.308	81.88
347.535	79.88
347.763	98.88
347.99	89.88
348.218	99.88
348.445	91.88
348.673	84.88
348.9	90.88
349.128	83.88
349.355	93.88
349.583	88.88
349.81	84.88
350.037	74.88
350.265	86.88
350.492	81.88
350.72	90.88
350.947	93.88
351.174	98.88
351.402	85.88
351.629	102.88
351.856	84.88
352.083	85.88
352.311	85.88
352.538	87.88
352.765	77.88
352.992	85.88
353.22	95.88
353.447	92.88
353.674	90.88
353.901	89.88
354.128	89.88
354.355	87.88
354.583	86.88
354.81	81.88
355.037	91.88
355.264	104.88
355.491	87.88
355.718	88.88
355.945	96.88
356.172	96.88
356.399	86.88
356.626	92.88
356.853	89.88
357.08	93.88
357.307	91.88
357.534	83.88
357.761	88.88
357.988	85.88
358.215	95.88
358.441	85.88
358.668	98.88
358.895	87.88
359.122	101.88
359.349	78.88
359.576	93.88
359.802	93.88
360.029	87.88
360.256	92.88
360.483	98.88
360.709	89.88
360.936	89.88
361.163	94.88
361.39	90.88
361.616	91.88
361.843	97.88
362.07	98.88
362.296	97.88
362.523	85.88
362.749	87.88
362.976	89.88
363.203	91.88
363.429	96.88
363.656	91.88
363.882	84.88
364.109	87.88
364.335	89.88
364.562	81.88
364.788	93.88
365.015	82.88
365.241	95.88
365.468	85.88
365.694	97.88
365.92	83.88
366.147	86.88
366.373	83.88
366.599	91.88
366.826	87.88
367.052	93.88
367.278	88.88
367.505	94.88
367.731	101.88
367.957	78.88
368.184	96.88
368.41	93.88
368.636	93.88
368.862	86.88
369.089	94.88
369.315	80.88
369.541	66.88
369.767	97.88
369.993	93.88
370.219	77.88
370.445	100.88
370.672	99.88
370.898	82.88
371.124	89.88
371.35	74.88
371.576	86.88
371.802	84.88
372.028	89.88
372.254	89.88
372.48	88.88
372.706	68.88
372.932	100.88
373.158	88.88
373.384	77.88
373.61	100.88
373.835	86.88
374.061	80.88
374.287	72.88
374.513	84.88
374.739	85.88
374.965	87.88
375.191	88.88
375.416	83.88
375.642	102.88
375.868	100.88
376.094	103.88
376.319	89.88
376.545	94.88
376.771	80.88
376.997	85.88
377.222	99.88
377.448	89.88
377.674	89.88
377.899	96.88
378.125	88.88
378.35	85.88
378.576	99.88
378.802	91.88
379.027	85.88
379.253	73.88
379.478	101.88
379.704	95.88
379.929	84.88
380.155	72.88
380.38	73.88
380.606	99.88
380.831	98.88
381.057	96.88
381.282	83.88
381.507	86.88
381.733	88.88
381.958	96.88
382.184	93.88
382.409	86.88
382.634	108.88
382.86	84.88
383.085	93.88
383.31	94.88
383.535	85.88
383.761	90.88
383.986	89.88
384.211	88.88
384.436	88.88
384.662	99.88
384.887	87.88
385.112	89.88
385.337	90.88
385.562	92.88
385.787	81.88
386.013	98.88
386.238	85.88
386.463	98.88
386.688	86.88
386.913	90.88
387.138	103.88
387.363	79.88
387.588	93.88
387.813	77.88
388.038	95.88
388.263	95.88
388.488	89.88
388.713	95.88
388.938	99.88
389.163	96.88
389.387	89.88
389.612	87.88
389.837	89.88
390.062	87.88
390.287	90.88
390.512	95.88
390.736	98.88
390.961	101.88
391.186	85.88
391.411	80.88
391.636	87.88
391.86	87.88
392.085	80.88
392.31	86.88
392.534	86.88
392.759	86.88
392.984	95.88
393.208	85.88
393.433	91.88
393.658	86.88
393.882	96.88
394.107	76.88
394.331	101.88
394.556	85.88
394.78	80.88
395.005	96.88
395.229	98.88
395.454	89.88
395.678	89.88
395.903	100.88
396.127	107.88
396.352	96.88
396.576	98.88
396.801	101.88
397.025	90.88
397.249	86.88
397.474	97.88
397.698	104.88
397.922	95.88
398.147	88.88
398.371	102.88
398.595	96.88
398.82	104.88
399.044	98.88
399.268	95.88
399.492	91.88
399.717	97.88
399.941	96.88
400.165	104.88
400.389	102.88
400.613	93.88
400.837	121.88
401.062	96.88
401.286	103.88
401.51	106.88
401.734	105.88
401.958	92.88
402.182	97.88
402.406	94.88
402.63	94.88
402.854	83.88
403.078	92.88
403.302	114.88
403.526	94.88
403.75	94.88
403.974	112.88
404.198	89.88
404.422	106.88
404.645	102.88
404.869	79.88
405.093	93.88
405.317	94.88
405.541	102.88
405.765	95.88
405.988	96.88
406.212	100.88
406.436	99.88
406.66	97.88
406.883	88.88
407.107	104.88
407.331	88.88
407.555	94.88
407.778	96.88
408.002	89.88
408.226	92.88
408.449	92.88
408.673	89.88
408.896	89.88
409.12	88.88
409.344	105.88
409.567	89.88
409.791	101.88
410.014	97.88
410.238	95.88
410.461	88.88
410.685	92.88
410.908	101.88
411.132	91.88
411.355	77.88
411.578	89.88
411.802	88.88
412.025	76.88
412.249	88.88
412.472	84.88
412.695	109.88
412.919	100.88
413.142	101.88
413.365	115.88
413.589	105.88
413.812	106.88
414.035	99.88
414.258	113.88
414.482	89.88
414.705	98.88
414.928	99.88
415.151	86.88
415.374	99.88
415.597	107.88
415.821	102.88
416.044	95.88
416.267	95.88
416.49	93.88
416.713	109.88
416.936	89.88
417.159	89.88
417.382	86.88
417.605	103.88
417.828	100.88
418.051	102.88
418.274	99.88
418.497	93.88
418.72	87.88
418.943	104.88
419.166	109.88
419.389	89.88
419.611	89.88
419.834	98.88
420.057	96.88
420.28	87.88
420.503	87.88
420.726	98.88
420.948	102.88
421.171	98.88
421.394	104.88
421.617	85.88
421.839	76.88
422.062	103.88
422.285	101.88
422.507	85.88
422.73	94.88
422.953	79.88
423.175	100.88
423.398	90.88
423.621	98.88
423.843	101.88
424.066	98.88
424.288	108.88
424.511	101.88
424.733	88.88
424.956	93.88
425.178	106.88
425.401	91.88
425.623	84.88
425.846	78.88
426.068	92.88
426.291	89.88
426.513	77.88
426.735	95.88
426.958	92.88
427.18	83.88
427.402	90.88
427.625	91.88
427.847	91.88
428.069	86.88
428.292	93.88
428.514	96.88
428.736	90.88
428.958	96.88
429.181	95.88
429.403	100.88
429.625	79.88
429.847	94.88
430.069	102.88
430.292	97.88
430.514	89.88
430.736	70.88
430.958	81.88
431.18	102.88
431.402	100.88
431.624	104.88
431.846	87.88
432.068	79.88
432.29	92.88
432.512	100.88
432.734	91.88
432.956	80.88
433.178	100.88
433.4	93.88
433.622	84.88
433.844	96.88
434.066	86.88
434.287	87.88
434.509	93.88
434.731	97.88
434.953	102.88
435.175	89.88
435.397	94.88
435.618	92.88
435.84	82.88
436.062	93.88
436.284	110.88
436.505	85.88
436.727	101.88
436.949	83.88
437.17	79.88
437.392	86.88
437.614	80.88
437.835	77.88
438.057	96.88
438.278	114.88
438.5	99.88
438.721	86.88
438.943	85.88
439.165	91.88
439.386	93.88
439.608	90.88
439.829	89.88
440.05	82.88
440.272	82.88
440.493	81.88
440.715	96.88
440.936	93.88
441.158	81.88
441.379	91.88
441.6	96.88
441.822	100.88
442.043	98.88
442.264	104.88
442.486	93.88
442.707	93.88
442.928	78.88
443.149	93.88
443.371	107.88
443.592	92.88
443.813	93.88
444.034	94.88
444.255	103.88
444.476	83.88
444.698	100.88
444.919	106.88
445.14	216.88
445.361	146.88
445.582	91.88
445.803	87.88
446.024	104.88
446.245	96.88
446.466	99.88
446.687	99.88
446.908	82.88
447.129	71.88
447.35	82.88
447.571	83.88
447.792	81.88
448.013	88.88
448.234	85.88
448.455	86.88
448.675	92.88
448.896	87.88
449.117	88.88
449.338	87.88
449.559	97.88
449.779	101.88
450	93.88
450.221	86.88
450.442	92.88
450.662	89.88
450.883	80.88
451.104	95.88
451.324	94.88
451.545	82.88
451.766	93.88
451.986	91.88
452.207	96.88
452.428	86.88
452.648	86.88
452.869	100.88
453.089	80.88
453.31	94.88
453.53	91.88
453.751	89.88
453.971	82.88
454.192	87.88
454.412	90.88
454.633	99.88
454.853	84.88
455.073	99.88
455.294	90.88
455.514	88.88
455.734	91.88
455.955	94.88
456.175	87.88
456.395	85.88
456.616	78.88
456.836	90.88
457.056	86.88
457.276	79.88
457.497	102.88
457.717	89.88
457.937	102.88
458.157	95.88
458.377	86.88
458.598	95.88
458.818	92.88
459.038	84.88
459.258	101.88
459.478	90.88
459.698	98.88
459.918	87.88
460.138	100.88
460.358	86.88
460.578	88.88
460.798	119.88
461.018	96.88
461.238	98.88
461.458	109.88
461.678	103.88
461.898	80.88
462.118	99.88
462.338	100.88
462.558	100.88
462.777	74.88
462.997	108.88
463.217	100.88
463.437	112.88
463.657	100.88
463.876	99.88
464.096	105.88
464.316	103.88
464.536	97.88
464.755	108.88
464.975	90.88
465.195	100.88
465.414	80.88
465.634	101.88
465.854	88.88
466.073	87.88
466.293	95.88
466.512	104.88
466.732	82.88
466.951	93.88
467.171	93.88
467.391	92.88
467.61	86.88
467.829	92.88
468.049	99.88
468.268	108.88
468.488	94.88
468.707	88.88
468.927	86.88
469.146	92.88
469.365	90.88
469.585	93.88
469.804	98.88
470.023	89.88
470.243	90.88
470.462	96.88
470.681	89.88
470.901	70.88
471.12	81.88
471.339	82.88
471.558	91.88
471.777	90.88
471.997	103.88
472.216	95.88
472.435	94.88
472.654	96.88
472.873	101.88
473.092	110.88
473.311	96.88
473.53	92.88
473.749	88.88
473.968	94.88
474.187	99.88
474.406	101.88
474.625	105.88
474.844	102.88
475.063	92.88
475.282	87.88
475.501	100.88
475.72	93.88
475.939	93.88
476.158	81.88
476.377	84.88
476.596	102.88
476.814	80.88
477.033	96.88
477.252	104.88
477.471	85.88
477.69	110.88
477.908	95.88
478.127	96.88
478.346	107.88
478.564	94.88
478.783	92.88
479.002	93.88
479.22	92.88
479.439	104.88
479.658	82.88
479.876	87.88
480.095	92.88
480.313	110.88
480.532	109.88
480.751	105.88
480.969	105.88
481.188	82.88
481.406	94.88
481.624	94.88
481.843	90.88
482.061	89.88
482.28	105.88
482.498	103.88
482.717	109.88
482.935	93.88
483.153	100.88
483.372	102.88
483.59	112.88
483.808	95.88
484.027	110.88
484.245	93.88
484.463	108.88
484.681	113.88
484.9	85.88
485.118	97.88
485.336	105.88
485.554	108.88
485.772	100.88
485.99	103.88
486.209	92.88
486.427	94.88
486.645	102.88
486.863	102.88
487.081	98.88
487.299	101.88
487.517	90.88
487.735	93.88
487.953	111.88
488.171	102.88
488.389	105.88
488.607	97.88
488.825	104.88
489.043	81.88
489.261	86.88
489.479	100.88
489.696	118.88
489.914	100.88
490.132	100.88
490.35	101.88
490.568	108.88
490.786	110.88
491.003	93.88
491.221	97.88
491.439	102.88
491.657	126.88
491.874	113.88
492.092	120.88
492.31	111.88
492.527	94.88
492.745	119.88
492.963	106.88
493.18	106.88
493.398	110.88
493.615	112.88
493.833	105.88
494.05	115.88
494.268	111.88
494.485	113.88
494.703	112.88
494.92	105.88
495.138	110.88
495.355	108.88
495.573	117.88
495.79	122.88
496.008	111.88
496.225	119.88
496.442	101.88
496.66	111.88
496.877	103.88
497.094	112.88
497.312	98.88
497.529	94.88
497.746	102.88
497.963	108.88
498.181	94.88
498.398	106.88
498.615	106.88
498.832	116.88
499.049	115.88
499.267	108.88
499.484	119.88
499.701	120.88
499.918	134.88
500.135	124.88
500.352	163.88
500.569	157.88
500.786	148.88
501.003	154.88
501.22	134.88
501.437	137.88
501.654	123.88
501.871	122.88
502.088	106.88
502.305	101.88
502.522	112.88
502.739	107.88
502.956	118.88
503.172	112.88
503.389	103.88
503.606	93.88
503.823	101.88
504.04	100.88
504.256	111.88
504.473	101.88
504.69	102.88
504.907	112.88
505.123	103.88
505.34	96.88
505.557	105.88
505.773	113.88
505.99	102.88
506.207	96.88
506.423	104.88
506.64	113.88
506.856	95.88
507.073	108.88
507.289	100.88
507.506	111.88
507.722	91.88
507.939	108.88
508.155	108.88
508.372	98.88
508.588	92.88
508.805	97.88
509.021	96.88
509.238	105.88
509.454	96.88
509.67	98.88
509.887	100.88
510.103	106.88
510.319	102.88
510.536	101.88
510.752	105.88
510.968	99.88
511.184	96.88
511.401	99.88
511.617	96.88
511.833	89.88
512.049	100.88
512.265	96.88
512.481	87.88
512.698	97.88
512.914	99.88
513.13	90.88
513.346	94.88
513.562	103.88
513.778	104.88
513.994	97.88
514.21	87.88
514.426	108.88
514.642	112.88
514.858	102.88
515.074	108.88
515.29	116.88
515.506	89.88
515.721	98.88
