Data from Location5.07152019.Energy5.Lamp.07192019.3%Agarose_HRD10591_15-38-56-388.txt Node
Date: Fri Jul 19 15:38:56 EDT 2019
User: cochatt
Spectrometer: HR+D1059
Trigger mode: 1
Integration Time (sec): 1.000000E-1
Scans to average: 1
Electric dark correction enabled: true
Nonlinearity correction enabled: false
Boxcar width: 0
XAxis mode: Wavelengths
Number of Pixels in Spectrum: 2048
>>>>>Begin Spectral Data<<<<<
223.165	1.25
223.4	1.25
223.635	1.25
223.869	-11.75
224.104	-16.75
224.338	-16.75
224.573	-16.75
224.808	-5.75
225.042	-6.75
225.277	0.25
225.511	-6.75
225.746	-17.75
225.98	8.25
226.215	7.25
226.449	22.25
226.683	15.25
226.918	17.25
227.152	27.25
227.387	33.25
227.621	31.25
227.856	26.25
228.09	46.25
228.324	33.25
228.559	61.25
228.793	52.25
229.027	69.25
229.262	71.25
229.496	51.25
229.73	55.25
229.964	76.25
230.199	59.25
230.433	81.25
230.667	70.25
230.901	67.25
231.136	87.25
231.37	73.25
231.604	78.25
231.838	80.25
232.072	79.25
232.306	84.25
232.541	75.25
232.775	75.25
233.009	73.25
233.243	68.25
233.477	71.25
233.711	87.25
233.945	83.25
234.179	75.25
234.413	76.25
234.647	72.25
234.881	78.25
235.115	72.25
235.349	87.25
235.583	88.25
235.817	72.25
236.051	68.25
236.285	76.25
236.519	64.25
236.753	70.25
236.987	64.25
237.221	71.25
237.455	74.25
237.689	81.25
237.922	67.25
238.156	81.25
238.39	73.25
238.624	81.25
238.858	76.25
239.091	73.25
239.325	59.25
239.559	85.25
239.793	80.25
240.027	81.25
240.26	82.25
240.494	84.25
240.728	64.25
240.961	73.25
241.195	58.25
241.429	75.25
241.662	74.25
241.896	80.25
242.13	65.25
242.363	69.25
242.597	65.25
242.83	77.25
243.064	61.25
243.298	72.25
243.531	86.25
243.765	67.25
243.998	67.25
244.232	57.25
244.465	74.25
244.699	71.25
244.932	67.25
245.166	79.25
245.399	82.25
245.633	79.25
245.866	90.25
246.099	82.25
246.333	77.25
246.566	86.25
246.8	88.25
247.033	73.25
247.266	75.25
247.5	65.25
247.733	73.25
247.966	73.25
248.2	60.25
248.433	69.25
248.666	68.25
248.899	73.25
249.133	68.25
249.366	86.25
249.599	73.25
249.832	80.25
250.066	78.25
250.299	76.25
250.532	79.25
250.765	71.25
250.998	80.25
251.231	70.25
251.465	75.25
251.698	71.25
251.931	95.25
252.164	78.25
252.397	63.25
252.63	82.25
252.863	79.25
253.096	76.25
253.329	74.25
253.562	69.25
253.795	72.25
254.028	75.25
254.261	88.25
254.494	81.25
254.727	73.25
254.96	63.25
255.193	78.25
255.426	86.25
255.659	80.25
255.892	92.25
256.124	80.25
256.357	66.25
256.59	79.25
256.823	86.25
257.056	76.25
257.289	74.25
257.521	69.25
257.754	73.25
257.987	82.25
258.22	72.25
258.452	74.25
258.685	83.25
258.918	72.25
259.151	98.25
259.383	72.25
259.616	69.25
259.849	83.25
260.081	72.25
260.314	72.25
260.547	77.25
260.779	75.25
261.012	85.25
261.244	71.25
261.477	90.25
261.71	77.25
261.942	88.25
262.175	72.25
262.407	92.25
262.64	72.25
262.872	72.25
263.105	67.25
263.337	80.25
263.57	88.25
263.802	84.25
264.035	87.25
264.267	82.25
264.499	71.25
264.732	89.25
264.964	79.25
265.197	86.25
265.429	82.25
265.661	81.25
265.894	87.25
266.126	85.25
266.358	82.25
266.591	70.25
266.823	85.25
267.055	78.25
267.287	71.25
267.52	84.25
267.752	88.25
267.984	69.25
268.216	91.25
268.448	69.25
268.681	63.25
268.913	86.25
269.145	88.25
269.377	85.25
269.609	66.25
269.841	80.25
270.073	74.25
270.306	79.25
270.538	88.25
270.77	75.25
271.002	88.25
271.234	86.25
271.466	78.25
271.698	82.25
271.93	79.25
272.162	68.25
272.394	93.25
272.626	69.25
272.858	86.25
273.09	81.25
273.322	90.25
273.553	72.25
273.785	72.25
274.017	83.25
274.249	77.25
274.481	86.25
274.713	82.25
274.945	72.25
275.176	83.25
275.408	81.25
275.64	81.25
275.872	74.25
276.104	87.25
276.335	73.25
276.567	74.25
276.799	75.25
277.031	84.25
277.262	86.25
277.494	90.25
277.726	80.25
277.957	82.25
278.189	88.25
278.421	64.25
278.652	84.25
278.884	79.25
279.115	91.25
279.347	73.25
279.579	81.25
279.81	78.25
280.042	70.25
280.273	85.25
280.505	87.25
280.736	78.25
280.968	80.25
281.199	76.25
281.431	88.25
281.662	78.25
281.894	70.25
282.125	69.25
282.356	72.25
282.588	78.25
282.819	80.25
283.051	84.25
283.282	85.25
283.513	86.25
283.745	77.25
283.976	80.25
284.207	84.25
284.439	65.25
284.67	74.25
284.901	79.25
285.132	84.25
285.364	95.25
285.595	79.25
285.826	75.25
286.057	93.25
286.288	101.25
286.52	88.25
286.751	79.25
286.982	66.25
287.213	94.25
287.444	83.25
287.675	87.25
287.906	89.25
288.138	83.25
288.369	79.25
288.6	80.25
288.831	78.25
289.062	84.25
289.293	71.25
289.524	85.25
289.755	72.25
289.986	78.25
290.217	88.25
290.448	80.25
290.679	83.25
290.91	81.25
291.141	68.25
291.371	72.25
291.602	83.25
291.833	90.25
292.064	78.25
292.295	84.25
292.526	82.25
292.757	61.25
292.987	74.25
293.218	73.25
293.449	77.25
293.68	76.25
293.91	78.25
294.141	83.25
294.372	85.25
294.603	79.25
294.833	81.25
295.064	83.25
295.295	73.25
295.525	73.25
295.756	81.25
295.987	75.25
296.217	78.25
296.448	79.25
296.679	79.25
296.909	81.25
297.14	75.25
297.37	83.25
297.601	76.25
297.831	80.25
298.062	71.25
298.292	79.25
298.523	78.25
298.753	89.25
298.984	85.25
299.214	94.25
299.445	93.25
299.675	76.25
299.905	80.25
300.136	88.25
300.366	91.25
300.597	72.25
300.827	70.25
301.057	85.25
301.288	71.25
301.518	78.25
301.748	95.25
301.979	87.25
302.209	78.25
302.439	60.25
302.669	81.25
302.9	72.25
303.13	87.25
303.36	85.25
303.59	83.25
303.82	93.25
304.051	93.25
304.281	87.25
304.511	74.25
304.741	69.25
304.971	73.25
305.201	91.25
305.431	82.25
305.661	78.25
305.891	82.25
306.121	87.25
306.352	81.25
306.582	81.25
306.812	77.25
307.042	73.25
307.272	82.25
307.502	76.25
307.731	87.25
307.961	87.25
308.191	73.25
308.421	70.25
308.651	72.25
308.881	91.25
309.111	80.25
309.341	82.25
309.571	83.25
309.8	89.25
310.03	75.25
310.26	72.25
310.49	80.25
310.72	91.25
310.949	71.25
311.179	76.25
311.409	81.25
311.639	63.25
311.868	89.25
312.098	74.25
312.328	99.25
312.557	71.25
312.787	76.25
313.017	80.25
313.246	75.25
313.476	77.25
313.706	77.25
313.935	73.25
314.165	64.25
314.394	103.25
314.624	82.25
314.853	78.25
315.083	96.25
315.312	84.25
315.542	85.25
315.771	77.25
316.001	65.25
316.23	73.25
316.46	76.25
316.689	78.25
316.919	85.25
317.148	102.25
317.377	81.25
317.607	78.25
317.836	78.25
318.065	88.25
318.295	89.25
318.524	80.25
318.753	72.25
318.983	72.25
319.212	86.25
319.441	71.25
319.67	77.25
319.9	76.25
320.129	82.25
320.358	87.25
320.587	88.25
320.816	81.25
321.046	98.25
321.275	88.25
321.504	93.25
321.733	83.25
321.962	82.25
322.191	111.25
322.42	94.25
322.649	77.25
322.878	88.25
323.108	69.25
323.337	83.25
323.566	88.25
323.795	82.25
324.024	75.25
324.253	88.25
324.482	70.25
324.71	76.25
324.939	73.25
325.168	92.25
325.397	81.25
325.626	79.25
325.855	86.25
326.084	93.25
326.313	96.25
326.542	82.25
326.77	75.25
326.999	80.25
327.228	87.25
327.457	92.25
327.686	91.25
327.914	76.25
328.143	71.25
328.372	84.25
328.6	89.25
328.829	77.25
329.058	79.25
329.287	85.25
329.515	84.25
329.744	85.25
329.972	70.25
330.201	73.25
330.43	82.25
330.658	83.25
330.887	81.25
331.115	81.25
331.344	95.25
331.572	102.25
331.801	95.25
332.03	87.25
332.258	86.25
332.486	93.25
332.715	78.25
332.943	93.25
333.172	81.25
333.4	80.25
333.629	73.25
333.857	84.25
334.085	86.25
334.314	82.25
334.542	62.25
334.771	77.25
334.999	81.25
335.227	79.25
335.455	83.25
335.684	83.25
335.912	92.25
336.14	82.25
336.369	84.25
336.597	67.25
336.825	81.25
337.053	77.25
337.281	85.25
337.51	75.25
337.738	86.25
337.966	79.25
338.194	78.25
338.422	72.25
338.65	71.25
338.878	76.25
339.106	75.25
339.334	88.25
339.562	72.25
339.79	89.25
340.018	76.25
340.246	70.25
340.474	78.25
340.702	81.25
340.93	77.25
341.158	85.25
341.386	80.25
341.614	73.25
341.842	86.25
342.07	86.25
342.298	72.25
342.526	71.25
342.754	77.25
342.981	63.25
343.209	77.25
343.437	86.25
343.665	80.25
343.893	78.25
344.12	68.25
344.348	90.25
344.576	83.25
344.804	86.25
345.031	72.25
345.259	84.25
345.487	88.25
345.714	76.25
345.942	79.25
346.17	75.25
346.397	76.25
346.625	75.25
346.853	79.25
347.08	93.25
347.308	79.25
347.535	82.25
347.763	82.25
347.99	72.25
348.218	103.25
348.445	61.25
348.673	78.25
348.9	77.25
349.128	87.25
349.355	76.25
349.583	78.25
349.81	81.25
350.037	78.25
350.265	75.25
350.492	74.25
350.72	82.25
350.947	88.25
351.174	89.25
351.402	77.25
351.629	68.25
351.856	82.25
352.083	77.25
352.311	70.25
352.538	89.25
352.765	88.25
352.992	60.25
353.22	76.25
353.447	80.25
353.674	90.25
353.901	88.25
354.128	75.25
354.355	86.25
354.583	75.25
354.81	92.25
355.037	86.25
355.264	64.25
355.491	79.25
355.718	73.25
355.945	93.25
356.172	71.25
356.399	77.25
356.626	78.25
356.853	78.25
357.08	80.25
357.307	84.25
357.534	80.25
357.761	76.25
357.988	78.25
358.215	77.25
358.441	73.25
358.668	71.25
358.895	79.25
359.122	85.25
359.349	66.25
359.576	73.25
359.802	74.25
360.029	71.25
360.256	77.25
360.483	73.25
360.709	68.25
360.936	79.25
361.163	82.25
361.39	76.25
361.616	78.25
361.843	71.25
362.07	83.25
362.296	78.25
362.523	89.25
362.749	78.25
362.976	83.25
363.203	83.25
363.429	77.25
363.656	89.25
363.882	77.25
364.109	67.25
364.335	93.25
364.562	77.25
364.788	89.25
365.015	100.25
365.241	88.25
365.468	80.25
365.694	73.25
365.92	70.25
366.147	82.25
366.373	86.25
366.599	81.25
366.826	92.25
367.052	90.25
367.278	77.25
367.505	73.25
367.731	88.25
367.957	84.25
368.184	74.25
368.41	73.25
368.636	77.25
368.862	89.25
369.089	84.25
369.315	72.25
369.541	79.25
369.767	88.25
369.993	86.25
370.219	79.25
370.445	80.25
370.672	86.25
370.898	86.25
371.124	69.25
371.35	80.25
371.576	76.25
371.802	79.25
372.028	84.25
372.254	69.25
372.48	66.25
372.706	84.25
372.932	96.25
373.158	87.25
373.384	83.25
373.61	94.25
373.835	75.25
374.061	90.25
374.287	78.25
374.513	88.25
374.739	81.25
374.965	77.25
375.191	85.25
375.416	85.25
375.642	80.25
375.868	83.25
376.094	94.25
376.319	95.25
376.545	97.25
376.771	83.25
376.997	91.25
377.222	73.25
377.448	76.25
377.674	74.25
377.899	82.25
378.125	79.25
378.35	85.25
378.576	80.25
378.802	70.25
379.027	73.25
379.253	81.25
379.478	85.25
379.704	85.25
379.929	72.25
380.155	86.25
380.38	77.25
380.606	73.25
380.831	76.25
381.057	95.25
381.282	94.25
381.507	73.25
381.733	81.25
381.958	86.25
382.184	71.25
382.409	81.25
382.634	89.25
382.86	79.25
383.085	82.25
383.31	77.25
383.535	85.25
383.761	79.25
383.986	85.25
384.211	68.25
384.436	77.25
384.662	89.25
384.887	83.25
385.112	80.25
385.337	81.25
385.562	87.25
385.787	82.25
386.013	75.25
386.238	68.25
386.463	72.25
386.688	77.25
386.913	84.25
387.138	83.25
387.363	94.25
387.588	83.25
387.813	85.25
388.038	91.25
388.263	75.25
388.488	77.25
388.713	67.25
388.938	86.25
389.163	93.25
389.387	81.25
389.612	88.25
389.837	80.25
390.062	74.25
390.287	85.25
390.512	67.25
390.736	81.25
390.961	86.25
391.186	87.25
391.411	87.25
391.636	94.25
391.86	79.25
392.085	72.25
392.31	77.25
392.534	91.25
392.759	82.25
392.984	79.25
393.208	80.25
393.433	86.25
393.658	80.25
393.882	93.25
394.107	78.25
394.331	79.25
394.556	77.25
394.78	85.25
395.005	68.25
395.229	77.25
395.454	85.25
395.678	70.25
395.903	79.25
396.127	74.25
396.352	70.25
396.576	84.25
396.801	80.25
397.025	86.25
397.249	70.25
397.474	79.25
397.698	76.25
397.922	80.25
398.147	73.25
398.371	83.25
398.595	84.25
398.82	91.25
399.044	76.25
399.268	86.25
399.492	81.25
399.717	92.25
399.941	85.25
400.165	87.25
400.389	88.25
400.613	84.25
400.837	92.25
401.062	77.25
401.286	86.25
401.51	90.25
401.734	84.25
401.958	76.25
402.182	81.25
402.406	87.25
402.63	91.25
402.854	72.25
403.078	84.25
403.302	82.25
403.526	85.25
403.75	80.25
403.974	81.25
404.198	72.25
404.422	84.25
404.645	64.25
404.869	68.25
405.093	78.25
405.317	87.25
405.541	86.25
405.765	85.25
405.988	81.25
406.212	104.25
406.436	80.25
406.66	96.25
406.883	79.25
407.107	87.25
407.331	89.25
407.555	74.25
407.778	72.25
408.002	84.25
408.226	71.25
408.449	83.25
408.673	87.25
408.896	93.25
409.12	75.25
409.344	77.25
409.567	94.25
409.791	74.25
410.014	77.25
410.238	84.25
410.461	82.25
410.685	80.25
410.908	96.25
411.132	89.25
411.355	90.25
411.578	89.25
411.802	93.25
412.025	76.25
412.249	86.25
412.472	86.25
412.695	70.25
412.919	76.25
413.142	89.25
413.365	95.25
413.589	86.25
413.812	87.25
414.035	83.25
414.258	83.25
414.482	88.25
414.705	88.25
414.928	82.25
415.151	78.25
415.374	79.25
415.597	88.25
415.821	76.25
416.044	83.25
416.267	81.25
416.49	101.25
416.713	99.25
416.936	71.25
417.159	77.25
417.382	96.25
417.605	85.25
417.828	95.25
418.051	92.25
418.274	103.25
418.497	93.25
418.72	88.25
418.943	95.25
419.166	98.25
419.389	74.25
419.611	93.25
419.834	99.25
420.057	85.25
420.28	81.25
420.503	90.25
420.726	92.25
420.948	84.25
421.171	79.25
421.394	93.25
421.617	90.25
421.839	91.25
422.062	102.25
422.285	87.25
422.507	95.25
422.73	90.25
422.953	90.25
423.175	97.25
423.398	88.25
423.621	80.25
423.843	81.25
424.066	81.25
424.288	96.25
424.511	94.25
424.733	90.25
424.956	88.25
425.178	83.25
425.401	67.25
425.623	81.25
425.846	71.25
426.068	114.25
426.291	88.25
426.513	88.25
426.735	95.25
426.958	78.25
427.18	85.25
427.402	80.25
427.625	89.25
427.847	96.25
428.069	86.25
428.292	77.25
428.514	87.25
428.736	86.25
428.958	85.25
429.181	92.25
429.403	90.25
429.625	80.25
429.847	84.25
430.069	92.25
430.292	75.25
430.514	78.25
430.736	68.25
430.958	94.25
431.18	87.25
431.402	93.25
431.624	97.25
431.846	90.25
432.068	86.25
432.29	79.25
432.512	74.25
432.734	87.25
432.956	76.25
433.178	84.25
433.4	79.25
433.622	92.25
433.844	83.25
434.066	79.25
434.287	71.25
434.509	93.25
434.731	89.25
434.953	84.25
435.175	86.25
435.397	86.25
435.618	85.25
435.84	96.25
436.062	101.25
436.284	80.25
436.505	88.25
436.727	82.25
436.949	95.25
437.17	102.25
437.392	86.25
437.614	93.25
437.835	77.25
438.057	85.25
438.278	96.25
438.5	95.25
438.721	90.25
438.943	85.25
439.165	78.25
439.386	80.25
439.608	99.25
439.829	83.25
440.05	104.25
440.272	83.25
440.493	96.25
440.715	89.25
440.936	98.25
441.158	88.25
441.379	83.25
441.6	99.25
441.822	100.25
442.043	93.25
442.264	88.25
442.486	82.25
442.707	79.25
442.928	94.25
443.149	81.25
443.371	83.25
443.592	89.25
443.813	88.25
444.034	88.25
444.255	99.25
444.476	105.25
444.698	81.25
444.919	94.25
445.14	205.25
445.361	140.25
445.582	95.25
445.803	91.25
446.024	90.25
446.245	96.25
446.466	100.25
446.687	107.25
446.908	90.25
447.129	106.25
447.35	75.25
447.571	97.25
447.792	93.25
448.013	107.25
448.234	98.25
448.455	100.25
448.675	82.25
448.896	89.25
449.117	86.25
449.338	75.25
449.559	85.25
449.779	74.25
450	92.25
450.221	78.25
450.442	85.25
450.662	84.25
450.883	94.25
451.104	99.25
451.324	88.25
451.545	92.25
451.766	83.25
451.986	80.25
452.207	93.25
452.428	80.25
452.648	92.25
452.869	87.25
453.089	77.25
453.31	87.25
453.53	101.25
453.751	72.25
453.971	85.25
454.192	91.25
454.412	66.25
454.633	85.25
454.853	96.25
455.073	83.25
455.294	85.25
455.514	104.25
455.734	97.25
455.955	78.25
456.175	87.25
456.395	86.25
456.616	79.25
456.836	72.25
457.056	90.25
457.276	77.25
457.497	67.25
457.717	73.25
457.937	70.25
458.157	80.25
458.377	77.25
458.598	80.25
458.818	80.25
459.038	86.25
459.258	85.25
459.478	75.25
459.698	77.25
459.918	76.25
460.138	71.25
460.358	79.25
460.578	78.25
460.798	84.25
461.018	76.25
461.238	91.25
461.458	83.25
461.678	92.25
461.898	67.25
462.118	85.25
462.338	83.25
462.558	94.25
462.777	84.25
462.997	75.25
463.217	79.25
463.437	82.25
463.657	73.25
463.876	86.25
464.096	96.25
464.316	87.25
464.536	94.25
464.755	82.25
464.975	78.25
465.195	86.25
465.414	86.25
465.634	87.25
465.854	96.25
466.073	117.25
466.293	88.25
466.512	76.25
466.732	91.25
466.951	99.25
467.171	82.25
467.391	96.25
467.61	100.25
467.829	89.25
468.049	85.25
468.268	89.25
468.488	92.25
468.707	93.25
468.927	84.25
469.146	96.25
469.365	117.25
469.585	73.25
469.804	87.25
470.023	72.25
470.243	88.25
470.462	96.25
470.681	95.25
470.901	86.25
471.12	103.25
471.339	87.25
471.558	92.25
471.777	91.25
471.997	88.25
472.216	83.25
472.435	92.25
472.654	98.25
472.873	75.25
473.092	88.25
473.311	89.25
473.53	84.25
473.749	95.25
473.968	98.25
474.187	93.25
474.406	92.25
474.625	83.25
474.844	108.25
475.063	87.25
475.282	98.25
475.501	107.25
475.72	96.25
475.939	94.25
476.158	84.25
476.377	98.25
476.596	83.25
476.814	83.25
477.033	85.25
477.252	78.25
477.471	84.25
477.69	70.25
477.908	94.25
478.127	101.25
478.346	73.25
478.564	90.25
478.783	101.25
479.002	88.25
479.22	97.25
479.439	97.25
479.658	82.25
479.876	81.25
480.095	89.25
480.313	94.25
480.532	86.25
480.751	74.25
480.969	74.25
481.188	81.25
481.406	68.25
481.624	73.25
481.843	81.25
482.061	84.25
482.28	93.25
482.498	73.25
482.717	91.25
482.935	92.25
483.153	89.25
483.372	85.25
483.59	93.25
483.808	81.25
484.027	109.25
484.245	79.25
484.463	87.25
484.681	98.25
484.9	86.25
485.118	95.25
485.336	93.25
485.554	89.25
485.772	78.25
485.99	82.25
486.209	95.25
486.427	72.25
486.645	71.25
486.863	88.25
487.081	83.25
487.299	85.25
487.517	88.25
487.735	109.25
487.953	99.25
488.171	107.25
488.389	99.25
488.607	98.25
488.825	84.25
489.043	93.25
489.261	82.25
489.479	84.25
489.696	91.25
489.914	89.25
490.132	92.25
490.35	94.25
490.568	109.25
490.786	102.25
491.003	104.25
491.221	103.25
491.439	95.25
491.657	109.25
491.874	118.25
492.092	127.25
492.31	113.25
492.527	118.25
492.745	109.25
492.963	108.25
493.18	90.25
493.398	101.25
493.615	101.25
493.833	103.25
494.05	96.25
494.268	108.25
494.485	90.25
494.703	102.25
494.92	95.25
495.138	100.25
495.355	99.25
495.573	94.25
495.79	107.25
496.008	95.25
496.225	93.25
496.442	102.25
496.66	93.25
496.877	101.25
497.094	97.25
497.312	104.25
497.529	109.25
497.746	96.25
497.963	80.25
498.181	85.25
498.398	87.25
498.615	96.25
498.832	85.25
499.049	99.25
499.267	85.25
499.484	86.25
499.701	81.25
499.918	72.25
500.135	97.25
500.352	87.25
500.569	99.25
500.786	92.25
501.003	73.25
501.22	97.25
501.437	92.25
501.654	76.25
501.871	92.25
502.088	88.25
502.305	80.25
502.522	83.25
502.739	88.25
502.956	89.25
503.172	85.25
503.389	83.25
503.606	87.25
503.823	87.25
504.04	77.25
504.256	91.25
504.473	81.25
504.69	81.25
504.907	99.25
505.123	88.25
505.34	100.25
505.557	95.25
505.773	105.25
505.99	79.25
506.207	88.25
506.423	80.25
506.64	85.25
506.856	79.25
507.073	82.25
507.289	85.25
507.506	80.25
507.722	79.25
507.939	73.25
508.155	93.25
508.372	77.25
508.588	88.25
508.805	78.25
509.021	80.25
509.238	88.25
509.454	96.25
509.67	93.25
509.887	79.25
510.103	68.25
510.319	60.25
510.536	73.25
510.752	77.25
510.968	73.25
511.184	83.25
511.401	78.25
511.617	87.25
511.833	80.25
512.049	60.25
512.265	82.25
512.481	79.25
512.698	78.25
512.914	79.25
513.13	73.25
513.346	74.25
513.562	84.25
513.778	95.25
513.994	81.25
514.21	90.25
514.426	78.25
514.642	78.25
514.858	89.25
515.074	80.25
515.29	89.25
515.506	75.25
515.721	72.25
515.937	85.25
516.153	76.25
516.369	84.25
516.585	68.25
516.801	89.25
517.016	83.25
517.232	85.25
517.448	68.25
517.664	71.25
517.879	76.25
518.095	89.25
518.311	75.25
518.527	84.25
518.742	86.25
