Data from Location5.07152019.Energy5.Lamp.07192019.3%Agarose_HRD10591_15-38-41-388.txt Node
Date: Fri Jul 19 15:38:41 EDT 2019
User: cochatt
Spectrometer: HR+D1059
Trigger mode: 1
Integration Time (sec): 1.000000E-1
Scans to average: 1
Electric dark correction enabled: true
Nonlinearity correction enabled: false
Boxcar width: 0
XAxis mode: Wavelengths
Number of Pixels in Spectrum: 2048
>>>>>Begin Spectral Data<<<<<
223.165	-6.94
223.4	-6.94
223.635	-6.94
223.869	-25.94
224.104	-24.94
224.338	-4.94
224.573	-21.94
224.808	-22.94
225.042	-15.94
225.277	2.06
225.511	0.06
225.746	9.06
225.98	9.06
226.215	17.06
226.449	7.06
226.683	19.06
226.918	29.06
227.152	31.06
227.387	40.06
227.621	27.06
227.856	33.06
228.09	42.06
228.324	50.06
228.559	53.06
228.793	54.06
229.027	79.06
229.262	62.06
229.496	73.06
229.73	72.06
229.964	67.06
230.199	73.06
230.433	71.06
230.667	80.06
230.901	81.06
231.136	76.06
231.37	82.06
231.604	62.06
231.838	76.06
232.072	89.06
232.306	88.06
232.541	71.06
232.775	93.06
233.009	82.06
233.243	94.06
233.477	90.06
233.711	93.06
233.945	75.06
234.179	76.06
234.413	71.06
234.647	73.06
234.881	82.06
235.115	86.06
235.349	79.06
235.583	71.06
235.817	59.06
236.051	70.06
236.285	88.06
236.519	93.06
236.753	81.06
236.987	78.06
237.221	84.06
237.455	84.06
237.689	75.06
237.922	71.06
238.156	79.06
238.39	78.06
238.624	57.06
238.858	70.06
239.091	72.06
239.325	83.06
239.559	80.06
239.793	82.06
240.027	87.06
240.26	73.06
240.494	75.06
240.728	73.06
240.961	69.06
241.195	80.06
241.429	83.06
241.662	61.06
241.896	58.06
242.13	93.06
242.363	73.06
242.597	65.06
242.83	65.06
243.064	80.06
243.298	88.06
243.531	70.06
243.765	89.06
243.998	81.06
244.232	75.06
244.465	81.06
244.699	74.06
244.932	65.06
245.166	75.06
245.399	81.06
245.633	82.06
245.866	87.06
246.099	79.06
246.333	80.06
246.566	81.06
246.8	74.06
247.033	63.06
247.266	86.06
247.5	89.06
247.733	70.06
247.966	60.06
248.2	75.06
248.433	82.06
248.666	70.06
248.899	77.06
249.133	71.06
249.366	75.06
249.599	92.06
249.832	67.06
250.066	73.06
250.299	84.06
250.532	75.06
250.765	69.06
250.998	83.06
251.231	72.06
251.465	82.06
251.698	87.06
251.931	79.06
252.164	84.06
252.397	71.06
252.63	65.06
252.863	83.06
253.096	83.06
253.329	73.06
253.562	79.06
253.795	78.06
254.028	85.06
254.261	85.06
254.494	83.06
254.727	82.06
254.96	85.06
255.193	77.06
255.426	75.06
255.659	77.06
255.892	85.06
256.124	75.06
256.357	90.06
256.59	89.06
256.823	82.06
257.056	69.06
257.289	84.06
257.521	90.06
257.754	81.06
257.987	80.06
258.22	73.06
258.452	56.06
258.685	72.06
258.918	83.06
259.151	79.06
259.383	71.06
259.616	71.06
259.849	74.06
260.081	82.06
260.314	81.06
260.547	82.06
260.779	89.06
261.012	86.06
261.244	91.06
261.477	92.06
261.71	77.06
261.942	74.06
262.175	84.06
262.407	81.06
262.64	71.06
262.872	78.06
263.105	70.06
263.337	74.06
263.57	71.06
263.802	83.06
264.035	94.06
264.267	74.06
264.499	81.06
264.732	79.06
264.964	72.06
265.197	78.06
265.429	86.06
265.661	88.06
265.894	84.06
266.126	82.06
266.358	75.06
266.591	81.06
266.823	81.06
267.055	80.06
267.287	87.06
267.52	75.06
267.752	77.06
267.984	81.06
268.216	85.06
268.448	83.06
268.681	76.06
268.913	77.06
269.145	93.06
269.377	79.06
269.609	79.06
269.841	84.06
270.073	76.06
270.306	88.06
270.538	85.06
270.77	83.06
271.002	95.06
271.234	81.06
271.466	85.06
271.698	75.06
271.93	92.06
272.162	72.06
272.394	97.06
272.626	86.06
272.858	85.06
273.09	75.06
273.322	81.06
273.553	73.06
273.785	70.06
274.017	77.06
274.249	85.06
274.481	82.06
274.713	78.06
274.945	94.06
275.176	91.06
275.408	73.06
275.64	92.06
275.872	88.06
276.104	76.06
276.335	89.06
276.567	89.06
276.799	78.06
277.031	86.06
277.262	78.06
277.494	83.06
277.726	75.06
277.957	77.06
278.189	81.06
278.421	88.06
278.652	96.06
278.884	81.06
279.115	70.06
279.347	75.06
279.579	77.06
279.81	82.06
280.042	76.06
280.273	91.06
280.505	86.06
280.736	90.06
280.968	100.06
281.199	89.06
281.431	82.06
281.662	97.06
281.894	72.06
282.125	66.06
282.356	77.06
282.588	78.06
282.819	83.06
283.051	82.06
283.282	84.06
283.513	84.06
283.745	103.06
283.976	82.06
284.207	95.06
284.439	75.06
284.67	81.06
284.901	98.06
285.132	83.06
285.364	87.06
285.595	91.06
285.826	72.06
286.057	81.06
286.288	78.06
286.52	85.06
286.751	89.06
286.982	87.06
287.213	74.06
287.444	72.06
287.675	92.06
287.906	91.06
288.138	88.06
288.369	77.06
288.6	69.06
288.831	91.06
289.062	105.06
289.293	92.06
289.524	77.06
289.755	68.06
289.986	72.06
290.217	90.06
290.448	92.06
290.679	88.06
290.91	81.06
291.141	86.06
291.371	89.06
291.602	98.06
291.833	92.06
292.064	81.06
292.295	86.06
292.526	86.06
292.757	97.06
292.987	81.06
293.218	79.06
293.449	95.06
293.68	76.06
293.91	81.06
294.141	80.06
294.372	85.06
294.603	82.06
294.833	83.06
295.064	77.06
295.295	69.06
295.525	87.06
295.756	80.06
295.987	78.06
296.217	81.06
296.448	74.06
296.679	78.06
296.909	85.06
297.14	88.06
297.37	79.06
297.601	89.06
297.831	77.06
298.062	83.06
298.292	99.06
298.523	82.06
298.753	74.06
298.984	97.06
299.214	74.06
299.445	98.06
299.675	87.06
299.905	75.06
300.136	87.06
300.366	87.06
300.597	83.06
300.827	84.06
301.057	74.06
301.288	83.06
301.518	74.06
301.748	80.06
301.979	94.06
302.209	89.06
302.439	68.06
302.669	79.06
302.9	87.06
303.13	88.06
303.36	85.06
303.59	86.06
303.82	92.06
304.051	79.06
304.281	88.06
304.511	83.06
304.741	84.06
304.971	79.06
305.201	72.06
305.431	97.06
305.661	76.06
305.891	84.06
306.121	81.06
306.352	90.06
306.582	78.06
306.812	82.06
307.042	98.06
307.272	86.06
307.502	91.06
307.731	89.06
307.961	82.06
308.191	94.06
308.421	92.06
308.651	74.06
308.881	77.06
309.111	84.06
309.341	82.06
309.571	82.06
309.8	78.06
310.03	83.06
310.26	95.06
310.49	80.06
310.72	72.06
310.949	90.06
311.179	57.06
311.409	80.06
311.639	76.06
311.868	88.06
312.098	85.06
312.328	84.06
312.557	74.06
312.787	79.06
313.017	98.06
313.246	85.06
313.476	72.06
313.706	86.06
313.935	98.06
314.165	87.06
314.394	85.06
314.624	85.06
314.853	83.06
315.083	79.06
315.312	73.06
315.542	86.06
315.771	83.06
316.001	77.06
316.23	98.06
316.46	81.06
316.689	80.06
316.919	93.06
317.148	94.06
317.377	85.06
317.607	85.06
317.836	77.06
318.065	98.06
318.295	74.06
318.524	84.06
318.753	82.06
318.983	83.06
319.212	83.06
319.441	85.06
319.67	85.06
319.9	85.06
320.129	88.06
320.358	83.06
320.587	71.06
320.816	80.06
321.046	82.06
321.275	84.06
321.504	88.06
321.733	78.06
321.962	85.06
322.191	73.06
322.42	78.06
322.649	82.06
322.878	104.06
323.108	73.06
323.337	77.06
323.566	66.06
323.795	98.06
324.024	89.06
324.253	83.06
324.482	93.06
324.71	90.06
324.939	67.06
325.168	84.06
325.397	94.06
325.626	89.06
325.855	85.06
326.084	85.06
326.313	76.06
326.542	83.06
326.77	84.06
326.999	75.06
327.228	105.06
327.457	74.06
327.686	92.06
327.914	88.06
328.143	86.06
328.372	88.06
328.6	85.06
328.829	98.06
329.058	81.06
329.287	76.06
329.515	78.06
329.744	86.06
329.972	77.06
330.201	95.06
330.43	82.06
330.658	77.06
330.887	72.06
331.115	78.06
331.344	81.06
331.572	87.06
331.801	86.06
332.03	89.06
332.258	69.06
332.486	87.06
332.715	73.06
332.943	84.06
333.172	85.06
333.4	75.06
333.629	100.06
333.857	87.06
334.085	80.06
334.314	82.06
334.542	73.06
334.771	84.06
334.999	75.06
335.227	80.06
335.455	78.06
335.684	82.06
335.912	81.06
336.14	63.06
336.369	85.06
336.597	80.06
336.825	83.06
337.053	94.06
337.281	83.06
337.51	86.06
337.738	74.06
337.966	90.06
338.194	84.06
338.422	85.06
338.65	86.06
338.878	79.06
339.106	82.06
339.334	89.06
339.562	95.06
339.79	87.06
340.018	83.06
340.246	79.06
340.474	82.06
340.702	85.06
340.93	72.06
341.158	84.06
341.386	77.06
341.614	69.06
341.842	93.06
342.07	76.06
342.298	84.06
342.526	77.06
342.754	83.06
342.981	90.06
343.209	85.06
343.437	86.06
343.665	76.06
343.893	79.06
344.12	73.06
344.348	82.06
344.576	73.06
344.804	85.06
345.031	71.06
345.259	81.06
345.487	72.06
345.714	89.06
345.942	88.06
346.17	82.06
346.397	77.06
346.625	73.06
346.853	75.06
347.08	75.06
347.308	94.06
347.535	79.06
347.763	85.06
347.99	93.06
348.218	94.06
348.445	81.06
348.673	78.06
348.9	87.06
349.128	83.06
349.355	83.06
349.583	79.06
349.81	89.06
350.037	86.06
350.265	77.06
350.492	94.06
350.72	81.06
350.947	82.06
351.174	82.06
351.402	73.06
351.629	74.06
351.856	73.06
352.083	85.06
352.311	96.06
352.538	78.06
352.765	102.06
352.992	86.06
353.22	71.06
353.447	100.06
353.674	89.06
353.901	81.06
354.128	90.06
354.355	75.06
354.583	74.06
354.81	74.06
355.037	83.06
355.264	88.06
355.491	83.06
355.718	93.06
355.945	98.06
356.172	89.06
356.399	87.06
356.626	80.06
356.853	76.06
357.08	66.06
357.307	80.06
357.534	81.06
357.761	104.06
357.988	93.06
358.215	93.06
358.441	79.06
358.668	76.06
358.895	74.06
359.122	79.06
359.349	84.06
359.576	73.06
359.802	89.06
360.029	84.06
360.256	88.06
360.483	77.06
360.709	73.06
360.936	97.06
361.163	83.06
361.39	80.06
361.616	92.06
361.843	88.06
362.07	94.06
362.296	83.06
362.523	83.06
362.749	76.06
362.976	69.06
363.203	88.06
363.429	73.06
363.656	80.06
363.882	75.06
364.109	94.06
364.335	90.06
364.562	76.06
364.788	80.06
365.015	78.06
365.241	85.06
365.468	89.06
365.694	87.06
365.92	86.06
366.147	85.06
366.373	80.06
366.599	91.06
366.826	86.06
367.052	90.06
367.278	93.06
367.505	86.06
367.731	66.06
367.957	63.06
368.184	67.06
368.41	86.06
368.636	78.06
368.862	83.06
369.089	90.06
369.315	96.06
369.541	76.06
369.767	79.06
369.993	75.06
370.219	86.06
370.445	84.06
370.672	87.06
370.898	71.06
371.124	107.06
371.35	87.06
371.576	73.06
371.802	69.06
372.028	73.06
372.254	84.06
372.48	79.06
372.706	88.06
372.932	92.06
373.158	93.06
373.384	97.06
373.61	93.06
373.835	87.06
374.061	92.06
374.287	78.06
374.513	74.06
374.739	65.06
374.965	75.06
375.191	92.06
375.416	91.06
375.642	89.06
375.868	92.06
376.094	79.06
376.319	93.06
376.545	73.06
376.771	70.06
376.997	81.06
377.222	88.06
377.448	91.06
377.674	100.06
377.899	68.06
378.125	83.06
378.35	78.06
378.576	91.06
378.802	95.06
379.027	78.06
379.253	83.06
379.478	78.06
379.704	77.06
379.929	94.06
380.155	96.06
380.38	86.06
380.606	82.06
380.831	70.06
381.057	89.06
381.282	91.06
381.507	87.06
381.733	71.06
381.958	82.06
382.184	80.06
382.409	80.06
382.634	84.06
382.86	76.06
383.085	80.06
383.31	83.06
383.535	87.06
383.761	91.06
383.986	87.06
384.211	93.06
384.436	77.06
384.662	77.06
384.887	72.06
385.112	91.06
385.337	83.06
385.562	80.06
385.787	70.06
386.013	80.06
386.238	85.06
386.463	84.06
386.688	86.06
386.913	78.06
387.138	96.06
387.363	93.06
387.588	82.06
387.813	77.06
388.038	87.06
388.263	79.06
388.488	90.06
388.713	91.06
388.938	86.06
389.163	95.06
389.387	76.06
389.612	86.06
389.837	77.06
390.062	97.06
390.287	85.06
390.512	81.06
390.736	100.06
390.961	71.06
391.186	81.06
391.411	89.06
391.636	87.06
391.86	82.06
392.085	78.06
392.31	75.06
392.534	86.06
392.759	93.06
392.984	90.06
393.208	82.06
393.433	86.06
393.658	89.06
393.882	90.06
394.107	78.06
394.331	96.06
394.556	80.06
394.78	95.06
395.005	104.06
395.229	83.06
395.454	93.06
395.678	82.06
395.903	67.06
396.127	94.06
396.352	74.06
396.576	79.06
396.801	73.06
397.025	85.06
397.249	89.06
397.474	92.06
397.698	79.06
397.922	86.06
398.147	85.06
398.371	87.06
398.595	79.06
398.82	79.06
399.044	92.06
399.268	84.06
399.492	79.06
399.717	91.06
399.941	98.06
400.165	83.06
400.389	85.06
400.613	80.06
400.837	83.06
401.062	74.06
401.286	86.06
401.51	81.06
401.734	84.06
401.958	91.06
402.182	79.06
402.406	92.06
402.63	81.06
402.854	102.06
403.078	83.06
403.302	91.06
403.526	88.06
403.75	97.06
403.974	85.06
404.198	90.06
404.422	92.06
404.645	91.06
404.869	75.06
405.093	100.06
405.317	83.06
405.541	89.06
405.765	76.06
405.988	80.06
406.212	89.06
406.436	79.06
406.66	95.06
406.883	100.06
407.107	79.06
407.331	78.06
407.555	82.06
407.778	93.06
408.002	86.06
408.226	100.06
408.449	91.06
408.673	83.06
408.896	92.06
409.12	87.06
409.344	87.06
409.567	82.06
409.791	90.06
410.014	97.06
410.238	86.06
410.461	85.06
410.685	80.06
410.908	82.06
411.132	90.06
411.355	77.06
411.578	80.06
411.802	93.06
412.025	77.06
412.249	77.06
412.472	87.06
412.695	83.06
412.919	103.06
413.142	95.06
413.365	81.06
413.589	90.06
413.812	78.06
414.035	101.06
414.258	93.06
414.482	90.06
414.705	96.06
414.928	75.06
415.151	87.06
415.374	92.06
415.597	98.06
415.821	94.06
416.044	93.06
416.267	88.06
416.49	75.06
416.713	91.06
416.936	74.06
417.159	94.06
417.382	103.06
417.605	101.06
417.828	90.06
418.051	98.06
418.274	92.06
418.497	75.06
418.72	95.06
418.943	91.06
419.166	87.06
419.389	94.06
419.611	94.06
419.834	104.06
420.057	91.06
420.28	90.06
420.503	82.06
420.726	107.06
420.948	89.06
421.171	102.06
421.394	91.06
421.617	80.06
421.839	90.06
422.062	96.06
422.285	101.06
422.507	101.06
422.73	95.06
422.953	74.06
423.175	85.06
423.398	97.06
423.621	107.06
423.843	90.06
424.066	70.06
424.288	92.06
424.511	88.06
424.733	101.06
424.956	88.06
425.178	90.06
425.401	94.06
425.623	90.06
425.846	101.06
426.068	85.06
426.291	86.06
426.513	97.06
426.735	103.06
426.958	72.06
427.18	94.06
427.402	98.06
427.625	98.06
427.847	78.06
428.069	87.06
428.292	83.06
428.514	85.06
428.736	101.06
428.958	97.06
429.181	81.06
429.403	86.06
429.625	95.06
429.847	83.06
430.069	91.06
430.292	99.06
430.514	95.06
430.736	81.06
430.958	97.06
431.18	72.06
431.402	94.06
431.624	93.06
431.846	81.06
432.068	71.06
432.29	81.06
432.512	79.06
432.734	88.06
432.956	106.06
433.178	95.06
433.4	101.06
433.622	82.06
433.844	87.06
434.066	93.06
434.287	85.06
434.509	83.06
434.731	90.06
434.953	76.06
435.175	84.06
435.397	96.06
435.618	80.06
435.84	83.06
436.062	87.06
436.284	93.06
436.505	96.06
436.727	97.06
436.949	101.06
437.17	94.06
437.392	97.06
437.614	85.06
437.835	101.06
438.057	81.06
438.278	67.06
438.5	88.06
438.721	78.06
438.943	86.06
439.165	93.06
439.386	83.06
439.608	90.06
439.829	97.06
440.05	109.06
440.272	105.06
440.493	113.06
440.715	90.06
440.936	99.06
441.158	99.06
441.379	102.06
441.6	91.06
441.822	90.06
442.043	86.06
442.264	96.06
442.486	85.06
442.707	98.06
442.928	94.06
443.149	84.06
443.371	93.06
443.592	106.06
443.813	102.06
444.034	74.06
444.255	92.06
444.476	102.06
444.698	89.06
444.919	90.06
445.14	206.06
445.361	153.06
445.582	104.06
445.803	82.06
446.024	91.06
446.245	94.06
446.466	96.06
446.687	91.06
446.908	99.06
447.129	103.06
447.35	95.06
447.571	107.06
447.792	98.06
448.013	98.06
448.234	118.06
448.455	101.06
448.675	98.06
448.896	88.06
449.117	79.06
449.338	86.06
449.559	95.06
449.779	86.06
450	102.06
450.221	88.06
450.442	104.06
450.662	103.06
450.883	89.06
451.104	77.06
451.324	97.06
451.545	86.06
451.766	87.06
451.986	105.06
452.207	82.06
452.428	94.06
452.648	91.06
452.869	92.06
453.089	83.06
453.31	87.06
453.53	66.06
453.751	87.06
453.971	89.06
454.192	82.06
454.412	94.06
454.633	91.06
454.853	88.06
455.073	78.06
455.294	96.06
455.514	94.06
455.734	73.06
455.955	87.06
456.175	85.06
456.395	81.06
456.616	82.06
456.836	101.06
457.056	107.06
457.276	87.06
457.497	87.06
457.717	86.06
457.937	74.06
458.157	83.06
458.377	81.06
458.598	72.06
458.818	78.06
459.038	89.06
459.258	84.06
459.478	86.06
459.698	78.06
459.918	83.06
460.138	88.06
460.358	84.06
460.578	95.06
460.798	96.06
461.018	90.06
461.238	86.06
461.458	88.06
461.678	78.06
461.898	85.06
462.118	96.06
462.338	77.06
462.558	90.06
462.777	88.06
462.997	86.06
463.217	87.06
463.437	80.06
463.657	96.06
463.876	87.06
464.096	92.06
464.316	70.06
464.536	75.06
464.755	82.06
464.975	95.06
465.195	103.06
465.414	106.06
465.634	86.06
465.854	96.06
466.073	94.06
466.293	97.06
466.512	83.06
466.732	99.06
466.951	85.06
467.171	78.06
467.391	93.06
467.61	86.06
467.829	92.06
468.049	93.06
468.268	93.06
468.488	95.06
468.707	85.06
468.927	92.06
469.146	81.06
469.365	86.06
469.585	95.06
469.804	90.06
470.023	90.06
470.243	79.06
470.462	81.06
470.681	98.06
470.901	101.06
471.12	91.06
471.339	105.06
471.558	101.06
471.777	90.06
471.997	96.06
472.216	93.06
472.435	90.06
472.654	80.06
472.873	70.06
473.092	93.06
473.311	84.06
473.53	82.06
473.749	100.06
473.968	91.06
474.187	79.06
474.406	86.06
474.625	76.06
474.844	79.06
475.063	99.06
475.282	104.06
475.501	90.06
475.72	94.06
475.939	81.06
476.158	85.06
476.377	92.06
476.596	91.06
476.814	101.06
477.033	89.06
477.252	104.06
477.471	96.06
477.69	94.06
477.908	84.06
478.127	96.06
478.346	90.06
478.564	97.06
478.783	92.06
479.002	86.06
479.22	94.06
479.439	78.06
479.658	104.06
479.876	96.06
480.095	89.06
480.313	91.06
480.532	94.06
480.751	96.06
480.969	104.06
481.188	79.06
481.406	80.06
481.624	74.06
481.843	86.06
482.061	96.06
482.28	95.06
482.498	86.06
482.717	98.06
482.935	84.06
483.153	91.06
483.372	97.06
483.59	93.06
483.808	83.06
484.027	95.06
484.245	81.06
484.463	96.06
484.681	108.06
484.9	90.06
485.118	87.06
485.336	90.06
485.554	70.06
485.772	73.06
485.99	82.06
486.209	90.06
486.427	85.06
486.645	83.06
486.863	93.06
487.081	90.06
487.299	105.06
487.517	99.06
487.735	108.06
487.953	111.06
488.171	109.06
488.389	112.06
488.607	94.06
488.825	85.06
489.043	89.06
489.261	92.06
489.479	98.06
489.696	96.06
489.914	110.06
490.132	79.06
490.35	90.06
490.568	110.06
490.786	113.06
491.003	125.06
491.221	103.06
491.439	109.06
491.657	104.06
491.874	113.06
492.092	106.06
492.31	121.06
492.527	106.06
492.745	122.06
492.963	104.06
493.18	99.06
493.398	101.06
493.615	109.06
493.833	109.06
494.05	120.06
494.268	113.06
494.485	121.06
494.703	110.06
494.92	92.06
495.138	101.06
495.355	96.06
495.573	98.06
495.79	107.06
496.008	101.06
496.225	86.06
496.442	104.06
496.66	97.06
496.877	94.06
497.094	104.06
497.312	98.06
497.529	105.06
497.746	96.06
497.963	105.06
498.181	90.06
498.398	106.06
498.615	109.06
498.832	86.06
499.049	99.06
499.267	78.06
499.484	93.06
499.701	96.06
499.918	93.06
500.135	83.06
500.352	99.06
500.569	99.06
500.786	93.06
501.003	98.06
501.22	97.06
501.437	97.06
501.654	88.06
501.871	94.06
502.088	92.06
502.305	97.06
502.522	90.06
502.739	94.06
502.956	99.06
503.172	100.06
503.389	89.06
503.606	86.06
503.823	77.06
504.04	82.06
504.256	92.06
504.473	77.06
504.69	88.06
504.907	96.06
505.123	81.06
505.34	88.06
505.557	95.06
505.773	88.06
505.99	93.06
506.207	89.06
506.423	106.06
506.64	111.06
506.856	94.06
507.073	95.06
507.289	99.06
507.506	81.06
507.722	95.06
507.939	93.06
508.155	86.06
508.372	89.06
508.588	94.06
508.805	65.06
509.021	81.06
509.238	82.06
509.454	83.06
509.67	99.06
509.887	80.06
510.103	74.06
510.319	85.06
510.536	100.06
510.752	81.06
510.968	95.06
511.184	79.06
511.401	79.06
511.617	78.06
511.833	70.06
512.049	89.06
512.265	84.06
512.481	85.06
512.698	83.06
512.914	96.06
513.13	88.06
513.346	96.06
513.562	91.06
513.778	85.06
513.994	72.06
514.21	70.06
514.426	86.06
514.642	93.06
514.858	79.06
515.074	75.06
515.29	83.06
515.506	82.06
515.721	76.06
515.937	94.06
516.153	72.06
516.369	85.06
516.585	78.06
516.801	89.06
517.016	85.06
517.232	83.06
517.448	93.06
517.664	83.06
517.879	79.06
518.095	82.06
