Data from Location5.07152019.Energy5.Lamp.07192019.3%Agarose_HRD10591_15-36-50-386.txt Node
Date: Fri Jul 19 15:36:50 EDT 2019
User: cochatt
Spectrometer: HR+D1059
Trigger mode: 1
Integration Time (sec): 1.000000E-1
Scans to average: 1
Electric dark correction enabled: true
Nonlinearity correction enabled: false
Boxcar width: 0
XAxis mode: Wavelengths
Number of Pixels in Spectrum: 2048
>>>>>Begin Spectral Data<<<<<
223.165	-18.62
223.4	-18.62
223.635	-18.62
223.869	-24.62
224.104	-1.62
224.338	-17.62
224.573	-24.62
224.808	-14.62
225.042	-16.62
225.277	-9.62
225.511	-12.62
225.746	9.38
225.98	19.38
226.215	19.38
226.449	16.38
226.683	9.38
226.918	20.38
227.152	46.38
227.387	34.38
227.621	39.38
227.856	32.38
228.09	41.38
228.324	57.38
228.559	61.38
228.793	60.38
229.027	50.38
229.262	69.38
229.496	50.38
229.73	56.38
229.964	66.38
230.199	64.38
230.433	67.38
230.667	78.38
230.901	76.38
231.136	69.38
231.37	70.38
231.604	66.38
231.838	85.38
232.072	73.38
232.306	67.38
232.541	73.38
232.775	79.38
233.009	80.38
233.243	77.38
233.477	79.38
233.711	77.38
233.945	91.38
234.179	81.38
234.413	74.38
234.647	91.38
234.881	76.38
235.115	83.38
235.349	87.38
235.583	80.38
235.817	65.38
236.051	78.38
236.285	84.38
236.519	77.38
236.753	79.38
236.987	79.38
237.221	73.38
237.455	82.38
237.689	81.38
237.922	64.38
238.156	81.38
238.39	86.38
238.624	81.38
238.858	77.38
239.091	77.38
239.325	81.38
239.559	72.38
239.793	77.38
240.027	74.38
240.26	84.38
240.494	90.38
240.728	78.38
240.961	69.38
241.195	71.38
241.429	80.38
241.662	82.38
241.896	76.38
242.13	80.38
242.363	66.38
242.597	72.38
242.83	58.38
243.064	73.38
243.298	81.38
243.531	84.38
243.765	62.38
243.998	75.38
244.232	82.38
244.465	50.38
244.699	80.38
244.932	78.38
245.166	54.38
245.399	91.38
245.633	83.38
245.866	68.38
246.099	89.38
246.333	80.38
246.566	80.38
246.8	64.38
247.033	64.38
247.266	81.38
247.5	95.38
247.733	82.38
247.966	66.38
248.2	75.38
248.433	58.38
248.666	92.38
248.899	77.38
249.133	73.38
249.366	86.38
249.599	88.38
249.832	80.38
250.066	81.38
250.299	68.38
250.532	90.38
250.765	78.38
250.998	60.38
251.231	78.38
251.465	69.38
251.698	73.38
251.931	80.38
252.164	74.38
252.397	78.38
252.63	68.38
252.863	74.38
253.096	87.38
253.329	65.38
253.562	84.38
253.795	86.38
254.028	78.38
254.261	79.38
254.494	67.38
254.727	84.38
254.96	70.38
255.193	66.38
255.426	63.38
255.659	78.38
255.892	76.38
256.124	83.38
256.357	87.38
256.59	72.38
256.823	79.38
257.056	82.38
257.289	84.38
257.521	85.38
257.754	79.38
257.987	82.38
258.22	79.38
258.452	87.38
258.685	78.38
258.918	83.38
259.151	90.38
259.383	77.38
259.616	79.38
259.849	74.38
260.081	76.38
260.314	73.38
260.547	70.38
260.779	71.38
261.012	84.38
261.244	70.38
261.477	65.38
261.71	87.38
261.942	77.38
262.175	82.38
262.407	105.38
262.64	75.38
262.872	88.38
263.105	76.38
263.337	77.38
263.57	75.38
263.802	77.38
264.035	78.38
264.267	72.38
264.499	74.38
264.732	68.38
264.964	87.38
265.197	86.38
265.429	90.38
265.661	80.38
265.894	86.38
266.126	71.38
266.358	89.38
266.591	83.38
266.823	86.38
267.055	78.38
267.287	80.38
267.52	83.38
267.752	75.38
267.984	75.38
268.216	77.38
268.448	72.38
268.681	78.38
268.913	64.38
269.145	82.38
269.377	74.38
269.609	72.38
269.841	84.38
270.073	82.38
270.306	90.38
270.538	89.38
270.77	75.38
271.002	81.38
271.234	92.38
271.466	88.38
271.698	77.38
271.93	70.38
272.162	74.38
272.394	91.38
272.626	81.38
272.858	80.38
273.09	84.38
273.322	83.38
273.553	71.38
273.785	94.38
274.017	69.38
274.249	86.38
274.481	81.38
274.713	64.38
274.945	85.38
275.176	75.38
275.408	72.38
275.64	91.38
275.872	63.38
276.104	74.38
276.335	77.38
276.567	80.38
276.799	64.38
277.031	71.38
277.262	85.38
277.494	101.38
277.726	68.38
277.957	88.38
278.189	95.38
278.421	83.38
278.652	79.38
278.884	85.38
279.115	94.38
279.347	74.38
279.579	80.38
279.81	84.38
280.042	79.38
280.273	84.38
280.505	101.38
280.736	66.38
280.968	70.38
281.199	68.38
281.431	76.38
281.662	86.38
281.894	79.38
282.125	76.38
282.356	68.38
282.588	78.38
282.819	79.38
283.051	81.38
283.282	69.38
283.513	79.38
283.745	88.38
283.976	77.38
284.207	73.38
284.439	78.38
284.67	81.38
284.901	80.38
285.132	80.38
285.364	79.38
285.595	84.38
285.826	94.38
286.057	77.38
286.288	92.38
286.52	77.38
286.751	80.38
286.982	90.38
287.213	85.38
287.444	70.38
287.675	74.38
287.906	73.38
288.138	69.38
288.369	73.38
288.6	65.38
288.831	95.38
289.062	91.38
289.293	66.38
289.524	75.38
289.755	79.38
289.986	90.38
290.217	96.38
290.448	86.38
290.679	85.38
290.91	86.38
291.141	72.38
291.371	80.38
291.602	83.38
291.833	94.38
292.064	80.38
292.295	83.38
292.526	85.38
292.757	88.38
292.987	91.38
293.218	81.38
293.449	94.38
293.68	87.38
293.91	88.38
294.141	82.38
294.372	85.38
294.603	91.38
294.833	87.38
295.064	69.38
295.295	90.38
295.525	86.38
295.756	97.38
295.987	83.38
296.217	83.38
296.448	90.38
296.679	90.38
296.909	86.38
297.14	87.38
297.37	72.38
297.601	81.38
297.831	80.38
298.062	84.38
298.292	90.38
298.523	78.38
298.753	71.38
298.984	79.38
299.214	81.38
299.445	77.38
299.675	79.38
299.905	78.38
300.136	82.38
300.366	78.38
300.597	78.38
300.827	76.38
301.057	72.38
301.288	95.38
301.518	69.38
301.748	77.38
301.979	88.38
302.209	83.38
302.439	82.38
302.669	82.38
302.9	76.38
303.13	80.38
303.36	81.38
303.59	84.38
303.82	73.38
304.051	83.38
304.281	83.38
304.511	86.38
304.741	87.38
304.971	84.38
305.201	83.38
305.431	75.38
305.661	94.38
305.891	81.38
306.121	89.38
306.352	73.38
306.582	71.38
306.812	83.38
307.042	65.38
307.272	84.38
307.502	81.38
307.731	88.38
307.961	87.38
308.191	64.38
308.421	76.38
308.651	96.38
308.881	90.38
309.111	82.38
309.341	80.38
309.571	84.38
309.8	84.38
310.03	82.38
310.26	80.38
310.49	74.38
310.72	89.38
310.949	74.38
311.179	87.38
311.409	91.38
311.639	85.38
311.868	83.38
312.098	80.38
312.328	82.38
312.557	92.38
312.787	94.38
313.017	84.38
313.246	81.38
313.476	90.38
313.706	77.38
313.935	87.38
314.165	70.38
314.394	85.38
314.624	86.38
314.853	78.38
315.083	87.38
315.312	78.38
315.542	83.38
315.771	92.38
316.001	97.38
316.23	67.38
316.46	76.38
316.689	94.38
316.919	85.38
317.148	74.38
317.377	89.38
317.607	82.38
317.836	88.38
318.065	71.38
318.295	77.38
318.524	84.38
318.753	73.38
318.983	80.38
319.212	88.38
319.441	82.38
319.67	88.38
319.9	86.38
320.129	82.38
320.358	85.38
320.587	85.38
320.816	81.38
321.046	96.38
321.275	93.38
321.504	74.38
321.733	80.38
321.962	83.38
322.191	81.38
322.42	72.38
322.649	76.38
322.878	75.38
323.108	93.38
323.337	80.38
323.566	85.38
323.795	71.38
324.024	73.38
324.253	80.38
324.482	82.38
324.71	69.38
324.939	75.38
325.168	76.38
325.397	80.38
325.626	101.38
325.855	89.38
326.084	83.38
326.313	69.38
326.542	81.38
326.77	79.38
326.999	72.38
327.228	82.38
327.457	75.38
327.686	92.38
327.914	77.38
328.143	86.38
328.372	81.38
328.6	85.38
328.829	81.38
329.058	76.38
329.287	87.38
329.515	80.38
329.744	93.38
329.972	70.38
330.201	81.38
330.43	89.38
330.658	86.38
330.887	84.38
331.115	89.38
331.344	95.38
331.572	78.38
331.801	76.38
332.03	87.38
332.258	76.38
332.486	85.38
332.715	86.38
332.943	64.38
333.172	74.38
333.4	79.38
333.629	73.38
333.857	72.38
334.085	76.38
334.314	75.38
334.542	84.38
334.771	73.38
334.999	83.38
335.227	82.38
335.455	86.38
335.684	84.38
335.912	76.38
336.14	73.38
336.369	73.38
336.597	74.38
336.825	84.38
337.053	78.38
337.281	80.38
337.51	85.38
337.738	86.38
337.966	95.38
338.194	86.38
338.422	82.38
338.65	77.38
338.878	78.38
339.106	77.38
339.334	85.38
339.562	60.38
339.79	78.38
340.018	84.38
340.246	94.38
340.474	76.38
340.702	78.38
340.93	79.38
341.158	73.38
341.386	70.38
341.614	63.38
341.842	75.38
342.07	66.38
342.298	92.38
342.526	73.38
342.754	72.38
342.981	87.38
343.209	80.38
343.437	89.38
343.665	88.38
343.893	88.38
344.12	92.38
344.348	77.38
344.576	76.38
344.804	75.38
345.031	84.38
345.259	89.38
345.487	84.38
345.714	86.38
345.942	87.38
346.17	89.38
346.397	80.38
346.625	82.38
346.853	81.38
347.08	87.38
347.308	94.38
347.535	83.38
347.763	65.38
347.99	76.38
348.218	74.38
348.445	78.38
348.673	74.38
348.9	91.38
349.128	78.38
349.355	76.38
349.583	86.38
349.81	80.38
350.037	76.38
350.265	78.38
350.492	75.38
350.72	74.38
350.947	85.38
351.174	95.38
351.402	78.38
351.629	81.38
351.856	85.38
352.083	86.38
352.311	74.38
352.538	69.38
352.765	84.38
352.992	70.38
353.22	86.38
353.447	93.38
353.674	87.38
353.901	93.38
354.128	83.38
354.355	86.38
354.583	73.38
354.81	77.38
355.037	82.38
355.264	81.38
355.491	94.38
355.718	87.38
355.945	85.38
356.172	85.38
356.399	69.38
356.626	66.38
356.853	85.38
357.08	88.38
357.307	69.38
357.534	78.38
357.761	90.38
357.988	86.38
358.215	82.38
358.441	82.38
358.668	77.38
358.895	85.38
359.122	88.38
359.349	76.38
359.576	71.38
359.802	76.38
360.029	70.38
360.256	81.38
360.483	87.38
360.709	93.38
360.936	71.38
361.163	74.38
361.39	78.38
361.616	82.38
361.843	98.38
362.07	81.38
362.296	76.38
362.523	88.38
362.749	75.38
362.976	74.38
363.203	83.38
363.429	85.38
363.656	98.38
363.882	80.38
364.109	56.38
364.335	70.38
364.562	77.38
364.788	86.38
365.015	95.38
365.241	76.38
365.468	76.38
365.694	84.38
365.92	82.38
366.147	80.38
366.373	92.38
366.599	80.38
366.826	92.38
367.052	90.38
367.278	74.38
367.505	69.38
367.731	94.38
367.957	86.38
368.184	68.38
368.41	89.38
368.636	86.38
368.862	84.38
369.089	82.38
369.315	90.38
369.541	79.38
369.767	91.38
369.993	66.38
370.219	89.38
370.445	77.38
370.672	70.38
370.898	86.38
371.124	71.38
371.35	84.38
371.576	81.38
371.802	73.38
372.028	84.38
372.254	70.38
372.48	73.38
372.706	79.38
372.932	83.38
373.158	75.38
373.384	79.38
373.61	76.38
373.835	86.38
374.061	97.38
374.287	92.38
374.513	72.38
374.739	86.38
374.965	78.38
375.191	83.38
375.416	86.38
375.642	83.38
375.868	91.38
376.094	84.38
376.319	85.38
376.545	80.38
376.771	78.38
376.997	84.38
377.222	93.38
377.448	84.38
377.674	84.38
377.899	87.38
378.125	89.38
378.35	78.38
378.576	78.38
378.802	82.38
379.027	89.38
379.253	80.38
379.478	88.38
379.704	82.38
379.929	83.38
380.155	71.38
380.38	82.38
380.606	90.38
380.831	73.38
381.057	76.38
381.282	94.38
381.507	84.38
381.733	80.38
381.958	70.38
382.184	72.38
382.409	77.38
382.634	82.38
382.86	87.38
383.085	74.38
383.31	80.38
383.535	78.38
383.761	73.38
383.986	75.38
384.211	67.38
384.436	84.38
384.662	84.38
384.887	72.38
385.112	79.38
385.337	90.38
385.562	82.38
385.787	81.38
386.013	99.38
386.238	84.38
386.463	81.38
386.688	86.38
386.913	76.38
387.138	82.38
387.363	86.38
387.588	80.38
387.813	81.38
388.038	68.38
388.263	77.38
388.488	100.38
388.713	96.38
388.938	79.38
389.163	90.38
389.387	80.38
389.612	74.38
389.837	83.38
390.062	86.38
390.287	85.38
390.512	82.38
390.736	86.38
390.961	92.38
391.186	87.38
391.411	60.38
391.636	93.38
391.86	88.38
392.085	77.38
392.31	72.38
392.534	101.38
392.759	89.38
392.984	80.38
393.208	92.38
393.433	86.38
393.658	81.38
393.882	85.38
394.107	79.38
394.331	90.38
394.556	82.38
394.78	78.38
395.005	99.38
395.229	92.38
395.454	89.38
395.678	89.38
395.903	78.38
396.127	97.38
396.352	79.38
396.576	74.38
396.801	85.38
397.025	79.38
397.249	81.38
397.474	87.38
397.698	89.38
397.922	75.38
398.147	101.38
398.371	89.38
398.595	87.38
398.82	78.38
399.044	80.38
399.268	79.38
399.492	111.38
399.717	80.38
399.941	88.38
400.165	86.38
400.389	83.38
400.613	96.38
400.837	81.38
401.062	93.38
401.286	100.38
401.51	80.38
401.734	82.38
401.958	83.38
402.182	72.38
402.406	95.38
402.63	85.38
402.854	78.38
403.078	86.38
403.302	91.38
403.526	94.38
403.75	87.38
403.974	79.38
404.198	81.38
404.422	88.38
404.645	82.38
404.869	93.38
405.093	92.38
405.317	86.38
405.541	74.38
405.765	87.38
405.988	75.38
406.212	95.38
406.436	93.38
406.66	88.38
406.883	88.38
407.107	86.38
407.331	80.38
407.555	79.38
407.778	92.38
408.002	87.38
408.226	96.38
408.449	79.38
408.673	79.38
408.896	85.38
409.12	98.38
409.344	85.38
409.567	71.38
409.791	91.38
410.014	100.38
410.238	82.38
410.461	104.38
410.685	78.38
410.908	71.38
411.132	89.38
411.355	85.38
411.578	95.38
411.802	86.38
412.025	76.38
412.249	82.38
412.472	89.38
412.695	87.38
412.919	82.38
413.142	89.38
413.365	93.38
413.589	101.38
413.812	97.38
414.035	104.38
414.258	96.38
414.482	88.38
414.705	86.38
414.928	92.38
415.151	85.38
415.374	84.38
415.597	93.38
415.821	93.38
416.044	82.38
416.267	95.38
416.49	86.38
416.713	76.38
416.936	95.38
417.159	77.38
417.382	80.38
417.605	86.38
417.828	97.38
418.051	91.38
418.274	100.38
418.497	92.38
418.72	87.38
418.943	84.38
419.166	72.38
419.389	96.38
419.611	97.38
419.834	87.38
420.057	92.38
420.28	95.38
420.503	77.38
420.726	92.38
420.948	75.38
421.171	99.38
421.394	82.38
421.617	90.38
421.839	92.38
422.062	100.38
422.285	78.38
422.507	98.38
422.73	92.38
422.953	86.38
423.175	85.38
423.398	81.38
423.621	97.38
423.843	84.38
424.066	93.38
424.288	106.38
424.511	112.38
424.733	98.38
424.956	104.38
425.178	92.38
425.401	93.38
425.623	90.38
425.846	80.38
426.068	92.38
426.291	73.38
426.513	85.38
426.735	95.38
426.958	86.38
427.18	84.38
427.402	74.38
427.625	80.38
427.847	92.38
428.069	83.38
428.292	92.38
428.514	97.38
428.736	88.38
428.958	98.38
429.181	82.38
429.403	77.38
429.625	97.38
429.847	93.38
430.069	96.38
430.292	86.38
430.514	88.38
430.736	88.38
430.958	97.38
431.18	96.38
431.402	98.38
431.624	89.38
431.846	62.38
432.068	88.38
432.29	83.38
432.512	101.38
432.734	89.38
432.956	89.38
433.178	91.38
433.4	96.38
433.622	97.38
433.844	85.38
434.066	89.38
434.287	89.38
434.509	72.38
434.731	73.38
434.953	86.38
435.175	92.38
435.397	86.38
435.618	84.38
435.84	79.38
436.062	85.38
436.284	80.38
436.505	95.38
436.727	92.38
436.949	101.38
437.17	72.38
437.392	83.38
437.614	90.38
437.835	88.38
438.057	98.38
438.278	85.38
438.5	79.38
438.721	92.38
438.943	92.38
439.165	81.38
439.386	83.38
439.608	98.38
439.829	93.38
440.05	88.38
440.272	85.38
440.493	101.38
440.715	99.38
440.936	96.38
441.158	87.38
441.379	92.38
441.6	101.38
441.822	95.38
442.043	92.38
442.264	101.38
442.486	98.38
442.707	108.38
442.928	91.38
443.149	91.38
443.371	103.38
443.592	99.38
443.813	90.38
444.034	84.38
444.255	91.38
444.476	97.38
444.698	89.38
444.919	82.38
445.14	193.38
445.361	126.38
445.582	96.38
445.803	92.38
446.024	95.38
446.245	101.38
446.466	94.38
446.687	79.38
446.908	96.38
447.129	104.38
447.35	101.38
447.571	93.38
447.792	80.38
448.013	84.38
448.234	66.38
448.455	83.38
448.675	92.38
448.896	87.38
449.117	82.38
449.338	78.38
449.559	93.38
449.779	81.38
450	79.38
450.221	98.38
450.442	88.38
450.662	89.38
450.883	88.38
451.104	89.38
451.324	89.38
451.545	87.38
451.766	84.38
451.986	90.38
452.207	84.38
452.428	90.38
452.648	80.38
452.869	85.38
453.089	93.38
453.31	84.38
453.53	85.38
453.751	86.38
453.971	80.38
454.192	72.38
454.412	87.38
454.633	97.38
454.853	91.38
455.073	76.38
455.294	97.38
455.514	88.38
455.734	92.38
455.955	103.38
456.175	109.38
456.395	96.38
456.616	89.38
456.836	80.38
457.056	81.38
457.276	80.38
457.497	94.38
457.717	77.38
457.937	76.38
458.157	104.38
458.377	84.38
458.598	72.38
458.818	87.38
459.038	82.38
459.258	69.38
459.478	77.38
459.698	89.38
459.918	88.38
460.138	78.38
460.358	77.38
460.578	96.38
460.798	80.38
461.018	82.38
461.238	88.38
461.458	88.38
461.678	82.38
461.898	78.38
462.118	82.38
462.338	80.38
462.558	90.38
462.777	84.38
462.997	69.38
463.217	89.38
463.437	80.38
463.657	81.38
463.876	78.38
464.096	91.38
464.316	85.38
464.536	80.38
464.755	97.38
464.975	82.38
465.195	88.38
465.414	85.38
465.634	72.38
465.854	95.38
466.073	84.38
466.293	102.38
466.512	91.38
466.732	86.38
466.951	95.38
467.171	95.38
467.391	118.38
467.61	88.38
467.829	94.38
468.049	97.38
468.268	76.38
468.488	106.38
468.707	96.38
468.927	77.38
469.146	87.38
469.365	93.38
469.585	109.38
469.804	94.38
470.023	105.38
470.243	92.38
470.462	101.38
470.681	106.38
470.901	106.38
471.12	87.38
471.339	95.38
471.558	104.38
471.777	92.38
471.997	97.38
472.216	85.38
472.435	90.38
472.654	85.38
472.873	90.38
473.092	85.38
473.311	88.38
473.53	79.38
473.749	88.38
473.968	94.38
474.187	87.38
474.406	79.38
474.625	87.38
474.844	82.38
475.063	82.38
475.282	95.38
475.501	77.38
475.72	89.38
475.939	88.38
476.158	90.38
476.377	94.38
476.596	72.38
476.814	96.38
477.033	85.38
477.252	80.38
477.471	85.38
477.69	95.38
477.908	84.38
478.127	93.38
478.346	87.38
478.564	85.38
478.783	100.38
479.002	93.38
479.22	110.38
479.439	81.38
479.658	77.38
479.876	73.38
480.095	92.38
480.313	86.38
480.532	91.38
480.751	78.38
480.969	92.38
481.188	71.38
481.406	78.38
481.624	71.38
481.843	78.38
482.061	84.38
482.28	83.38
482.498	95.38
482.717	79.38
482.935	94.38
483.153	88.38
483.372	105.38
483.59	109.38
483.808	103.38
484.027	81.38
484.245	92.38
484.463	100.38
484.681	103.38
484.9	87.38
485.118	89.38
485.336	99.38
485.554	96.38
485.772	71.38
485.99	87.38
486.209	87.38
486.427	87.38
486.645	83.38
486.863	79.38
487.081	104.38
487.299	72.38
487.517	103.38
487.735	104.38
487.953	98.38
488.171	97.38
488.389	93.38
488.607	86.38
488.825	81.38
489.043	90.38
489.261	95.38
489.479	91.38
489.696	107.38
489.914	91.38
490.132	88.38
490.35	95.38
490.568	101.38
490.786	94.38
491.003	117.38
491.221	98.38
491.439	104.38
491.657	98.38
491.874	91.38
492.092	115.38
492.31	110.38
492.527	122.38
492.745	100.38
492.963	112.38
493.18	117.38
493.398	101.38
493.615	108.38
493.833	110.38
494.05	104.38
494.268	99.38
494.485	100.38
494.703	115.38
494.92	98.38
495.138	95.38
495.355	100.38
495.573	110.38
495.79	111.38
496.008	128.38
496.225	95.38
496.442	118.38
496.66	114.38
496.877	120.38
497.094	105.38
497.312	96.38
497.529	94.38
497.746	104.38
497.963	101.38
498.181	88.38
498.398	93.38
498.615	92.38
498.832	87.38
499.049	88.38
499.267	86.38
499.484	85.38
499.701	75.38
499.918	100.38
500.135	99.38
500.352	97.38
500.569	73.38
500.786	83.38
501.003	100.38
501.22	95.38
501.437	100.38
501.654	105.38
501.871	85.38
502.088	87.38
502.305	86.38
502.522	104.38
502.739	107.38
502.956	98.38
503.172	76.38
503.389	81.38
503.606	90.38
503.823	101.38
504.04	98.38
504.256	86.38
504.473	98.38
504.69	86.38
504.907	80.38
505.123	91.38
505.34	94.38
505.557	100.38
505.773	77.38
505.99	87.38
506.207	89.38
506.423	95.38
506.64	72.38
506.856	85.38
507.073	88.38
507.289	100.38
507.506	89.38
507.722	74.38
507.939	83.38
508.155	82.38
508.372	97.38
508.588	96.38
508.805	80.38
509.021	71.38
509.238	94.38
509.454	87.38
509.67	81.38
509.887	89.38
510.103	92.38
510.319	87.38
510.536	79.38
510.752	97.38
510.968	78.38
511.184	72.38
511.401	84.38
511.617	89.38
511.833	83.38
512.049	66.38
512.265	82.38
512.481	96.38
512.698	89.38
512.914	89.38
513.13	88.38
513.346	88.38
513.562	72.38
513.778	82.38
513.994	82.38
514.21	78.38
514.426	77.38
514.642	79.38
514.858	84.38
515.074	79.38
515.29	90.38
515.506	88.38
515.721	81.38
515.937	79.38
516.153	84.38
516.369	78.38
516.585	82.38
516.801	96.38
517.016	94.38
517.232	90.38
517.448	87.38
517.664	88.38
517.879	89.38
518.095	78.38
518.311	82.38
