Data from Location5.07152019.Energy5.Lamp.07192019.3%Agarose_HRD10591_16-03-35-628.txt Node
Date: Fri Jul 19 16:03:35 EDT 2019
User: cochatt
Spectrometer: HR+D1059
Trigger mode: 1
Integration Time (sec): 1.000000E-1
Scans to average: 1
Electric dark correction enabled: true
Nonlinearity correction enabled: false
Boxcar width: 0
XAxis mode: Wavelengths
Number of Pixels in Spectrum: 2048
>>>>>Begin Spectral Data<<<<<
223.165	-17.25
223.4	-17.25
223.635	-17.25
223.869	-16.25
224.104	-24.25
224.338	-12.25
224.573	-21.25
224.808	-14.25
225.042	-7.25
225.277	-1.25
225.511	6.75
225.746	4.75
225.98	9.75
226.215	13.75
226.449	23.75
226.683	13.75
226.918	18.75
227.152	22.75
227.387	40.75
227.621	36.75
227.856	42.75
228.09	47.75
228.324	58.75
228.559	57.75
228.793	60.75
229.027	79.75
229.262	73.75
229.496	66.75
229.73	74.75
229.964	79.75
230.199	75.75
230.433	82.75
230.667	73.75
230.901	91.75
231.136	82.75
231.37	88.75
231.604	94.75
231.838	77.75
232.072	85.75
232.306	83.75
232.541	91.75
232.775	85.75
233.009	85.75
233.243	84.75
233.477	89.75
233.711	90.75
233.945	88.75
234.179	90.75
234.413	96.75
234.647	74.75
234.881	84.75
235.115	84.75
235.349	85.75
235.583	85.75
235.817	81.75
236.051	95.75
236.285	68.75
236.519	87.75
236.753	88.75
236.987	73.75
237.221	95.75
237.455	88.75
237.689	75.75
237.922	75.75
238.156	76.75
238.39	79.75
238.624	91.75
238.858	68.75
239.091	74.75
239.325	79.75
239.559	88.75
239.793	93.75
240.027	94.75
240.26	86.75
240.494	75.75
240.728	82.75
240.961	66.75
241.195	78.75
241.429	58.75
241.662	65.75
241.896	77.75
242.13	77.75
242.363	89.75
242.597	76.75
242.83	78.75
243.064	73.75
243.298	77.75
243.531	74.75
243.765	75.75
243.998	100.75
244.232	71.75
244.465	82.75
244.699	85.75
244.932	81.75
245.166	83.75
245.399	96.75
245.633	81.75
245.866	73.75
246.099	73.75
246.333	88.75
246.566	80.75
246.8	75.75
247.033	75.75
247.266	97.75
247.5	83.75
247.733	81.75
247.966	73.75
248.2	88.75
248.433	75.75
248.666	88.75
248.899	70.75
249.133	87.75
249.366	89.75
249.599	79.75
249.832	87.75
250.066	100.75
250.299	87.75
250.532	93.75
250.765	85.75
250.998	73.75
251.231	86.75
251.465	92.75
251.698	90.75
251.931	78.75
252.164	83.75
252.397	103.75
252.63	73.75
252.863	73.75
253.096	70.75
253.329	78.75
253.562	78.75
253.795	77.75
254.028	90.75
254.261	93.75
254.494	91.75
254.727	89.75
254.96	86.75
255.193	75.75
255.426	85.75
255.659	89.75
255.892	87.75
256.124	78.75
256.357	85.75
256.59	83.75
256.823	93.75
257.056	81.75
257.289	88.75
257.521	88.75
257.754	86.75
257.987	89.75
258.22	92.75
258.452	93.75
258.685	73.75
258.918	84.75
259.151	74.75
259.383	93.75
259.616	79.75
259.849	75.75
260.081	86.75
260.314	83.75
260.547	94.75
260.779	81.75
261.012	84.75
261.244	84.75
261.477	91.75
261.71	87.75
261.942	87.75
262.175	85.75
262.407	77.75
262.64	85.75
262.872	83.75
263.105	71.75
263.337	73.75
263.57	90.75
263.802	85.75
264.035	67.75
264.267	102.75
264.499	88.75
264.732	88.75
264.964	81.75
265.197	65.75
265.429	95.75
265.661	71.75
265.894	91.75
266.126	89.75
266.358	89.75
266.591	90.75
266.823	85.75
267.055	83.75
267.287	86.75
267.52	86.75
267.752	96.75
267.984	101.75
268.216	84.75
268.448	73.75
268.681	95.75
268.913	78.75
269.145	90.75
269.377	95.75
269.609	88.75
269.841	85.75
270.073	85.75
270.306	100.75
270.538	94.75
270.77	98.75
271.002	85.75
271.234	83.75
271.466	85.75
271.698	94.75
271.93	87.75
272.162	79.75
272.394	95.75
272.626	84.75
272.858	90.75
273.09	85.75
273.322	88.75
273.553	86.75
273.785	91.75
274.017	91.75
274.249	83.75
274.481	87.75
274.713	105.75
274.945	94.75
275.176	87.75
275.408	97.75
275.64	97.75
275.872	87.75
276.104	104.75
276.335	99.75
276.567	90.75
276.799	99.75
277.031	86.75
277.262	103.75
277.494	98.75
277.726	90.75
277.957	94.75
278.189	84.75
278.421	86.75
278.652	90.75
278.884	94.75
279.115	74.75
279.347	85.75
279.579	101.75
279.81	94.75
280.042	93.75
280.273	93.75
280.505	93.75
280.736	90.75
280.968	85.75
281.199	92.75
281.431	91.75
281.662	87.75
281.894	83.75
282.125	84.75
282.356	102.75
282.588	79.75
282.819	82.75
283.051	83.75
283.282	83.75
283.513	79.75
283.745	81.75
283.976	76.75
284.207	93.75
284.439	82.75
284.67	92.75
284.901	89.75
285.132	93.75
285.364	79.75
285.595	78.75
285.826	76.75
286.057	87.75
286.288	75.75
286.52	95.75
286.751	87.75
286.982	82.75
287.213	89.75
287.444	95.75
287.675	91.75
287.906	96.75
288.138	89.75
288.369	97.75
288.6	94.75
288.831	82.75
289.062	95.75
289.293	94.75
289.524	83.75
289.755	86.75
289.986	83.75
290.217	98.75
290.448	98.75
290.679	85.75
290.91	94.75
291.141	99.75
291.371	85.75
291.602	84.75
291.833	95.75
292.064	91.75
292.295	92.75
292.526	85.75
292.757	86.75
292.987	94.75
293.218	98.75
293.449	88.75
293.68	101.75
293.91	107.75
294.141	103.75
294.372	107.75
294.603	89.75
294.833	91.75
295.064	77.75
295.295	100.75
295.525	93.75
295.756	99.75
295.987	95.75
296.217	90.75
296.448	79.75
296.679	90.75
296.909	99.75
297.14	94.75
297.37	91.75
297.601	96.75
297.831	87.75
298.062	108.75
298.292	79.75
298.523	84.75
298.753	103.75
298.984	81.75
299.214	85.75
299.445	91.75
299.675	85.75
299.905	94.75
300.136	95.75
300.366	90.75
300.597	87.75
300.827	83.75
301.057	91.75
301.288	87.75
301.518	92.75
301.748	89.75
301.979	84.75
302.209	97.75
302.439	91.75
302.669	86.75
302.9	95.75
303.13	90.75
303.36	86.75
303.59	89.75
303.82	97.75
304.051	85.75
304.281	98.75
304.511	97.75
304.741	98.75
304.971	97.75
305.201	100.75
305.431	82.75
305.661	89.75
305.891	102.75
306.121	95.75
306.352	82.75
306.582	90.75
306.812	89.75
307.042	91.75
307.272	94.75
307.502	101.75
307.731	98.75
307.961	104.75
308.191	87.75
308.421	91.75
308.651	86.75
308.881	94.75
309.111	85.75
309.341	103.75
309.571	100.75
309.8	86.75
310.03	97.75
310.26	102.75
310.49	94.75
310.72	101.75
310.949	86.75
311.179	105.75
311.409	103.75
311.639	80.75
311.868	102.75
312.098	100.75
312.328	90.75
312.557	96.75
312.787	94.75
313.017	93.75
313.246	98.75
313.476	88.75
313.706	86.75
313.935	97.75
314.165	85.75
314.394	87.75
314.624	93.75
314.853	83.75
315.083	101.75
315.312	95.75
315.542	97.75
315.771	90.75
316.001	94.75
316.23	81.75
316.46	92.75
316.689	95.75
316.919	88.75
317.148	85.75
317.377	93.75
317.607	105.75
317.836	89.75
318.065	80.75
318.295	111.75
318.524	103.75
318.753	105.75
318.983	82.75
319.212	94.75
319.441	90.75
319.67	98.75
319.9	114.75
320.129	99.75
320.358	91.75
320.587	93.75
320.816	85.75
321.046	94.75
321.275	94.75
321.504	104.75
321.733	100.75
321.962	100.75
322.191	96.75
322.42	103.75
322.649	89.75
322.878	99.75
323.108	93.75
323.337	89.75
323.566	102.75
323.795	96.75
324.024	78.75
324.253	95.75
324.482	88.75
324.71	104.75
324.939	90.75
325.168	92.75
325.397	96.75
325.626	99.75
325.855	100.75
326.084	93.75
326.313	101.75
326.542	77.75
326.77	96.75
326.999	99.75
327.228	94.75
327.457	89.75
327.686	99.75
327.914	103.75
328.143	90.75
328.372	94.75
328.6	96.75
328.829	93.75
329.058	108.75
329.287	83.75
329.515	91.75
329.744	100.75
329.972	87.75
330.201	106.75
330.43	83.75
330.658	80.75
330.887	93.75
331.115	96.75
331.344	89.75
331.572	95.75
331.801	97.75
332.03	91.75
332.258	83.75
332.486	91.75
332.715	98.75
332.943	107.75
333.172	107.75
333.4	95.75
333.629	98.75
333.857	92.75
334.085	104.75
334.314	106.75
334.542	86.75
334.771	89.75
334.999	88.75
335.227	90.75
335.455	94.75
335.684	119.75
335.912	99.75
336.14	99.75
336.369	93.75
336.597	101.75
336.825	95.75
337.053	96.75
337.281	94.75
337.51	86.75
337.738	98.75
337.966	99.75
338.194	86.75
338.422	90.75
338.65	90.75
338.878	110.75
339.106	95.75
339.334	88.75
339.562	93.75
339.79	83.75
340.018	83.75
340.246	80.75
340.474	96.75
340.702	94.75
340.93	92.75
341.158	92.75
341.386	97.75
341.614	81.75
341.842	82.75
342.07	94.75
342.298	99.75
342.526	94.75
342.754	98.75
342.981	93.75
343.209	76.75
343.437	94.75
343.665	82.75
343.893	110.75
344.12	99.75
344.348	101.75
344.576	100.75
344.804	91.75
345.031	89.75
345.259	95.75
345.487	100.75
345.714	97.75
345.942	101.75
346.17	93.75
346.397	79.75
346.625	79.75
346.853	106.75
347.08	103.75
347.308	101.75
347.535	93.75
347.763	91.75
347.99	93.75
348.218	100.75
348.445	79.75
348.673	106.75
348.9	92.75
349.128	104.75
349.355	96.75
349.583	95.75
349.81	92.75
350.037	95.75
350.265	88.75
350.492	95.75
350.72	97.75
350.947	104.75
351.174	95.75
351.402	85.75
351.629	76.75
351.856	101.75
352.083	97.75
352.311	94.75
352.538	97.75
352.765	94.75
352.992	95.75
353.22	90.75
353.447	78.75
353.674	97.75
353.901	99.75
354.128	102.75
354.355	90.75
354.583	93.75
354.81	86.75
355.037	101.75
355.264	96.75
355.491	94.75
355.718	91.75
355.945	88.75
356.172	97.75
356.399	86.75
356.626	94.75
356.853	97.75
357.08	107.75
357.307	90.75
357.534	79.75
357.761	79.75
357.988	93.75
358.215	94.75
358.441	98.75
358.668	106.75
358.895	94.75
359.122	87.75
359.349	87.75
359.576	90.75
359.802	97.75
360.029	76.75
360.256	98.75
360.483	106.75
360.709	96.75
360.936	100.75
361.163	94.75
361.39	92.75
361.616	98.75
361.843	92.75
362.07	101.75
362.296	102.75
362.523	80.75
362.749	107.75
362.976	102.75
363.203	94.75
363.429	93.75
363.656	102.75
363.882	91.75
364.109	99.75
364.335	84.75
364.562	94.75
364.788	84.75
365.015	93.75
365.241	97.75
365.468	87.75
365.694	100.75
365.92	102.75
366.147	94.75
366.373	76.75
366.599	98.75
366.826	99.75
367.052	95.75
367.278	108.75
367.505	92.75
367.731	91.75
367.957	91.75
368.184	91.75
368.41	76.75
368.636	111.75
368.862	88.75
369.089	79.75
369.315	98.75
369.541	81.75
369.767	97.75
369.993	94.75
370.219	98.75
370.445	94.75
370.672	96.75
370.898	100.75
371.124	100.75
371.35	108.75
371.576	99.75
371.802	113.75
372.028	89.75
372.254	108.75
372.48	90.75
372.706	106.75
372.932	103.75
373.158	86.75
373.384	89.75
373.61	95.75
373.835	83.75
374.061	85.75
374.287	94.75
374.513	98.75
374.739	89.75
374.965	102.75
375.191	107.75
375.416	116.75
375.642	97.75
375.868	92.75
376.094	83.75
376.319	98.75
376.545	79.75
376.771	99.75
376.997	79.75
377.222	90.75
377.448	91.75
377.674	86.75
377.899	93.75
378.125	92.75
378.35	88.75
378.576	97.75
378.802	94.75
379.027	84.75
379.253	91.75
379.478	87.75
379.704	95.75
379.929	101.75
380.155	98.75
380.38	92.75
380.606	86.75
380.831	85.75
381.057	84.75
381.282	89.75
381.507	83.75
381.733	93.75
381.958	101.75
382.184	107.75
382.409	99.75
382.634	90.75
382.86	96.75
383.085	95.75
383.31	93.75
383.535	100.75
383.761	93.75
383.986	98.75
384.211	92.75
384.436	87.75
384.662	87.75
384.887	94.75
385.112	87.75
385.337	97.75
385.562	87.75
385.787	95.75
386.013	89.75
386.238	94.75
386.463	77.75
386.688	84.75
386.913	100.75
387.138	96.75
387.363	86.75
387.588	94.75
387.813	89.75
388.038	93.75
388.263	96.75
388.488	96.75
388.713	88.75
388.938	85.75
389.163	99.75
389.387	88.75
389.612	97.75
389.837	84.75
390.062	94.75
390.287	92.75
390.512	85.75
390.736	88.75
390.961	96.75
391.186	94.75
391.411	98.75
391.636	105.75
391.86	90.75
392.085	100.75
392.31	96.75
392.534	98.75
392.759	103.75
392.984	102.75
393.208	88.75
393.433	89.75
393.658	105.75
393.882	102.75
394.107	86.75
394.331	95.75
394.556	90.75
394.78	95.75
395.005	103.75
395.229	89.75
395.454	101.75
395.678	103.75
395.903	93.75
396.127	79.75
396.352	107.75
396.576	94.75
396.801	97.75
397.025	105.75
397.249	107.75
397.474	102.75
397.698	94.75
397.922	105.75
398.147	95.75
398.371	97.75
398.595	93.75
398.82	98.75
399.044	98.75
399.268	98.75
399.492	101.75
399.717	118.75
399.941	118.75
400.165	100.75
400.389	95.75
400.613	106.75
400.837	113.75
401.062	108.75
401.286	117.75
401.51	107.75
401.734	92.75
401.958	113.75
402.182	98.75
402.406	105.75
402.63	95.75
402.854	96.75
403.078	96.75
403.302	98.75
403.526	104.75
403.75	109.75
403.974	87.75
404.198	101.75
404.422	98.75
404.645	100.75
404.869	98.75
405.093	95.75
405.317	109.75
405.541	118.75
405.765	94.75
405.988	100.75
406.212	102.75
406.436	100.75
406.66	103.75
406.883	99.75
407.107	98.75
407.331	94.75
407.555	98.75
407.778	93.75
408.002	111.75
408.226	94.75
408.449	97.75
408.673	96.75
408.896	103.75
409.12	108.75
409.344	115.75
409.567	103.75
409.791	99.75
410.014	100.75
410.238	104.75
410.461	103.75
410.685	91.75
410.908	89.75
411.132	78.75
411.355	102.75
411.578	99.75
411.802	89.75
412.025	98.75
412.249	96.75
412.472	95.75
412.695	94.75
412.919	91.75
413.142	117.75
413.365	107.75
413.589	106.75
413.812	100.75
414.035	79.75
414.258	82.75
414.482	84.75
414.705	87.75
414.928	89.75
415.151	94.75
415.374	101.75
415.597	95.75
415.821	101.75
416.044	103.75
416.267	101.75
416.49	95.75
416.713	88.75
416.936	99.75
417.159	100.75
417.382	109.75
417.605	92.75
417.828	99.75
418.051	82.75
418.274	83.75
418.497	101.75
418.72	92.75
418.943	94.75
419.166	98.75
419.389	101.75
419.611	88.75
419.834	95.75
420.057	67.75
420.28	98.75
420.503	101.75
420.726	107.75
420.948	94.75
421.171	101.75
421.394	102.75
421.617	95.75
421.839	92.75
422.062	100.75
422.285	89.75
422.507	99.75
422.73	98.75
422.953	92.75
423.175	95.75
423.398	105.75
423.621	106.75
423.843	104.75
424.066	105.75
424.288	96.75
424.511	103.75
424.733	97.75
424.956	104.75
425.178	111.75
425.401	104.75
425.623	104.75
425.846	105.75
426.068	108.75
426.291	99.75
426.513	91.75
426.735	105.75
426.958	91.75
427.18	86.75
427.402	103.75
427.625	93.75
427.847	92.75
428.069	98.75
428.292	94.75
428.514	108.75
428.736	93.75
428.958	90.75
429.181	93.75
429.403	84.75
429.625	94.75
429.847	103.75
430.069	91.75
430.292	90.75
430.514	91.75
430.736	93.75
430.958	94.75
431.18	90.75
431.402	98.75
431.624	104.75
431.846	104.75
432.068	102.75
432.29	102.75
432.512	96.75
432.734	113.75
432.956	92.75
433.178	90.75
433.4	113.75
433.622	88.75
433.844	100.75
434.066	87.75
434.287	90.75
434.509	101.75
434.731	108.75
434.953	87.75
435.175	106.75
435.397	93.75
435.618	98.75
435.84	91.75
436.062	94.75
436.284	106.75
436.505	79.75
436.727	88.75
436.949	108.75
437.17	104.75
437.392	94.75
437.614	97.75
437.835	100.75
438.057	104.75
438.278	90.75
438.5	106.75
438.721	92.75
438.943	99.75
439.165	103.75
439.386	99.75
439.608	106.75
439.829	99.75
440.05	99.75
440.272	91.75
440.493	89.75
440.715	97.75
440.936	100.75
441.158	79.75
441.379	105.75
441.6	106.75
441.822	86.75
442.043	103.75
442.264	93.75
442.486	91.75
442.707	87.75
442.928	106.75
443.149	87.75
443.371	110.75
443.592	107.75
443.813	91.75
444.034	86.75
444.255	93.75
444.476	90.75
444.698	99.75
444.919	98.75
445.14	215.75
445.361	143.75
445.582	106.75
445.803	78.75
446.024	93.75
446.245	106.75
446.466	90.75
446.687	103.75
446.908	88.75
447.129	104.75
447.35	118.75
447.571	103.75
447.792	105.75
448.013	99.75
448.234	86.75
448.455	91.75
448.675	85.75
448.896	78.75
449.117	102.75
449.338	101.75
449.559	88.75
449.779	100.75
450	94.75
450.221	96.75
450.442	90.75
450.662	86.75
450.883	91.75
451.104	100.75
451.324	97.75
451.545	91.75
451.766	88.75
451.986	87.75
452.207	93.75
452.428	101.75
452.648	79.75
452.869	95.75
453.089	74.75
453.31	95.75
453.53	102.75
453.751	92.75
453.971	102.75
454.192	110.75
454.412	101.75
454.633	98.75
454.853	100.75
455.073	97.75
455.294	96.75
455.514	89.75
455.734	86.75
455.955	98.75
456.175	107.75
456.395	86.75
456.616	83.75
456.836	94.75
457.056	105.75
457.276	95.75
457.497	94.75
457.717	107.75
457.937	100.75
458.157	95.75
458.377	101.75
458.598	96.75
458.818	93.75
459.038	91.75
459.258	95.75
459.478	87.75
459.698	94.75
459.918	88.75
460.138	112.75
460.358	97.75
460.578	88.75
460.798	90.75
461.018	94.75
461.238	95.75
461.458	97.75
461.678	110.75
461.898	108.75
462.118	104.75
462.338	98.75
462.558	111.75
462.777	96.75
462.997	104.75
463.217	104.75
463.437	104.75
463.657	118.75
463.876	105.75
464.096	107.75
464.316	116.75
464.536	105.75
464.755	106.75
464.975	111.75
465.195	106.75
465.414	97.75
465.634	99.75
465.854	87.75
466.073	90.75
466.293	105.75
466.512	99.75
466.732	109.75
466.951	90.75
467.171	89.75
467.391	88.75
467.61	85.75
467.829	95.75
468.049	106.75
468.268	98.75
468.488	114.75
468.707	96.75
468.927	94.75
469.146	92.75
469.365	113.75
469.585	104.75
469.804	96.75
470.023	98.75
470.243	98.75
470.462	88.75
470.681	85.75
470.901	97.75
471.12	97.75
471.339	89.75
471.558	98.75
471.777	93.75
471.997	107.75
472.216	113.75
472.435	101.75
472.654	91.75
472.873	96.75
473.092	97.75
473.311	108.75
473.53	111.75
473.749	90.75
473.968	103.75
474.187	100.75
474.406	88.75
474.625	72.75
474.844	104.75
475.063	85.75
475.282	120.75
475.501	96.75
475.72	93.75
475.939	86.75
476.158	94.75
476.377	99.75
476.596	99.75
476.814	93.75
477.033	113.75
477.252	98.75
477.471	92.75
477.69	97.75
477.908	107.75
478.127	107.75
478.346	101.75
478.564	99.75
478.783	89.75
479.002	101.75
479.22	106.75
479.439	98.75
479.658	101.75
479.876	111.75
480.095	104.75
480.313	96.75
480.532	105.75
480.751	106.75
480.969	113.75
481.188	108.75
481.406	99.75
481.624	95.75
481.843	99.75
482.061	98.75
482.28	112.75
482.498	123.75
482.717	103.75
482.935	99.75
483.153	93.75
483.372	107.75
483.59	120.75
483.808	106.75
484.027	101.75
484.245	110.75
484.463	105.75
484.681	111.75
484.9	108.75
485.118	124.75
485.336	102.75
485.554	108.75
485.772	103.75
485.99	117.75
486.209	103.75
486.427	103.75
486.645	99.75
486.863	108.75
487.081	93.75
487.299	108.75
487.517	115.75
487.735	117.75
487.953	115.75
488.171	111.75
488.389	111.75
488.607	102.75
488.825	118.75
489.043	118.75
489.261	105.75
489.479	113.75
489.696	82.75
489.914	101.75
490.132	104.75
490.35	110.75
490.568	124.75
490.786	119.75
491.003	93.75
491.221	108.75
491.439	106.75
491.657	105.75
491.874	105.75
492.092	121.75
492.31	114.75
492.527	118.75
492.745	121.75
492.963	121.75
493.18	122.75
493.398	120.75
493.615	104.75
493.833	108.75
494.05	120.75
494.268	122.75
494.485	127.75
494.703	129.75
494.92	119.75
495.138	109.75
495.355	116.75
495.573	111.75
495.79	106.75
496.008	107.75
496.225	102.75
496.442	106.75
496.66	119.75
496.877	108.75
497.094	109.75
497.312	119.75
497.529	112.75
497.746	117.75
497.963	105.75
498.181	108.75
498.398	97.75
498.615	118.75
498.832	115.75
499.049	118.75
499.267	121.75
499.484	134.75
499.701	139.75
499.918	153.75
500.135	153.75
500.352	149.75
500.569	173.75
500.786	153.75
501.003	144.75
501.22	138.75
501.437	124.75
501.654	115.75
501.871	121.75
502.088	118.75
502.305	121.75
502.522	119.75
502.739	124.75
502.956	117.75
503.172	114.75
503.389	110.75
503.606	113.75
503.823	108.75
504.04	111.75
504.256	116.75
504.473	113.75
504.69	121.75
504.907	113.75
505.123	117.75
505.34	132.75
505.557	116.75
505.773	108.75
505.99	104.75
506.207	123.75
506.423	123.75
506.64	107.75
506.856	87.75
507.073	110.75
507.289	117.75
507.506	112.75
507.722	104.75
507.939	104.75
508.155	132.75
508.372	104.75
508.588	102.75
508.805	91.75
509.021	106.75
509.238	107.75
509.454	104.75
509.67	101.75
509.887	97.75
510.103	99.75
510.319	119.75
510.536	121.75
510.752	84.75
510.968	88.75
511.184	86.75
511.401	98.75
511.617	107.75
511.833	88.75
512.049	96.75
512.265	98.75
512.481	98.75
512.698	107.75
512.914	98.75
513.13	93.75
513.346	105.75
513.562	107.75
513.778	100.75
