Data from Location5.07152019.Energy5.Lamp.07192019.3%Agarose_HRD10591_15-39-01-388.txt Node
Date: Fri Jul 19 15:39:01 EDT 2019
User: cochatt
Spectrometer: HR+D1059
Trigger mode: 1
Integration Time (sec): 1.000000E-1
Scans to average: 1
Electric dark correction enabled: true
Nonlinearity correction enabled: false
Boxcar width: 0
XAxis mode: Wavelengths
Number of Pixels in Spectrum: 2048
>>>>>Begin Spectral Data<<<<<
223.165	-7.5
223.4	-7.5
223.635	-7.5
223.869	-17.5
224.104	-15.5
224.338	-16.5
224.573	-14.5
224.808	-9.5
225.042	0.5
225.277	-14.5
225.511	2.5
225.746	-3.5
225.98	10.5
226.215	13.5
226.449	21.5
226.683	9.5
226.918	12.5
227.152	28.5
227.387	41.5
227.621	49.5
227.856	36.5
228.09	47.5
228.324	36.5
228.559	55.5
228.793	65.5
229.027	67.5
229.262	50.5
229.496	66.5
229.73	57.5
229.964	65.5
230.199	62.5
230.433	65.5
230.667	80.5
230.901	70.5
231.136	88.5
231.37	63.5
231.604	86.5
231.838	83.5
232.072	82.5
232.306	77.5
232.541	73.5
232.775	73.5
233.009	75.5
233.243	74.5
233.477	72.5
233.711	75.5
233.945	91.5
234.179	81.5
234.413	89.5
234.647	73.5
234.881	65.5
235.115	92.5
235.349	76.5
235.583	69.5
235.817	89.5
236.051	89.5
236.285	76.5
236.519	63.5
236.753	71.5
236.987	74.5
237.221	68.5
237.455	59.5
237.689	54.5
237.922	92.5
238.156	72.5
238.39	80.5
238.624	68.5
238.858	80.5
239.091	74.5
239.325	76.5
239.559	81.5
239.793	78.5
240.027	59.5
240.26	74.5
240.494	76.5
240.728	74.5
240.961	67.5
241.195	80.5
241.429	70.5
241.662	68.5
241.896	85.5
242.13	63.5
242.363	78.5
242.597	68.5
242.83	60.5
243.064	69.5
243.298	64.5
243.531	57.5
243.765	66.5
243.998	77.5
244.232	70.5
244.465	58.5
244.699	67.5
244.932	84.5
245.166	77.5
245.399	74.5
245.633	80.5
245.866	69.5
246.099	64.5
246.333	70.5
246.566	82.5
246.8	83.5
247.033	71.5
247.266	73.5
247.5	51.5
247.733	68.5
247.966	79.5
248.2	73.5
248.433	80.5
248.666	74.5
248.899	87.5
249.133	84.5
249.366	83.5
249.599	77.5
249.832	77.5
250.066	83.5
250.299	78.5
250.532	85.5
250.765	78.5
250.998	77.5
251.231	64.5
251.465	76.5
251.698	84.5
251.931	56.5
252.164	79.5
252.397	81.5
252.63	84.5
252.863	62.5
253.096	66.5
253.329	81.5
253.562	66.5
253.795	70.5
254.028	73.5
254.261	78.5
254.494	66.5
254.727	74.5
254.96	73.5
255.193	70.5
255.426	69.5
255.659	80.5
255.892	78.5
256.124	77.5
256.357	93.5
256.59	75.5
256.823	80.5
257.056	84.5
257.289	74.5
257.521	77.5
257.754	85.5
257.987	61.5
258.22	82.5
258.452	85.5
258.685	80.5
258.918	78.5
259.151	72.5
259.383	92.5
259.616	64.5
259.849	64.5
260.081	91.5
260.314	75.5
260.547	79.5
260.779	73.5
261.012	92.5
261.244	78.5
261.477	84.5
261.71	78.5
261.942	81.5
262.175	82.5
262.407	66.5
262.64	74.5
262.872	70.5
263.105	77.5
263.337	75.5
263.57	83.5
263.802	78.5
264.035	81.5
264.267	65.5
264.499	84.5
264.732	78.5
264.964	77.5
265.197	84.5
265.429	84.5
265.661	75.5
265.894	72.5
266.126	78.5
266.358	78.5
266.591	77.5
266.823	80.5
267.055	72.5
267.287	81.5
267.52	87.5
267.752	83.5
267.984	77.5
268.216	84.5
268.448	72.5
268.681	87.5
268.913	82.5
269.145	79.5
269.377	72.5
269.609	80.5
269.841	77.5
270.073	83.5
270.306	73.5
270.538	68.5
270.77	73.5
271.002	81.5
271.234	78.5
271.466	95.5
271.698	80.5
271.93	87.5
272.162	70.5
272.394	68.5
272.626	76.5
272.858	86.5
273.09	70.5
273.322	85.5
273.553	73.5
273.785	71.5
274.017	90.5
274.249	83.5
274.481	81.5
274.713	82.5
274.945	69.5
275.176	90.5
275.408	74.5
275.64	91.5
275.872	88.5
276.104	81.5
276.335	82.5
276.567	92.5
276.799	79.5
277.031	72.5
277.262	76.5
277.494	85.5
277.726	73.5
277.957	76.5
278.189	75.5
278.421	78.5
278.652	86.5
278.884	74.5
279.115	86.5
279.347	82.5
279.579	84.5
279.81	73.5
280.042	74.5
280.273	82.5
280.505	80.5
280.736	67.5
280.968	74.5
281.199	74.5
281.431	71.5
281.662	80.5
281.894	89.5
282.125	83.5
282.356	75.5
282.588	81.5
282.819	68.5
283.051	83.5
283.282	91.5
283.513	87.5
283.745	71.5
283.976	81.5
284.207	72.5
284.439	71.5
284.67	71.5
284.901	78.5
285.132	80.5
285.364	73.5
285.595	81.5
285.826	76.5
286.057	82.5
286.288	81.5
286.52	82.5
286.751	85.5
286.982	78.5
287.213	70.5
287.444	81.5
287.675	82.5
287.906	81.5
288.138	85.5
288.369	66.5
288.6	96.5
288.831	80.5
289.062	79.5
289.293	87.5
289.524	68.5
289.755	80.5
289.986	71.5
290.217	89.5
290.448	74.5
290.679	80.5
290.91	80.5
291.141	76.5
291.371	77.5
291.602	86.5
291.833	72.5
292.064	72.5
292.295	78.5
292.526	86.5
292.757	71.5
292.987	78.5
293.218	82.5
293.449	75.5
293.68	67.5
293.91	82.5
294.141	83.5
294.372	72.5
294.603	86.5
294.833	86.5
295.064	87.5
295.295	88.5
295.525	79.5
295.756	72.5
295.987	82.5
296.217	68.5
296.448	94.5
296.679	78.5
296.909	76.5
297.14	88.5
297.37	78.5
297.601	87.5
297.831	86.5
298.062	92.5
298.292	82.5
298.523	84.5
298.753	77.5
298.984	70.5
299.214	79.5
299.445	87.5
299.675	85.5
299.905	85.5
300.136	80.5
300.366	78.5
300.597	93.5
300.827	68.5
301.057	74.5
301.288	81.5
301.518	79.5
301.748	87.5
301.979	81.5
302.209	94.5
302.439	77.5
302.669	82.5
302.9	88.5
303.13	90.5
303.36	77.5
303.59	81.5
303.82	89.5
304.051	92.5
304.281	91.5
304.511	84.5
304.741	84.5
304.971	91.5
305.201	92.5
305.431	72.5
305.661	83.5
305.891	71.5
306.121	69.5
306.352	94.5
306.582	79.5
306.812	86.5
307.042	79.5
307.272	88.5
307.502	81.5
307.731	84.5
307.961	81.5
308.191	77.5
308.421	90.5
308.651	80.5
308.881	72.5
309.111	74.5
309.341	88.5
309.571	86.5
309.8	76.5
310.03	74.5
310.26	84.5
310.49	84.5
310.72	81.5
310.949	79.5
311.179	70.5
311.409	86.5
311.639	84.5
311.868	76.5
312.098	82.5
312.328	90.5
312.557	91.5
312.787	80.5
313.017	84.5
313.246	83.5
313.476	73.5
313.706	74.5
313.935	72.5
314.165	77.5
314.394	78.5
314.624	82.5
314.853	66.5
315.083	93.5
315.312	79.5
315.542	86.5
315.771	67.5
316.001	88.5
316.23	96.5
316.46	92.5
316.689	81.5
316.919	80.5
317.148	79.5
317.377	86.5
317.607	88.5
317.836	70.5
318.065	80.5
318.295	79.5
318.524	76.5
318.753	89.5
318.983	65.5
319.212	71.5
319.441	79.5
319.67	68.5
319.9	71.5
320.129	89.5
320.358	91.5
320.587	74.5
320.816	93.5
321.046	73.5
321.275	80.5
321.504	75.5
321.733	85.5
321.962	85.5
322.191	80.5
322.42	70.5
322.649	84.5
322.878	75.5
323.108	87.5
323.337	66.5
323.566	75.5
323.795	74.5
324.024	71.5
324.253	83.5
324.482	70.5
324.71	90.5
324.939	76.5
325.168	72.5
325.397	76.5
325.626	86.5
325.855	89.5
326.084	84.5
326.313	82.5
326.542	64.5
326.77	83.5
326.999	79.5
327.228	96.5
327.457	87.5
327.686	69.5
327.914	93.5
328.143	91.5
328.372	79.5
328.6	84.5
328.829	81.5
329.058	70.5
329.287	72.5
329.515	84.5
329.744	89.5
329.972	70.5
330.201	82.5
330.43	78.5
330.658	75.5
330.887	82.5
331.115	81.5
331.344	88.5
331.572	91.5
331.801	79.5
332.03	86.5
332.258	70.5
332.486	84.5
332.715	83.5
332.943	80.5
333.172	74.5
333.4	81.5
333.629	75.5
333.857	97.5
334.085	85.5
334.314	77.5
334.542	81.5
334.771	86.5
334.999	87.5
335.227	80.5
335.455	98.5
335.684	81.5
335.912	78.5
336.14	89.5
336.369	84.5
336.597	94.5
336.825	81.5
337.053	74.5
337.281	92.5
337.51	80.5
337.738	74.5
337.966	70.5
338.194	85.5
338.422	71.5
338.65	63.5
338.878	73.5
339.106	76.5
339.334	90.5
339.562	76.5
339.79	76.5
340.018	82.5
340.246	73.5
340.474	82.5
340.702	101.5
340.93	83.5
341.158	65.5
341.386	92.5
341.614	87.5
341.842	80.5
342.07	89.5
342.298	79.5
342.526	80.5
342.754	72.5
342.981	93.5
343.209	97.5
343.437	86.5
343.665	90.5
343.893	82.5
344.12	98.5
344.348	78.5
344.576	85.5
344.804	84.5
345.031	77.5
345.259	80.5
345.487	85.5
345.714	92.5
345.942	81.5
346.17	77.5
346.397	66.5
346.625	69.5
346.853	70.5
347.08	72.5
347.308	72.5
347.535	79.5
347.763	95.5
347.99	79.5
348.218	76.5
348.445	70.5
348.673	79.5
348.9	89.5
349.128	84.5
349.355	82.5
349.583	97.5
349.81	76.5
350.037	69.5
350.265	83.5
350.492	82.5
350.72	92.5
350.947	79.5
351.174	92.5
351.402	64.5
351.629	71.5
351.856	73.5
352.083	65.5
352.311	88.5
352.538	73.5
352.765	80.5
352.992	84.5
353.22	82.5
353.447	72.5
353.674	81.5
353.901	71.5
354.128	70.5
354.355	67.5
354.583	74.5
354.81	83.5
355.037	85.5
355.264	90.5
355.491	92.5
355.718	78.5
355.945	80.5
356.172	86.5
356.399	75.5
356.626	78.5
356.853	78.5
357.08	77.5
357.307	90.5
357.534	98.5
357.761	77.5
357.988	82.5
358.215	80.5
358.441	76.5
358.668	81.5
358.895	82.5
359.122	76.5
359.349	77.5
359.576	89.5
359.802	79.5
360.029	73.5
360.256	76.5
360.483	86.5
360.709	70.5
360.936	85.5
361.163	86.5
361.39	88.5
361.616	78.5
361.843	93.5
362.07	89.5
362.296	83.5
362.523	74.5
362.749	77.5
362.976	81.5
363.203	85.5
363.429	90.5
363.656	84.5
363.882	78.5
364.109	81.5
364.335	95.5
364.562	81.5
364.788	69.5
365.015	68.5
365.241	89.5
365.468	78.5
365.694	74.5
365.92	75.5
366.147	66.5
366.373	86.5
366.599	76.5
366.826	70.5
367.052	75.5
367.278	85.5
367.505	85.5
367.731	72.5
367.957	72.5
368.184	77.5
368.41	88.5
368.636	79.5
368.862	83.5
369.089	77.5
369.315	84.5
369.541	87.5
369.767	80.5
369.993	82.5
370.219	83.5
370.445	71.5
370.672	78.5
370.898	78.5
371.124	79.5
371.35	62.5
371.576	65.5
371.802	95.5
372.028	73.5
372.254	69.5
372.48	73.5
372.706	85.5
372.932	82.5
373.158	76.5
373.384	97.5
373.61	92.5
373.835	64.5
374.061	85.5
374.287	78.5
374.513	84.5
374.739	81.5
374.965	77.5
375.191	86.5
375.416	96.5
375.642	87.5
375.868	79.5
376.094	80.5
376.319	83.5
376.545	81.5
376.771	88.5
376.997	79.5
377.222	76.5
377.448	72.5
377.674	93.5
377.899	90.5
378.125	88.5
378.35	80.5
378.576	73.5
378.802	74.5
379.027	83.5
379.253	75.5
379.478	103.5
379.704	88.5
379.929	95.5
380.155	75.5
380.38	80.5
380.606	75.5
380.831	92.5
381.057	84.5
381.282	74.5
381.507	78.5
381.733	72.5
381.958	69.5
382.184	81.5
382.409	93.5
382.634	93.5
382.86	82.5
383.085	76.5
383.31	88.5
383.535	85.5
383.761	82.5
383.986	95.5
384.211	71.5
384.436	78.5
384.662	81.5
384.887	80.5
385.112	84.5
385.337	81.5
385.562	83.5
385.787	82.5
386.013	81.5
386.238	103.5
386.463	69.5
386.688	85.5
386.913	74.5
387.138	82.5
387.363	81.5
387.588	96.5
387.813	97.5
388.038	98.5
388.263	77.5
388.488	79.5
388.713	85.5
388.938	66.5
389.163	86.5
389.387	86.5
389.612	85.5
389.837	89.5
390.062	84.5
390.287	96.5
390.512	78.5
390.736	73.5
390.961	83.5
391.186	68.5
391.411	69.5
391.636	85.5
391.86	84.5
392.085	82.5
392.31	78.5
392.534	80.5
392.759	70.5
392.984	83.5
393.208	86.5
393.433	95.5
393.658	89.5
393.882	86.5
394.107	63.5
394.331	82.5
394.556	89.5
394.78	84.5
395.005	82.5
395.229	84.5
395.454	77.5
395.678	72.5
395.903	70.5
396.127	89.5
396.352	75.5
396.576	82.5
396.801	86.5
397.025	87.5
397.249	90.5
397.474	90.5
397.698	80.5
397.922	77.5
398.147	76.5
398.371	85.5
398.595	82.5
398.82	82.5
399.044	81.5
399.268	99.5
399.492	87.5
399.717	96.5
399.941	80.5
400.165	80.5
400.389	74.5
400.613	81.5
400.837	62.5
401.062	89.5
401.286	85.5
401.51	84.5
401.734	78.5
401.958	76.5
402.182	75.5
402.406	85.5
402.63	88.5
402.854	92.5
403.078	100.5
403.302	96.5
403.526	91.5
403.75	86.5
403.974	78.5
404.198	77.5
404.422	81.5
404.645	90.5
404.869	79.5
405.093	82.5
405.317	93.5
405.541	95.5
405.765	88.5
405.988	74.5
406.212	86.5
406.436	75.5
406.66	81.5
406.883	85.5
407.107	64.5
407.331	86.5
407.555	69.5
407.778	89.5
408.002	75.5
408.226	91.5
408.449	87.5
408.673	96.5
408.896	89.5
409.12	94.5
409.344	92.5
409.567	83.5
409.791	85.5
410.014	88.5
410.238	94.5
410.461	82.5
410.685	89.5
410.908	82.5
411.132	90.5
411.355	83.5
411.578	74.5
411.802	81.5
412.025	88.5
412.249	77.5
412.472	75.5
412.695	93.5
412.919	86.5
413.142	86.5
413.365	85.5
413.589	78.5
413.812	83.5
414.035	84.5
414.258	84.5
414.482	100.5
414.705	95.5
414.928	78.5
415.151	89.5
415.374	100.5
415.597	80.5
415.821	81.5
416.044	81.5
416.267	82.5
416.49	85.5
416.713	98.5
416.936	92.5
417.159	91.5
417.382	94.5
417.605	88.5
417.828	86.5
418.051	82.5
418.274	96.5
418.497	99.5
418.72	79.5
418.943	100.5
419.166	83.5
419.389	87.5
419.611	82.5
419.834	86.5
420.057	90.5
420.28	85.5
420.503	84.5
420.726	97.5
420.948	89.5
421.171	92.5
421.394	88.5
421.617	75.5
421.839	99.5
422.062	78.5
422.285	80.5
422.507	69.5
422.73	93.5
422.953	88.5
423.175	95.5
423.398	101.5
423.621	74.5
423.843	72.5
424.066	83.5
424.288	92.5
424.511	100.5
424.733	101.5
424.956	97.5
425.178	94.5
425.401	93.5
425.623	84.5
425.846	82.5
426.068	84.5
426.291	69.5
426.513	87.5
426.735	87.5
426.958	94.5
427.18	94.5
427.402	88.5
427.625	91.5
427.847	88.5
428.069	90.5
428.292	86.5
428.514	86.5
428.736	81.5
428.958	101.5
429.181	93.5
429.403	86.5
429.625	85.5
429.847	89.5
430.069	85.5
430.292	84.5
430.514	89.5
430.736	95.5
430.958	87.5
431.18	87.5
431.402	73.5
431.624	83.5
431.846	80.5
432.068	81.5
432.29	104.5
432.512	89.5
432.734	77.5
432.956	88.5
433.178	93.5
433.4	98.5
433.622	69.5
433.844	102.5
434.066	90.5
434.287	77.5
434.509	73.5
434.731	96.5
434.953	90.5
435.175	90.5
435.397	84.5
435.618	90.5
435.84	92.5
436.062	104.5
436.284	89.5
436.505	86.5
436.727	101.5
436.949	103.5
437.17	84.5
437.392	86.5
437.614	100.5
437.835	76.5
438.057	80.5
438.278	83.5
438.5	89.5
438.721	97.5
438.943	97.5
439.165	90.5
439.386	80.5
439.608	92.5
439.829	94.5
440.05	95.5
440.272	91.5
440.493	104.5
440.715	83.5
440.936	102.5
441.158	100.5
441.379	91.5
441.6	92.5
441.822	97.5
442.043	77.5
442.264	95.5
442.486	102.5
442.707	85.5
442.928	86.5
443.149	93.5
443.371	96.5
443.592	90.5
443.813	102.5
444.034	84.5
444.255	84.5
444.476	83.5
444.698	90.5
444.919	115.5
445.14	201.5
445.361	137.5
445.582	95.5
445.803	84.5
446.024	90.5
446.245	88.5
446.466	114.5
446.687	104.5
446.908	104.5
447.129	91.5
447.35	92.5
447.571	98.5
447.792	91.5
448.013	95.5
448.234	96.5
448.455	76.5
448.675	77.5
448.896	89.5
449.117	85.5
449.338	77.5
449.559	96.5
449.779	97.5
450	82.5
450.221	86.5
450.442	94.5
450.662	85.5
450.883	103.5
451.104	96.5
451.324	85.5
451.545	83.5
451.766	83.5
451.986	90.5
452.207	99.5
452.428	75.5
452.648	85.5
452.869	86.5
453.089	82.5
453.31	75.5
453.53	90.5
453.751	98.5
453.971	89.5
454.192	81.5
454.412	82.5
454.633	80.5
454.853	100.5
455.073	94.5
455.294	97.5
455.514	100.5
455.734	91.5
455.955	79.5
456.175	84.5
456.395	92.5
456.616	92.5
456.836	74.5
457.056	86.5
457.276	88.5
457.497	75.5
457.717	92.5
457.937	97.5
458.157	85.5
458.377	88.5
458.598	80.5
458.818	75.5
459.038	87.5
459.258	71.5
459.478	75.5
459.698	83.5
459.918	90.5
460.138	71.5
460.358	88.5
460.578	87.5
460.798	75.5
461.018	82.5
461.238	88.5
461.458	93.5
461.678	87.5
461.898	80.5
462.118	82.5
462.338	82.5
462.558	95.5
462.777	89.5
462.997	88.5
463.217	84.5
463.437	83.5
463.657	81.5
463.876	70.5
464.096	68.5
464.316	80.5
464.536	76.5
464.755	96.5
464.975	105.5
465.195	87.5
465.414	94.5
465.634	97.5
465.854	80.5
466.073	92.5
466.293	88.5
466.512	95.5
466.732	84.5
466.951	89.5
467.171	73.5
467.391	89.5
467.61	94.5
467.829	96.5
468.049	97.5
468.268	88.5
468.488	85.5
468.707	89.5
468.927	93.5
469.146	83.5
469.365	92.5
469.585	84.5
469.804	83.5
470.023	80.5
470.243	101.5
470.462	89.5
470.681	109.5
470.901	101.5
471.12	81.5
471.339	98.5
471.558	81.5
471.777	90.5
471.997	89.5
472.216	93.5
472.435	93.5
472.654	72.5
472.873	77.5
473.092	86.5
473.311	82.5
473.53	83.5
473.749	97.5
473.968	94.5
474.187	102.5
474.406	97.5
474.625	78.5
474.844	108.5
475.063	96.5
475.282	89.5
475.501	80.5
475.72	91.5
475.939	80.5
476.158	81.5
476.377	104.5
476.596	100.5
476.814	79.5
477.033	79.5
477.252	84.5
477.471	82.5
477.69	98.5
477.908	90.5
478.127	104.5
478.346	81.5
478.564	94.5
478.783	88.5
479.002	87.5
479.22	99.5
479.439	96.5
479.658	67.5
479.876	88.5
480.095	86.5
480.313	85.5
480.532	96.5
480.751	78.5
480.969	84.5
481.188	80.5
481.406	70.5
481.624	81.5
481.843	88.5
482.061	83.5
482.28	74.5
482.498	88.5
482.717	83.5
482.935	106.5
483.153	99.5
483.372	85.5
483.59	93.5
483.808	95.5
484.027	109.5
484.245	95.5
484.463	104.5
484.681	87.5
484.9	87.5
485.118	101.5
485.336	98.5
485.554	80.5
485.772	61.5
485.99	74.5
486.209	91.5
486.427	89.5
486.645	89.5
486.863	86.5
487.081	83.5
487.299	100.5
487.517	90.5
487.735	102.5
487.953	108.5
488.171	115.5
488.389	96.5
488.607	110.5
488.825	103.5
489.043	92.5
489.261	94.5
489.479	99.5
489.696	90.5
489.914	76.5
490.132	92.5
490.35	93.5
490.568	89.5
490.786	89.5
491.003	100.5
491.221	96.5
491.439	104.5
491.657	119.5
491.874	110.5
492.092	113.5
492.31	131.5
492.527	121.5
492.745	121.5
492.963	109.5
493.18	108.5
493.398	104.5
493.615	98.5
493.833	117.5
494.05	110.5
494.268	116.5
494.485	115.5
494.703	103.5
494.92	101.5
495.138	113.5
495.355	97.5
495.573	114.5
495.79	112.5
496.008	108.5
496.225	89.5
496.442	102.5
496.66	118.5
496.877	104.5
497.094	88.5
497.312	87.5
497.529	99.5
497.746	97.5
497.963	106.5
498.181	94.5
498.398	90.5
498.615	92.5
498.832	92.5
499.049	89.5
499.267	90.5
499.484	97.5
499.701	91.5
499.918	102.5
500.135	102.5
500.352	95.5
500.569	108.5
500.786	85.5
501.003	88.5
501.22	99.5
501.437	107.5
501.654	93.5
501.871	82.5
502.088	88.5
502.305	83.5
502.522	80.5
502.739	96.5
502.956	87.5
503.172	89.5
503.389	86.5
503.606	86.5
503.823	88.5
504.04	91.5
504.256	87.5
504.473	85.5
504.69	90.5
504.907	81.5
505.123	68.5
505.34	88.5
505.557	82.5
505.773	84.5
505.99	75.5
506.207	92.5
506.423	80.5
506.64	92.5
506.856	92.5
507.073	96.5
507.289	90.5
507.506	82.5
507.722	80.5
507.939	96.5
508.155	96.5
508.372	88.5
508.588	81.5
508.805	95.5
509.021	80.5
509.238	83.5
509.454	87.5
509.67	77.5
509.887	84.5
510.103	77.5
510.319	77.5
510.536	82.5
510.752	74.5
510.968	81.5
511.184	80.5
511.401	72.5
511.617	83.5
511.833	82.5
512.049	93.5
512.265	95.5
512.481	92.5
512.698	79.5
512.914	82.5
513.13	92.5
513.346	73.5
513.562	63.5
513.778	89.5
513.994	78.5
514.21	77.5
514.426	76.5
514.642	82.5
514.858	85.5
515.074	88.5
515.29	90.5
515.506	83.5
515.721	78.5
515.937	82.5
516.153	89.5
516.369	73.5
516.585	80.5
516.801	93.5
517.016	80.5
517.232	83.5
517.448	80.5
517.664	90.5
517.879	79.5
518.095	79.5
518.311	92.5
518.527	89.5
518.742	84.5
518.958	74.5
519.173	90.5
519.389	93.5
519.605	78.5
519.82	95.5
520.036	100.5
520.251	83.5
520.467	89.5
520.682	81.5
520.898	85.5
521.113	78.5
521.329	94.5
521.544	70.5
521.76	84.5
521.975	73.5
522.19	83.5
522.406	83.5
522.621	74.5
522.836	82.5
523.052	85.5
523.267	86.5
523.482	96.5
523.698	101.5
523.913	85.5
524.128	86.5
524.343	95.5
524.559	81.5
524.774	80.5
524.989	103.5
525.204	80.5
525.419	74.5
525.634	87.5
525.849	91.5
526.064	84.5
526.28	79.5
526.495	91.5
526.71	79.5
526.925	82.5
527.14	83.5
527.355	69.5
527.57	86.5
527.785	94.5
527.999	78.5
528.214	82.5
528.429	77.5
528.644	89.5
528.859	88.5
529.074	98.5
529.289	100.5
529.503	81.5
529.718	101.5
529.933	99.5
530.148	92.5
530.363	90.5
530.577	71.5
530.792	83.5
531.007	72.5
531.221	76.5
531.436	84.5
531.651	71.5
531.865	81.5
532.08	81.5
532.295	81.5
532.509	81.5
532.724	94.5
532.938	91.5
533.153	84.5
533.367	96.5
533.582	81.5
533.796	88.5
534.011	98.5
534.225	88.5
534.44	77.5
534.654	78.5
534.868	68.5
535.083	88.5
535.297	84.5
535.511	97.5
535.726	74.5
535.94	94.5
536.154	97.5
536.369	84.5
536.583	77.5
536.797	76.5
537.011	70.5
537.225	83.5
537.44	75.5
537.654	80.5
537.868	74.5
538.082	74.5
538.296	86.5
538.51	81.5
538.724	73.5
