Data from Location5.07152019.Energy5.Lamp.07192019.3%Agarose_HRD10591_15-39-20-388.txt Node
Date: Fri Jul 19 15:39:20 EDT 2019
User: cochatt
Spectrometer: HR+D1059
Trigger mode: 1
Integration Time (sec): 1.000000E-1
Scans to average: 1
Electric dark correction enabled: true
Nonlinearity correction enabled: false
Boxcar width: 0
XAxis mode: Wavelengths
Number of Pixels in Spectrum: 2048
>>>>>Begin Spectral Data<<<<<
223.165	-8.38
223.4	-8.38
223.635	-8.38
223.869	0.62
224.104	-11.38
224.338	-10.38
224.573	-11.38
224.808	-27.38
225.042	-15.38
225.277	-3.38
225.511	-17.38
225.746	-0.38
225.98	-1.38
226.215	8.62
226.449	13.62
226.683	32.62
226.918	22.62
227.152	28.62
227.387	41.62
227.621	41.62
227.856	50.62
228.09	50.62
228.324	64.62
228.559	54.62
228.793	55.62
229.027	60.62
229.262	58.62
229.496	80.62
229.73	67.62
229.964	85.62
230.199	84.62
230.433	80.62
230.667	75.62
230.901	76.62
231.136	84.62
231.37	69.62
231.604	79.62
231.838	85.62
232.072	81.62
232.306	91.62
232.541	102.62
232.775	87.62
233.009	89.62
233.243	100.62
233.477	76.62
233.711	71.62
233.945	85.62
234.179	90.62
234.413	95.62
234.647	84.62
234.881	81.62
235.115	88.62
235.349	80.62
235.583	98.62
235.817	74.62
236.051	86.62
236.285	82.62
236.519	88.62
236.753	86.62
236.987	87.62
237.221	76.62
237.455	85.62
237.689	103.62
237.922	88.62
238.156	96.62
238.39	78.62
238.624	93.62
238.858	74.62
239.091	80.62
239.325	75.62
239.559	84.62
239.793	78.62
240.027	91.62
240.26	84.62
240.494	84.62
240.728	87.62
240.961	61.62
241.195	77.62
241.429	76.62
241.662	73.62
241.896	86.62
242.13	92.62
242.363	89.62
242.597	75.62
242.83	73.62
243.064	86.62
243.298	97.62
243.531	75.62
243.765	80.62
243.998	73.62
244.232	83.62
244.465	96.62
244.699	99.62
244.932	83.62
245.166	83.62
245.399	80.62
245.633	89.62
245.866	84.62
246.099	89.62
246.333	107.62
246.566	92.62
246.8	72.62
247.033	88.62
247.266	81.62
247.5	78.62
247.733	79.62
247.966	78.62
248.2	82.62
248.433	95.62
248.666	80.62
248.899	86.62
249.133	73.62
249.366	94.62
249.599	89.62
249.832	92.62
250.066	92.62
250.299	90.62
250.532	85.62
250.765	78.62
250.998	83.62
251.231	84.62
251.465	86.62
251.698	93.62
251.931	85.62
252.164	83.62
252.397	78.62
252.63	75.62
252.863	93.62
253.096	79.62
253.329	83.62
253.562	80.62
253.795	95.62
254.028	88.62
254.261	70.62
254.494	83.62
254.727	88.62
254.96	75.62
255.193	82.62
255.426	78.62
255.659	100.62
255.892	89.62
256.124	82.62
256.357	75.62
256.59	81.62
256.823	79.62
257.056	85.62
257.289	90.62
257.521	81.62
257.754	93.62
257.987	73.62
258.22	92.62
258.452	83.62
258.685	78.62
258.918	80.62
259.151	82.62
259.383	88.62
259.616	84.62
259.849	93.62
260.081	81.62
260.314	78.62
260.547	87.62
260.779	102.62
261.012	90.62
261.244	84.62
261.477	92.62
261.71	76.62
261.942	83.62
262.175	80.62
262.407	87.62
262.64	95.62
262.872	94.62
263.105	92.62
263.337	94.62
263.57	81.62
263.802	76.62
264.035	91.62
264.267	91.62
264.499	90.62
264.732	88.62
264.964	85.62
265.197	78.62
265.429	104.62
265.661	98.62
265.894	89.62
266.126	101.62
266.358	98.62
266.591	87.62
266.823	95.62
267.055	92.62
267.287	80.62
267.52	78.62
267.752	85.62
267.984	74.62
268.216	79.62
268.448	93.62
268.681	78.62
268.913	79.62
269.145	94.62
269.377	99.62
269.609	82.62
269.841	85.62
270.073	89.62
270.306	89.62
270.538	92.62
270.77	85.62
271.002	91.62
271.234	91.62
271.466	85.62
271.698	94.62
271.93	75.62
272.162	88.62
272.394	84.62
272.626	87.62
272.858	80.62
273.09	91.62
273.322	91.62
273.553	97.62
273.785	91.62
274.017	88.62
274.249	77.62
274.481	91.62
274.713	82.62
274.945	83.62
275.176	100.62
275.408	84.62
275.64	78.62
275.872	83.62
276.104	95.62
276.335	100.62
276.567	98.62
276.799	99.62
277.031	77.62
277.262	77.62
277.494	96.62
277.726	82.62
277.957	100.62
278.189	89.62
278.421	97.62
278.652	93.62
278.884	91.62
279.115	85.62
279.347	94.62
279.579	100.62
279.81	79.62
280.042	81.62
280.273	83.62
280.505	94.62
280.736	92.62
280.968	103.62
281.199	101.62
281.431	96.62
281.662	87.62
281.894	92.62
282.125	92.62
282.356	90.62
282.588	84.62
282.819	87.62
283.051	87.62
283.282	92.62
283.513	83.62
283.745	84.62
283.976	85.62
284.207	100.62
284.439	77.62
284.67	95.62
284.901	85.62
285.132	82.62
285.364	91.62
285.595	90.62
285.826	84.62
286.057	85.62
286.288	80.62
286.52	95.62
286.751	79.62
286.982	82.62
287.213	88.62
287.444	93.62
287.675	86.62
287.906	83.62
288.138	75.62
288.369	79.62
288.6	92.62
288.831	96.62
289.062	77.62
289.293	101.62
289.524	85.62
289.755	93.62
289.986	94.62
290.217	73.62
290.448	88.62
290.679	91.62
290.91	99.62
291.141	93.62
291.371	109.62
291.602	107.62
291.833	86.62
292.064	93.62
292.295	99.62
292.526	75.62
292.757	84.62
292.987	99.62
293.218	92.62
293.449	94.62
293.68	102.62
293.91	100.62
294.141	88.62
294.372	78.62
294.603	93.62
294.833	95.62
295.064	89.62
295.295	91.62
295.525	105.62
295.756	93.62
295.987	99.62
296.217	89.62
296.448	92.62
296.679	97.62
296.909	95.62
297.14	77.62
297.37	85.62
297.601	84.62
297.831	94.62
298.062	94.62
298.292	85.62
298.523	82.62
298.753	79.62
298.984	101.62
299.214	104.62
299.445	101.62
299.675	89.62
299.905	80.62
300.136	98.62
300.366	97.62
300.597	86.62
300.827	80.62
301.057	81.62
301.288	79.62
301.518	83.62
301.748	77.62
301.979	89.62
302.209	101.62
302.439	105.62
302.669	98.62
302.9	100.62
303.13	93.62
303.36	100.62
303.59	88.62
303.82	93.62
304.051	93.62
304.281	99.62
304.511	99.62
304.741	71.62
304.971	79.62
305.201	100.62
305.431	94.62
305.661	85.62
305.891	83.62
306.121	84.62
306.352	86.62
306.582	100.62
306.812	94.62
307.042	87.62
307.272	93.62
307.502	104.62
307.731	92.62
307.961	82.62
308.191	100.62
308.421	88.62
308.651	87.62
308.881	83.62
309.111	93.62
309.341	82.62
309.571	95.62
309.8	94.62
310.03	101.62
310.26	101.62
310.49	99.62
310.72	98.62
310.949	95.62
311.179	73.62
311.409	104.62
311.639	65.62
311.868	88.62
312.098	84.62
312.328	85.62
312.557	101.62
312.787	86.62
313.017	95.62
313.246	92.62
313.476	84.62
313.706	95.62
313.935	94.62
314.165	88.62
314.394	83.62
314.624	84.62
314.853	97.62
315.083	89.62
315.312	84.62
315.542	84.62
315.771	90.62
316.001	89.62
316.23	93.62
316.46	76.62
316.689	84.62
316.919	83.62
317.148	89.62
317.377	95.62
317.607	80.62
317.836	84.62
318.065	87.62
318.295	92.62
318.524	91.62
318.753	86.62
318.983	85.62
319.212	95.62
319.441	81.62
319.67	95.62
319.9	90.62
320.129	92.62
320.358	87.62
320.587	92.62
320.816	80.62
321.046	83.62
321.275	98.62
321.504	99.62
321.733	70.62
321.962	72.62
322.191	91.62
322.42	95.62
322.649	91.62
322.878	74.62
323.108	93.62
323.337	94.62
323.566	93.62
323.795	77.62
324.024	88.62
324.253	89.62
324.482	96.62
324.71	79.62
324.939	85.62
325.168	92.62
325.397	86.62
325.626	91.62
325.855	83.62
326.084	98.62
326.313	91.62
326.542	83.62
326.77	96.62
326.999	94.62
327.228	90.62
327.457	75.62
327.686	83.62
327.914	87.62
328.143	94.62
328.372	72.62
328.6	103.62
328.829	78.62
329.058	91.62
329.287	90.62
329.515	89.62
329.744	93.62
329.972	75.62
330.201	84.62
330.43	96.62
330.658	83.62
330.887	101.62
331.115	87.62
331.344	97.62
331.572	91.62
331.801	94.62
332.03	85.62
332.258	98.62
332.486	93.62
332.715	88.62
332.943	94.62
333.172	91.62
333.4	77.62
333.629	77.62
333.857	93.62
334.085	89.62
334.314	79.62
334.542	71.62
334.771	82.62
334.999	92.62
335.227	81.62
335.455	86.62
335.684	99.62
335.912	85.62
336.14	100.62
336.369	92.62
336.597	67.62
336.825	77.62
337.053	93.62
337.281	96.62
337.51	87.62
337.738	102.62
337.966	92.62
338.194	85.62
338.422	92.62
338.65	84.62
338.878	102.62
339.106	94.62
339.334	93.62
339.562	106.62
339.79	98.62
340.018	102.62
340.246	89.62
340.474	97.62
340.702	95.62
340.93	85.62
341.158	89.62
341.386	104.62
341.614	86.62
341.842	89.62
342.07	83.62
342.298	78.62
342.526	96.62
342.754	102.62
342.981	91.62
343.209	93.62
343.437	103.62
343.665	103.62
343.893	115.62
344.12	84.62
344.348	87.62
344.576	82.62
344.804	89.62
345.031	95.62
345.259	88.62
345.487	91.62
345.714	92.62
345.942	92.62
346.17	79.62
346.397	94.62
346.625	93.62
346.853	87.62
347.08	94.62
347.308	102.62
347.535	100.62
347.763	95.62
347.99	87.62
348.218	84.62
348.445	86.62
348.673	89.62
348.9	88.62
349.128	96.62
349.355	92.62
349.583	78.62
349.81	89.62
350.037	80.62
350.265	89.62
350.492	74.62
350.72	85.62
350.947	83.62
351.174	97.62
351.402	85.62
351.629	91.62
351.856	93.62
352.083	86.62
352.311	101.62
352.538	94.62
352.765	96.62
352.992	80.62
353.22	91.62
353.447	89.62
353.674	92.62
353.901	81.62
354.128	87.62
354.355	101.62
354.583	86.62
354.81	90.62
355.037	93.62
355.264	88.62
355.491	80.62
355.718	77.62
355.945	99.62
356.172	80.62
356.399	94.62
356.626	81.62
356.853	81.62
357.08	85.62
357.307	87.62
357.534	84.62
357.761	95.62
357.988	86.62
358.215	115.62
358.441	100.62
358.668	85.62
358.895	91.62
359.122	92.62
359.349	84.62
359.576	89.62
359.802	82.62
360.029	87.62
360.256	83.62
360.483	92.62
360.709	96.62
360.936	89.62
361.163	78.62
361.39	89.62
361.616	97.62
361.843	84.62
362.07	81.62
362.296	84.62
362.523	96.62
362.749	85.62
362.976	88.62
363.203	96.62
363.429	90.62
363.656	76.62
363.882	89.62
364.109	94.62
364.335	93.62
364.562	87.62
364.788	66.62
365.015	82.62
365.241	91.62
365.468	93.62
365.694	89.62
365.92	76.62
366.147	86.62
366.373	95.62
366.599	84.62
366.826	91.62
367.052	85.62
367.278	95.62
367.505	96.62
367.731	99.62
367.957	84.62
368.184	93.62
368.41	75.62
368.636	88.62
368.862	107.62
369.089	80.62
369.315	88.62
369.541	89.62
369.767	92.62
369.993	96.62
370.219	77.62
370.445	85.62
370.672	97.62
370.898	89.62
371.124	82.62
371.35	90.62
371.576	94.62
371.802	71.62
372.028	81.62
372.254	96.62
372.48	92.62
372.706	82.62
372.932	71.62
373.158	76.62
373.384	88.62
373.61	106.62
373.835	96.62
374.061	80.62
374.287	84.62
374.513	90.62
374.739	94.62
374.965	86.62
375.191	76.62
375.416	83.62
375.642	101.62
375.868	89.62
376.094	90.62
376.319	96.62
376.545	95.62
376.771	84.62
376.997	88.62
377.222	78.62
377.448	87.62
377.674	72.62
377.899	90.62
378.125	85.62
378.35	88.62
378.576	97.62
378.802	81.62
379.027	92.62
379.253	87.62
379.478	83.62
379.704	100.62
379.929	100.62
380.155	86.62
380.38	76.62
380.606	81.62
380.831	82.62
381.057	87.62
381.282	92.62
381.507	90.62
381.733	102.62
381.958	87.62
382.184	93.62
382.409	89.62
382.634	91.62
382.86	85.62
383.085	87.62
383.31	87.62
383.535	84.62
383.761	83.62
383.986	93.62
384.211	81.62
384.436	90.62
384.662	95.62
384.887	83.62
385.112	83.62
385.337	100.62
385.562	90.62
385.787	83.62
386.013	96.62
386.238	95.62
386.463	95.62
386.688	92.62
386.913	93.62
387.138	97.62
387.363	81.62
387.588	82.62
387.813	96.62
388.038	101.62
388.263	83.62
388.488	79.62
388.713	88.62
388.938	101.62
389.163	105.62
389.387	101.62
389.612	108.62
389.837	79.62
390.062	88.62
390.287	92.62
390.512	100.62
390.736	95.62
390.961	89.62
391.186	85.62
391.411	95.62
391.636	81.62
391.86	91.62
392.085	105.62
392.31	96.62
392.534	96.62
392.759	96.62
392.984	81.62
393.208	87.62
393.433	93.62
393.658	85.62
393.882	99.62
394.107	105.62
394.331	92.62
394.556	103.62
394.78	90.62
395.005	100.62
395.229	90.62
395.454	82.62
395.678	95.62
395.903	92.62
396.127	99.62
396.352	90.62
396.576	95.62
396.801	109.62
397.025	102.62
397.249	98.62
397.474	108.62
397.698	96.62
397.922	92.62
398.147	82.62
398.371	92.62
398.595	90.62
398.82	87.62
399.044	89.62
399.268	90.62
399.492	89.62
399.717	102.62
399.941	85.62
400.165	91.62
400.389	89.62
400.613	82.62
400.837	83.62
401.062	107.62
401.286	94.62
401.51	88.62
401.734	89.62
401.958	84.62
402.182	87.62
402.406	87.62
402.63	97.62
402.854	88.62
403.078	84.62
403.302	98.62
403.526	85.62
403.75	100.62
403.974	84.62
404.198	102.62
404.422	84.62
404.645	99.62
404.869	88.62
405.093	91.62
405.317	95.62
405.541	81.62
405.765	86.62
405.988	87.62
406.212	93.62
406.436	99.62
406.66	87.62
406.883	91.62
407.107	95.62
407.331	92.62
407.555	91.62
407.778	95.62
408.002	97.62
408.226	96.62
408.449	92.62
408.673	80.62
408.896	87.62
409.12	92.62
409.344	86.62
409.567	87.62
409.791	91.62
410.014	89.62
410.238	84.62
410.461	89.62
410.685	102.62
410.908	89.62
411.132	92.62
411.355	96.62
411.578	88.62
411.802	97.62
412.025	89.62
412.249	104.62
412.472	82.62
412.695	89.62
412.919	94.62
413.142	88.62
413.365	87.62
413.589	93.62
413.812	100.62
414.035	89.62
414.258	96.62
414.482	109.62
414.705	96.62
414.928	95.62
415.151	97.62
415.374	100.62
415.597	100.62
415.821	97.62
416.044	92.62
416.267	88.62
416.49	101.62
416.713	81.62
416.936	101.62
417.159	98.62
417.382	104.62
417.605	102.62
417.828	86.62
418.051	87.62
418.274	93.62
418.497	87.62
418.72	103.62
418.943	87.62
419.166	86.62
419.389	79.62
419.611	90.62
419.834	89.62
420.057	102.62
420.28	106.62
420.503	85.62
420.726	101.62
420.948	97.62
421.171	112.62
421.394	91.62
421.617	91.62
421.839	88.62
422.062	106.62
422.285	105.62
422.507	103.62
422.73	91.62
422.953	97.62
423.175	90.62
423.398	96.62
423.621	111.62
423.843	91.62
424.066	97.62
424.288	93.62
424.511	89.62
424.733	91.62
424.956	95.62
425.178	86.62
425.401	96.62
425.623	92.62
425.846	101.62
426.068	97.62
426.291	102.62
426.513	98.62
426.735	89.62
426.958	110.62
427.18	96.62
427.402	104.62
427.625	103.62
427.847	94.62
428.069	97.62
428.292	88.62
428.514	85.62
428.736	84.62
428.958	104.62
429.181	101.62
429.403	90.62
429.625	83.62
429.847	95.62
430.069	95.62
430.292	102.62
430.514	92.62
430.736	96.62
430.958	100.62
431.18	99.62
431.402	83.62
431.624	90.62
431.846	71.62
432.068	79.62
432.29	72.62
432.512	74.62
432.734	98.62
432.956	93.62
433.178	105.62
433.4	97.62
433.622	98.62
433.844	89.62
434.066	103.62
434.287	94.62
434.509	78.62
434.731	88.62
434.953	91.62
435.175	97.62
435.397	95.62
435.618	101.62
435.84	77.62
436.062	95.62
436.284	88.62
436.505	88.62
436.727	94.62
436.949	81.62
437.17	99.62
437.392	95.62
437.614	94.62
437.835	107.62
438.057	88.62
438.278	94.62
438.5	106.62
438.721	96.62
438.943	112.62
439.165	109.62
439.386	111.62
439.608	99.62
439.829	81.62
440.05	102.62
440.272	92.62
440.493	94.62
440.715	99.62
440.936	94.62
441.158	98.62
441.379	95.62
441.6	93.62
441.822	89.62
442.043	94.62
442.264	103.62
442.486	94.62
442.707	93.62
442.928	95.62
443.149	88.62
443.371	103.62
443.592	94.62
443.813	84.62
444.034	109.62
444.255	104.62
444.476	87.62
444.698	104.62
444.919	94.62
445.14	219.62
445.361	176.62
445.582	95.62
445.803	91.62
446.024	106.62
446.245	99.62
446.466	91.62
446.687	93.62
446.908	113.62
447.129	111.62
447.35	95.62
447.571	107.62
447.792	103.62
448.013	101.62
448.234	99.62
448.455	94.62
448.675	95.62
448.896	103.62
449.117	101.62
449.338	92.62
449.559	99.62
449.779	106.62
450	106.62
450.221	94.62
450.442	94.62
450.662	104.62
450.883	91.62
451.104	89.62
451.324	101.62
451.545	103.62
451.766	102.62
451.986	89.62
452.207	105.62
452.428	80.62
452.648	96.62
452.869	90.62
453.089	92.62
453.31	76.62
453.53	93.62
453.751	80.62
453.971	88.62
454.192	83.62
454.412	89.62
454.633	95.62
454.853	96.62
455.073	83.62
455.294	93.62
455.514	98.62
455.734	95.62
455.955	100.62
456.175	85.62
456.395	79.62
456.616	96.62
456.836	102.62
457.056	103.62
457.276	85.62
457.497	100.62
457.717	89.62
457.937	93.62
458.157	83.62
458.377	84.62
458.598	103.62
458.818	92.62
459.038	91.62
459.258	86.62
459.478	88.62
459.698	81.62
459.918	103.62
460.138	88.62
460.358	101.62
460.578	85.62
460.798	98.62
461.018	87.62
461.238	97.62
461.458	85.62
461.678	94.62
461.898	97.62
462.118	95.62
462.338	92.62
462.558	79.62
462.777	91.62
462.997	118.62
463.217	92.62
463.437	96.62
463.657	86.62
463.876	85.62
464.096	107.62
464.316	95.62
464.536	89.62
464.755	95.62
464.975	93.62
465.195	88.62
465.414	101.62
465.634	92.62
465.854	90.62
466.073	79.62
466.293	93.62
466.512	92.62
466.732	99.62
466.951	95.62
467.171	102.62
467.391	103.62
467.61	82.62
467.829	90.62
468.049	98.62
468.268	102.62
468.488	103.62
468.707	94.62
468.927	96.62
469.146	91.62
469.365	96.62
469.585	93.62
469.804	108.62
470.023	85.62
470.243	102.62
470.462	110.62
470.681	104.62
470.901	103.62
471.12	94.62
471.339	93.62
471.558	92.62
471.777	102.62
471.997	104.62
472.216	107.62
472.435	101.62
472.654	102.62
472.873	96.62
473.092	94.62
473.311	99.62
473.53	89.62
473.749	102.62
473.968	91.62
474.187	96.62
474.406	81.62
474.625	93.62
474.844	101.62
475.063	93.62
475.282	98.62
475.501	98.62
475.72	97.62
475.939	103.62
476.158	100.62
476.377	90.62
476.596	100.62
476.814	109.62
477.033	89.62
477.252	86.62
477.471	98.62
477.69	105.62
477.908	95.62
478.127	92.62
478.346	93.62
478.564	87.62
478.783	99.62
479.002	95.62
479.22	113.62
479.439	115.62
479.658	92.62
479.876	101.62
480.095	94.62
480.313	97.62
480.532	91.62
480.751	86.62
480.969	94.62
481.188	103.62
481.406	99.62
481.624	80.62
481.843	87.62
482.061	98.62
482.28	95.62
482.498	93.62
482.717	88.62
482.935	88.62
483.153	95.62
483.372	108.62
483.59	116.62
483.808	115.62
484.027	110.62
484.245	101.62
484.463	89.62
484.681	111.62
484.9	94.62
485.118	105.62
485.336	94.62
485.554	78.62
485.772	99.62
485.99	105.62
486.209	95.62
486.427	99.62
486.645	93.62
486.863	95.62
487.081	87.62
487.299	95.62
487.517	108.62
487.735	117.62
487.953	123.62
488.171	121.62
488.389	108.62
488.607	110.62
488.825	93.62
489.043	109.62
489.261	108.62
489.479	95.62
489.696	98.62
489.914	89.62
490.132	93.62
490.35	110.62
490.568	106.62
490.786	99.62
491.003	101.62
491.221	115.62
491.439	106.62
491.657	122.62
491.874	115.62
492.092	130.62
492.31	116.62
492.527	125.62
492.745	126.62
492.963	104.62
493.18	115.62
493.398	102.62
493.615	110.62
493.833	120.62
494.05	116.62
494.268	105.62
494.485	119.62
494.703	103.62
494.92	109.62
495.138	110.62
495.355	106.62
495.573	109.62
495.79	107.62
496.008	115.62
496.225	124.62
496.442	106.62
496.66	113.62
496.877	115.62
497.094	110.62
497.312	103.62
497.529	102.62
497.746	98.62
497.963	95.62
498.181	89.62
498.398	107.62
498.615	113.62
498.832	95.62
499.049	79.62
499.267	91.62
499.484	81.62
499.701	97.62
499.918	98.62
500.135	98.62
500.352	100.62
500.569	99.62
500.786	112.62
501.003	104.62
501.22	87.62
501.437	106.62
501.654	109.62
501.871	97.62
502.088	92.62
502.305	86.62
502.522	100.62
502.739	108.62
502.956	107.62
503.172	111.62
503.389	98.62
503.606	94.62
503.823	95.62
504.04	101.62
504.256	95.62
504.473	84.62
504.69	106.62
504.907	115.62
505.123	93.62
505.34	88.62
505.557	100.62
505.773	106.62
505.99	100.62
506.207	81.62
506.423	78.62
506.64	103.62
506.856	95.62
507.073	103.62
507.289	92.62
507.506	101.62
507.722	96.62
507.939	107.62
508.155	106.62
508.372	98.62
508.588	103.62
508.805	97.62
509.021	88.62
509.238	83.62
509.454	100.62
509.67	98.62
509.887	97.62
510.103	88.62
510.319	88.62
510.536	92.62
510.752	83.62
510.968	105.62
511.184	87.62
511.401	94.62
511.617	88.62
511.833	94.62
512.049	106.62
512.265	100.62
512.481	99.62
512.698	92.62
512.914	88.62
513.13	95.62
513.346	94.62
513.562	108.62
513.778	93.62
513.994	101.62
514.21	83.62
514.426	89.62
514.642	82.62
514.858	99.62
515.074	94.62
515.29	83.62
515.506	96.62
515.721	103.62
515.937	91.62
