Data from Location5.07152019.Energy5.Lamp.07192019.3%Agarose_HRD10591_15-38-47-387.txt Node
Date: Fri Jul 19 15:38:47 EDT 2019
User: cochatt
Spectrometer: HR+D1059
Trigger mode: 1
Integration Time (sec): 1.000000E-1
Scans to average: 1
Electric dark correction enabled: true
Nonlinearity correction enabled: false
Boxcar width: 0
XAxis mode: Wavelengths
Number of Pixels in Spectrum: 2048
>>>>>Begin Spectral Data<<<<<
223.165	4.94
223.4	4.94
223.635	4.94
223.869	-4.06
224.104	-18.06
224.338	-21.06
224.573	-16.06
224.808	-18.06
225.042	1.94
225.277	-4.06
225.511	-7.06
225.746	-2.06
225.98	-0.06
226.215	1.94
226.449	10.94
226.683	27.94
226.918	14.94
227.152	27.94
227.387	25.94
227.621	32.94
227.856	31.94
228.09	45.94
228.324	38.94
228.559	57.94
228.793	61.94
229.027	36.94
229.262	51.94
229.496	59.94
229.73	59.94
229.964	62.94
230.199	78.94
230.433	81.94
230.667	76.94
230.901	77.94
231.136	62.94
231.37	75.94
231.604	84.94
231.838	73.94
232.072	79.94
232.306	91.94
232.541	85.94
232.775	78.94
233.009	80.94
233.243	80.94
233.477	85.94
233.711	74.94
233.945	85.94
234.179	81.94
234.413	87.94
234.647	71.94
234.881	91.94
235.115	81.94
235.349	83.94
235.583	77.94
235.817	84.94
236.051	81.94
236.285	66.94
236.519	75.94
236.753	88.94
236.987	64.94
237.221	85.94
237.455	73.94
237.689	77.94
237.922	77.94
238.156	73.94
238.39	84.94
238.624	78.94
238.858	76.94
239.091	65.94
239.325	86.94
239.559	75.94
239.793	81.94
240.027	66.94
240.26	76.94
240.494	69.94
240.728	67.94
240.961	77.94
241.195	75.94
241.429	62.94
241.662	91.94
241.896	69.94
242.13	64.94
242.363	78.94
242.597	61.94
242.83	73.94
243.064	68.94
243.298	70.94
243.531	83.94
243.765	68.94
243.998	90.94
244.232	85.94
244.465	73.94
244.699	72.94
244.932	68.94
245.166	56.94
245.399	84.94
245.633	66.94
245.866	66.94
246.099	82.94
246.333	68.94
246.566	77.94
246.8	86.94
247.033	88.94
247.266	81.94
247.5	71.94
247.733	77.94
247.966	63.94
248.2	70.94
248.433	71.94
248.666	87.94
248.899	69.94
249.133	77.94
249.366	79.94
249.599	88.94
249.832	77.94
250.066	71.94
250.299	77.94
250.532	76.94
250.765	84.94
250.998	84.94
251.231	80.94
251.465	82.94
251.698	71.94
251.931	75.94
252.164	73.94
252.397	81.94
252.63	76.94
252.863	70.94
253.096	65.94
253.329	76.94
253.562	72.94
253.795	76.94
254.028	76.94
254.261	87.94
254.494	74.94
254.727	88.94
254.96	76.94
255.193	75.94
255.426	86.94
255.659	67.94
255.892	73.94
256.124	85.94
256.357	77.94
256.59	94.94
256.823	70.94
257.056	68.94
257.289	78.94
257.521	81.94
257.754	72.94
257.987	65.94
258.22	71.94
258.452	79.94
258.685	78.94
258.918	78.94
259.151	71.94
259.383	72.94
259.616	83.94
259.849	85.94
260.081	92.94
260.314	86.94
260.547	60.94
260.779	75.94
261.012	72.94
261.244	82.94
261.477	79.94
261.71	67.94
261.942	78.94
262.175	94.94
262.407	83.94
262.64	83.94
262.872	83.94
263.105	87.94
263.337	88.94
263.57	82.94
263.802	92.94
264.035	75.94
264.267	77.94
264.499	71.94
264.732	82.94
264.964	81.94
265.197	78.94
265.429	79.94
265.661	76.94
265.894	66.94
266.126	81.94
266.358	78.94
266.591	75.94
266.823	79.94
267.055	76.94
267.287	90.94
267.52	68.94
267.752	91.94
267.984	75.94
268.216	82.94
268.448	79.94
268.681	78.94
268.913	71.94
269.145	70.94
269.377	94.94
269.609	68.94
269.841	81.94
270.073	81.94
270.306	78.94
270.538	71.94
270.77	79.94
271.002	75.94
271.234	68.94
271.466	77.94
271.698	77.94
271.93	74.94
272.162	80.94
272.394	86.94
272.626	75.94
272.858	81.94
273.09	79.94
273.322	82.94
273.553	85.94
273.785	81.94
274.017	82.94
274.249	85.94
274.481	84.94
274.713	81.94
274.945	73.94
275.176	98.94
275.408	84.94
275.64	76.94
275.872	79.94
276.104	92.94
276.335	67.94
276.567	83.94
276.799	82.94
277.031	71.94
277.262	81.94
277.494	73.94
277.726	74.94
277.957	75.94
278.189	72.94
278.421	77.94
278.652	85.94
278.884	78.94
279.115	81.94
279.347	88.94
279.579	76.94
279.81	75.94
280.042	90.94
280.273	82.94
280.505	83.94
280.736	85.94
280.968	96.94
281.199	72.94
281.431	83.94
281.662	69.94
281.894	81.94
282.125	84.94
282.356	77.94
282.588	77.94
282.819	83.94
283.051	84.94
283.282	78.94
283.513	80.94
283.745	81.94
283.976	84.94
284.207	102.94
284.439	74.94
284.67	81.94
284.901	84.94
285.132	73.94
285.364	73.94
285.595	96.94
285.826	82.94
286.057	83.94
286.288	81.94
286.52	79.94
286.751	79.94
286.982	81.94
287.213	73.94
287.444	91.94
287.675	73.94
287.906	82.94
288.138	93.94
288.369	74.94
288.6	82.94
288.831	82.94
289.062	81.94
289.293	74.94
289.524	76.94
289.755	82.94
289.986	65.94
290.217	87.94
290.448	88.94
290.679	83.94
290.91	78.94
291.141	85.94
291.371	94.94
291.602	68.94
291.833	80.94
292.064	81.94
292.295	85.94
292.526	82.94
292.757	86.94
292.987	78.94
293.218	92.94
293.449	91.94
293.68	94.94
293.91	82.94
294.141	79.94
294.372	77.94
294.603	88.94
294.833	79.94
295.064	82.94
295.295	83.94
295.525	89.94
295.756	68.94
295.987	79.94
296.217	92.94
296.448	82.94
296.679	86.94
296.909	80.94
297.14	80.94
297.37	80.94
297.601	76.94
297.831	81.94
298.062	64.94
298.292	84.94
298.523	84.94
298.753	89.94
298.984	72.94
299.214	73.94
299.445	88.94
299.675	91.94
299.905	92.94
300.136	72.94
300.366	70.94
300.597	71.94
300.827	88.94
301.057	96.94
301.288	91.94
301.518	90.94
301.748	82.94
301.979	74.94
302.209	102.94
302.439	90.94
302.669	97.94
302.9	67.94
303.13	81.94
303.36	83.94
303.59	86.94
303.82	85.94
304.051	76.94
304.281	85.94
304.511	83.94
304.741	76.94
304.971	80.94
305.201	87.94
305.431	89.94
305.661	104.94
305.891	87.94
306.121	75.94
306.352	83.94
306.582	85.94
306.812	88.94
307.042	79.94
307.272	82.94
307.502	83.94
307.731	89.94
307.961	86.94
308.191	78.94
308.421	86.94
308.651	74.94
308.881	87.94
309.111	83.94
309.341	82.94
309.571	69.94
309.8	83.94
310.03	73.94
310.26	82.94
310.49	87.94
310.72	83.94
310.949	72.94
311.179	82.94
311.409	63.94
311.639	69.94
311.868	83.94
312.098	83.94
312.328	83.94
312.557	78.94
312.787	89.94
313.017	82.94
313.246	85.94
313.476	78.94
313.706	68.94
313.935	83.94
314.165	79.94
314.394	75.94
314.624	81.94
314.853	79.94
315.083	76.94
315.312	72.94
315.542	85.94
315.771	88.94
316.001	76.94
316.23	68.94
316.46	79.94
316.689	91.94
316.919	82.94
317.148	92.94
317.377	81.94
317.607	95.94
317.836	88.94
318.065	85.94
318.295	78.94
318.524	75.94
318.753	85.94
318.983	81.94
319.212	83.94
319.441	81.94
319.67	85.94
319.9	88.94
320.129	79.94
320.358	88.94
320.587	61.94
320.816	82.94
321.046	85.94
321.275	83.94
321.504	73.94
321.733	91.94
321.962	91.94
322.191	76.94
322.42	75.94
322.649	83.94
322.878	85.94
323.108	87.94
323.337	72.94
323.566	73.94
323.795	91.94
324.024	72.94
324.253	80.94
324.482	76.94
324.71	79.94
324.939	78.94
325.168	67.94
325.397	72.94
325.626	78.94
325.855	86.94
326.084	85.94
326.313	79.94
326.542	72.94
326.77	69.94
326.999	74.94
327.228	84.94
327.457	80.94
327.686	95.94
327.914	80.94
328.143	89.94
328.372	88.94
328.6	86.94
328.829	86.94
329.058	88.94
329.287	79.94
329.515	85.94
329.744	84.94
329.972	79.94
330.201	88.94
330.43	79.94
330.658	81.94
330.887	70.94
331.115	83.94
331.344	82.94
331.572	95.94
331.801	78.94
332.03	76.94
332.258	76.94
332.486	77.94
332.715	78.94
332.943	81.94
333.172	99.94
333.4	99.94
333.629	79.94
333.857	77.94
334.085	73.94
334.314	92.94
334.542	82.94
334.771	86.94
334.999	89.94
335.227	85.94
335.455	96.94
335.684	87.94
335.912	80.94
336.14	87.94
336.369	71.94
336.597	77.94
336.825	79.94
337.053	61.94
337.281	79.94
337.51	89.94
337.738	95.94
337.966	91.94
338.194	81.94
338.422	69.94
338.65	79.94
338.878	71.94
339.106	78.94
339.334	95.94
339.562	70.94
339.79	76.94
340.018	93.94
340.246	91.94
340.474	83.94
340.702	76.94
340.93	88.94
341.158	72.94
341.386	66.94
341.614	77.94
341.842	88.94
342.07	78.94
342.298	81.94
342.526	78.94
342.754	71.94
342.981	90.94
343.209	80.94
343.437	78.94
343.665	80.94
343.893	79.94
344.12	81.94
344.348	79.94
344.576	80.94
344.804	93.94
345.031	73.94
345.259	81.94
345.487	60.94
345.714	77.94
345.942	81.94
346.17	88.94
346.397	84.94
346.625	79.94
346.853	80.94
347.08	88.94
347.308	85.94
347.535	77.94
347.763	65.94
347.99	88.94
348.218	87.94
348.445	79.94
348.673	78.94
348.9	84.94
349.128	88.94
349.355	67.94
349.583	85.94
349.81	88.94
350.037	88.94
350.265	75.94
350.492	71.94
350.72	72.94
350.947	83.94
351.174	68.94
351.402	76.94
351.629	88.94
351.856	86.94
352.083	85.94
352.311	83.94
352.538	76.94
352.765	73.94
352.992	79.94
353.22	93.94
353.447	76.94
353.674	78.94
353.901	83.94
354.128	88.94
354.355	92.94
354.583	82.94
354.81	78.94
355.037	87.94
355.264	84.94
355.491	79.94
355.718	93.94
355.945	88.94
356.172	88.94
356.399	79.94
356.626	78.94
356.853	77.94
357.08	74.94
357.307	89.94
357.534	86.94
357.761	85.94
357.988	87.94
358.215	83.94
358.441	88.94
358.668	81.94
358.895	59.94
359.122	73.94
359.349	86.94
359.576	80.94
359.802	73.94
360.029	89.94
360.256	86.94
360.483	80.94
360.709	71.94
360.936	94.94
361.163	75.94
361.39	74.94
361.616	91.94
361.843	70.94
362.07	81.94
362.296	81.94
362.523	85.94
362.749	83.94
362.976	73.94
363.203	108.94
363.429	81.94
363.656	86.94
363.882	68.94
364.109	89.94
364.335	95.94
364.562	88.94
364.788	84.94
365.015	82.94
365.241	79.94
365.468	89.94
365.694	77.94
365.92	81.94
366.147	89.94
366.373	76.94
366.599	85.94
366.826	71.94
367.052	70.94
367.278	79.94
367.505	76.94
367.731	86.94
367.957	85.94
368.184	72.94
368.41	72.94
368.636	77.94
368.862	98.94
369.089	79.94
369.315	80.94
369.541	83.94
369.767	84.94
369.993	76.94
370.219	80.94
370.445	88.94
370.672	91.94
370.898	81.94
371.124	88.94
371.35	79.94
371.576	74.94
371.802	70.94
372.028	90.94
372.254	96.94
372.48	77.94
372.706	87.94
372.932	93.94
373.158	78.94
373.384	72.94
373.61	83.94
373.835	72.94
374.061	82.94
374.287	94.94
374.513	80.94
374.739	77.94
374.965	66.94
375.191	88.94
375.416	84.94
375.642	84.94
375.868	81.94
376.094	87.94
376.319	86.94
376.545	84.94
376.771	80.94
376.997	64.94
377.222	84.94
377.448	78.94
377.674	72.94
377.899	76.94
378.125	85.94
378.35	84.94
378.576	76.94
378.802	76.94
379.027	87.94
379.253	93.94
379.478	78.94
379.704	79.94
379.929	92.94
380.155	73.94
380.38	93.94
380.606	72.94
380.831	77.94
381.057	79.94
381.282	69.94
381.507	64.94
381.733	75.94
381.958	65.94
382.184	75.94
382.409	79.94
382.634	86.94
382.86	82.94
383.085	88.94
383.31	88.94
383.535	81.94
383.761	87.94
383.986	84.94
384.211	76.94
384.436	95.94
384.662	84.94
384.887	92.94
385.112	85.94
385.337	79.94
385.562	94.94
385.787	83.94
386.013	78.94
386.238	74.94
386.463	87.94
386.688	75.94
386.913	77.94
387.138	88.94
387.363	86.94
387.588	81.94
387.813	88.94
388.038	76.94
388.263	90.94
388.488	78.94
388.713	81.94
388.938	88.94
389.163	90.94
389.387	85.94
389.612	94.94
389.837	85.94
390.062	77.94
390.287	85.94
390.512	81.94
390.736	86.94
390.961	83.94
391.186	86.94
391.411	77.94
391.636	68.94
391.86	76.94
392.085	79.94
392.31	75.94
392.534	83.94
392.759	96.94
392.984	99.94
393.208	77.94
393.433	89.94
393.658	69.94
393.882	71.94
394.107	88.94
394.331	73.94
394.556	84.94
394.78	88.94
395.005	85.94
395.229	102.94
395.454	104.94
395.678	80.94
395.903	93.94
396.127	90.94
396.352	82.94
396.576	71.94
396.801	66.94
397.025	72.94
397.249	84.94
397.474	83.94
397.698	81.94
397.922	86.94
398.147	81.94
398.371	75.94
398.595	97.94
398.82	82.94
399.044	87.94
399.268	64.94
399.492	83.94
399.717	78.94
399.941	78.94
400.165	72.94
400.389	67.94
400.613	90.94
400.837	85.94
401.062	82.94
401.286	83.94
401.51	80.94
401.734	83.94
401.958	94.94
402.182	92.94
402.406	85.94
402.63	92.94
402.854	83.94
403.078	93.94
403.302	77.94
403.526	84.94
403.75	79.94
403.974	81.94
404.198	95.94
404.422	81.94
404.645	82.94
404.869	91.94
405.093	91.94
405.317	90.94
405.541	81.94
405.765	83.94
405.988	83.94
406.212	97.94
406.436	85.94
406.66	94.94
406.883	101.94
407.107	77.94
407.331	73.94
407.555	80.94
407.778	93.94
408.002	94.94
408.226	88.94
408.449	96.94
408.673	87.94
408.896	93.94
409.12	85.94
409.344	77.94
409.567	86.94
409.791	89.94
410.014	100.94
410.238	94.94
410.461	91.94
410.685	88.94
410.908	89.94
411.132	87.94
411.355	97.94
411.578	95.94
411.802	94.94
412.025	81.94
412.249	75.94
412.472	72.94
412.695	102.94
412.919	81.94
413.142	92.94
413.365	66.94
413.589	77.94
413.812	93.94
414.035	83.94
414.258	97.94
414.482	85.94
414.705	84.94
414.928	92.94
415.151	92.94
415.374	84.94
415.597	73.94
415.821	80.94
416.044	85.94
416.267	81.94
416.49	89.94
416.713	82.94
416.936	87.94
417.159	74.94
417.382	79.94
417.605	94.94
417.828	96.94
418.051	86.94
418.274	81.94
418.497	88.94
418.72	92.94
418.943	89.94
419.166	85.94
419.389	96.94
419.611	81.94
419.834	109.94
420.057	93.94
420.28	87.94
420.503	77.94
420.726	98.94
420.948	97.94
421.171	91.94
421.394	87.94
421.617	93.94
421.839	100.94
422.062	105.94
422.285	92.94
422.507	79.94
422.73	75.94
422.953	94.94
423.175	87.94
423.398	93.94
423.621	73.94
423.843	90.94
424.066	89.94
424.288	89.94
424.511	82.94
424.733	96.94
424.956	109.94
425.178	96.94
425.401	100.94
425.623	88.94
425.846	74.94
426.068	82.94
426.291	85.94
426.513	69.94
426.735	101.94
426.958	79.94
427.18	87.94
427.402	93.94
427.625	84.94
427.847	92.94
428.069	70.94
428.292	85.94
428.514	92.94
428.736	77.94
428.958	100.94
429.181	82.94
429.403	87.94
429.625	82.94
429.847	81.94
430.069	88.94
430.292	91.94
430.514	95.94
430.736	81.94
430.958	89.94
431.18	72.94
431.402	79.94
431.624	88.94
431.846	80.94
432.068	91.94
432.29	84.94
432.512	95.94
432.734	89.94
432.956	92.94
433.178	80.94
433.4	91.94
433.622	102.94
433.844	80.94
434.066	98.94
434.287	64.94
434.509	76.94
434.731	76.94
434.953	74.94
435.175	88.94
435.397	88.94
435.618	73.94
435.84	83.94
436.062	81.94
436.284	89.94
436.505	86.94
436.727	84.94
436.949	83.94
437.17	87.94
437.392	104.94
437.614	97.94
437.835	82.94
438.057	69.94
438.278	89.94
438.5	96.94
438.721	87.94
438.943	97.94
439.165	95.94
439.386	85.94
439.608	96.94
439.829	94.94
440.05	106.94
440.272	85.94
440.493	91.94
440.715	89.94
440.936	101.94
441.158	104.94
441.379	96.94
441.6	88.94
441.822	96.94
442.043	92.94
442.264	91.94
442.486	91.94
442.707	87.94
442.928	95.94
443.149	83.94
443.371	96.94
443.592	88.94
443.813	94.94
444.034	86.94
444.255	93.94
444.476	103.94
444.698	94.94
444.919	84.94
445.14	193.94
445.361	142.94
445.582	109.94
445.803	82.94
446.024	87.94
446.245	93.94
446.466	105.94
446.687	96.94
446.908	85.94
447.129	98.94
447.35	103.94
447.571	115.94
447.792	91.94
448.013	79.94
448.234	91.94
448.455	95.94
448.675	88.94
448.896	85.94
449.117	94.94
449.338	84.94
449.559	91.94
449.779	87.94
450	91.94
450.221	89.94
450.442	90.94
450.662	96.94
450.883	98.94
451.104	99.94
451.324	84.94
451.545	87.94
451.766	105.94
451.986	95.94
452.207	77.94
452.428	84.94
452.648	98.94
452.869	95.94
453.089	72.94
453.31	74.94
453.53	96.94
453.751	96.94
453.971	84.94
454.192	77.94
454.412	79.94
454.633	68.94
454.853	85.94
455.073	91.94
455.294	92.94
455.514	100.94
455.734	88.94
455.955	86.94
456.175	95.94
456.395	84.94
456.616	76.94
456.836	90.94
457.056	92.94
457.276	84.94
457.497	86.94
457.717	86.94
457.937	85.94
458.157	76.94
458.377	73.94
458.598	88.94
458.818	67.94
459.038	84.94
459.258	85.94
459.478	74.94
459.698	86.94
459.918	83.94
460.138	84.94
460.358	86.94
460.578	95.94
460.798	71.94
461.018	71.94
461.238	94.94
461.458	81.94
461.678	81.94
461.898	88.94
462.118	85.94
462.338	91.94
462.558	93.94
462.777	74.94
462.997	98.94
463.217	77.94
463.437	84.94
463.657	85.94
463.876	92.94
464.096	86.94
464.316	79.94
464.536	96.94
464.755	91.94
464.975	81.94
465.195	79.94
465.414	99.94
465.634	95.94
465.854	88.94
466.073	72.94
466.293	85.94
466.512	87.94
466.732	94.94
466.951	88.94
467.171	86.94
467.391	100.94
467.61	94.94
467.829	80.94
468.049	102.94
468.268	86.94
468.488	84.94
468.707	92.94
468.927	94.94
469.146	92.94
469.365	100.94
469.585	94.94
469.804	108.94
470.023	75.94
470.243	101.94
470.462	96.94
470.681	100.94
470.901	94.94
471.12	84.94
471.339	98.94
471.558	97.94
471.777	95.94
471.997	84.94
472.216	89.94
472.435	101.94
472.654	85.94
472.873	96.94
473.092	83.94
473.311	73.94
473.53	89.94
473.749	95.94
473.968	88.94
474.187	86.94
474.406	92.94
474.625	86.94
474.844	95.94
475.063	104.94
475.282	84.94
475.501	78.94
475.72	99.94
475.939	86.94
476.158	82.94
476.377	78.94
476.596	89.94
476.814	79.94
477.033	86.94
477.252	87.94
477.471	95.94
477.69	91.94
477.908	77.94
478.127	95.94
478.346	81.94
478.564	74.94
478.783	85.94
479.002	96.94
479.22	87.94
479.439	95.94
479.658	77.94
479.876	87.94
480.095	90.94
480.313	86.94
480.532	86.94
480.751	81.94
480.969	83.94
481.188	68.94
481.406	92.94
481.624	76.94
481.843	97.94
482.061	81.94
482.28	72.94
482.498	85.94
482.717	96.94
482.935	73.94
483.153	94.94
483.372	103.94
483.59	103.94
483.808	92.94
484.027	94.94
484.245	97.94
484.463	107.94
484.681	87.94
484.9	96.94
485.118	93.94
485.336	108.94
485.554	88.94
485.772	90.94
485.99	81.94
486.209	86.94
486.427	87.94
486.645	78.94
486.863	82.94
487.081	89.94
487.299	98.94
487.517	95.94
487.735	91.94
487.953	110.94
488.171	107.94
488.389	99.94
488.607	105.94
488.825	93.94
489.043	92.94
489.261	78.94
489.479	81.94
489.696	93.94
489.914	98.94
490.132	98.94
490.35	90.94
490.568	104.94
490.786	103.94
491.003	88.94
491.221	95.94
491.439	105.94
491.657	110.94
491.874	91.94
492.092	99.94
492.31	126.94
492.527	115.94
492.745	130.94
492.963	101.94
493.18	101.94
493.398	113.94
493.615	109.94
493.833	104.94
494.05	102.94
494.268	108.94
494.485	101.94
494.703	105.94
494.92	101.94
495.138	115.94
495.355	102.94
495.573	97.94
495.79	105.94
496.008	112.94
496.225	104.94
496.442	100.94
496.66	102.94
496.877	109.94
497.094	112.94
497.312	101.94
497.529	105.94
497.746	93.94
497.963	84.94
498.181	77.94
498.398	92.94
498.615	87.94
498.832	79.94
499.049	77.94
499.267	86.94
499.484	91.94
499.701	80.94
499.918	86.94
500.135	86.94
500.352	94.94
500.569	81.94
500.786	86.94
501.003	90.94
501.22	76.94
501.437	98.94
501.654	91.94
501.871	80.94
502.088	81.94
502.305	101.94
502.522	103.94
502.739	91.94
502.956	104.94
503.172	90.94
503.389	92.94
503.606	93.94
503.823	98.94
504.04	97.94
504.256	95.94
504.473	84.94
504.69	79.94
504.907	89.94
505.123	85.94
505.34	77.94
505.557	101.94
505.773	108.94
505.99	69.94
506.207	84.94
506.423	77.94
506.64	98.94
506.856	88.94
507.073	95.94
507.289	81.94
507.506	82.94
507.722	80.94
507.939	95.94
508.155	82.94
508.372	100.94
508.588	83.94
508.805	83.94
509.021	81.94
509.238	82.94
509.454	79.94
509.67	78.94
509.887	96.94
510.103	92.94
510.319	86.94
510.536	71.94
510.752	90.94
510.968	71.94
511.184	78.94
511.401	90.94
511.617	91.94
511.833	76.94
512.049	86.94
512.265	91.94
512.481	87.94
512.698	85.94
512.914	89.94
513.13	80.94
513.346	92.94
513.562	101.94
513.778	100.94
513.994	89.94
514.21	74.94
514.426	79.94
514.642	73.94
514.858	71.94
515.074	77.94
515.29	81.94
515.506	88.94
515.721	95.94
515.937	90.94
516.153	72.94
516.369	77.94
516.585	90.94
516.801	93.94
517.016	81.94
517.232	84.94
517.448	97.94
517.664	80.94
517.879	91.94
518.095	94.94
518.311	94.94
518.527	81.94
