Data from Location5.07152019.Energy5.Lamp.07192019.3%Agarose_HRD10591_16-02-39-631.txt Node
Date: Fri Jul 19 16:02:39 EDT 2019
User: cochatt
Spectrometer: HR+D1059
Trigger mode: 1
Integration Time (sec): 1.000000E-1
Scans to average: 1
Electric dark correction enabled: true
Nonlinearity correction enabled: false
Boxcar width: 0
XAxis mode: Wavelengths
Number of Pixels in Spectrum: 2048
>>>>>Begin Spectral Data<<<<<
223.165	-11.31
223.4	-11.31
223.635	-11.31
223.869	-25.31
224.104	-16.31
224.338	-15.31
224.573	-4.31
224.808	-10.31
225.042	-4.31
225.277	-0.31
225.511	-7.31
225.746	-8.31
225.98	-4.31
226.215	20.69
226.449	22.69
226.683	12.69
226.918	17.69
227.152	33.69
227.387	34.69
227.621	47.69
227.856	44.69
228.09	43.69
228.324	53.69
228.559	52.69
228.793	39.69
229.027	55.69
229.262	58.69
229.496	49.69
229.73	67.69
229.964	71.69
230.199	59.69
230.433	73.69
230.667	69.69
230.901	69.69
231.136	76.69
231.37	67.69
231.604	80.69
231.838	87.69
232.072	79.69
232.306	73.69
232.541	79.69
232.775	77.69
233.009	68.69
233.243	83.69
233.477	68.69
233.711	71.69
233.945	74.69
234.179	84.69
234.413	79.69
234.647	72.69
234.881	81.69
235.115	67.69
235.349	83.69
235.583	69.69
235.817	79.69
236.051	76.69
236.285	54.69
236.519	71.69
236.753	71.69
236.987	76.69
237.221	73.69
237.455	78.69
237.689	87.69
237.922	73.69
238.156	83.69
238.39	68.69
238.624	89.69
238.858	86.69
239.091	76.69
239.325	74.69
239.559	79.69
239.793	62.69
240.027	83.69
240.26	78.69
240.494	69.69
240.728	64.69
240.961	63.69
241.195	77.69
241.429	76.69
241.662	71.69
241.896	75.69
242.13	81.69
242.363	71.69
242.597	77.69
242.83	79.69
243.064	74.69
243.298	70.69
243.531	78.69
243.765	83.69
243.998	69.69
244.232	85.69
244.465	80.69
244.699	80.69
244.932	79.69
245.166	88.69
245.399	62.69
245.633	87.69
245.866	74.69
246.099	69.69
246.333	87.69
246.566	67.69
246.8	76.69
247.033	91.69
247.266	80.69
247.5	72.69
247.733	89.69
247.966	85.69
248.2	89.69
248.433	89.69
248.666	87.69
248.899	84.69
249.133	62.69
249.366	87.69
249.599	87.69
249.832	77.69
250.066	84.69
250.299	65.69
250.532	92.69
250.765	82.69
250.998	81.69
251.231	83.69
251.465	80.69
251.698	73.69
251.931	72.69
252.164	71.69
252.397	69.69
252.63	76.69
252.863	69.69
253.096	72.69
253.329	68.69
253.562	64.69
253.795	70.69
254.028	84.69
254.261	76.69
254.494	81.69
254.727	90.69
254.96	84.69
255.193	79.69
255.426	84.69
255.659	76.69
255.892	67.69
256.124	92.69
256.357	73.69
256.59	87.69
256.823	84.69
257.056	80.69
257.289	72.69
257.521	73.69
257.754	69.69
257.987	73.69
258.22	83.69
258.452	85.69
258.685	81.69
258.918	70.69
259.151	80.69
259.383	92.69
259.616	86.69
259.849	91.69
260.081	79.69
260.314	78.69
260.547	79.69
260.779	83.69
261.012	81.69
261.244	72.69
261.477	81.69
261.71	84.69
261.942	81.69
262.175	78.69
262.407	80.69
262.64	90.69
262.872	94.69
263.105	80.69
263.337	92.69
263.57	77.69
263.802	90.69
264.035	86.69
264.267	63.69
264.499	77.69
264.732	88.69
264.964	81.69
265.197	83.69
265.429	77.69
265.661	82.69
265.894	84.69
266.126	80.69
266.358	80.69
266.591	72.69
266.823	78.69
267.055	75.69
267.287	87.69
267.52	99.69
267.752	89.69
267.984	88.69
268.216	79.69
268.448	79.69
268.681	81.69
268.913	74.69
269.145	78.69
269.377	83.69
269.609	79.69
269.841	83.69
270.073	86.69
270.306	76.69
270.538	81.69
270.77	82.69
271.002	85.69
271.234	78.69
271.466	84.69
271.698	81.69
271.93	84.69
272.162	83.69
272.394	87.69
272.626	87.69
272.858	95.69
273.09	100.69
273.322	79.69
273.553	78.69
273.785	84.69
274.017	90.69
274.249	76.69
274.481	71.69
274.713	79.69
274.945	81.69
275.176	95.69
275.408	85.69
275.64	85.69
275.872	98.69
276.104	92.69
276.335	81.69
276.567	79.69
276.799	77.69
277.031	89.69
277.262	89.69
277.494	84.69
277.726	79.69
277.957	69.69
278.189	75.69
278.421	82.69
278.652	75.69
278.884	78.69
279.115	79.69
279.347	89.69
279.579	92.69
279.81	78.69
280.042	87.69
280.273	81.69
280.505	92.69
280.736	89.69
280.968	85.69
281.199	83.69
281.431	91.69
281.662	76.69
281.894	77.69
282.125	86.69
282.356	94.69
282.588	83.69
282.819	85.69
283.051	81.69
283.282	98.69
283.513	91.69
283.745	92.69
283.976	92.69
284.207	87.69
284.439	99.69
284.67	86.69
284.901	98.69
285.132	89.69
285.364	76.69
285.595	107.69
285.826	76.69
286.057	93.69
286.288	78.69
286.52	95.69
286.751	75.69
286.982	80.69
287.213	88.69
287.444	93.69
287.675	89.69
287.906	109.69
288.138	91.69
288.369	86.69
288.6	96.69
288.831	71.69
289.062	93.69
289.293	81.69
289.524	77.69
289.755	89.69
289.986	89.69
290.217	83.69
290.448	86.69
290.679	91.69
290.91	73.69
291.141	77.69
291.371	91.69
291.602	81.69
291.833	79.69
292.064	89.69
292.295	95.69
292.526	83.69
292.757	82.69
292.987	101.69
293.218	80.69
293.449	84.69
293.68	77.69
293.91	90.69
294.141	89.69
294.372	85.69
294.603	95.69
294.833	87.69
295.064	78.69
295.295	90.69
295.525	87.69
295.756	100.69
295.987	90.69
296.217	86.69
296.448	80.69
296.679	98.69
296.909	92.69
297.14	89.69
297.37	87.69
297.601	88.69
297.831	87.69
298.062	73.69
298.292	78.69
298.523	93.69
298.753	87.69
298.984	92.69
299.214	98.69
299.445	78.69
299.675	91.69
299.905	85.69
300.136	85.69
300.366	85.69
300.597	101.69
300.827	88.69
301.057	83.69
301.288	109.69
301.518	87.69
301.748	88.69
301.979	79.69
302.209	84.69
302.439	92.69
302.669	93.69
302.9	77.69
303.13	97.69
303.36	96.69
303.59	90.69
303.82	91.69
304.051	89.69
304.281	81.69
304.511	95.69
304.741	83.69
304.971	92.69
305.201	95.69
305.431	103.69
305.661	89.69
305.891	96.69
306.121	84.69
306.352	101.69
306.582	86.69
306.812	92.69
307.042	94.69
307.272	83.69
307.502	100.69
307.731	96.69
307.961	102.69
308.191	82.69
308.421	88.69
308.651	95.69
308.881	80.69
309.111	78.69
309.341	89.69
309.571	72.69
309.8	83.69
310.03	92.69
310.26	94.69
310.49	85.69
310.72	83.69
310.949	83.69
311.179	85.69
311.409	94.69
311.639	80.69
311.868	96.69
312.098	94.69
312.328	100.69
312.557	85.69
312.787	96.69
313.017	85.69
313.246	89.69
313.476	86.69
313.706	79.69
313.935	92.69
314.165	88.69
314.394	95.69
314.624	92.69
314.853	82.69
315.083	92.69
315.312	100.69
315.542	88.69
315.771	111.69
316.001	91.69
316.23	88.69
316.46	77.69
316.689	99.69
316.919	77.69
317.148	84.69
317.377	100.69
317.607	69.69
317.836	93.69
318.065	81.69
318.295	91.69
318.524	88.69
318.753	85.69
318.983	87.69
319.212	99.69
319.441	106.69
319.67	88.69
319.9	94.69
320.129	81.69
320.358	93.69
320.587	103.69
320.816	88.69
321.046	99.69
321.275	84.69
321.504	82.69
321.733	94.69
321.962	87.69
322.191	84.69
322.42	94.69
322.649	91.69
322.878	89.69
323.108	81.69
323.337	88.69
323.566	96.69
323.795	86.69
324.024	98.69
324.253	97.69
324.482	92.69
324.71	79.69
324.939	98.69
325.168	113.69
325.397	95.69
325.626	93.69
325.855	78.69
326.084	100.69
326.313	97.69
326.542	102.69
326.77	109.69
326.999	93.69
327.228	91.69
327.457	100.69
327.686	99.69
327.914	91.69
328.143	92.69
328.372	98.69
328.6	104.69
328.829	80.69
329.058	94.69
329.287	89.69
329.515	92.69
329.744	105.69
329.972	93.69
330.201	82.69
330.43	86.69
330.658	95.69
330.887	95.69
331.115	96.69
331.344	80.69
331.572	85.69
331.801	80.69
332.03	80.69
332.258	108.69
332.486	97.69
332.715	102.69
332.943	98.69
333.172	80.69
333.4	92.69
333.629	91.69
333.857	97.69
334.085	96.69
334.314	86.69
334.542	92.69
334.771	100.69
334.999	100.69
335.227	102.69
335.455	97.69
335.684	103.69
335.912	94.69
336.14	99.69
336.369	97.69
336.597	92.69
336.825	106.69
337.053	91.69
337.281	81.69
337.51	87.69
337.738	93.69
337.966	98.69
338.194	100.69
338.422	100.69
338.65	93.69
338.878	96.69
339.106	93.69
339.334	108.69
339.562	94.69
339.79	88.69
340.018	108.69
340.246	80.69
340.474	100.69
340.702	105.69
340.93	81.69
341.158	90.69
341.386	91.69
341.614	81.69
341.842	90.69
342.07	82.69
342.298	95.69
342.526	93.69
342.754	89.69
342.981	91.69
343.209	87.69
343.437	91.69
343.665	85.69
343.893	88.69
344.12	91.69
344.348	89.69
344.576	95.69
344.804	84.69
345.031	92.69
345.259	77.69
345.487	88.69
345.714	83.69
345.942	90.69
346.17	86.69
346.397	96.69
346.625	101.69
346.853	86.69
347.08	94.69
347.308	112.69
347.535	89.69
347.763	101.69
347.99	91.69
348.218	92.69
348.445	100.69
348.673	85.69
348.9	90.69
349.128	84.69
349.355	87.69
349.583	78.69
349.81	96.69
350.037	101.69
350.265	77.69
350.492	95.69
350.72	96.69
350.947	103.69
351.174	86.69
351.402	93.69
351.629	86.69
351.856	77.69
352.083	85.69
352.311	98.69
352.538	75.69
352.765	90.69
352.992	103.69
353.22	98.69
353.447	102.69
353.674	99.69
353.901	91.69
354.128	91.69
354.355	86.69
354.583	89.69
354.81	75.69
355.037	88.69
355.264	85.69
355.491	78.69
355.718	93.69
355.945	95.69
356.172	89.69
356.399	104.69
356.626	91.69
356.853	85.69
357.08	87.69
357.307	87.69
357.534	87.69
357.761	88.69
357.988	94.69
358.215	92.69
358.441	97.69
358.668	95.69
358.895	99.69
359.122	95.69
359.349	77.69
359.576	90.69
359.802	92.69
360.029	101.69
360.256	93.69
360.483	88.69
360.709	87.69
360.936	102.69
361.163	90.69
361.39	100.69
361.616	83.69
361.843	97.69
362.07	99.69
362.296	115.69
362.523	91.69
362.749	90.69
362.976	94.69
363.203	88.69
363.429	86.69
363.656	104.69
363.882	80.69
364.109	102.69
364.335	79.69
364.562	83.69
364.788	86.69
365.015	83.69
365.241	89.69
365.468	90.69
365.694	80.69
365.92	85.69
366.147	89.69
366.373	98.69
366.599	99.69
366.826	88.69
367.052	88.69
367.278	92.69
367.505	87.69
367.731	89.69
367.957	97.69
368.184	102.69
368.41	87.69
368.636	89.69
368.862	89.69
369.089	86.69
369.315	83.69
369.541	101.69
369.767	81.69
369.993	88.69
370.219	88.69
370.445	88.69
370.672	81.69
370.898	101.69
371.124	91.69
371.35	102.69
371.576	89.69
371.802	97.69
372.028	91.69
372.254	89.69
372.48	88.69
372.706	107.69
372.932	88.69
373.158	94.69
373.384	101.69
373.61	87.69
373.835	94.69
374.061	86.69
374.287	75.69
374.513	82.69
374.739	87.69
374.965	83.69
375.191	86.69
375.416	102.69
375.642	93.69
375.868	96.69
376.094	84.69
376.319	75.69
376.545	86.69
376.771	87.69
376.997	86.69
377.222	86.69
377.448	80.69
377.674	85.69
377.899	81.69
378.125	103.69
378.35	90.69
378.576	88.69
378.802	85.69
379.027	103.69
379.253	91.69
379.478	79.69
379.704	88.69
379.929	100.69
380.155	96.69
380.38	87.69
380.606	84.69
380.831	82.69
381.057	102.69
381.282	86.69
381.507	83.69
381.733	81.69
381.958	91.69
382.184	76.69
382.409	88.69
382.634	93.69
382.86	92.69
383.085	109.69
383.31	90.69
383.535	88.69
383.761	70.69
383.986	76.69
384.211	87.69
384.436	97.69
384.662	103.69
384.887	112.69
385.112	110.69
385.337	90.69
385.562	79.69
385.787	106.69
386.013	107.69
386.238	86.69
386.463	79.69
386.688	101.69
386.913	102.69
387.138	99.69
387.363	98.69
387.588	91.69
387.813	87.69
388.038	107.69
388.263	88.69
388.488	101.69
388.713	93.69
388.938	92.69
389.163	96.69
389.387	100.69
389.612	109.69
389.837	91.69
390.062	101.69
390.287	82.69
390.512	95.69
390.736	99.69
390.961	107.69
391.186	87.69
391.411	94.69
391.636	94.69
391.86	84.69
392.085	99.69
392.31	90.69
392.534	89.69
392.759	96.69
392.984	95.69
393.208	86.69
393.433	87.69
393.658	98.69
393.882	83.69
394.107	94.69
394.331	92.69
394.556	98.69
394.78	103.69
395.005	92.69
395.229	92.69
395.454	84.69
395.678	88.69
395.903	91.69
396.127	101.69
396.352	95.69
396.576	106.69
396.801	85.69
397.025	98.69
397.249	108.69
397.474	117.69
397.698	92.69
397.922	96.69
398.147	92.69
398.371	103.69
398.595	103.69
398.82	87.69
399.044	93.69
399.268	92.69
399.492	115.69
399.717	102.69
399.941	103.69
400.165	101.69
400.389	112.69
400.613	102.69
400.837	99.69
401.062	108.69
401.286	113.69
401.51	104.69
401.734	86.69
401.958	87.69
402.182	99.69
402.406	90.69
402.63	94.69
402.854	121.69
403.078	101.69
403.302	101.69
403.526	97.69
403.75	102.69
403.974	116.69
404.198	91.69
404.422	92.69
404.645	94.69
404.869	91.69
405.093	98.69
405.317	100.69
405.541	108.69
405.765	88.69
405.988	101.69
406.212	96.69
406.436	89.69
406.66	101.69
406.883	100.69
407.107	116.69
407.331	95.69
407.555	109.69
407.778	100.69
408.002	101.69
408.226	105.69
408.449	103.69
408.673	86.69
408.896	93.69
409.12	97.69
409.344	104.69
409.567	89.69
409.791	86.69
410.014	85.69
410.238	102.69
410.461	102.69
410.685	100.69
410.908	111.69
411.132	97.69
411.355	116.69
411.578	98.69
411.802	92.69
412.025	102.69
412.249	92.69
412.472	112.69
412.695	91.69
412.919	97.69
413.142	86.69
413.365	107.69
413.589	100.69
413.812	83.69
414.035	86.69
414.258	99.69
414.482	102.69
414.705	93.69
414.928	82.69
415.151	88.69
415.374	98.69
415.597	91.69
415.821	99.69
416.044	94.69
416.267	92.69
416.49	100.69
416.713	108.69
416.936	94.69
417.159	90.69
417.382	98.69
417.605	89.69
417.828	98.69
418.051	89.69
418.274	97.69
418.497	104.69
418.72	101.69
418.943	85.69
419.166	90.69
419.389	66.69
419.611	114.69
419.834	93.69
420.057	102.69
420.28	92.69
420.503	100.69
420.726	99.69
420.948	107.69
421.171	87.69
421.394	87.69
421.617	96.69
421.839	95.69
422.062	113.69
422.285	93.69
422.507	81.69
422.73	83.69
422.953	98.69
423.175	93.69
423.398	87.69
423.621	87.69
423.843	90.69
424.066	97.69
424.288	83.69
424.511	93.69
424.733	109.69
424.956	126.69
425.178	98.69
425.401	91.69
425.623	85.69
425.846	92.69
426.068	98.69
426.291	100.69
426.513	96.69
426.735	94.69
426.958	93.69
427.18	80.69
427.402	93.69
427.625	94.69
427.847	92.69
428.069	94.69
428.292	103.69
428.514	100.69
428.736	95.69
428.958	81.69
429.181	87.69
429.403	83.69
429.625	95.69
429.847	109.69
430.069	96.69
430.292	76.69
430.514	88.69
430.736	77.69
430.958	99.69
431.18	97.69
431.402	89.69
431.624	88.69
431.846	95.69
432.068	86.69
432.29	91.69
432.512	102.69
432.734	100.69
432.956	98.69
433.178	96.69
433.4	89.69
433.622	100.69
433.844	89.69
434.066	98.69
434.287	89.69
434.509	89.69
434.731	89.69
434.953	95.69
435.175	100.69
435.397	91.69
435.618	103.69
435.84	100.69
436.062	94.69
436.284	90.69
436.505	111.69
436.727	91.69
436.949	100.69
437.17	83.69
437.392	91.69
437.614	97.69
437.835	88.69
438.057	87.69
438.278	96.69
438.5	85.69
438.721	86.69
438.943	91.69
439.165	85.69
439.386	109.69
439.608	97.69
439.829	99.69
440.05	82.69
440.272	92.69
440.493	90.69
440.715	98.69
440.936	92.69
441.158	111.69
441.379	96.69
441.6	102.69
441.822	92.69
442.043	95.69
442.264	93.69
442.486	98.69
442.707	104.69
442.928	84.69
443.149	96.69
443.371	95.69
443.592	84.69
443.813	97.69
444.034	106.69
444.255	95.69
444.476	93.69
444.698	115.69
444.919	89.69
445.14	208.69
445.361	144.69
445.582	97.69
445.803	104.69
446.024	84.69
446.245	102.69
446.466	88.69
446.687	84.69
446.908	88.69
447.129	89.69
447.35	89.69
447.571	85.69
447.792	100.69
448.013	94.69
448.234	83.69
448.455	76.69
448.675	92.69
448.896	89.69
449.117	91.69
449.338	90.69
449.559	81.69
449.779	92.69
450	90.69
450.221	80.69
450.442	99.69
450.662	88.69
450.883	80.69
451.104	91.69
451.324	88.69
451.545	86.69
451.766	81.69
451.986	101.69
452.207	93.69
452.428	89.69
452.648	100.69
452.869	103.69
453.089	94.69
453.31	95.69
453.53	72.69
453.751	95.69
453.971	93.69
454.192	87.69
454.412	83.69
454.633	103.69
454.853	90.69
455.073	86.69
455.294	101.69
455.514	89.69
455.734	95.69
455.955	92.69
456.175	86.69
456.395	113.69
456.616	87.69
456.836	102.69
457.056	92.69
457.276	73.69
457.497	99.69
457.717	92.69
457.937	87.69
458.157	91.69
458.377	94.69
458.598	88.69
458.818	89.69
459.038	103.69
459.258	98.69
459.478	93.69
459.698	97.69
459.918	86.69
460.138	96.69
460.358	92.69
460.578	95.69
460.798	85.69
461.018	101.69
461.238	103.69
461.458	104.69
461.678	104.69
461.898	97.69
462.118	108.69
462.338	98.69
462.558	97.69
462.777	95.69
462.997	98.69
463.217	106.69
463.437	99.69
463.657	94.69
463.876	100.69
464.096	107.69
464.316	83.69
464.536	111.69
464.755	98.69
464.975	87.69
465.195	103.69
465.414	91.69
465.634	100.69
465.854	71.69
466.073	83.69
466.293	83.69
466.512	106.69
466.732	81.69
466.951	86.69
467.171	102.69
467.391	94.69
467.61	109.69
467.829	91.69
468.049	86.69
468.268	79.69
468.488	81.69
468.707	93.69
468.927	92.69
469.146	81.69
469.365	103.69
469.585	91.69
469.804	78.69
470.023	90.69
470.243	102.69
470.462	99.69
470.681	88.69
470.901	101.69
471.12	103.69
471.339	101.69
471.558	95.69
471.777	98.69
471.997	98.69
472.216	93.69
472.435	104.69
472.654	94.69
472.873	113.69
473.092	93.69
473.311	106.69
473.53	96.69
473.749	95.69
473.968	97.69
474.187	87.69
474.406	97.69
474.625	89.69
474.844	91.69
475.063	101.69
475.282	102.69
475.501	100.69
475.72	110.69
475.939	83.69
476.158	96.69
476.377	89.69
476.596	83.69
476.814	82.69
477.033	88.69
477.252	94.69
477.471	115.69
477.69	94.69
477.908	93.69
478.127	106.69
478.346	105.69
478.564	111.69
478.783	94.69
479.002	95.69
479.22	101.69
479.439	106.69
479.658	87.69
479.876	98.69
480.095	92.69
480.313	105.69
480.532	107.69
480.751	95.69
480.969	98.69
481.188	103.69
481.406	89.69
481.624	100.69
481.843	107.69
482.061	107.69
482.28	98.69
482.498	97.69
482.717	89.69
482.935	108.69
483.153	102.69
483.372	111.69
483.59	104.69
483.808	99.69
484.027	120.69
484.245	88.69
484.463	98.69
484.681	98.69
484.9	88.69
485.118	93.69
485.336	114.69
485.554	99.69
485.772	93.69
485.99	102.69
486.209	92.69
486.427	104.69
486.645	116.69
486.863	104.69
487.081	91.69
487.299	104.69
487.517	92.69
487.735	91.69
487.953	124.69
488.171	103.69
488.389	118.69
488.607	96.69
488.825	104.69
489.043	108.69
489.261	114.69
489.479	102.69
489.696	107.69
489.914	116.69
490.132	113.69
490.35	109.69
490.568	110.69
490.786	100.69
491.003	110.69
491.221	99.69
491.439	114.69
491.657	107.69
491.874	116.69
492.092	103.69
492.31	115.69
492.527	119.69
492.745	112.69
492.963	117.69
493.18	101.69
493.398	101.69
493.615	112.69
493.833	112.69
494.05	121.69
494.268	118.69
494.485	107.69
494.703	121.69
494.92	101.69
495.138	105.69
495.355	109.69
495.573	131.69
495.79	107.69
496.008	99.69
496.225	107.69
496.442	107.69
496.66	111.69
496.877	93.69
497.094	115.69
497.312	118.69
497.529	115.69
497.746	113.69
497.963	115.69
498.181	111.69
498.398	101.69
498.615	107.69
498.832	109.69
499.049	126.69
499.267	120.69
499.484	125.69
499.701	140.69
499.918	138.69
500.135	162.69
500.352	151.69
500.569	161.69
500.786	162.69
501.003	167.69
501.22	133.69
501.437	139.69
501.654	110.69
501.871	124.69
502.088	127.69
502.305	123.69
502.522	119.69
502.739	108.69
502.956	113.69
503.172	117.69
503.389	117.69
503.606	113.69
503.823	99.69
504.04	109.69
504.256	113.69
504.473	118.69
504.69	105.69
504.907	105.69
505.123	101.69
505.34	99.69
505.557	110.69
505.773	93.69
505.99	111.69
506.207	104.69
506.423	102.69
506.64	111.69
506.856	102.69
507.073	119.69
507.289	109.69
507.506	104.69
507.722	115.69
507.939	117.69
508.155	106.69
508.372	98.69
508.588	96.69
508.805	93.69
509.021	94.69
509.238	111.69
509.454	93.69
509.67	93.69
509.887	105.69
510.103	117.69
510.319	106.69
510.536	115.69
510.752	105.69
510.968	97.69
511.184	86.69
511.401	106.69
511.617	107.69
511.833	89.69
512.049	86.69
512.265	109.69
512.481	93.69
512.698	106.69
512.914	113.69
513.13	98.69
513.346	97.69
513.562	97.69
513.778	92.69
513.994	99.69
514.21	113.69
514.426	109.69
514.642	87.69
514.858	103.69
515.074	97.69
