Data from Location5.07152019.Energy5.Lamp.07192019.3%Agarose_HRD10591_16-03-48-629.txt Node
Date: Fri Jul 19 16:03:48 EDT 2019
User: cochatt
Spectrometer: HR+D1059
Trigger mode: 1
Integration Time (sec): 1.000000E-1
Scans to average: 1
Electric dark correction enabled: true
Nonlinearity correction enabled: false
Boxcar width: 0
XAxis mode: Wavelengths
Number of Pixels in Spectrum: 2048
>>>>>Begin Spectral Data<<<<<
223.165	-15.19
223.4	-15.19
223.635	-15.19
223.869	-24.19
224.104	-24.19
224.338	-8.19
224.573	-23.19
224.808	-31.19
225.042	-14.19
225.277	-7.19
225.511	3.81
225.746	9.81
225.98	24.81
226.215	21.81
226.449	15.81
226.683	4.81
226.918	25.81
227.152	40.81
227.387	26.81
227.621	41.81
227.856	41.81
228.09	47.81
228.324	46.81
228.559	54.81
228.793	47.81
229.027	55.81
229.262	55.81
229.496	66.81
229.73	67.81
229.964	67.81
230.199	65.81
230.433	76.81
230.667	83.81
230.901	78.81
231.136	85.81
231.37	70.81
231.604	82.81
231.838	84.81
232.072	86.81
232.306	75.81
232.541	82.81
232.775	88.81
233.009	91.81
233.243	77.81
233.477	77.81
233.711	63.81
233.945	72.81
234.179	75.81
234.413	78.81
234.647	71.81
234.881	70.81
235.115	92.81
235.349	76.81
235.583	79.81
235.817	73.81
236.051	72.81
236.285	66.81
236.519	79.81
236.753	101.81
236.987	89.81
237.221	81.81
237.455	88.81
237.689	73.81
237.922	72.81
238.156	78.81
238.39	84.81
238.624	73.81
238.858	68.81
239.091	66.81
239.325	77.81
239.559	63.81
239.793	68.81
240.027	79.81
240.26	89.81
240.494	85.81
240.728	77.81
240.961	69.81
241.195	76.81
241.429	66.81
241.662	67.81
241.896	82.81
242.13	77.81
242.363	75.81
242.597	69.81
242.83	88.81
243.064	61.81
243.298	92.81
243.531	77.81
243.765	64.81
243.998	74.81
244.232	70.81
244.465	72.81
244.699	73.81
244.932	71.81
245.166	74.81
245.399	72.81
245.633	83.81
245.866	84.81
246.099	83.81
246.333	81.81
246.566	93.81
246.8	69.81
247.033	72.81
247.266	73.81
247.5	73.81
247.733	75.81
247.966	84.81
248.2	81.81
248.433	84.81
248.666	70.81
248.899	90.81
249.133	78.81
249.366	90.81
249.599	88.81
249.832	79.81
250.066	85.81
250.299	76.81
250.532	83.81
250.765	79.81
250.998	76.81
251.231	74.81
251.465	88.81
251.698	76.81
251.931	77.81
252.164	75.81
252.397	71.81
252.63	82.81
252.863	78.81
253.096	84.81
253.329	69.81
253.562	82.81
253.795	78.81
254.028	92.81
254.261	80.81
254.494	88.81
254.727	100.81
254.96	82.81
255.193	88.81
255.426	84.81
255.659	86.81
255.892	89.81
256.124	78.81
256.357	70.81
256.59	74.81
256.823	77.81
257.056	92.81
257.289	88.81
257.521	92.81
257.754	78.81
257.987	93.81
258.22	86.81
258.452	84.81
258.685	79.81
258.918	71.81
259.151	73.81
259.383	83.81
259.616	78.81
259.849	73.81
260.081	83.81
260.314	80.81
260.547	82.81
260.779	81.81
261.012	84.81
261.244	74.81
261.477	90.81
261.71	68.81
261.942	91.81
262.175	81.81
262.407	73.81
262.64	82.81
262.872	86.81
263.105	76.81
263.337	85.81
263.57	100.81
263.802	89.81
264.035	84.81
264.267	76.81
264.499	80.81
264.732	69.81
264.964	75.81
265.197	94.81
265.429	85.81
265.661	78.81
265.894	75.81
266.126	90.81
266.358	79.81
266.591	93.81
266.823	79.81
267.055	82.81
267.287	86.81
267.52	84.81
267.752	90.81
267.984	84.81
268.216	91.81
268.448	81.81
268.681	79.81
268.913	78.81
269.145	77.81
269.377	82.81
269.609	83.81
269.841	71.81
270.073	87.81
270.306	96.81
270.538	86.81
270.77	74.81
271.002	77.81
271.234	88.81
271.466	82.81
271.698	100.81
271.93	86.81
272.162	87.81
272.394	78.81
272.626	74.81
272.858	95.81
273.09	74.81
273.322	86.81
273.553	97.81
273.785	83.81
274.017	90.81
274.249	81.81
274.481	84.81
274.713	86.81
274.945	69.81
275.176	78.81
275.408	87.81
275.64	78.81
275.872	82.81
276.104	82.81
276.335	86.81
276.567	90.81
276.799	82.81
277.031	91.81
277.262	77.81
277.494	83.81
277.726	72.81
277.957	87.81
278.189	83.81
278.421	95.81
278.652	76.81
278.884	87.81
279.115	73.81
279.347	80.81
279.579	83.81
279.81	81.81
280.042	82.81
280.273	79.81
280.505	80.81
280.736	89.81
280.968	92.81
281.199	84.81
281.431	94.81
281.662	101.81
281.894	80.81
282.125	82.81
282.356	87.81
282.588	93.81
282.819	97.81
283.051	93.81
283.282	106.81
283.513	89.81
283.745	97.81
283.976	93.81
284.207	88.81
284.439	89.81
284.67	85.81
284.901	88.81
285.132	89.81
285.364	80.81
285.595	90.81
285.826	98.81
286.057	90.81
286.288	86.81
286.52	74.81
286.751	80.81
286.982	83.81
287.213	86.81
287.444	95.81
287.675	74.81
287.906	69.81
288.138	86.81
288.369	76.81
288.6	93.81
288.831	90.81
289.062	90.81
289.293	98.81
289.524	75.81
289.755	91.81
289.986	88.81
290.217	86.81
290.448	86.81
290.679	86.81
290.91	89.81
291.141	93.81
291.371	92.81
291.602	98.81
291.833	86.81
292.064	99.81
292.295	70.81
292.526	89.81
292.757	85.81
292.987	73.81
293.218	74.81
293.449	89.81
293.68	94.81
293.91	83.81
294.141	80.81
294.372	81.81
294.603	91.81
294.833	74.81
295.064	86.81
295.295	80.81
295.525	78.81
295.756	89.81
295.987	80.81
296.217	82.81
296.448	82.81
296.679	75.81
296.909	85.81
297.14	87.81
297.37	95.81
297.601	96.81
297.831	89.81
298.062	79.81
298.292	90.81
298.523	91.81
298.753	95.81
298.984	93.81
299.214	100.81
299.445	91.81
299.675	98.81
299.905	97.81
300.136	94.81
300.366	88.81
300.597	83.81
300.827	86.81
301.057	90.81
301.288	110.81
301.518	97.81
301.748	91.81
301.979	85.81
302.209	98.81
302.439	94.81
302.669	100.81
302.9	77.81
303.13	90.81
303.36	87.81
303.59	106.81
303.82	101.81
304.051	98.81
304.281	92.81
304.511	103.81
304.741	92.81
304.971	87.81
305.201	104.81
305.431	93.81
305.661	83.81
305.891	82.81
306.121	89.81
306.352	98.81
306.582	82.81
306.812	93.81
307.042	84.81
307.272	92.81
307.502	87.81
307.731	82.81
307.961	103.81
308.191	87.81
308.421	82.81
308.651	89.81
308.881	94.81
309.111	84.81
309.341	81.81
309.571	88.81
309.8	82.81
310.03	95.81
310.26	104.81
310.49	81.81
310.72	97.81
310.949	89.81
311.179	81.81
311.409	96.81
311.639	88.81
311.868	93.81
312.098	93.81
312.328	83.81
312.557	94.81
312.787	80.81
313.017	95.81
313.246	80.81
313.476	85.81
313.706	95.81
313.935	94.81
314.165	102.81
314.394	96.81
314.624	89.81
314.853	86.81
315.083	80.81
315.312	79.81
315.542	102.81
315.771	99.81
316.001	84.81
316.23	87.81
316.46	90.81
316.689	84.81
316.919	100.81
317.148	101.81
317.377	81.81
317.607	89.81
317.836	106.81
318.065	85.81
318.295	92.81
318.524	77.81
318.753	87.81
318.983	84.81
319.212	83.81
319.441	99.81
319.67	94.81
319.9	96.81
320.129	95.81
320.358	100.81
320.587	87.81
320.816	92.81
321.046	80.81
321.275	89.81
321.504	84.81
321.733	97.81
321.962	80.81
322.191	85.81
322.42	98.81
322.649	82.81
322.878	88.81
323.108	87.81
323.337	99.81
323.566	95.81
323.795	92.81
324.024	85.81
324.253	86.81
324.482	82.81
324.71	81.81
324.939	89.81
325.168	100.81
325.397	78.81
325.626	89.81
325.855	88.81
326.084	93.81
326.313	96.81
326.542	84.81
326.77	91.81
326.999	87.81
327.228	85.81
327.457	94.81
327.686	99.81
327.914	73.81
328.143	87.81
328.372	80.81
328.6	86.81
328.829	92.81
329.058	96.81
329.287	85.81
329.515	90.81
329.744	95.81
329.972	85.81
330.201	101.81
330.43	97.81
330.658	83.81
330.887	83.81
331.115	88.81
331.344	95.81
331.572	100.81
331.801	91.81
332.03	92.81
332.258	83.81
332.486	101.81
332.715	107.81
332.943	99.81
333.172	88.81
333.4	110.81
333.629	101.81
333.857	93.81
334.085	102.81
334.314	86.81
334.542	89.81
334.771	93.81
334.999	93.81
335.227	108.81
335.455	102.81
335.684	89.81
335.912	83.81
336.14	87.81
336.369	80.81
336.597	95.81
336.825	88.81
337.053	87.81
337.281	93.81
337.51	97.81
337.738	93.81
337.966	90.81
338.194	81.81
338.422	84.81
338.65	84.81
338.878	94.81
339.106	93.81
339.334	93.81
339.562	89.81
339.79	94.81
340.018	90.81
340.246	92.81
340.474	85.81
340.702	95.81
340.93	85.81
341.158	91.81
341.386	96.81
341.614	87.81
341.842	111.81
342.07	90.81
342.298	78.81
342.526	88.81
342.754	98.81
342.981	86.81
343.209	95.81
343.437	85.81
343.665	78.81
343.893	95.81
344.12	91.81
344.348	89.81
344.576	91.81
344.804	94.81
345.031	81.81
345.259	95.81
345.487	86.81
345.714	92.81
345.942	88.81
346.17	100.81
346.397	90.81
346.625	88.81
346.853	90.81
347.08	92.81
347.308	109.81
347.535	87.81
347.763	90.81
347.99	95.81
348.218	97.81
348.445	92.81
348.673	99.81
348.9	96.81
349.128	94.81
349.355	88.81
349.583	96.81
349.81	97.81
350.037	81.81
350.265	89.81
350.492	96.81
350.72	87.81
350.947	84.81
351.174	80.81
351.402	81.81
351.629	89.81
351.856	108.81
352.083	88.81
352.311	80.81
352.538	86.81
352.765	80.81
352.992	78.81
353.22	96.81
353.447	93.81
353.674	96.81
353.901	82.81
354.128	79.81
354.355	94.81
354.583	94.81
354.81	93.81
355.037	83.81
355.264	99.81
355.491	91.81
355.718	93.81
355.945	83.81
356.172	85.81
356.399	95.81
356.626	87.81
356.853	100.81
357.08	82.81
357.307	99.81
357.534	90.81
357.761	87.81
357.988	95.81
358.215	74.81
358.441	94.81
358.668	100.81
358.895	105.81
359.122	92.81
359.349	83.81
359.576	99.81
359.802	88.81
360.029	93.81
360.256	92.81
360.483	82.81
360.709	84.81
360.936	95.81
361.163	101.81
361.39	90.81
361.616	93.81
361.843	94.81
362.07	102.81
362.296	92.81
362.523	75.81
362.749	93.81
362.976	90.81
363.203	99.81
363.429	87.81
363.656	89.81
363.882	92.81
364.109	96.81
364.335	94.81
364.562	94.81
364.788	96.81
365.015	88.81
365.241	102.81
365.468	87.81
365.694	95.81
365.92	89.81
366.147	89.81
366.373	95.81
366.599	95.81
366.826	88.81
367.052	70.81
367.278	92.81
367.505	90.81
367.731	90.81
367.957	78.81
368.184	96.81
368.41	89.81
368.636	92.81
368.862	91.81
369.089	90.81
369.315	81.81
369.541	83.81
369.767	95.81
369.993	74.81
370.219	101.81
370.445	96.81
370.672	80.81
370.898	87.81
371.124	87.81
371.35	105.81
371.576	97.81
371.802	77.81
372.028	103.81
372.254	93.81
372.48	86.81
372.706	80.81
372.932	102.81
373.158	97.81
373.384	91.81
373.61	102.81
373.835	94.81
374.061	91.81
374.287	93.81
374.513	101.81
374.739	84.81
374.965	88.81
375.191	81.81
375.416	95.81
375.642	97.81
375.868	81.81
376.094	95.81
376.319	84.81
376.545	99.81
376.771	95.81
376.997	89.81
377.222	86.81
377.448	88.81
377.674	101.81
377.899	87.81
378.125	94.81
378.35	88.81
378.576	103.81
378.802	100.81
379.027	99.81
379.253	96.81
379.478	97.81
379.704	103.81
379.929	74.81
380.155	89.81
380.38	104.81
380.606	87.81
380.831	91.81
381.057	89.81
381.282	92.81
381.507	96.81
381.733	102.81
381.958	103.81
382.184	85.81
382.409	104.81
382.634	88.81
382.86	90.81
383.085	104.81
383.31	86.81
383.535	91.81
383.761	101.81
383.986	100.81
384.211	78.81
384.436	91.81
384.662	102.81
384.887	100.81
385.112	103.81
385.337	86.81
385.562	93.81
385.787	93.81
386.013	100.81
386.238	108.81
386.463	96.81
386.688	100.81
386.913	93.81
387.138	104.81
387.363	88.81
387.588	108.81
387.813	96.81
388.038	76.81
388.263	96.81
388.488	87.81
388.713	93.81
388.938	93.81
389.163	82.81
389.387	105.81
389.612	77.81
389.837	86.81
390.062	92.81
390.287	85.81
390.512	73.81
390.736	92.81
390.961	91.81
391.186	78.81
391.411	89.81
391.636	102.81
391.86	100.81
392.085	88.81
392.31	97.81
392.534	101.81
392.759	98.81
392.984	94.81
393.208	86.81
393.433	86.81
393.658	90.81
393.882	97.81
394.107	89.81
394.331	98.81
394.556	92.81
394.78	89.81
395.005	99.81
395.229	111.81
395.454	108.81
395.678	86.81
395.903	76.81
396.127	97.81
396.352	92.81
396.576	105.81
396.801	101.81
397.025	98.81
397.249	87.81
397.474	105.81
397.698	100.81
397.922	83.81
398.147	89.81
398.371	100.81
398.595	99.81
398.82	94.81
399.044	105.81
399.268	99.81
399.492	87.81
399.717	94.81
399.941	99.81
400.165	86.81
400.389	100.81
400.613	98.81
400.837	87.81
401.062	103.81
401.286	99.81
401.51	105.81
401.734	97.81
401.958	86.81
402.182	103.81
402.406	98.81
402.63	95.81
402.854	74.81
403.078	88.81
403.302	98.81
403.526	91.81
403.75	116.81
403.974	90.81
404.198	106.81
404.422	96.81
404.645	95.81
404.869	109.81
405.093	111.81
405.317	99.81
405.541	103.81
405.765	94.81
405.988	94.81
406.212	97.81
406.436	103.81
406.66	93.81
406.883	99.81
407.107	94.81
407.331	116.81
407.555	106.81
407.778	101.81
408.002	90.81
408.226	105.81
408.449	105.81
408.673	91.81
408.896	105.81
409.12	99.81
409.344	94.81
409.567	94.81
409.791	89.81
410.014	105.81
410.238	116.81
410.461	95.81
410.685	98.81
410.908	99.81
411.132	93.81
411.355	82.81
411.578	85.81
411.802	99.81
412.025	94.81
412.249	86.81
412.472	105.81
412.695	102.81
412.919	99.81
413.142	94.81
413.365	98.81
413.589	88.81
413.812	86.81
414.035	88.81
414.258	98.81
414.482	100.81
414.705	82.81
414.928	90.81
415.151	103.81
415.374	92.81
415.597	106.81
415.821	103.81
416.044	95.81
416.267	88.81
416.49	101.81
416.713	89.81
416.936	96.81
417.159	98.81
417.382	107.81
417.605	91.81
417.828	89.81
418.051	96.81
418.274	90.81
418.497	87.81
418.72	88.81
418.943	109.81
419.166	93.81
419.389	110.81
419.611	109.81
419.834	87.81
420.057	85.81
420.28	96.81
420.503	88.81
420.726	94.81
420.948	110.81
421.171	94.81
421.394	88.81
421.617	100.81
421.839	82.81
422.062	103.81
422.285	94.81
422.507	98.81
422.73	112.81
422.953	90.81
423.175	116.81
423.398	96.81
423.621	93.81
423.843	75.81
424.066	86.81
424.288	100.81
424.511	88.81
424.733	103.81
424.956	93.81
425.178	80.81
425.401	101.81
425.623	97.81
425.846	105.81
426.068	102.81
426.291	92.81
426.513	84.81
426.735	107.81
426.958	101.81
427.18	94.81
427.402	90.81
427.625	91.81
427.847	86.81
428.069	100.81
428.292	107.81
428.514	88.81
428.736	89.81
428.958	93.81
429.181	91.81
429.403	89.81
429.625	99.81
429.847	103.81
430.069	96.81
430.292	99.81
430.514	86.81
430.736	93.81
430.958	93.81
431.18	99.81
431.402	83.81
431.624	90.81
431.846	94.81
432.068	93.81
432.29	96.81
432.512	103.81
432.734	86.81
432.956	82.81
433.178	100.81
433.4	100.81
433.622	98.81
433.844	101.81
434.066	85.81
434.287	104.81
434.509	101.81
434.731	108.81
434.953	87.81
435.175	95.81
435.397	98.81
435.618	97.81
435.84	85.81
436.062	86.81
436.284	95.81
436.505	84.81
436.727	98.81
436.949	91.81
437.17	95.81
437.392	90.81
437.614	96.81
437.835	82.81
438.057	92.81
438.278	88.81
438.5	90.81
438.721	103.81
438.943	96.81
439.165	90.81
439.386	96.81
439.608	86.81
439.829	89.81
440.05	97.81
440.272	88.81
440.493	92.81
440.715	92.81
440.936	97.81
441.158	102.81
441.379	87.81
441.6	95.81
441.822	106.81
442.043	94.81
442.264	93.81
442.486	91.81
442.707	95.81
442.928	86.81
443.149	98.81
443.371	105.81
443.592	79.81
443.813	99.81
444.034	99.81
444.255	94.81
444.476	99.81
444.698	104.81
444.919	93.81
445.14	185.81
445.361	137.81
445.582	92.81
445.803	92.81
446.024	89.81
446.245	84.81
446.466	94.81
446.687	85.81
446.908	90.81
447.129	92.81
447.35	98.81
447.571	88.81
447.792	89.81
448.013	86.81
448.234	93.81
448.455	89.81
448.675	78.81
448.896	93.81
449.117	95.81
449.338	83.81
449.559	100.81
449.779	88.81
450	81.81
450.221	104.81
450.442	88.81
450.662	80.81
450.883	89.81
451.104	92.81
451.324	81.81
451.545	95.81
451.766	72.81
451.986	92.81
452.207	80.81
452.428	89.81
452.648	94.81
452.869	78.81
453.089	80.81
453.31	89.81
453.53	97.81
453.751	85.81
453.971	104.81
454.192	97.81
454.412	88.81
454.633	79.81
454.853	95.81
455.073	93.81
455.294	95.81
455.514	88.81
455.734	86.81
455.955	93.81
456.175	88.81
456.395	113.81
456.616	90.81
456.836	85.81
457.056	90.81
457.276	83.81
457.497	96.81
457.717	92.81
457.937	92.81
458.157	80.81
458.377	94.81
458.598	89.81
458.818	84.81
459.038	104.81
459.258	99.81
459.478	99.81
459.698	94.81
459.918	72.81
460.138	95.81
460.358	93.81
460.578	100.81
460.798	92.81
461.018	108.81
461.238	79.81
461.458	76.81
461.678	101.81
461.898	88.81
462.118	86.81
462.338	109.81
462.558	103.81
462.777	98.81
462.997	104.81
463.217	88.81
463.437	86.81
463.657	100.81
463.876	95.81
464.096	99.81
464.316	89.81
464.536	96.81
464.755	104.81
464.975	97.81
465.195	98.81
465.414	97.81
465.634	82.81
465.854	102.81
466.073	111.81
466.293	105.81
466.512	102.81
466.732	105.81
466.951	100.81
467.171	92.81
467.391	88.81
467.61	98.81
467.829	85.81
468.049	94.81
468.268	89.81
468.488	102.81
468.707	104.81
468.927	95.81
469.146	97.81
469.365	98.81
469.585	95.81
469.804	91.81
470.023	93.81
470.243	116.81
470.462	102.81
470.681	90.81
470.901	89.81
471.12	110.81
471.339	98.81
471.558	88.81
471.777	106.81
471.997	82.81
472.216	101.81
472.435	88.81
472.654	97.81
472.873	112.81
473.092	94.81
473.311	90.81
473.53	97.81
473.749	104.81
473.968	89.81
474.187	105.81
474.406	83.81
474.625	96.81
474.844	89.81
475.063	96.81
475.282	104.81
475.501	91.81
475.72	115.81
475.939	92.81
476.158	90.81
476.377	89.81
476.596	101.81
476.814	104.81
477.033	93.81
477.252	89.81
477.471	99.81
477.69	89.81
477.908	108.81
478.127	103.81
478.346	97.81
478.564	118.81
478.783	99.81
479.002	98.81
479.22	114.81
479.439	115.81
479.658	108.81
479.876	95.81
480.095	98.81
480.313	94.81
480.532	99.81
480.751	115.81
480.969	104.81
481.188	101.81
481.406	93.81
481.624	105.81
481.843	93.81
482.061	109.81
482.28	96.81
482.498	109.81
482.717	98.81
482.935	99.81
483.153	105.81
483.372	94.81
483.59	132.81
483.808	112.81
484.027	113.81
484.245	107.81
484.463	103.81
484.681	120.81
484.9	102.81
485.118	96.81
485.336	104.81
485.554	112.81
485.772	101.81
485.99	108.81
486.209	108.81
486.427	105.81
486.645	111.81
486.863	98.81
487.081	102.81
487.299	108.81
487.517	108.81
487.735	94.81
487.953	116.81
488.171	118.81
488.389	97.81
488.607	105.81
488.825	100.81
489.043	102.81
489.261	104.81
489.479	108.81
489.696	97.81
489.914	102.81
490.132	98.81
490.35	106.81
490.568	117.81
490.786	96.81
491.003	103.81
491.221	106.81
491.439	104.81
491.657	108.81
491.874	98.81
492.092	107.81
492.31	132.81
492.527	124.81
492.745	118.81
492.963	120.81
493.18	117.81
493.398	108.81
493.615	120.81
493.833	103.81
494.05	104.81
494.268	113.81
494.485	113.81
494.703	99.81
494.92	118.81
495.138	114.81
495.355	112.81
495.573	113.81
495.79	92.81
496.008	110.81
496.225	128.81
496.442	117.81
496.66	108.81
496.877	118.81
497.094	115.81
497.312	108.81
497.529	114.81
497.746	101.81
497.963	95.81
498.181	125.81
498.398	98.81
498.615	119.81
498.832	132.81
499.049	116.81
499.267	126.81
499.484	127.81
499.701	135.81
499.918	159.81
500.135	134.81
500.352	161.81
500.569	168.81
500.786	162.81
501.003	159.81
501.22	142.81
501.437	140.81
501.654	131.81
501.871	110.81
502.088	109.81
502.305	125.81
502.522	125.81
502.739	101.81
502.956	109.81
503.172	101.81
503.389	134.81
503.606	106.81
503.823	110.81
504.04	109.81
504.256	112.81
504.473	111.81
504.69	121.81
504.907	113.81
505.123	96.81
505.34	121.81
505.557	108.81
505.773	114.81
505.99	112.81
506.207	98.81
506.423	89.81
506.64	110.81
506.856	110.81
507.073	100.81
507.289	100.81
507.506	106.81
507.722	98.81
507.939	117.81
508.155	100.81
508.372	95.81
508.588	106.81
508.805	104.81
509.021	119.81
509.238	99.81
509.454	94.81
509.67	99.81
509.887	102.81
510.103	96.81
510.319	89.81
510.536	85.81
510.752	90.81
510.968	99.81
511.184	98.81
511.401	95.81
511.617	102.81
511.833	76.81
512.049	84.81
512.265	95.81
512.481	94.81
512.698	100.81
512.914	92.81
513.13	91.81
513.346	102.81
513.562	87.81
513.778	104.81
513.994	108.81
514.21	97.81
514.426	93.81
514.642	93.81
514.858	100.81
515.074	89.81
515.29	92.81
