Data from Location5.07152019.Energy5.Lamp.07192019.3%Agarose_HRD10591_16-03-04-628.txt Node
Date: Fri Jul 19 16:03:04 EDT 2019
User: cochatt
Spectrometer: HR+D1059
Trigger mode: 1
Integration Time (sec): 1.000000E-1
Scans to average: 1
Electric dark correction enabled: true
Nonlinearity correction enabled: false
Boxcar width: 0
XAxis mode: Wavelengths
Number of Pixels in Spectrum: 2048
>>>>>Begin Spectral Data<<<<<
223.165	-10.81
223.4	-10.81
223.635	-10.81
223.869	-26.81
224.104	-13.81
224.338	-7.81
224.573	-11.81
224.808	-18.81
225.042	-5.81
225.277	-7.81
225.511	2.19
225.746	7.19
225.98	-6.81
226.215	3.19
226.449	29.19
226.683	15.19
226.918	21.19
227.152	32.19
227.387	25.19
227.621	35.19
227.856	45.19
228.09	35.19
228.324	37.19
228.559	60.19
228.793	51.19
229.027	57.19
229.262	47.19
229.496	59.19
229.73	64.19
229.964	70.19
230.199	72.19
230.433	63.19
230.667	68.19
230.901	58.19
231.136	92.19
231.37	72.19
231.604	69.19
231.838	85.19
232.072	77.19
232.306	82.19
232.541	85.19
232.775	81.19
233.009	84.19
233.243	86.19
233.477	92.19
233.711	96.19
233.945	63.19
234.179	77.19
234.413	81.19
234.647	87.19
234.881	84.19
235.115	87.19
235.349	89.19
235.583	72.19
235.817	83.19
236.051	79.19
236.285	79.19
236.519	66.19
236.753	92.19
236.987	87.19
237.221	74.19
237.455	86.19
237.689	71.19
237.922	64.19
238.156	70.19
238.39	68.19
238.624	91.19
238.858	74.19
239.091	69.19
239.325	77.19
239.559	95.19
239.793	74.19
240.027	70.19
240.26	73.19
240.494	86.19
240.728	85.19
240.961	73.19
241.195	72.19
241.429	75.19
241.662	80.19
241.896	90.19
242.13	80.19
242.363	82.19
242.597	78.19
242.83	69.19
243.064	74.19
243.298	91.19
243.531	88.19
243.765	81.19
243.998	69.19
244.232	74.19
244.465	74.19
244.699	74.19
244.932	76.19
245.166	81.19
245.399	84.19
245.633	59.19
245.866	76.19
246.099	84.19
246.333	75.19
246.566	86.19
246.8	78.19
247.033	80.19
247.266	74.19
247.5	78.19
247.733	77.19
247.966	100.19
248.2	82.19
248.433	78.19
248.666	91.19
248.899	92.19
249.133	86.19
249.366	85.19
249.599	79.19
249.832	78.19
250.066	73.19
250.299	89.19
250.532	81.19
250.765	74.19
250.998	85.19
251.231	79.19
251.465	85.19
251.698	87.19
251.931	78.19
252.164	83.19
252.397	78.19
252.63	92.19
252.863	78.19
253.096	82.19
253.329	81.19
253.562	69.19
253.795	83.19
254.028	80.19
254.261	82.19
254.494	79.19
254.727	80.19
254.96	86.19
255.193	86.19
255.426	92.19
255.659	76.19
255.892	76.19
256.124	77.19
256.357	71.19
256.59	80.19
256.823	70.19
257.056	78.19
257.289	91.19
257.521	84.19
257.754	79.19
257.987	86.19
258.22	102.19
258.452	90.19
258.685	78.19
258.918	91.19
259.151	71.19
259.383	101.19
259.616	76.19
259.849	78.19
260.081	89.19
260.314	80.19
260.547	77.19
260.779	87.19
261.012	77.19
261.244	69.19
261.477	102.19
261.71	82.19
261.942	76.19
262.175	95.19
262.407	80.19
262.64	85.19
262.872	85.19
263.105	68.19
263.337	82.19
263.57	77.19
263.802	82.19
264.035	103.19
264.267	86.19
264.499	68.19
264.732	83.19
264.964	74.19
265.197	83.19
265.429	78.19
265.661	74.19
265.894	87.19
266.126	92.19
266.358	80.19
266.591	78.19
266.823	94.19
267.055	79.19
267.287	83.19
267.52	67.19
267.752	88.19
267.984	102.19
268.216	76.19
268.448	71.19
268.681	78.19
268.913	86.19
269.145	93.19
269.377	103.19
269.609	77.19
269.841	81.19
270.073	78.19
270.306	90.19
270.538	83.19
270.77	100.19
271.002	75.19
271.234	84.19
271.466	75.19
271.698	94.19
271.93	88.19
272.162	79.19
272.394	97.19
272.626	77.19
272.858	100.19
273.09	77.19
273.322	86.19
273.553	83.19
273.785	81.19
274.017	82.19
274.249	86.19
274.481	81.19
274.713	93.19
274.945	69.19
275.176	94.19
275.408	95.19
275.64	88.19
275.872	102.19
276.104	95.19
276.335	92.19
276.567	100.19
276.799	88.19
277.031	101.19
277.262	85.19
277.494	105.19
277.726	80.19
277.957	80.19
278.189	85.19
278.421	80.19
278.652	92.19
278.884	91.19
279.115	85.19
279.347	81.19
279.579	92.19
279.81	81.19
280.042	88.19
280.273	80.19
280.505	77.19
280.736	86.19
280.968	94.19
281.199	86.19
281.431	72.19
281.662	96.19
281.894	82.19
282.125	91.19
282.356	91.19
282.588	82.19
282.819	80.19
283.051	88.19
283.282	81.19
283.513	95.19
283.745	89.19
283.976	90.19
284.207	80.19
284.439	91.19
284.67	97.19
284.901	90.19
285.132	100.19
285.364	90.19
285.595	78.19
285.826	75.19
286.057	96.19
286.288	83.19
286.52	89.19
286.751	89.19
286.982	74.19
287.213	78.19
287.444	98.19
287.675	72.19
287.906	83.19
288.138	88.19
288.369	77.19
288.6	84.19
288.831	82.19
289.062	84.19
289.293	92.19
289.524	85.19
289.755	90.19
289.986	91.19
290.217	86.19
290.448	93.19
290.679	77.19
290.91	94.19
291.141	86.19
291.371	98.19
291.602	104.19
291.833	102.19
292.064	95.19
292.295	84.19
292.526	99.19
292.757	81.19
292.987	77.19
293.218	73.19
293.449	86.19
293.68	92.19
293.91	84.19
294.141	89.19
294.372	88.19
294.603	91.19
294.833	89.19
295.064	80.19
295.295	101.19
295.525	92.19
295.756	90.19
295.987	93.19
296.217	84.19
296.448	95.19
296.679	92.19
296.909	95.19
297.14	87.19
297.37	105.19
297.601	89.19
297.831	81.19
298.062	92.19
298.292	92.19
298.523	84.19
298.753	95.19
298.984	83.19
299.214	103.19
299.445	77.19
299.675	73.19
299.905	91.19
300.136	87.19
300.366	82.19
300.597	77.19
300.827	94.19
301.057	112.19
301.288	85.19
301.518	94.19
301.748	94.19
301.979	83.19
302.209	81.19
302.439	85.19
302.669	90.19
302.9	82.19
303.13	93.19
303.36	86.19
303.59	94.19
303.82	82.19
304.051	88.19
304.281	73.19
304.511	98.19
304.741	97.19
304.971	91.19
305.201	105.19
305.431	79.19
305.661	88.19
305.891	86.19
306.121	90.19
306.352	90.19
306.582	78.19
306.812	80.19
307.042	80.19
307.272	86.19
307.502	82.19
307.731	84.19
307.961	80.19
308.191	80.19
308.421	92.19
308.651	85.19
308.881	98.19
309.111	89.19
309.341	91.19
309.571	91.19
309.8	92.19
310.03	87.19
310.26	94.19
310.49	103.19
310.72	97.19
310.949	94.19
311.179	80.19
311.409	76.19
311.639	86.19
311.868	95.19
312.098	84.19
312.328	82.19
312.557	87.19
312.787	96.19
313.017	92.19
313.246	97.19
313.476	85.19
313.706	96.19
313.935	86.19
314.165	92.19
314.394	100.19
314.624	89.19
314.853	89.19
315.083	88.19
315.312	88.19
315.542	74.19
315.771	88.19
316.001	89.19
316.23	92.19
316.46	100.19
316.689	88.19
316.919	91.19
317.148	92.19
317.377	98.19
317.607	98.19
317.836	94.19
318.065	85.19
318.295	99.19
318.524	94.19
318.753	96.19
318.983	92.19
319.212	87.19
319.441	93.19
319.67	94.19
319.9	95.19
320.129	82.19
320.358	102.19
320.587	84.19
320.816	91.19
321.046	87.19
321.275	87.19
321.504	93.19
321.733	85.19
321.962	88.19
322.191	97.19
322.42	82.19
322.649	85.19
322.878	89.19
323.108	91.19
323.337	98.19
323.566	90.19
323.795	88.19
324.024	85.19
324.253	101.19
324.482	97.19
324.71	88.19
324.939	88.19
325.168	98.19
325.397	84.19
325.626	78.19
325.855	93.19
326.084	94.19
326.313	85.19
326.542	87.19
326.77	89.19
326.999	95.19
327.228	89.19
327.457	99.19
327.686	88.19
327.914	101.19
328.143	93.19
328.372	93.19
328.6	97.19
328.829	92.19
329.058	79.19
329.287	64.19
329.515	103.19
329.744	96.19
329.972	85.19
330.201	85.19
330.43	93.19
330.658	88.19
330.887	88.19
331.115	90.19
331.344	78.19
331.572	100.19
331.801	90.19
332.03	78.19
332.258	89.19
332.486	92.19
332.715	99.19
332.943	85.19
333.172	85.19
333.4	80.19
333.629	96.19
333.857	101.19
334.085	114.19
334.314	94.19
334.542	88.19
334.771	101.19
334.999	108.19
335.227	82.19
335.455	86.19
335.684	96.19
335.912	102.19
336.14	87.19
336.369	104.19
336.597	91.19
336.825	96.19
337.053	86.19
337.281	95.19
337.51	98.19
337.738	84.19
337.966	86.19
338.194	108.19
338.422	94.19
338.65	99.19
338.878	95.19
339.106	90.19
339.334	93.19
339.562	88.19
339.79	90.19
340.018	97.19
340.246	89.19
340.474	89.19
340.702	107.19
340.93	95.19
341.158	80.19
341.386	95.19
341.614	91.19
341.842	94.19
342.07	85.19
342.298	78.19
342.526	89.19
342.754	88.19
342.981	89.19
343.209	89.19
343.437	97.19
343.665	82.19
343.893	96.19
344.12	94.19
344.348	78.19
344.576	74.19
344.804	91.19
345.031	84.19
345.259	88.19
345.487	84.19
345.714	98.19
345.942	110.19
346.17	84.19
346.397	96.19
346.625	80.19
346.853	103.19
347.08	103.19
347.308	93.19
347.535	93.19
347.763	97.19
347.99	86.19
348.218	92.19
348.445	89.19
348.673	76.19
348.9	87.19
349.128	95.19
349.355	78.19
349.583	94.19
349.81	84.19
350.037	91.19
350.265	100.19
350.492	85.19
350.72	80.19
350.947	95.19
351.174	85.19
351.402	107.19
351.629	89.19
351.856	87.19
352.083	87.19
352.311	102.19
352.538	77.19
352.765	97.19
352.992	75.19
353.22	99.19
353.447	94.19
353.674	96.19
353.901	92.19
354.128	89.19
354.355	80.19
354.583	99.19
354.81	94.19
355.037	78.19
355.264	100.19
355.491	94.19
355.718	82.19
355.945	86.19
356.172	80.19
356.399	89.19
356.626	97.19
356.853	99.19
357.08	90.19
357.307	101.19
357.534	76.19
357.761	96.19
357.988	108.19
358.215	100.19
358.441	91.19
358.668	95.19
358.895	80.19
359.122	77.19
359.349	98.19
359.576	85.19
359.802	94.19
360.029	102.19
360.256	103.19
360.483	108.19
360.709	86.19
360.936	95.19
361.163	76.19
361.39	77.19
361.616	89.19
361.843	77.19
362.07	95.19
362.296	91.19
362.523	97.19
362.749	94.19
362.976	89.19
363.203	85.19
363.429	93.19
363.656	90.19
363.882	98.19
364.109	97.19
364.335	89.19
364.562	101.19
364.788	86.19
365.015	87.19
365.241	92.19
365.468	92.19
365.694	100.19
365.92	99.19
366.147	82.19
366.373	90.19
366.599	102.19
366.826	98.19
367.052	91.19
367.278	86.19
367.505	110.19
367.731	94.19
367.957	97.19
368.184	106.19
368.41	94.19
368.636	93.19
368.862	101.19
369.089	79.19
369.315	92.19
369.541	96.19
369.767	82.19
369.993	87.19
370.219	86.19
370.445	95.19
370.672	92.19
370.898	97.19
371.124	81.19
371.35	82.19
371.576	77.19
371.802	90.19
372.028	96.19
372.254	94.19
372.48	85.19
372.706	87.19
372.932	102.19
373.158	99.19
373.384	86.19
373.61	79.19
373.835	89.19
374.061	85.19
374.287	87.19
374.513	107.19
374.739	110.19
374.965	110.19
375.191	73.19
375.416	101.19
375.642	80.19
375.868	92.19
376.094	87.19
376.319	85.19
376.545	90.19
376.771	96.19
376.997	100.19
377.222	89.19
377.448	88.19
377.674	92.19
377.899	83.19
378.125	99.19
378.35	90.19
378.576	78.19
378.802	93.19
379.027	93.19
379.253	92.19
379.478	87.19
379.704	95.19
379.929	100.19
380.155	81.19
380.38	87.19
380.606	89.19
380.831	94.19
381.057	89.19
381.282	92.19
381.507	87.19
381.733	91.19
381.958	86.19
382.184	86.19
382.409	92.19
382.634	98.19
382.86	78.19
383.085	104.19
383.31	99.19
383.535	89.19
383.761	86.19
383.986	105.19
384.211	90.19
384.436	91.19
384.662	93.19
384.887	89.19
385.112	98.19
385.337	94.19
385.562	101.19
385.787	92.19
386.013	92.19
386.238	105.19
386.463	94.19
386.688	86.19
386.913	93.19
387.138	98.19
387.363	106.19
387.588	88.19
387.813	101.19
388.038	103.19
388.263	86.19
388.488	89.19
388.713	98.19
388.938	88.19
389.163	93.19
389.387	88.19
389.612	105.19
389.837	85.19
390.062	88.19
390.287	98.19
390.512	97.19
390.736	94.19
390.961	100.19
391.186	89.19
391.411	99.19
391.636	103.19
391.86	87.19
392.085	89.19
392.31	82.19
392.534	97.19
392.759	103.19
392.984	105.19
393.208	84.19
393.433	100.19
393.658	102.19
393.882	92.19
394.107	83.19
394.331	104.19
394.556	100.19
394.78	89.19
395.005	85.19
395.229	97.19
395.454	101.19
395.678	93.19
395.903	86.19
396.127	94.19
396.352	93.19
396.576	94.19
396.801	107.19
397.025	104.19
397.249	105.19
397.474	89.19
397.698	89.19
397.922	92.19
398.147	92.19
398.371	92.19
398.595	96.19
398.82	103.19
399.044	105.19
399.268	104.19
399.492	103.19
399.717	104.19
399.941	105.19
400.165	113.19
400.389	104.19
400.613	98.19
400.837	108.19
401.062	85.19
401.286	88.19
401.51	105.19
401.734	98.19
401.958	96.19
402.182	101.19
402.406	94.19
402.63	101.19
402.854	99.19
403.078	95.19
403.302	102.19
403.526	92.19
403.75	109.19
403.974	94.19
404.198	110.19
404.422	103.19
404.645	95.19
404.869	115.19
405.093	96.19
405.317	105.19
405.541	80.19
405.765	88.19
405.988	103.19
406.212	102.19
406.436	97.19
406.66	112.19
406.883	89.19
407.107	110.19
407.331	88.19
407.555	106.19
407.778	96.19
408.002	106.19
408.226	89.19
408.449	98.19
408.673	87.19
408.896	92.19
409.12	101.19
409.344	96.19
409.567	86.19
409.791	97.19
410.014	91.19
410.238	93.19
410.461	94.19
410.685	104.19
410.908	94.19
411.132	100.19
411.355	87.19
411.578	94.19
411.802	91.19
412.025	88.19
412.249	106.19
412.472	106.19
412.695	102.19
412.919	108.19
413.142	101.19
413.365	99.19
413.589	95.19
413.812	84.19
414.035	83.19
414.258	106.19
414.482	102.19
414.705	103.19
414.928	96.19
415.151	86.19
415.374	101.19
415.597	92.19
415.821	85.19
416.044	85.19
416.267	69.19
416.49	91.19
416.713	102.19
416.936	96.19
417.159	103.19
417.382	92.19
417.605	89.19
417.828	94.19
418.051	100.19
418.274	93.19
418.497	93.19
418.72	94.19
418.943	92.19
419.166	109.19
419.389	92.19
419.611	96.19
419.834	94.19
420.057	92.19
420.28	92.19
420.503	104.19
420.726	89.19
420.948	88.19
421.171	98.19
421.394	76.19
421.617	85.19
421.839	109.19
422.062	99.19
422.285	101.19
422.507	96.19
422.73	87.19
422.953	97.19
423.175	91.19
423.398	94.19
423.621	105.19
423.843	91.19
424.066	83.19
424.288	102.19
424.511	86.19
424.733	104.19
424.956	82.19
425.178	102.19
425.401	83.19
425.623	97.19
425.846	92.19
426.068	102.19
426.291	86.19
426.513	96.19
426.735	113.19
426.958	89.19
427.18	109.19
427.402	110.19
427.625	105.19
427.847	84.19
428.069	117.19
428.292	92.19
428.514	101.19
428.736	95.19
428.958	86.19
429.181	81.19
429.403	103.19
429.625	78.19
429.847	87.19
430.069	82.19
430.292	99.19
430.514	93.19
430.736	104.19
430.958	109.19
431.18	94.19
431.402	103.19
431.624	83.19
431.846	95.19
432.068	96.19
432.29	100.19
432.512	104.19
432.734	100.19
432.956	96.19
433.178	101.19
433.4	104.19
433.622	96.19
433.844	98.19
434.066	89.19
434.287	99.19
434.509	104.19
434.731	94.19
434.953	100.19
435.175	111.19
435.397	90.19
435.618	100.19
435.84	105.19
436.062	82.19
436.284	108.19
436.505	85.19
436.727	85.19
436.949	81.19
437.17	93.19
437.392	96.19
437.614	100.19
437.835	87.19
438.057	78.19
438.278	97.19
438.5	87.19
438.721	104.19
438.943	109.19
439.165	95.19
439.386	88.19
439.608	95.19
439.829	101.19
440.05	99.19
440.272	80.19
440.493	89.19
440.715	85.19
440.936	94.19
441.158	102.19
441.379	114.19
441.6	94.19
441.822	71.19
442.043	92.19
442.264	94.19
442.486	103.19
442.707	94.19
442.928	99.19
443.149	98.19
443.371	109.19
443.592	91.19
443.813	102.19
444.034	96.19
444.255	99.19
444.476	79.19
444.698	98.19
444.919	115.19
445.14	219.19
445.361	146.19
445.582	98.19
445.803	102.19
446.024	84.19
446.245	92.19
446.466	93.19
446.687	100.19
446.908	88.19
447.129	86.19
447.35	82.19
447.571	98.19
447.792	99.19
448.013	90.19
448.234	98.19
448.455	104.19
448.675	101.19
448.896	86.19
449.117	84.19
449.338	92.19
449.559	86.19
449.779	79.19
450	90.19
450.221	95.19
450.442	97.19
450.662	89.19
450.883	102.19
451.104	93.19
451.324	87.19
451.545	86.19
451.766	95.19
451.986	81.19
452.207	99.19
452.428	90.19
452.648	98.19
452.869	85.19
453.089	94.19
453.31	84.19
453.53	88.19
453.751	106.19
453.971	91.19
454.192	103.19
454.412	97.19
454.633	94.19
454.853	98.19
455.073	95.19
455.294	90.19
455.514	98.19
455.734	91.19
455.955	80.19
456.175	85.19
456.395	101.19
456.616	96.19
456.836	93.19
457.056	82.19
457.276	86.19
457.497	91.19
457.717	98.19
457.937	91.19
458.157	101.19
458.377	83.19
458.598	102.19
458.818	89.19
459.038	92.19
459.258	94.19
459.478	80.19
459.698	89.19
459.918	93.19
460.138	101.19
460.358	101.19
460.578	105.19
460.798	100.19
461.018	86.19
461.238	89.19
461.458	87.19
461.678	111.19
461.898	100.19
462.118	84.19
462.338	83.19
462.558	88.19
462.777	85.19
462.997	113.19
463.217	98.19
463.437	110.19
463.657	100.19
463.876	90.19
464.096	103.19
464.316	101.19
464.536	92.19
464.755	97.19
464.975	103.19
465.195	109.19
465.414	100.19
465.634	89.19
465.854	93.19
466.073	95.19
466.293	97.19
466.512	96.19
466.732	94.19
466.951	96.19
467.171	103.19
467.391	97.19
467.61	98.19
467.829	90.19
468.049	93.19
468.268	91.19
468.488	103.19
468.707	99.19
468.927	91.19
469.146	102.19
469.365	106.19
469.585	90.19
469.804	114.19
470.023	97.19
470.243	94.19
470.462	108.19
470.681	104.19
470.901	95.19
471.12	89.19
471.339	94.19
471.558	91.19
471.777	89.19
471.997	84.19
472.216	98.19
472.435	103.19
472.654	88.19
472.873	97.19
473.092	90.19
473.311	104.19
473.53	102.19
473.749	108.19
473.968	110.19
474.187	99.19
474.406	100.19
474.625	110.19
474.844	108.19
475.063	89.19
475.282	88.19
475.501	101.19
475.72	90.19
475.939	90.19
476.158	105.19
476.377	101.19
476.596	100.19
476.814	86.19
477.033	97.19
477.252	103.19
477.471	99.19
477.69	105.19
477.908	104.19
478.127	96.19
478.346	92.19
478.564	91.19
478.783	99.19
479.002	96.19
479.22	94.19
479.439	103.19
479.658	113.19
479.876	105.19
480.095	101.19
480.313	105.19
480.532	108.19
480.751	112.19
480.969	102.19
481.188	113.19
481.406	108.19
481.624	87.19
481.843	93.19
482.061	90.19
482.28	93.19
482.498	88.19
482.717	99.19
482.935	104.19
483.153	99.19
483.372	108.19
483.59	103.19
483.808	100.19
484.027	97.19
484.245	110.19
484.463	98.19
484.681	112.19
484.9	113.19
485.118	99.19
485.336	116.19
485.554	95.19
485.772	102.19
485.99	101.19
486.209	111.19
486.427	112.19
486.645	111.19
486.863	103.19
487.081	96.19
487.299	93.19
487.517	99.19
487.735	93.19
487.953	99.19
488.171	109.19
488.389	111.19
488.607	99.19
488.825	105.19
489.043	89.19
489.261	115.19
489.479	111.19
489.696	128.19
489.914	115.19
490.132	95.19
490.35	106.19
490.568	112.19
490.786	100.19
491.003	89.19
491.221	112.19
491.439	108.19
491.657	105.19
491.874	127.19
492.092	123.19
492.31	119.19
492.527	119.19
492.745	109.19
492.963	117.19
493.18	108.19
493.398	113.19
493.615	110.19
493.833	113.19
494.05	105.19
494.268	118.19
494.485	106.19
494.703	105.19
494.92	119.19
495.138	109.19
495.355	102.19
495.573	111.19
495.79	113.19
496.008	112.19
496.225	109.19
496.442	119.19
496.66	108.19
496.877	122.19
497.094	121.19
497.312	105.19
497.529	113.19
497.746	112.19
497.963	107.19
498.181	112.19
498.398	118.19
498.615	103.19
498.832	105.19
499.049	120.19
499.267	120.19
499.484	130.19
499.701	114.19
499.918	138.19
500.135	143.19
500.352	156.19
500.569	160.19
500.786	159.19
501.003	135.19
501.22	132.19
501.437	153.19
501.654	127.19
501.871	136.19
502.088	124.19
502.305	131.19
502.522	118.19
502.739	107.19
502.956	111.19
503.172	112.19
503.389	104.19
503.606	90.19
503.823	97.19
504.04	92.19
504.256	118.19
504.473	113.19
504.69	106.19
504.907	121.19
505.123	110.19
505.34	116.19
505.557	102.19
505.773	108.19
505.99	103.19
506.207	103.19
506.423	106.19
506.64	104.19
506.856	105.19
507.073	104.19
507.289	90.19
507.506	101.19
507.722	103.19
507.939	103.19
508.155	86.19
508.372	102.19
508.588	112.19
508.805	108.19
509.021	104.19
509.238	86.19
509.454	119.19
509.67	101.19
509.887	103.19
510.103	103.19
510.319	117.19
510.536	100.19
510.752	96.19
510.968	93.19
511.184	120.19
511.401	103.19
511.617	103.19
511.833	87.19
512.049	111.19
512.265	111.19
512.481	101.19
512.698	100.19
512.914	91.19
513.13	95.19
513.346	100.19
513.562	98.19
513.778	97.19
513.994	108.19
514.21	99.19
514.426	104.19
514.642	104.19
