Data from Location5.07152019.Energy5.Lamp.07192019.3%Agarose_HRD10591_15-37-03-387.txt Node
Date: Fri Jul 19 15:37:03 EDT 2019
User: cochatt
Spectrometer: HR+D1059
Trigger mode: 1
Integration Time (sec): 1.000000E-1
Scans to average: 1
Electric dark correction enabled: true
Nonlinearity correction enabled: false
Boxcar width: 0
XAxis mode: Wavelengths
Number of Pixels in Spectrum: 2048
>>>>>Begin Spectral Data<<<<<
223.165	-17.12
223.4	-17.12
223.635	-17.12
223.869	-14.12
224.104	-22.12
224.338	-15.12
224.573	-22.12
224.808	-21.12
225.042	-0.12
225.277	-9.12
225.511	2.88
225.746	3.88
225.98	1.88
226.215	13.88
226.449	18.88
226.683	32.88
226.918	32.88
227.152	13.88
227.387	36.88
227.621	38.88
227.856	54.88
228.09	41.88
228.324	49.88
228.559	44.88
228.793	59.88
229.027	62.88
229.262	65.88
229.496	58.88
229.73	69.88
229.964	71.88
230.199	81.88
230.433	66.88
230.667	73.88
230.901	71.88
231.136	65.88
231.37	74.88
231.604	68.88
231.838	81.88
232.072	72.88
232.306	74.88
232.541	75.88
232.775	69.88
233.009	72.88
233.243	80.88
233.477	73.88
233.711	79.88
233.945	61.88
234.179	71.88
234.413	85.88
234.647	80.88
234.881	74.88
235.115	82.88
235.349	79.88
235.583	69.88
235.817	74.88
236.051	68.88
236.285	76.88
236.519	73.88
236.753	81.88
236.987	78.88
237.221	74.88
237.455	80.88
237.689	77.88
237.922	74.88
238.156	66.88
238.39	70.88
238.624	68.88
238.858	86.88
239.091	65.88
239.325	76.88
239.559	80.88
239.793	79.88
240.027	69.88
240.26	73.88
240.494	83.88
240.728	72.88
240.961	76.88
241.195	88.88
241.429	87.88
241.662	81.88
241.896	72.88
242.13	78.88
242.363	87.88
242.597	76.88
242.83	75.88
243.064	85.88
243.298	68.88
243.531	88.88
243.765	65.88
243.998	77.88
244.232	98.88
244.465	77.88
244.699	66.88
244.932	89.88
245.166	74.88
245.399	69.88
245.633	80.88
245.866	80.88
246.099	69.88
246.333	78.88
246.566	87.88
246.8	80.88
247.033	73.88
247.266	74.88
247.5	70.88
247.733	88.88
247.966	64.88
248.2	63.88
248.433	72.88
248.666	70.88
248.899	88.88
249.133	81.88
249.366	79.88
249.599	81.88
249.832	92.88
250.066	92.88
250.299	80.88
250.532	81.88
250.765	92.88
250.998	74.88
251.231	66.88
251.465	86.88
251.698	81.88
251.931	82.88
252.164	73.88
252.397	70.88
252.63	75.88
252.863	71.88
253.096	82.88
253.329	88.88
253.562	84.88
253.795	83.88
254.028	75.88
254.261	74.88
254.494	77.88
254.727	79.88
254.96	80.88
255.193	75.88
255.426	74.88
255.659	86.88
255.892	81.88
256.124	69.88
256.357	86.88
256.59	69.88
256.823	72.88
257.056	81.88
257.289	71.88
257.521	63.88
257.754	90.88
257.987	81.88
258.22	79.88
258.452	79.88
258.685	77.88
258.918	81.88
259.151	76.88
259.383	61.88
259.616	69.88
259.849	73.88
260.081	71.88
260.314	87.88
260.547	74.88
260.779	70.88
261.012	72.88
261.244	87.88
261.477	96.88
261.71	79.88
261.942	70.88
262.175	92.88
262.407	78.88
262.64	74.88
262.872	80.88
263.105	73.88
263.337	85.88
263.57	69.88
263.802	77.88
264.035	79.88
264.267	79.88
264.499	73.88
264.732	74.88
264.964	90.88
265.197	75.88
265.429	82.88
265.661	84.88
265.894	74.88
266.126	79.88
266.358	78.88
266.591	72.88
266.823	74.88
267.055	83.88
267.287	89.88
267.52	85.88
267.752	79.88
267.984	74.88
268.216	86.88
268.448	83.88
268.681	78.88
268.913	78.88
269.145	88.88
269.377	85.88
269.609	92.88
269.841	82.88
270.073	73.88
270.306	88.88
270.538	68.88
270.77	86.88
271.002	65.88
271.234	68.88
271.466	82.88
271.698	58.88
271.93	82.88
272.162	80.88
272.394	79.88
272.626	65.88
272.858	86.88
273.09	86.88
273.322	87.88
273.553	73.88
273.785	84.88
274.017	77.88
274.249	78.88
274.481	75.88
274.713	80.88
274.945	87.88
275.176	95.88
275.408	71.88
275.64	74.88
275.872	74.88
276.104	75.88
276.335	79.88
276.567	81.88
276.799	70.88
277.031	74.88
277.262	86.88
277.494	74.88
277.726	81.88
277.957	66.88
278.189	80.88
278.421	70.88
278.652	76.88
278.884	98.88
279.115	84.88
279.347	69.88
279.579	82.88
279.81	74.88
280.042	83.88
280.273	78.88
280.505	83.88
280.736	84.88
280.968	74.88
281.199	84.88
281.431	82.88
281.662	80.88
281.894	83.88
282.125	71.88
282.356	87.88
282.588	94.88
282.819	74.88
283.051	70.88
283.282	88.88
283.513	75.88
283.745	85.88
283.976	77.88
284.207	83.88
284.439	88.88
284.67	83.88
284.901	73.88
285.132	94.88
285.364	84.88
285.595	79.88
285.826	96.88
286.057	96.88
286.288	81.88
286.52	85.88
286.751	78.88
286.982	83.88
287.213	81.88
287.444	97.88
287.675	81.88
287.906	79.88
288.138	95.88
288.369	89.88
288.6	67.88
288.831	80.88
289.062	87.88
289.293	86.88
289.524	70.88
289.755	74.88
289.986	84.88
290.217	82.88
290.448	86.88
290.679	87.88
290.91	94.88
291.141	82.88
291.371	78.88
291.602	85.88
291.833	74.88
292.064	85.88
292.295	81.88
292.526	73.88
292.757	87.88
292.987	68.88
293.218	75.88
293.449	88.88
293.68	72.88
293.91	87.88
294.141	78.88
294.372	74.88
294.603	88.88
294.833	88.88
295.064	86.88
295.295	76.88
295.525	76.88
295.756	77.88
295.987	68.88
296.217	79.88
296.448	74.88
296.679	62.88
296.909	87.88
297.14	93.88
297.37	103.88
297.601	97.88
297.831	78.88
298.062	79.88
298.292	84.88
298.523	82.88
298.753	74.88
298.984	78.88
299.214	80.88
299.445	95.88
299.675	81.88
299.905	71.88
300.136	76.88
300.366	83.88
300.597	86.88
300.827	73.88
301.057	75.88
301.288	88.88
301.518	90.88
301.748	84.88
301.979	88.88
302.209	75.88
302.439	67.88
302.669	75.88
302.9	95.88
303.13	94.88
303.36	81.88
303.59	82.88
303.82	81.88
304.051	86.88
304.281	87.88
304.511	88.88
304.741	86.88
304.971	77.88
305.201	72.88
305.431	85.88
305.661	84.88
305.891	90.88
306.121	89.88
306.352	91.88
306.582	75.88
306.812	74.88
307.042	95.88
307.272	84.88
307.502	78.88
307.731	96.88
307.961	89.88
308.191	82.88
308.421	72.88
308.651	94.88
308.881	86.88
309.111	89.88
309.341	85.88
309.571	86.88
309.8	92.88
310.03	76.88
310.26	84.88
310.49	78.88
310.72	77.88
310.949	84.88
311.179	87.88
311.409	82.88
311.639	87.88
311.868	94.88
312.098	89.88
312.328	95.88
312.557	81.88
312.787	88.88
313.017	96.88
313.246	78.88
313.476	77.88
313.706	92.88
313.935	67.88
314.165	96.88
314.394	79.88
314.624	84.88
314.853	90.88
315.083	74.88
315.312	74.88
315.542	82.88
315.771	81.88
316.001	84.88
316.23	76.88
316.46	69.88
316.689	83.88
316.919	83.88
317.148	85.88
317.377	88.88
317.607	87.88
317.836	71.88
318.065	79.88
318.295	79.88
318.524	73.88
318.753	79.88
318.983	72.88
319.212	82.88
319.441	100.88
319.67	94.88
319.9	81.88
320.129	94.88
320.358	65.88
320.587	77.88
320.816	90.88
321.046	87.88
321.275	80.88
321.504	84.88
321.733	78.88
321.962	75.88
322.191	73.88
322.42	85.88
322.649	83.88
322.878	79.88
323.108	85.88
323.337	77.88
323.566	68.88
323.795	80.88
324.024	79.88
324.253	85.88
324.482	86.88
324.71	88.88
324.939	69.88
325.168	77.88
325.397	73.88
325.626	78.88
325.855	76.88
326.084	75.88
326.313	93.88
326.542	78.88
326.77	88.88
326.999	70.88
327.228	73.88
327.457	79.88
327.686	84.88
327.914	87.88
328.143	85.88
328.372	80.88
328.6	95.88
328.829	76.88
329.058	89.88
329.287	89.88
329.515	80.88
329.744	82.88
329.972	78.88
330.201	72.88
330.43	73.88
330.658	96.88
330.887	75.88
331.115	81.88
331.344	84.88
331.572	74.88
331.801	88.88
332.03	82.88
332.258	78.88
332.486	76.88
332.715	65.88
332.943	82.88
333.172	76.88
333.4	75.88
333.629	70.88
333.857	92.88
334.085	85.88
334.314	84.88
334.542	81.88
334.771	80.88
334.999	80.88
335.227	70.88
335.455	67.88
335.684	105.88
335.912	89.88
336.14	77.88
336.369	65.88
336.597	85.88
336.825	82.88
337.053	92.88
337.281	86.88
337.51	86.88
337.738	82.88
337.966	89.88
338.194	85.88
338.422	81.88
338.65	89.88
338.878	77.88
339.106	85.88
339.334	76.88
339.562	94.88
339.79	87.88
340.018	66.88
340.246	80.88
340.474	73.88
340.702	81.88
340.93	89.88
341.158	90.88
341.386	85.88
341.614	76.88
341.842	79.88
342.07	83.88
342.298	77.88
342.526	86.88
342.754	83.88
342.981	79.88
343.209	78.88
343.437	80.88
343.665	67.88
343.893	85.88
344.12	74.88
344.348	85.88
344.576	81.88
344.804	68.88
345.031	76.88
345.259	71.88
345.487	79.88
345.714	73.88
345.942	71.88
346.17	85.88
346.397	80.88
346.625	78.88
346.853	83.88
347.08	69.88
347.308	95.88
347.535	84.88
347.763	80.88
347.99	78.88
348.218	93.88
348.445	78.88
348.673	88.88
348.9	94.88
349.128	89.88
349.355	85.88
349.583	90.88
349.81	89.88
350.037	85.88
350.265	81.88
350.492	92.88
350.72	79.88
350.947	91.88
351.174	103.88
351.402	88.88
351.629	98.88
351.856	62.88
352.083	77.88
352.311	86.88
352.538	85.88
352.765	90.88
352.992	72.88
353.22	73.88
353.447	70.88
353.674	67.88
353.901	95.88
354.128	88.88
354.355	81.88
354.583	66.88
354.81	82.88
355.037	72.88
355.264	82.88
355.491	93.88
355.718	78.88
355.945	73.88
356.172	89.88
356.399	77.88
356.626	77.88
356.853	94.88
357.08	93.88
357.307	79.88
357.534	82.88
357.761	69.88
357.988	74.88
358.215	81.88
358.441	87.88
358.668	71.88
358.895	85.88
359.122	94.88
359.349	82.88
359.576	86.88
359.802	81.88
360.029	93.88
360.256	82.88
360.483	86.88
360.709	84.88
360.936	74.88
361.163	84.88
361.39	78.88
361.616	83.88
361.843	80.88
362.07	86.88
362.296	85.88
362.523	71.88
362.749	87.88
362.976	77.88
363.203	75.88
363.429	82.88
363.656	85.88
363.882	80.88
364.109	85.88
364.335	76.88
364.562	69.88
364.788	85.88
365.015	79.88
365.241	85.88
365.468	82.88
365.694	76.88
365.92	79.88
366.147	80.88
366.373	77.88
366.599	77.88
366.826	94.88
367.052	77.88
367.278	72.88
367.505	83.88
367.731	89.88
367.957	80.88
368.184	88.88
368.41	69.88
368.636	91.88
368.862	95.88
369.089	85.88
369.315	80.88
369.541	77.88
369.767	88.88
369.993	80.88
370.219	81.88
370.445	94.88
370.672	80.88
370.898	83.88
371.124	99.88
371.35	66.88
371.576	75.88
371.802	89.88
372.028	84.88
372.254	66.88
372.48	68.88
372.706	77.88
372.932	89.88
373.158	81.88
373.384	92.88
373.61	90.88
373.835	93.88
374.061	76.88
374.287	73.88
374.513	70.88
374.739	95.88
374.965	94.88
375.191	82.88
375.416	77.88
375.642	92.88
375.868	87.88
376.094	81.88
376.319	86.88
376.545	86.88
376.771	86.88
376.997	89.88
377.222	78.88
377.448	90.88
377.674	99.88
377.899	77.88
378.125	75.88
378.35	80.88
378.576	87.88
378.802	81.88
379.027	81.88
379.253	78.88
379.478	89.88
379.704	73.88
379.929	88.88
380.155	85.88
380.38	87.88
380.606	90.88
380.831	84.88
381.057	88.88
381.282	81.88
381.507	74.88
381.733	71.88
381.958	85.88
382.184	74.88
382.409	79.88
382.634	91.88
382.86	76.88
383.085	68.88
383.31	76.88
383.535	84.88
383.761	94.88
383.986	90.88
384.211	76.88
384.436	101.88
384.662	93.88
384.887	87.88
385.112	82.88
385.337	73.88
385.562	79.88
385.787	86.88
386.013	86.88
386.238	81.88
386.463	72.88
386.688	92.88
386.913	72.88
387.138	81.88
387.363	91.88
387.588	81.88
387.813	91.88
388.038	81.88
388.263	89.88
388.488	82.88
388.713	81.88
388.938	80.88
389.163	90.88
389.387	80.88
389.612	79.88
389.837	86.88
390.062	103.88
390.287	86.88
390.512	86.88
390.736	72.88
390.961	94.88
391.186	96.88
391.411	79.88
391.636	91.88
391.86	89.88
392.085	91.88
392.31	80.88
392.534	69.88
392.759	74.88
392.984	107.88
393.208	95.88
393.433	100.88
393.658	86.88
393.882	64.88
394.107	86.88
394.331	92.88
394.556	84.88
394.78	79.88
395.005	72.88
395.229	76.88
395.454	84.88
395.678	74.88
395.903	81.88
396.127	96.88
396.352	86.88
396.576	81.88
396.801	79.88
397.025	82.88
397.249	84.88
397.474	79.88
397.698	84.88
397.922	85.88
398.147	89.88
398.371	80.88
398.595	80.88
398.82	83.88
399.044	75.88
399.268	82.88
399.492	83.88
399.717	78.88
399.941	82.88
400.165	95.88
400.389	92.88
400.613	87.88
400.837	92.88
401.062	82.88
401.286	65.88
401.51	96.88
401.734	88.88
401.958	73.88
402.182	83.88
402.406	84.88
402.63	73.88
402.854	85.88
403.078	100.88
403.302	93.88
403.526	82.88
403.75	83.88
403.974	94.88
404.198	81.88
404.422	96.88
404.645	97.88
404.869	89.88
405.093	72.88
405.317	102.88
405.541	87.88
405.765	78.88
405.988	92.88
406.212	86.88
406.436	87.88
406.66	88.88
406.883	88.88
407.107	92.88
407.331	89.88
407.555	84.88
407.778	80.88
408.002	80.88
408.226	92.88
408.449	85.88
408.673	96.88
408.896	92.88
409.12	93.88
409.344	77.88
409.567	77.88
409.791	88.88
410.014	92.88
410.238	89.88
410.461	92.88
410.685	81.88
410.908	96.88
411.132	88.88
411.355	86.88
411.578	102.88
411.802	95.88
412.025	78.88
412.249	80.88
412.472	81.88
412.695	76.88
412.919	89.88
413.142	81.88
413.365	93.88
413.589	84.88
413.812	94.88
414.035	80.88
414.258	80.88
414.482	79.88
414.705	85.88
414.928	100.88
415.151	81.88
415.374	84.88
415.597	91.88
415.821	91.88
416.044	85.88
416.267	101.88
416.49	90.88
416.713	94.88
416.936	84.88
417.159	92.88
417.382	85.88
417.605	78.88
417.828	102.88
418.051	92.88
418.274	99.88
418.497	88.88
418.72	79.88
418.943	88.88
419.166	88.88
419.389	90.88
419.611	89.88
419.834	97.88
420.057	98.88
420.28	90.88
420.503	90.88
420.726	87.88
420.948	88.88
421.171	91.88
421.394	86.88
421.617	85.88
421.839	85.88
422.062	95.88
422.285	98.88
422.507	79.88
422.73	89.88
422.953	85.88
423.175	80.88
423.398	75.88
423.621	84.88
423.843	75.88
424.066	96.88
424.288	91.88
424.511	114.88
424.733	90.88
424.956	94.88
425.178	80.88
425.401	97.88
425.623	85.88
425.846	90.88
426.068	73.88
426.291	94.88
426.513	93.88
426.735	101.88
426.958	95.88
427.18	80.88
427.402	91.88
427.625	91.88
427.847	92.88
428.069	70.88
428.292	85.88
428.514	92.88
428.736	96.88
428.958	96.88
429.181	95.88
429.403	97.88
429.625	85.88
429.847	95.88
430.069	94.88
430.292	97.88
430.514	93.88
430.736	86.88
430.958	94.88
431.18	86.88
431.402	96.88
431.624	100.88
431.846	82.88
432.068	77.88
432.29	84.88
432.512	81.88
432.734	89.88
432.956	83.88
433.178	94.88
433.4	85.88
433.622	75.88
433.844	86.88
434.066	96.88
434.287	88.88
434.509	70.88
434.731	80.88
434.953	80.88
435.175	86.88
435.397	82.88
435.618	88.88
435.84	88.88
436.062	89.88
436.284	85.88
436.505	99.88
436.727	89.88
436.949	84.88
437.17	85.88
437.392	78.88
437.614	99.88
437.835	81.88
438.057	87.88
438.278	83.88
438.5	81.88
438.721	93.88
438.943	91.88
439.165	83.88
439.386	95.88
439.608	87.88
439.829	101.88
440.05	95.88
440.272	80.88
440.493	110.88
440.715	88.88
440.936	84.88
441.158	89.88
441.379	93.88
441.6	93.88
441.822	95.88
442.043	93.88
442.264	79.88
442.486	93.88
442.707	92.88
442.928	105.88
443.149	73.88
443.371	105.88
443.592	110.88
443.813	80.88
444.034	89.88
444.255	96.88
444.476	83.88
444.698	100.88
444.919	84.88
445.14	184.88
445.361	138.88
445.582	101.88
445.803	92.88
446.024	85.88
446.245	91.88
446.466	106.88
446.687	115.88
446.908	87.88
447.129	87.88
447.35	74.88
447.571	87.88
447.792	83.88
448.013	89.88
448.234	101.88
448.455	96.88
448.675	102.88
448.896	106.88
449.117	91.88
449.338	94.88
449.559	109.88
449.779	85.88
450	90.88
450.221	106.88
450.442	102.88
450.662	89.88
450.883	101.88
451.104	100.88
451.324	91.88
451.545	88.88
451.766	86.88
451.986	92.88
452.207	84.88
452.428	92.88
452.648	88.88
452.869	76.88
453.089	86.88
453.31	75.88
453.53	87.88
453.751	85.88
453.971	87.88
454.192	73.88
454.412	81.88
454.633	77.88
454.853	67.88
455.073	89.88
455.294	88.88
455.514	96.88
455.734	92.88
455.955	90.88
456.175	91.88
456.395	77.88
456.616	77.88
456.836	91.88
457.056	87.88
457.276	74.88
457.497	72.88
457.717	90.88
457.937	99.88
458.157	94.88
458.377	67.88
458.598	90.88
458.818	88.88
459.038	75.88
459.258	81.88
459.478	76.88
459.698	85.88
459.918	82.88
460.138	100.88
460.358	72.88
460.578	74.88
460.798	83.88
461.018	95.88
461.238	70.88
461.458	71.88
461.678	84.88
461.898	84.88
462.118	88.88
462.338	94.88
462.558	90.88
462.777	89.88
462.997	80.88
463.217	96.88
463.437	85.88
463.657	88.88
463.876	80.88
464.096	68.88
464.316	74.88
464.536	83.88
464.755	77.88
464.975	79.88
465.195	81.88
465.414	86.88
465.634	100.88
465.854	99.88
466.073	92.88
466.293	79.88
466.512	85.88
466.732	97.88
466.951	91.88
467.171	90.88
467.391	73.88
467.61	92.88
467.829	97.88
468.049	94.88
468.268	94.88
468.488	104.88
468.707	102.88
468.927	79.88
469.146	96.88
469.365	86.88
469.585	86.88
469.804	74.88
470.023	88.88
470.243	99.88
470.462	94.88
470.681	89.88
470.901	95.88
471.12	75.88
471.339	84.88
471.558	81.88
471.777	97.88
471.997	101.88
472.216	94.88
472.435	94.88
472.654	77.88
472.873	88.88
473.092	91.88
473.311	82.88
473.53	73.88
473.749	93.88
473.968	100.88
474.187	89.88
474.406	80.88
474.625	85.88
474.844	79.88
475.063	88.88
475.282	83.88
475.501	84.88
475.72	99.88
475.939	93.88
476.158	93.88
476.377	85.88
476.596	93.88
476.814	89.88
477.033	77.88
477.252	91.88
477.471	82.88
477.69	107.88
477.908	92.88
478.127	88.88
478.346	79.88
478.564	91.88
478.783	99.88
479.002	89.88
479.22	89.88
479.439	85.88
479.658	80.88
479.876	89.88
480.095	68.88
480.313	88.88
480.532	99.88
480.751	88.88
480.969	84.88
481.188	96.88
481.406	87.88
481.624	90.88
481.843	84.88
482.061	78.88
482.28	77.88
482.498	89.88
482.717	96.88
482.935	90.88
483.153	87.88
483.372	111.88
483.59	96.88
483.808	102.88
484.027	87.88
484.245	89.88
484.463	83.88
484.681	104.88
484.9	104.88
485.118	100.88
485.336	86.88
485.554	94.88
485.772	88.88
485.99	84.88
486.209	83.88
486.427	81.88
486.645	89.88
486.863	81.88
487.081	91.88
487.299	94.88
487.517	94.88
487.735	105.88
487.953	116.88
488.171	115.88
488.389	97.88
488.607	98.88
488.825	84.88
489.043	90.88
489.261	93.88
489.479	90.88
489.696	97.88
489.914	97.88
490.132	88.88
490.35	103.88
490.568	110.88
490.786	99.88
491.003	114.88
491.221	103.88
491.439	101.88
491.657	104.88
491.874	119.88
492.092	121.88
492.31	133.88
492.527	112.88
492.745	113.88
492.963	110.88
493.18	115.88
493.398	119.88
493.615	108.88
493.833	99.88
494.05	109.88
494.268	94.88
494.485	110.88
494.703	109.88
494.92	112.88
495.138	98.88
495.355	96.88
495.573	97.88
495.79	110.88
496.008	118.88
496.225	112.88
496.442	119.88
496.66	125.88
496.877	93.88
497.094	108.88
497.312	107.88
497.529	89.88
497.746	106.88
497.963	97.88
498.181	88.88
498.398	95.88
498.615	83.88
498.832	84.88
499.049	92.88
499.267	90.88
499.484	90.88
499.701	99.88
499.918	95.88
500.135	93.88
500.352	101.88
500.569	88.88
500.786	95.88
501.003	112.88
501.22	98.88
501.437	90.88
501.654	84.88
501.871	83.88
502.088	95.88
502.305	94.88
502.522	89.88
502.739	99.88
502.956	85.88
503.172	93.88
503.389	81.88
503.606	86.88
503.823	87.88
504.04	89.88
504.256	79.88
504.473	95.88
504.69	78.88
504.907	101.88
505.123	99.88
505.34	90.88
505.557	101.88
505.773	102.88
505.99	85.88
506.207	77.88
506.423	73.88
506.64	89.88
506.856	81.88
507.073	96.88
507.289	102.88
507.506	85.88
507.722	85.88
507.939	93.88
508.155	89.88
508.372	94.88
508.588	81.88
508.805	89.88
509.021	83.88
509.238	89.88
509.454	80.88
509.67	84.88
509.887	75.88
510.103	85.88
510.319	85.88
510.536	74.88
510.752	80.88
510.968	76.88
511.184	74.88
511.401	70.88
511.617	86.88
511.833	66.88
512.049	98.88
512.265	86.88
512.481	84.88
512.698	82.88
512.914	75.88
513.13	80.88
513.346	85.88
513.562	74.88
513.778	82.88
513.994	70.88
514.21	71.88
514.426	78.88
514.642	93.88
514.858	78.88
515.074	73.88
515.29	92.88
515.506	91.88
515.721	88.88
515.937	73.88
516.153	64.88
516.369	79.88
516.585	93.88
516.801	94.88
517.016	94.88
517.232	88.88
517.448	93.88
517.664	101.88
517.879	95.88
518.095	81.88
518.311	79.88
