Data from Location5.07152019.Energy5.Lamp.07192019.3%Agarose_HRD10591_15-39-28-388.txt Node
Date: Fri Jul 19 15:39:28 EDT 2019
User: cochatt
Spectrometer: HR+D1059
Trigger mode: 1
Integration Time (sec): 1.000000E-1
Scans to average: 1
Electric dark correction enabled: true
Nonlinearity correction enabled: false
Boxcar width: 0
XAxis mode: Wavelengths
Number of Pixels in Spectrum: 2048
>>>>>Begin Spectral Data<<<<<
223.165	-21.38
223.4	-21.38
223.635	-21.38
223.869	-10.38
224.104	-28.38
224.338	-22.38
224.573	-24.38
224.808	2.62
225.042	0.62
225.277	-14.38
225.511	-11.38
225.746	10.62
225.98	-4.38
226.215	25.62
226.449	20.62
226.683	24.62
226.918	19.62
227.152	32.62
227.387	41.62
227.621	50.62
227.856	34.62
228.09	44.62
228.324	56.62
228.559	53.62
228.793	52.62
229.027	71.62
229.262	69.62
229.496	55.62
229.73	73.62
229.964	65.62
230.199	80.62
230.433	68.62
230.667	64.62
230.901	78.62
231.136	84.62
231.37	79.62
231.604	77.62
231.838	67.62
232.072	71.62
232.306	89.62
232.541	78.62
232.775	87.62
233.009	74.62
233.243	80.62
233.477	85.62
233.711	82.62
233.945	78.62
234.179	77.62
234.413	81.62
234.647	79.62
234.881	78.62
235.115	82.62
235.349	82.62
235.583	81.62
235.817	83.62
236.051	76.62
236.285	71.62
236.519	73.62
236.753	73.62
236.987	77.62
237.221	79.62
237.455	79.62
237.689	90.62
237.922	75.62
238.156	85.62
238.39	80.62
238.624	71.62
238.858	81.62
239.091	75.62
239.325	91.62
239.559	79.62
239.793	77.62
240.027	78.62
240.26	82.62
240.494	84.62
240.728	71.62
240.961	74.62
241.195	86.62
241.429	72.62
241.662	76.62
241.896	76.62
242.13	89.62
242.363	81.62
242.597	88.62
242.83	71.62
243.064	84.62
243.298	84.62
243.531	83.62
243.765	71.62
243.998	71.62
244.232	81.62
244.465	87.62
244.699	69.62
244.932	62.62
245.166	75.62
245.399	66.62
245.633	73.62
245.866	81.62
246.099	67.62
246.333	72.62
246.566	83.62
246.8	81.62
247.033	71.62
247.266	75.62
247.5	61.62
247.733	81.62
247.966	85.62
248.2	88.62
248.433	75.62
248.666	84.62
248.899	80.62
249.133	82.62
249.366	87.62
249.599	82.62
249.832	85.62
250.066	78.62
250.299	69.62
250.532	92.62
250.765	83.62
250.998	91.62
251.231	84.62
251.465	95.62
251.698	82.62
251.931	85.62
252.164	83.62
252.397	79.62
252.63	77.62
252.863	89.62
253.096	80.62
253.329	87.62
253.562	81.62
253.795	68.62
254.028	68.62
254.261	73.62
254.494	88.62
254.727	69.62
254.96	76.62
255.193	84.62
255.426	61.62
255.659	72.62
255.892	89.62
256.124	83.62
256.357	97.62
256.59	85.62
256.823	84.62
257.056	91.62
257.289	84.62
257.521	89.62
257.754	81.62
257.987	71.62
258.22	79.62
258.452	83.62
258.685	89.62
258.918	86.62
259.151	77.62
259.383	82.62
259.616	69.62
259.849	87.62
260.081	87.62
260.314	79.62
260.547	82.62
260.779	75.62
261.012	80.62
261.244	80.62
261.477	65.62
261.71	63.62
261.942	79.62
262.175	65.62
262.407	80.62
262.64	94.62
262.872	78.62
263.105	104.62
263.337	88.62
263.57	81.62
263.802	77.62
264.035	69.62
264.267	66.62
264.499	86.62
264.732	78.62
264.964	84.62
265.197	85.62
265.429	85.62
265.661	77.62
265.894	85.62
266.126	87.62
266.358	87.62
266.591	97.62
266.823	84.62
267.055	88.62
267.287	89.62
267.52	88.62
267.752	79.62
267.984	91.62
268.216	80.62
268.448	82.62
268.681	67.62
268.913	74.62
269.145	88.62
269.377	90.62
269.609	66.62
269.841	74.62
270.073	94.62
270.306	74.62
270.538	86.62
270.77	85.62
271.002	71.62
271.234	100.62
271.466	84.62
271.698	88.62
271.93	87.62
272.162	73.62
272.394	90.62
272.626	93.62
272.858	90.62
273.09	94.62
273.322	97.62
273.553	84.62
273.785	106.62
274.017	83.62
274.249	77.62
274.481	80.62
274.713	67.62
274.945	87.62
275.176	86.62
275.408	85.62
275.64	84.62
275.872	88.62
276.104	93.62
276.335	69.62
276.567	100.62
276.799	78.62
277.031	70.62
277.262	83.62
277.494	71.62
277.726	73.62
277.957	85.62
278.189	79.62
278.421	91.62
278.652	90.62
278.884	81.62
279.115	90.62
279.347	85.62
279.579	92.62
279.81	81.62
280.042	83.62
280.273	81.62
280.505	88.62
280.736	77.62
280.968	84.62
281.199	88.62
281.431	90.62
281.662	76.62
281.894	76.62
282.125	79.62
282.356	74.62
282.588	79.62
282.819	87.62
283.051	84.62
283.282	83.62
283.513	89.62
283.745	71.62
283.976	85.62
284.207	71.62
284.439	77.62
284.67	94.62
284.901	91.62
285.132	91.62
285.364	83.62
285.595	80.62
285.826	92.62
286.057	80.62
286.288	86.62
286.52	90.62
286.751	79.62
286.982	86.62
287.213	77.62
287.444	89.62
287.675	81.62
287.906	86.62
288.138	69.62
288.369	87.62
288.6	77.62
288.831	77.62
289.062	79.62
289.293	89.62
289.524	89.62
289.755	85.62
289.986	89.62
290.217	81.62
290.448	84.62
290.679	96.62
290.91	82.62
291.141	94.62
291.371	95.62
291.602	74.62
291.833	84.62
292.064	89.62
292.295	87.62
292.526	84.62
292.757	61.62
292.987	72.62
293.218	89.62
293.449	64.62
293.68	80.62
293.91	91.62
294.141	79.62
294.372	89.62
294.603	86.62
294.833	59.62
295.064	87.62
295.295	82.62
295.525	78.62
295.756	91.62
295.987	76.62
296.217	92.62
296.448	84.62
296.679	88.62
296.909	104.62
297.14	97.62
297.37	94.62
297.601	92.62
297.831	80.62
298.062	90.62
298.292	83.62
298.523	88.62
298.753	85.62
298.984	82.62
299.214	92.62
299.445	88.62
299.675	73.62
299.905	68.62
300.136	95.62
300.366	82.62
300.597	84.62
300.827	89.62
301.057	86.62
301.288	79.62
301.518	85.62
301.748	75.62
301.979	98.62
302.209	89.62
302.439	80.62
302.669	72.62
302.9	81.62
303.13	76.62
303.36	70.62
303.59	88.62
303.82	72.62
304.051	72.62
304.281	100.62
304.511	101.62
304.741	74.62
304.971	85.62
305.201	86.62
305.431	85.62
305.661	95.62
305.891	94.62
306.121	74.62
306.352	88.62
306.582	83.62
306.812	74.62
307.042	84.62
307.272	84.62
307.502	89.62
307.731	88.62
307.961	82.62
308.191	74.62
308.421	106.62
308.651	91.62
308.881	84.62
309.111	94.62
309.341	82.62
309.571	79.62
309.8	77.62
310.03	68.62
310.26	77.62
310.49	80.62
310.72	88.62
310.949	82.62
311.179	92.62
311.409	95.62
311.639	90.62
311.868	88.62
312.098	80.62
312.328	84.62
312.557	90.62
312.787	92.62
313.017	81.62
313.246	81.62
313.476	80.62
313.706	93.62
313.935	77.62
314.165	82.62
314.394	74.62
314.624	90.62
314.853	86.62
315.083	86.62
315.312	81.62
315.542	78.62
315.771	80.62
316.001	90.62
316.23	80.62
316.46	81.62
316.689	89.62
316.919	84.62
317.148	90.62
317.377	87.62
317.607	92.62
317.836	72.62
318.065	78.62
318.295	80.62
318.524	74.62
318.753	75.62
318.983	76.62
319.212	96.62
319.441	85.62
319.67	78.62
319.9	108.62
320.129	77.62
320.358	90.62
320.587	86.62
320.816	80.62
321.046	82.62
321.275	82.62
321.504	88.62
321.733	95.62
321.962	96.62
322.191	73.62
322.42	71.62
322.649	80.62
322.878	85.62
323.108	92.62
323.337	80.62
323.566	83.62
323.795	73.62
324.024	75.62
324.253	71.62
324.482	80.62
324.71	85.62
324.939	90.62
325.168	74.62
325.397	72.62
325.626	74.62
325.855	84.62
326.084	81.62
326.313	80.62
326.542	74.62
326.77	84.62
326.999	87.62
327.228	93.62
327.457	87.62
327.686	78.62
327.914	87.62
328.143	83.62
328.372	88.62
328.6	84.62
328.829	86.62
329.058	85.62
329.287	82.62
329.515	95.62
329.744	94.62
329.972	87.62
330.201	85.62
330.43	84.62
330.658	84.62
330.887	88.62
331.115	73.62
331.344	69.62
331.572	86.62
331.801	71.62
332.03	86.62
332.258	81.62
332.486	78.62
332.715	76.62
332.943	93.62
333.172	75.62
333.4	77.62
333.629	77.62
333.857	87.62
334.085	81.62
334.314	80.62
334.542	88.62
334.771	89.62
334.999	80.62
335.227	89.62
335.455	87.62
335.684	95.62
335.912	93.62
336.14	83.62
336.369	77.62
336.597	99.62
336.825	88.62
337.053	90.62
337.281	95.62
337.51	85.62
337.738	86.62
337.966	80.62
338.194	84.62
338.422	74.62
338.65	83.62
338.878	78.62
339.106	86.62
339.334	87.62
339.562	80.62
339.79	84.62
340.018	98.62
340.246	91.62
340.474	94.62
340.702	68.62
340.93	79.62
341.158	53.62
341.386	82.62
341.614	77.62
341.842	96.62
342.07	85.62
342.298	83.62
342.526	74.62
342.754	84.62
342.981	90.62
343.209	84.62
343.437	77.62
343.665	79.62
343.893	79.62
344.12	79.62
344.348	96.62
344.576	75.62
344.804	75.62
345.031	92.62
345.259	83.62
345.487	86.62
345.714	83.62
345.942	88.62
346.17	81.62
346.397	69.62
346.625	79.62
346.853	78.62
347.08	97.62
347.308	92.62
347.535	89.62
347.763	84.62
347.99	85.62
348.218	94.62
348.445	85.62
348.673	83.62
348.9	91.62
349.128	79.62
349.355	82.62
349.583	85.62
349.81	82.62
350.037	69.62
350.265	81.62
350.492	73.62
350.72	96.62
350.947	92.62
351.174	83.62
351.402	80.62
351.629	87.62
351.856	87.62
352.083	87.62
352.311	78.62
352.538	69.62
352.765	79.62
352.992	81.62
353.22	71.62
353.447	78.62
353.674	88.62
353.901	74.62
354.128	78.62
354.355	70.62
354.583	81.62
354.81	77.62
355.037	82.62
355.264	87.62
355.491	97.62
355.718	78.62
355.945	86.62
356.172	89.62
356.399	84.62
356.626	81.62
356.853	82.62
357.08	88.62
357.307	85.62
357.534	84.62
357.761	80.62
357.988	77.62
358.215	82.62
358.441	85.62
358.668	69.62
358.895	77.62
359.122	80.62
359.349	84.62
359.576	74.62
359.802	74.62
360.029	72.62
360.256	88.62
360.483	81.62
360.709	80.62
360.936	78.62
361.163	73.62
361.39	78.62
361.616	69.62
361.843	76.62
362.07	98.62
362.296	95.62
362.523	75.62
362.749	95.62
362.976	93.62
363.203	89.62
363.429	93.62
363.656	74.62
363.882	81.62
364.109	73.62
364.335	83.62
364.562	82.62
364.788	79.62
365.015	75.62
365.241	71.62
365.468	96.62
365.694	82.62
365.92	84.62
366.147	74.62
366.373	88.62
366.599	86.62
366.826	88.62
367.052	77.62
367.278	68.62
367.505	95.62
367.731	72.62
367.957	72.62
368.184	82.62
368.41	81.62
368.636	74.62
368.862	85.62
369.089	82.62
369.315	75.62
369.541	88.62
369.767	78.62
369.993	66.62
370.219	72.62
370.445	86.62
370.672	89.62
370.898	70.62
371.124	85.62
371.35	68.62
371.576	85.62
371.802	57.62
372.028	80.62
372.254	87.62
372.48	90.62
372.706	76.62
372.932	82.62
373.158	82.62
373.384	83.62
373.61	74.62
373.835	84.62
374.061	75.62
374.287	85.62
374.513	91.62
374.739	79.62
374.965	61.62
375.191	89.62
375.416	95.62
375.642	103.62
375.868	81.62
376.094	73.62
376.319	81.62
376.545	90.62
376.771	79.62
376.997	82.62
377.222	87.62
377.448	82.62
377.674	80.62
377.899	96.62
378.125	72.62
378.35	83.62
378.576	86.62
378.802	85.62
379.027	93.62
379.253	79.62
379.478	81.62
379.704	86.62
379.929	80.62
380.155	68.62
380.38	78.62
380.606	80.62
380.831	69.62
381.057	80.62
381.282	62.62
381.507	78.62
381.733	89.62
381.958	81.62
382.184	74.62
382.409	82.62
382.634	84.62
382.86	91.62
383.085	93.62
383.31	86.62
383.535	94.62
383.761	85.62
383.986	89.62
384.211	84.62
384.436	86.62
384.662	74.62
384.887	78.62
385.112	84.62
385.337	73.62
385.562	83.62
385.787	92.62
386.013	89.62
386.238	83.62
386.463	84.62
386.688	78.62
386.913	93.62
387.138	80.62
387.363	85.62
387.588	96.62
387.813	82.62
388.038	73.62
388.263	71.62
388.488	85.62
388.713	78.62
388.938	96.62
389.163	79.62
389.387	93.62
389.612	86.62
389.837	88.62
390.062	100.62
390.287	74.62
390.512	74.62
390.736	95.62
390.961	79.62
391.186	78.62
391.411	86.62
391.636	80.62
391.86	72.62
392.085	83.62
392.31	90.62
392.534	77.62
392.759	91.62
392.984	87.62
393.208	84.62
393.433	97.62
393.658	99.62
393.882	88.62
394.107	88.62
394.331	94.62
394.556	93.62
394.78	97.62
395.005	89.62
395.229	87.62
395.454	87.62
395.678	84.62
395.903	88.62
396.127	86.62
396.352	70.62
396.576	77.62
396.801	86.62
397.025	75.62
397.249	83.62
397.474	91.62
397.698	89.62
397.922	91.62
398.147	76.62
398.371	85.62
398.595	91.62
398.82	89.62
399.044	89.62
399.268	74.62
399.492	82.62
399.717	71.62
399.941	90.62
400.165	85.62
400.389	95.62
400.613	100.62
400.837	84.62
401.062	76.62
401.286	92.62
401.51	92.62
401.734	74.62
401.958	84.62
402.182	91.62
402.406	86.62
402.63	82.62
402.854	86.62
403.078	87.62
403.302	81.62
403.526	89.62
403.75	72.62
403.974	79.62
404.198	95.62
404.422	88.62
404.645	75.62
404.869	81.62
405.093	92.62
405.317	84.62
405.541	88.62
405.765	85.62
405.988	94.62
406.212	93.62
406.436	90.62
406.66	89.62
406.883	89.62
407.107	89.62
407.331	92.62
407.555	89.62
407.778	67.62
408.002	94.62
408.226	83.62
408.449	110.62
408.673	93.62
408.896	87.62
409.12	74.62
409.344	91.62
409.567	100.62
409.791	87.62
410.014	84.62
410.238	99.62
410.461	91.62
410.685	86.62
410.908	86.62
411.132	99.62
411.355	97.62
411.578	85.62
411.802	82.62
412.025	89.62
412.249	84.62
412.472	81.62
412.695	79.62
412.919	92.62
413.142	80.62
413.365	86.62
413.589	80.62
413.812	88.62
414.035	91.62
414.258	100.62
414.482	100.62
414.705	95.62
414.928	101.62
415.151	89.62
415.374	73.62
415.597	97.62
415.821	82.62
416.044	82.62
416.267	92.62
416.49	83.62
416.713	90.62
416.936	101.62
417.159	82.62
417.382	72.62
417.605	85.62
417.828	86.62
418.051	97.62
418.274	98.62
418.497	92.62
418.72	89.62
418.943	96.62
419.166	98.62
419.389	86.62
419.611	88.62
419.834	98.62
420.057	91.62
420.28	83.62
420.503	102.62
420.726	105.62
420.948	87.62
421.171	88.62
421.394	94.62
421.617	84.62
421.839	86.62
422.062	88.62
422.285	103.62
422.507	93.62
422.73	90.62
422.953	82.62
423.175	100.62
423.398	79.62
423.621	85.62
423.843	82.62
424.066	94.62
424.288	94.62
424.511	101.62
424.733	88.62
424.956	105.62
425.178	87.62
425.401	86.62
425.623	74.62
425.846	115.62
426.068	87.62
426.291	76.62
426.513	86.62
426.735	89.62
426.958	87.62
427.18	93.62
427.402	92.62
427.625	96.62
427.847	79.62
428.069	70.62
428.292	85.62
428.514	101.62
428.736	89.62
428.958	85.62
429.181	96.62
429.403	89.62
429.625	86.62
429.847	83.62
430.069	80.62
430.292	69.62
430.514	91.62
430.736	87.62
430.958	84.62
431.18	83.62
431.402	90.62
431.624	91.62
431.846	76.62
432.068	88.62
432.29	81.62
432.512	105.62
432.734	82.62
432.956	100.62
433.178	99.62
433.4	99.62
433.622	109.62
433.844	99.62
434.066	84.62
434.287	82.62
434.509	95.62
434.731	76.62
434.953	76.62
435.175	96.62
435.397	74.62
435.618	88.62
435.84	83.62
436.062	103.62
436.284	81.62
436.505	78.62
436.727	78.62
436.949	84.62
437.17	100.62
437.392	81.62
437.614	81.62
437.835	85.62
438.057	89.62
438.278	92.62
438.5	83.62
438.721	91.62
438.943	94.62
439.165	96.62
439.386	115.62
439.608	100.62
439.829	108.62
440.05	96.62
440.272	83.62
440.493	82.62
440.715	91.62
440.936	93.62
441.158	89.62
441.379	100.62
441.6	87.62
441.822	95.62
442.043	93.62
442.264	97.62
442.486	93.62
442.707	94.62
442.928	96.62
443.149	88.62
443.371	92.62
443.592	95.62
443.813	93.62
444.034	90.62
444.255	115.62
444.476	97.62
444.698	94.62
444.919	92.62
445.14	235.62
445.361	156.62
445.582	108.62
445.803	94.62
446.024	100.62
446.245	90.62
446.466	102.62
446.687	96.62
446.908	97.62
447.129	97.62
447.35	81.62
447.571	94.62
447.792	91.62
448.013	103.62
448.234	105.62
448.455	91.62
448.675	93.62
448.896	84.62
449.117	94.62
449.338	87.62
449.559	99.62
449.779	93.62
450	106.62
450.221	85.62
450.442	101.62
450.662	99.62
450.883	100.62
451.104	93.62
451.324	91.62
451.545	80.62
451.766	83.62
451.986	101.62
452.207	98.62
452.428	88.62
452.648	112.62
452.869	87.62
453.089	87.62
453.31	86.62
453.53	85.62
453.751	84.62
453.971	87.62
454.192	79.62
454.412	73.62
454.633	97.62
454.853	94.62
455.073	103.62
455.294	76.62
455.514	86.62
455.734	92.62
455.955	89.62
456.175	94.62
456.395	92.62
456.616	94.62
456.836	96.62
457.056	83.62
457.276	79.62
457.497	89.62
457.717	72.62
457.937	90.62
458.157	82.62
458.377	74.62
458.598	87.62
458.818	73.62
459.038	80.62
459.258	74.62
459.478	94.62
459.698	92.62
459.918	81.62
460.138	78.62
460.358	71.62
460.578	78.62
460.798	84.62
461.018	105.62
461.238	68.62
461.458	90.62
461.678	80.62
461.898	75.62
462.118	92.62
462.338	88.62
462.558	83.62
462.777	104.62
462.997	85.62
463.217	81.62
463.437	96.62
463.657	94.62
463.876	86.62
464.096	96.62
464.316	92.62
464.536	82.62
464.755	87.62
464.975	66.62
465.195	87.62
465.414	97.62
465.634	81.62
465.854	98.62
466.073	89.62
466.293	110.62
466.512	77.62
466.732	94.62
466.951	87.62
467.171	91.62
467.391	89.62
467.61	90.62
467.829	85.62
468.049	96.62
468.268	73.62
468.488	94.62
468.707	96.62
468.927	104.62
469.146	86.62
469.365	103.62
469.585	103.62
469.804	74.62
470.023	86.62
470.243	83.62
470.462	101.62
470.681	98.62
470.901	105.62
471.12	91.62
471.339	91.62
471.558	98.62
471.777	102.62
471.997	102.62
472.216	100.62
472.435	96.62
472.654	103.62
472.873	99.62
473.092	89.62
473.311	79.62
473.53	87.62
473.749	95.62
473.968	89.62
474.187	91.62
474.406	90.62
474.625	84.62
474.844	96.62
475.063	101.62
475.282	83.62
475.501	86.62
475.72	101.62
475.939	92.62
476.158	76.62
476.377	96.62
476.596	93.62
476.814	93.62
477.033	84.62
477.252	85.62
477.471	81.62
477.69	97.62
477.908	101.62
478.127	108.62
478.346	90.62
478.564	97.62
478.783	93.62
479.002	99.62
479.22	98.62
479.439	97.62
479.658	82.62
479.876	83.62
480.095	92.62
480.313	77.62
480.532	87.62
480.751	80.62
480.969	91.62
481.188	102.62
481.406	74.62
481.624	84.62
481.843	77.62
482.061	72.62
482.28	97.62
482.498	100.62
482.717	87.62
482.935	95.62
483.153	93.62
483.372	98.62
483.59	96.62
483.808	94.62
484.027	93.62
484.245	95.62
484.463	108.62
484.681	91.62
484.9	97.62
485.118	84.62
485.336	83.62
485.554	110.62
485.772	89.62
485.99	78.62
486.209	101.62
486.427	88.62
486.645	91.62
486.863	101.62
487.081	87.62
487.299	102.62
487.517	96.62
487.735	116.62
487.953	111.62
488.171	102.62
488.389	86.62
488.607	106.62
488.825	86.62
489.043	94.62
489.261	96.62
489.479	103.62
489.696	87.62
489.914	98.62
490.132	103.62
490.35	105.62
490.568	100.62
490.786	106.62
491.003	95.62
491.221	102.62
491.439	97.62
491.657	108.62
491.874	125.62
492.092	120.62
492.31	124.62
492.527	116.62
492.745	104.62
492.963	116.62
493.18	105.62
493.398	100.62
493.615	110.62
493.833	98.62
494.05	102.62
494.268	108.62
494.485	99.62
494.703	100.62
494.92	100.62
495.138	109.62
495.355	105.62
495.573	98.62
495.79	105.62
496.008	114.62
496.225	104.62
496.442	100.62
496.66	112.62
496.877	112.62
497.094	89.62
497.312	80.62
497.529	80.62
497.746	105.62
497.963	89.62
498.181	82.62
498.398	88.62
498.615	99.62
498.832	89.62
499.049	100.62
499.267	90.62
499.484	88.62
499.701	98.62
499.918	96.62
500.135	79.62
500.352	105.62
500.569	100.62
500.786	89.62
501.003	110.62
501.22	94.62
501.437	96.62
501.654	90.62
501.871	100.62
502.088	98.62
502.305	78.62
502.522	107.62
502.739	84.62
502.956	92.62
503.172	97.62
503.389	99.62
503.606	92.62
503.823	78.62
504.04	94.62
504.256	90.62
504.473	81.62
504.69	94.62
504.907	88.62
505.123	86.62
505.34	70.62
505.557	88.62
505.773	88.62
505.99	81.62
506.207	89.62
506.423	103.62
506.64	98.62
506.856	90.62
507.073	82.62
507.289	89.62
507.506	82.62
507.722	93.62
507.939	77.62
508.155	90.62
508.372	90.62
508.588	100.62
508.805	86.62
509.021	87.62
509.238	84.62
509.454	90.62
509.67	92.62
509.887	67.62
510.103	95.62
510.319	95.62
510.536	90.62
510.752	85.62
510.968	85.62
511.184	76.62
511.401	80.62
511.617	82.62
511.833	83.62
512.049	90.62
512.265	82.62
512.481	94.62
512.698	95.62
512.914	82.62
513.13	79.62
513.346	102.62
513.562	83.62
513.778	90.62
513.994	93.62
514.21	87.62
514.426	82.62
514.642	78.62
514.858	92.62
515.074	75.62
515.29	74.62
515.506	81.62
515.721	88.62
515.937	100.62
516.153	100.62
516.369	84.62
516.585	77.62
516.801	88.62
517.016	67.62
517.232	81.62
517.448	84.62
517.664	108.62
517.879	80.62
