Data from Location5.07152019.Energy5.Lamp.07192019.3%Agarose_HRD10591_16-05-34-629.txt Node
Date: Fri Jul 19 16:05:34 EDT 2019
User: cochatt
Spectrometer: HR+D1059
Trigger mode: 1
Integration Time (sec): 1.000000E-1
Scans to average: 1
Electric dark correction enabled: true
Nonlinearity correction enabled: false
Boxcar width: 0
XAxis mode: Wavelengths
Number of Pixels in Spectrum: 2048
>>>>>Begin Spectral Data<<<<<
223.165	-13.31
223.4	-13.31
223.635	-13.31
223.869	-14.31
224.104	-22.31
224.338	-3.31
224.573	-21.31
224.808	-24.31
225.042	-13.31
225.277	-1.31
225.511	-10.31
225.746	11.69
225.98	-5.31
226.215	10.69
226.449	18.69
226.683	31.69
226.918	25.69
227.152	30.69
227.387	32.69
227.621	37.69
227.856	37.69
228.09	41.69
228.324	55.69
228.559	58.69
228.793	50.69
229.027	56.69
229.262	67.69
229.496	59.69
229.73	54.69
229.964	64.69
230.199	69.69
230.433	79.69
230.667	74.69
230.901	86.69
231.136	61.69
231.37	65.69
231.604	86.69
231.838	72.69
232.072	77.69
232.306	79.69
232.541	71.69
232.775	80.69
233.009	88.69
233.243	75.69
233.477	73.69
233.711	91.69
233.945	98.69
234.179	76.69
234.413	85.69
234.647	76.69
234.881	67.69
235.115	96.69
235.349	76.69
235.583	76.69
235.817	85.69
236.051	78.69
236.285	84.69
236.519	78.69
236.753	72.69
236.987	80.69
237.221	87.69
237.455	66.69
237.689	82.69
237.922	81.69
238.156	79.69
238.39	69.69
238.624	74.69
238.858	78.69
239.091	78.69
239.325	81.69
239.559	63.69
239.793	82.69
240.027	73.69
240.26	70.69
240.494	82.69
240.728	76.69
240.961	69.69
241.195	79.69
241.429	67.69
241.662	84.69
241.896	76.69
242.13	90.69
242.363	66.69
242.597	70.69
242.83	68.69
243.064	72.69
243.298	77.69
243.531	67.69
243.765	62.69
243.998	77.69
244.232	68.69
244.465	86.69
244.699	76.69
244.932	75.69
245.166	79.69
245.399	78.69
245.633	84.69
245.866	74.69
246.099	84.69
246.333	74.69
246.566	86.69
246.8	74.69
247.033	75.69
247.266	67.69
247.5	74.69
247.733	62.69
247.966	79.69
248.2	74.69
248.433	78.69
248.666	72.69
248.899	76.69
249.133	75.69
249.366	83.69
249.599	93.69
249.832	83.69
250.066	85.69
250.299	68.69
250.532	79.69
250.765	78.69
250.998	69.69
251.231	85.69
251.465	72.69
251.698	78.69
251.931	76.69
252.164	73.69
252.397	83.69
252.63	84.69
252.863	74.69
253.096	82.69
253.329	86.69
253.562	83.69
253.795	79.69
254.028	86.69
254.261	81.69
254.494	74.69
254.727	75.69
254.96	81.69
255.193	86.69
255.426	77.69
255.659	61.69
255.892	96.69
256.124	63.69
256.357	67.69
256.59	85.69
256.823	79.69
257.056	75.69
257.289	85.69
257.521	67.69
257.754	77.69
257.987	96.69
258.22	80.69
258.452	64.69
258.685	86.69
258.918	87.69
259.151	82.69
259.383	82.69
259.616	73.69
259.849	95.69
260.081	81.69
260.314	68.69
260.547	69.69
260.779	70.69
261.012	79.69
261.244	87.69
261.477	72.69
261.71	77.69
261.942	73.69
262.175	80.69
262.407	68.69
262.64	76.69
262.872	91.69
263.105	78.69
263.337	81.69
263.57	87.69
263.802	70.69
264.035	78.69
264.267	79.69
264.499	76.69
264.732	77.69
264.964	85.69
265.197	78.69
265.429	74.69
265.661	78.69
265.894	79.69
266.126	92.69
266.358	83.69
266.591	75.69
266.823	71.69
267.055	73.69
267.287	76.69
267.52	92.69
267.752	92.69
267.984	89.69
268.216	78.69
268.448	84.69
268.681	89.69
268.913	76.69
269.145	75.69
269.377	76.69
269.609	82.69
269.841	84.69
270.073	79.69
270.306	84.69
270.538	91.69
270.77	78.69
271.002	81.69
271.234	85.69
271.466	85.69
271.698	63.69
271.93	86.69
272.162	81.69
272.394	81.69
272.626	81.69
272.858	80.69
273.09	86.69
273.322	91.69
273.553	74.69
273.785	83.69
274.017	62.69
274.249	96.69
274.481	84.69
274.713	91.69
274.945	94.69
275.176	86.69
275.408	95.69
275.64	94.69
275.872	71.69
276.104	78.69
276.335	82.69
276.567	83.69
276.799	89.69
277.031	81.69
277.262	84.69
277.494	93.69
277.726	78.69
277.957	84.69
278.189	84.69
278.421	76.69
278.652	83.69
278.884	92.69
279.115	90.69
279.347	96.69
279.579	87.69
279.81	86.69
280.042	100.69
280.273	75.69
280.505	88.69
280.736	93.69
280.968	86.69
281.199	99.69
281.431	85.69
281.662	95.69
281.894	86.69
282.125	101.69
282.356	100.69
282.588	76.69
282.819	82.69
283.051	83.69
283.282	95.69
283.513	88.69
283.745	99.69
283.976	96.69
284.207	86.69
284.439	88.69
284.67	92.69
284.901	78.69
285.132	84.69
285.364	105.69
285.595	79.69
285.826	99.69
286.057	82.69
286.288	89.69
286.52	90.69
286.751	87.69
286.982	84.69
287.213	73.69
287.444	102.69
287.675	77.69
287.906	92.69
288.138	74.69
288.369	99.69
288.6	92.69
288.831	82.69
289.062	99.69
289.293	99.69
289.524	82.69
289.755	90.69
289.986	84.69
290.217	88.69
290.448	85.69
290.679	99.69
290.91	104.69
291.141	90.69
291.371	93.69
291.602	90.69
291.833	103.69
292.064	87.69
292.295	79.69
292.526	91.69
292.757	80.69
292.987	82.69
293.218	82.69
293.449	95.69
293.68	99.69
293.91	87.69
294.141	82.69
294.372	97.69
294.603	83.69
294.833	94.69
295.064	96.69
295.295	81.69
295.525	93.69
295.756	93.69
295.987	87.69
296.217	87.69
296.448	90.69
296.679	105.69
296.909	84.69
297.14	84.69
297.37	86.69
297.601	103.69
297.831	90.69
298.062	106.69
298.292	86.69
298.523	86.69
298.753	75.69
298.984	94.69
299.214	94.69
299.445	78.69
299.675	89.69
299.905	85.69
300.136	93.69
300.366	84.69
300.597	101.69
300.827	74.69
301.057	90.69
301.288	92.69
301.518	82.69
301.748	89.69
301.979	97.69
302.209	91.69
302.439	90.69
302.669	84.69
302.9	98.69
303.13	89.69
303.36	96.69
303.59	87.69
303.82	90.69
304.051	87.69
304.281	82.69
304.511	107.69
304.741	96.69
304.971	81.69
305.201	87.69
305.431	82.69
305.661	96.69
305.891	91.69
306.121	91.69
306.352	83.69
306.582	85.69
306.812	96.69
307.042	88.69
307.272	87.69
307.502	80.69
307.731	88.69
307.961	104.69
308.191	82.69
308.421	102.69
308.651	92.69
308.881	99.69
309.111	89.69
309.341	77.69
309.571	95.69
309.8	95.69
310.03	87.69
310.26	85.69
310.49	88.69
310.72	98.69
310.949	85.69
311.179	82.69
311.409	82.69
311.639	98.69
311.868	84.69
312.098	95.69
312.328	96.69
312.557	93.69
312.787	89.69
313.017	93.69
313.246	104.69
313.476	97.69
313.706	99.69
313.935	79.69
314.165	78.69
314.394	106.69
314.624	107.69
314.853	79.69
315.083	84.69
315.312	86.69
315.542	94.69
315.771	93.69
316.001	91.69
316.23	112.69
316.46	89.69
316.689	100.69
316.919	89.69
317.148	87.69
317.377	82.69
317.607	94.69
317.836	82.69
318.065	92.69
318.295	86.69
318.524	86.69
318.753	80.69
318.983	92.69
319.212	99.69
319.441	88.69
319.67	96.69
319.9	80.69
320.129	89.69
320.358	82.69
320.587	90.69
320.816	89.69
321.046	96.69
321.275	85.69
321.504	95.69
321.733	87.69
321.962	101.69
322.191	87.69
322.42	86.69
322.649	84.69
322.878	94.69
323.108	96.69
323.337	90.69
323.566	93.69
323.795	80.69
324.024	89.69
324.253	80.69
324.482	89.69
324.71	91.69
324.939	101.69
325.168	88.69
325.397	86.69
325.626	102.69
325.855	86.69
326.084	90.69
326.313	90.69
326.542	84.69
326.77	82.69
326.999	90.69
327.228	105.69
327.457	81.69
327.686	96.69
327.914	93.69
328.143	87.69
328.372	87.69
328.6	80.69
328.829	95.69
329.058	91.69
329.287	98.69
329.515	96.69
329.744	87.69
329.972	103.69
330.201	89.69
330.43	76.69
330.658	81.69
330.887	96.69
331.115	87.69
331.344	97.69
331.572	92.69
331.801	81.69
332.03	91.69
332.258	96.69
332.486	83.69
332.715	85.69
332.943	81.69
333.172	95.69
333.4	95.69
333.629	100.69
333.857	90.69
334.085	102.69
334.314	87.69
334.542	92.69
334.771	90.69
334.999	94.69
335.227	90.69
335.455	88.69
335.684	84.69
335.912	101.69
336.14	94.69
336.369	94.69
336.597	86.69
336.825	88.69
337.053	93.69
337.281	96.69
337.51	87.69
337.738	78.69
337.966	88.69
338.194	95.69
338.422	96.69
338.65	98.69
338.878	95.69
339.106	78.69
339.334	90.69
339.562	97.69
339.79	95.69
340.018	89.69
340.246	92.69
340.474	100.69
340.702	98.69
340.93	100.69
341.158	92.69
341.386	89.69
341.614	81.69
341.842	88.69
342.07	83.69
342.298	103.69
342.526	107.69
342.754	82.69
342.981	85.69
343.209	94.69
343.437	109.69
343.665	85.69
343.893	110.69
344.12	90.69
344.348	85.69
344.576	75.69
344.804	80.69
345.031	94.69
345.259	94.69
345.487	103.69
345.714	86.69
345.942	95.69
346.17	82.69
346.397	79.69
346.625	88.69
346.853	76.69
347.08	74.69
347.308	78.69
347.535	84.69
347.763	92.69
347.99	103.69
348.218	90.69
348.445	102.69
348.673	97.69
348.9	95.69
349.128	98.69
349.355	78.69
349.583	81.69
349.81	96.69
350.037	91.69
350.265	90.69
350.492	105.69
350.72	98.69
350.947	102.69
351.174	98.69
351.402	76.69
351.629	91.69
351.856	88.69
352.083	82.69
352.311	98.69
352.538	88.69
352.765	84.69
352.992	96.69
353.22	91.69
353.447	80.69
353.674	90.69
353.901	78.69
354.128	76.69
354.355	105.69
354.583	85.69
354.81	104.69
355.037	73.69
355.264	84.69
355.491	76.69
355.718	90.69
355.945	92.69
356.172	92.69
356.399	76.69
356.626	79.69
356.853	98.69
357.08	94.69
357.307	83.69
357.534	84.69
357.761	78.69
357.988	75.69
358.215	94.69
358.441	91.69
358.668	86.69
358.895	95.69
359.122	87.69
359.349	85.69
359.576	84.69
359.802	94.69
360.029	74.69
360.256	99.69
360.483	83.69
360.709	83.69
360.936	93.69
361.163	105.69
361.39	94.69
361.616	74.69
361.843	99.69
362.07	97.69
362.296	91.69
362.523	84.69
362.749	84.69
362.976	84.69
363.203	90.69
363.429	88.69
363.656	76.69
363.882	89.69
364.109	85.69
364.335	99.69
364.562	85.69
364.788	76.69
365.015	95.69
365.241	88.69
365.468	97.69
365.694	87.69
365.92	90.69
366.147	87.69
366.373	78.69
366.599	89.69
366.826	83.69
367.052	81.69
367.278	79.69
367.505	87.69
367.731	99.69
367.957	101.69
368.184	89.69
368.41	85.69
368.636	94.69
368.862	90.69
369.089	97.69
369.315	90.69
369.541	94.69
369.767	79.69
369.993	96.69
370.219	100.69
370.445	99.69
370.672	91.69
370.898	104.69
371.124	82.69
371.35	98.69
371.576	98.69
371.802	79.69
372.028	80.69
372.254	95.69
372.48	80.69
372.706	92.69
372.932	87.69
373.158	94.69
373.384	89.69
373.61	92.69
373.835	90.69
374.061	80.69
374.287	86.69
374.513	95.69
374.739	89.69
374.965	101.69
375.191	101.69
375.416	88.69
375.642	98.69
375.868	90.69
376.094	88.69
376.319	93.69
376.545	85.69
376.771	86.69
376.997	115.69
377.222	84.69
377.448	90.69
377.674	87.69
377.899	98.69
378.125	68.69
378.35	90.69
378.576	90.69
378.802	87.69
379.027	94.69
379.253	102.69
379.478	94.69
379.704	84.69
379.929	94.69
380.155	91.69
380.38	89.69
380.606	81.69
380.831	88.69
381.057	100.69
381.282	82.69
381.507	83.69
381.733	99.69
381.958	87.69
382.184	84.69
382.409	87.69
382.634	94.69
382.86	91.69
383.085	85.69
383.31	103.69
383.535	100.69
383.761	104.69
383.986	94.69
384.211	103.69
384.436	87.69
384.662	76.69
384.887	101.69
385.112	89.69
385.337	103.69
385.562	98.69
385.787	93.69
386.013	104.69
386.238	98.69
386.463	101.69
386.688	102.69
386.913	89.69
387.138	95.69
387.363	88.69
387.588	99.69
387.813	89.69
388.038	84.69
388.263	93.69
388.488	100.69
388.713	86.69
388.938	92.69
389.163	93.69
389.387	98.69
389.612	82.69
389.837	95.69
390.062	107.69
390.287	96.69
390.512	89.69
390.736	82.69
390.961	93.69
391.186	89.69
391.411	90.69
391.636	84.69
391.86	91.69
392.085	93.69
392.31	100.69
392.534	92.69
392.759	91.69
392.984	95.69
393.208	86.69
393.433	94.69
393.658	92.69
393.882	93.69
394.107	94.69
394.331	98.69
394.556	99.69
394.78	87.69
395.005	90.69
395.229	89.69
395.454	95.69
395.678	91.69
395.903	87.69
396.127	78.69
396.352	91.69
396.576	89.69
396.801	87.69
397.025	104.69
397.249	97.69
397.474	95.69
397.698	96.69
397.922	85.69
398.147	102.69
398.371	88.69
398.595	99.69
398.82	105.69
399.044	94.69
399.268	108.69
399.492	121.69
399.717	116.69
399.941	108.69
400.165	100.69
400.389	93.69
400.613	94.69
400.837	94.69
401.062	86.69
401.286	96.69
401.51	95.69
401.734	88.69
401.958	107.69
402.182	100.69
402.406	108.69
402.63	96.69
402.854	100.69
403.078	110.69
403.302	94.69
403.526	91.69
403.75	96.69
403.974	95.69
404.198	99.69
404.422	90.69
404.645	99.69
404.869	100.69
405.093	103.69
405.317	98.69
405.541	88.69
405.765	95.69
405.988	110.69
406.212	102.69
406.436	105.69
406.66	103.69
406.883	102.69
407.107	92.69
407.331	98.69
407.555	100.69
407.778	92.69
408.002	103.69
408.226	105.69
408.449	97.69
408.673	101.69
408.896	95.69
409.12	75.69
409.344	94.69
409.567	102.69
409.791	98.69
410.014	80.69
410.238	89.69
410.461	106.69
410.685	108.69
410.908	106.69
411.132	99.69
411.355	93.69
411.578	95.69
411.802	93.69
412.025	99.69
412.249	82.69
412.472	90.69
412.695	80.69
412.919	87.69
413.142	94.69
413.365	122.69
413.589	94.69
413.812	97.69
414.035	98.69
414.258	84.69
414.482	95.69
414.705	83.69
414.928	101.69
415.151	93.69
415.374	108.69
415.597	103.69
415.821	107.69
416.044	102.69
416.267	103.69
416.49	108.69
416.713	99.69
416.936	78.69
417.159	94.69
417.382	99.69
417.605	102.69
417.828	91.69
418.051	83.69
418.274	83.69
418.497	107.69
418.72	103.69
418.943	105.69
419.166	93.69
419.389	98.69
419.611	98.69
419.834	86.69
420.057	87.69
420.28	91.69
420.503	104.69
420.726	107.69
420.948	99.69
421.171	100.69
421.394	103.69
421.617	97.69
421.839	88.69
422.062	98.69
422.285	83.69
422.507	93.69
422.73	99.69
422.953	94.69
423.175	89.69
423.398	89.69
423.621	102.69
423.843	90.69
424.066	85.69
424.288	102.69
424.511	91.69
424.733	94.69
424.956	99.69
425.178	86.69
425.401	110.69
425.623	96.69
425.846	88.69
426.068	95.69
426.291	106.69
426.513	90.69
426.735	90.69
426.958	89.69
427.18	103.69
427.402	95.69
427.625	110.69
427.847	101.69
428.069	98.69
428.292	86.69
428.514	96.69
428.736	99.69
428.958	93.69
429.181	102.69
429.403	100.69
429.625	92.69
429.847	91.69
430.069	94.69
430.292	98.69
430.514	90.69
430.736	96.69
430.958	110.69
431.18	97.69
431.402	98.69
431.624	79.69
431.846	106.69
432.068	91.69
432.29	100.69
432.512	97.69
432.734	102.69
432.956	92.69
433.178	96.69
433.4	77.69
433.622	84.69
433.844	95.69
434.066	99.69
434.287	90.69
434.509	87.69
434.731	81.69
434.953	111.69
435.175	97.69
435.397	84.69
435.618	98.69
435.84	95.69
436.062	79.69
436.284	105.69
436.505	83.69
436.727	104.69
436.949	100.69
437.17	95.69
437.392	96.69
437.614	86.69
437.835	87.69
438.057	92.69
438.278	91.69
438.5	79.69
438.721	90.69
438.943	86.69
439.165	76.69
439.386	97.69
439.608	95.69
439.829	105.69
440.05	101.69
440.272	81.69
440.493	106.69
440.715	96.69
440.936	94.69
441.158	90.69
441.379	85.69
441.6	90.69
441.822	95.69
442.043	94.69
442.264	82.69
442.486	94.69
442.707	95.69
442.928	113.69
443.149	98.69
443.371	87.69
443.592	101.69
443.813	94.69
444.034	106.69
444.255	83.69
444.476	93.69
444.698	98.69
444.919	98.69
445.14	224.69
445.361	175.69
445.582	98.69
445.803	107.69
446.024	87.69
446.245	89.69
446.466	102.69
446.687	77.69
446.908	87.69
447.129	103.69
447.35	84.69
447.571	89.69
447.792	98.69
448.013	83.69
448.234	97.69
448.455	90.69
448.675	88.69
448.896	99.69
449.117	91.69
449.338	76.69
449.559	88.69
449.779	87.69
450	93.69
450.221	89.69
450.442	96.69
450.662	86.69
450.883	98.69
451.104	105.69
451.324	88.69
451.545	99.69
451.766	101.69
451.986	95.69
452.207	94.69
452.428	95.69
452.648	85.69
452.869	92.69
453.089	87.69
453.31	99.69
453.53	107.69
453.751	101.69
453.971	83.69
454.192	92.69
454.412	99.69
454.633	96.69
454.853	95.69
455.073	83.69
455.294	90.69
455.514	80.69
455.734	83.69
455.955	95.69
456.175	81.69
456.395	96.69
456.616	92.69
456.836	75.69
457.056	95.69
457.276	92.69
457.497	89.69
457.717	69.69
457.937	73.69
458.157	82.69
458.377	97.69
458.598	87.69
458.818	78.69
459.038	87.69
459.258	89.69
459.478	83.69
459.698	98.69
459.918	94.69
460.138	101.69
460.358	97.69
460.578	98.69
460.798	102.69
461.018	111.69
461.238	88.69
461.458	86.69
461.678	95.69
461.898	98.69
462.118	94.69
462.338	86.69
462.558	104.69
462.777	80.69
462.997	103.69
463.217	118.69
463.437	106.69
463.657	100.69
463.876	80.69
464.096	101.69
464.316	88.69
464.536	95.69
464.755	91.69
464.975	90.69
465.195	105.69
465.414	103.69
465.634	97.69
465.854	99.69
466.073	113.69
466.293	96.69
466.512	103.69
466.732	94.69
466.951	97.69
467.171	99.69
467.391	91.69
467.61	100.69
467.829	86.69
468.049	105.69
468.268	88.69
468.488	85.69
468.707	104.69
468.927	91.69
469.146	94.69
469.365	88.69
469.585	85.69
469.804	100.69
470.023	96.69
470.243	100.69
470.462	96.69
470.681	94.69
470.901	90.69
471.12	100.69
471.339	89.69
471.558	84.69
471.777	99.69
471.997	95.69
472.216	83.69
472.435	103.69
472.654	76.69
472.873	89.69
473.092	96.69
473.311	112.69
473.53	96.69
473.749	87.69
473.968	101.69
474.187	104.69
474.406	97.69
474.625	105.69
474.844	89.69
475.063	96.69
475.282	93.69
475.501	96.69
475.72	100.69
475.939	91.69
476.158	103.69
476.377	90.69
476.596	85.69
476.814	89.69
477.033	108.69
477.252	82.69
477.471	80.69
477.69	91.69
477.908	96.69
478.127	101.69
478.346	97.69
478.564	103.69
478.783	90.69
479.002	91.69
479.22	99.69
479.439	100.69
479.658	94.69
479.876	98.69
480.095	105.69
480.313	91.69
480.532	101.69
480.751	94.69
480.969	97.69
481.188	96.69
481.406	86.69
481.624	92.69
481.843	96.69
482.061	96.69
482.28	103.69
482.498	102.69
482.717	96.69
482.935	100.69
483.153	96.69
483.372	86.69
483.59	89.69
483.808	97.69
484.027	101.69
484.245	77.69
484.463	114.69
484.681	110.69
484.9	110.69
485.118	103.69
485.336	91.69
485.554	95.69
485.772	95.69
485.99	90.69
486.209	99.69
486.427	99.69
486.645	101.69
486.863	101.69
487.081	109.69
487.299	103.69
487.517	94.69
487.735	112.69
487.953	113.69
488.171	101.69
488.389	94.69
488.607	103.69
488.825	92.69
489.043	102.69
489.261	96.69
489.479	87.69
489.696	107.69
489.914	98.69
490.132	100.69
490.35	105.69
490.568	110.69
490.786	125.69
491.003	110.69
491.221	107.69
491.439	96.69
491.657	100.69
491.874	95.69
492.092	102.69
492.31	123.69
492.527	130.69
492.745	101.69
492.963	115.69
493.18	112.69
493.398	102.69
493.615	113.69
493.833	122.69
494.05	107.69
494.268	111.69
494.485	111.69
494.703	103.69
494.92	118.69
495.138	114.69
495.355	114.69
495.573	105.69
495.79	109.69
496.008	102.69
496.225	115.69
496.442	98.69
496.66	99.69
496.877	99.69
497.094	123.69
497.312	106.69
497.529	111.69
497.746	118.69
497.963	103.69
498.181	104.69
498.398	108.69
498.615	106.69
498.832	114.69
499.049	138.69
499.267	113.69
499.484	115.69
499.701	136.69
499.918	138.69
500.135	146.69
500.352	162.69
500.569	170.69
500.786	153.69
501.003	159.69
501.22	142.69
501.437	124.69
501.654	122.69
501.871	123.69
502.088	126.69
502.305	120.69
502.522	111.69
502.739	102.69
502.956	117.69
503.172	113.69
503.389	121.69
503.606	111.69
503.823	101.69
504.04	104.69
504.256	92.69
504.473	112.69
504.69	111.69
504.907	107.69
505.123	101.69
505.34	97.69
505.557	106.69
505.773	114.69
505.99	104.69
506.207	101.69
506.423	92.69
506.64	107.69
506.856	99.69
507.073	104.69
507.289	102.69
507.506	91.69
507.722	94.69
507.939	90.69
508.155	91.69
508.372	94.69
508.588	98.69
508.805	111.69
509.021	97.69
509.238	92.69
509.454	99.69
509.67	92.69
509.887	96.69
510.103	114.69
510.319	98.69
510.536	103.69
510.752	101.69
510.968	111.69
511.184	105.69
511.401	90.69
511.617	93.69
511.833	93.69
512.049	81.69
512.265	104.69
512.481	86.69
512.698	105.69
512.914	100.69
513.13	99.69
513.346	87.69
513.562	99.69
513.778	92.69
513.994	90.69
514.21	96.69
514.426	90.69
514.642	99.69
514.858	99.69
515.074	100.69
515.29	89.69
515.506	93.69
515.721	98.69
