Data from Location5.07152019.Energy5.Lamp.07192019.3%Agarose_HRD10591_16-05-33-629.txt Node
Date: Fri Jul 19 16:05:33 EDT 2019
User: cochatt
Spectrometer: HR+D1059
Trigger mode: 1
Integration Time (sec): 1.000000E-1
Scans to average: 1
Electric dark correction enabled: true
Nonlinearity correction enabled: false
Boxcar width: 0
XAxis mode: Wavelengths
Number of Pixels in Spectrum: 2048
>>>>>Begin Spectral Data<<<<<
223.165	-23.38
223.4	-23.38
223.635	-23.38
223.869	-16.38
224.104	-19.38
224.338	-14.38
224.573	-20.38
224.808	-4.38
225.042	3.62
225.277	-12.38
225.511	-2.38
225.746	-2.38
225.98	13.62
226.215	6.62
226.449	18.62
226.683	16.62
226.918	26.62
227.152	29.62
227.387	26.62
227.621	27.62
227.856	55.62
228.09	53.62
228.324	33.62
228.559	48.62
228.793	48.62
229.027	60.62
229.262	61.62
229.496	71.62
229.73	57.62
229.964	73.62
230.199	67.62
230.433	60.62
230.667	67.62
230.901	71.62
231.136	64.62
231.37	63.62
231.604	84.62
231.838	77.62
232.072	75.62
232.306	80.62
232.541	98.62
232.775	83.62
233.009	72.62
233.243	83.62
233.477	75.62
233.711	74.62
233.945	76.62
234.179	80.62
234.413	94.62
234.647	78.62
234.881	74.62
235.115	71.62
235.349	85.62
235.583	94.62
235.817	74.62
236.051	67.62
236.285	64.62
236.519	85.62
236.753	69.62
236.987	87.62
237.221	68.62
237.455	68.62
237.689	77.62
237.922	67.62
238.156	85.62
238.39	87.62
238.624	79.62
238.858	80.62
239.091	72.62
239.325	80.62
239.559	80.62
239.793	87.62
240.027	85.62
240.26	91.62
240.494	78.62
240.728	82.62
240.961	77.62
241.195	86.62
241.429	78.62
241.662	82.62
241.896	82.62
242.13	83.62
242.363	80.62
242.597	76.62
242.83	82.62
243.064	80.62
243.298	84.62
243.531	89.62
243.765	84.62
243.998	83.62
244.232	67.62
244.465	81.62
244.699	75.62
244.932	62.62
245.166	83.62
245.399	79.62
245.633	69.62
245.866	93.62
246.099	80.62
246.333	78.62
246.566	75.62
246.8	86.62
247.033	94.62
247.266	88.62
247.5	70.62
247.733	63.62
247.966	85.62
248.2	71.62
248.433	81.62
248.666	74.62
248.899	78.62
249.133	94.62
249.366	90.62
249.599	79.62
249.832	76.62
250.066	80.62
250.299	71.62
250.532	71.62
250.765	90.62
250.998	78.62
251.231	77.62
251.465	77.62
251.698	76.62
251.931	78.62
252.164	93.62
252.397	63.62
252.63	78.62
252.863	72.62
253.096	79.62
253.329	89.62
253.562	69.62
253.795	82.62
254.028	80.62
254.261	79.62
254.494	85.62
254.727	100.62
254.96	73.62
255.193	83.62
255.426	82.62
255.659	75.62
255.892	93.62
256.124	78.62
256.357	70.62
256.59	89.62
256.823	73.62
257.056	99.62
257.289	79.62
257.521	80.62
257.754	78.62
257.987	80.62
258.22	79.62
258.452	89.62
258.685	77.62
258.918	87.62
259.151	67.62
259.383	85.62
259.616	86.62
259.849	76.62
260.081	96.62
260.314	77.62
260.547	74.62
260.779	79.62
261.012	73.62
261.244	84.62
261.477	88.62
261.71	80.62
261.942	81.62
262.175	74.62
262.407	78.62
262.64	88.62
262.872	83.62
263.105	73.62
263.337	86.62
263.57	74.62
263.802	82.62
264.035	81.62
264.267	71.62
264.499	75.62
264.732	74.62
264.964	88.62
265.197	78.62
265.429	84.62
265.661	92.62
265.894	88.62
266.126	82.62
266.358	97.62
266.591	81.62
266.823	70.62
267.055	77.62
267.287	79.62
267.52	91.62
267.752	92.62
267.984	77.62
268.216	89.62
268.448	80.62
268.681	88.62
268.913	79.62
269.145	87.62
269.377	88.62
269.609	80.62
269.841	83.62
270.073	82.62
270.306	81.62
270.538	89.62
270.77	74.62
271.002	84.62
271.234	86.62
271.466	85.62
271.698	78.62
271.93	87.62
272.162	76.62
272.394	85.62
272.626	93.62
272.858	84.62
273.09	80.62
273.322	92.62
273.553	74.62
273.785	81.62
274.017	80.62
274.249	84.62
274.481	83.62
274.713	85.62
274.945	77.62
275.176	81.62
275.408	97.62
275.64	97.62
275.872	87.62
276.104	84.62
276.335	86.62
276.567	91.62
276.799	92.62
277.031	80.62
277.262	91.62
277.494	79.62
277.726	92.62
277.957	94.62
278.189	92.62
278.421	85.62
278.652	69.62
278.884	91.62
279.115	74.62
279.347	85.62
279.579	81.62
279.81	103.62
280.042	88.62
280.273	81.62
280.505	89.62
280.736	81.62
280.968	82.62
281.199	88.62
281.431	97.62
281.662	91.62
281.894	85.62
282.125	81.62
282.356	88.62
282.588	89.62
282.819	88.62
283.051	79.62
283.282	93.62
283.513	78.62
283.745	91.62
283.976	97.62
284.207	91.62
284.439	86.62
284.67	79.62
284.901	84.62
285.132	83.62
285.364	79.62
285.595	81.62
285.826	80.62
286.057	84.62
286.288	92.62
286.52	90.62
286.751	88.62
286.982	100.62
287.213	85.62
287.444	81.62
287.675	79.62
287.906	96.62
288.138	85.62
288.369	83.62
288.6	87.62
288.831	78.62
289.062	77.62
289.293	96.62
289.524	71.62
289.755	75.62
289.986	85.62
290.217	79.62
290.448	78.62
290.679	95.62
290.91	87.62
291.141	92.62
291.371	86.62
291.602	89.62
291.833	94.62
292.064	72.62
292.295	83.62
292.526	76.62
292.757	89.62
292.987	89.62
293.218	97.62
293.449	80.62
293.68	75.62
293.91	97.62
294.141	91.62
294.372	98.62
294.603	104.62
294.833	75.62
295.064	94.62
295.295	92.62
295.525	95.62
295.756	68.62
295.987	85.62
296.217	101.62
296.448	94.62
296.679	100.62
296.909	92.62
297.14	87.62
297.37	95.62
297.601	91.62
297.831	89.62
298.062	86.62
298.292	81.62
298.523	71.62
298.753	86.62
298.984	81.62
299.214	92.62
299.445	88.62
299.675	77.62
299.905	84.62
300.136	92.62
300.366	67.62
300.597	95.62
300.827	90.62
301.057	92.62
301.288	73.62
301.518	83.62
301.748	86.62
301.979	86.62
302.209	91.62
302.439	93.62
302.669	102.62
302.9	98.62
303.13	86.62
303.36	86.62
303.59	82.62
303.82	95.62
304.051	95.62
304.281	87.62
304.511	95.62
304.741	75.62
304.971	103.62
305.201	88.62
305.431	82.62
305.661	90.62
305.891	91.62
306.121	87.62
306.352	76.62
306.582	94.62
306.812	87.62
307.042	91.62
307.272	93.62
307.502	77.62
307.731	88.62
307.961	109.62
308.191	71.62
308.421	78.62
308.651	89.62
308.881	92.62
309.111	104.62
309.341	82.62
309.571	74.62
309.8	97.62
310.03	84.62
310.26	81.62
310.49	92.62
310.72	83.62
310.949	86.62
311.179	87.62
311.409	80.62
311.639	79.62
311.868	79.62
312.098	94.62
312.328	92.62
312.557	86.62
312.787	78.62
313.017	93.62
313.246	94.62
313.476	77.62
313.706	79.62
313.935	84.62
314.165	88.62
314.394	90.62
314.624	79.62
314.853	99.62
315.083	100.62
315.312	89.62
315.542	83.62
315.771	93.62
316.001	76.62
316.23	91.62
316.46	77.62
316.689	82.62
316.919	99.62
317.148	100.62
317.377	97.62
317.607	90.62
317.836	84.62
318.065	90.62
318.295	88.62
318.524	87.62
318.753	96.62
318.983	94.62
319.212	78.62
319.441	87.62
319.67	84.62
319.9	80.62
320.129	96.62
320.358	90.62
320.587	110.62
320.816	97.62
321.046	92.62
321.275	87.62
321.504	98.62
321.733	91.62
321.962	95.62
322.191	109.62
322.42	93.62
322.649	98.62
322.878	84.62
323.108	84.62
323.337	93.62
323.566	86.62
323.795	89.62
324.024	78.62
324.253	92.62
324.482	87.62
324.71	96.62
324.939	103.62
325.168	82.62
325.397	100.62
325.626	92.62
325.855	90.62
326.084	99.62
326.313	96.62
326.542	87.62
326.77	92.62
326.999	96.62
327.228	87.62
327.457	93.62
327.686	101.62
327.914	90.62
328.143	116.62
328.372	82.62
328.6	81.62
328.829	89.62
329.058	82.62
329.287	72.62
329.515	88.62
329.744	94.62
329.972	82.62
330.201	96.62
330.43	81.62
330.658	92.62
330.887	94.62
331.115	91.62
331.344	96.62
331.572	92.62
331.801	87.62
332.03	105.62
332.258	94.62
332.486	92.62
332.715	98.62
332.943	93.62
333.172	91.62
333.4	95.62
333.629	89.62
333.857	81.62
334.085	80.62
334.314	99.62
334.542	85.62
334.771	116.62
334.999	86.62
335.227	98.62
335.455	105.62
335.684	88.62
335.912	89.62
336.14	99.62
336.369	79.62
336.597	88.62
336.825	92.62
337.053	86.62
337.281	89.62
337.51	89.62
337.738	96.62
337.966	90.62
338.194	86.62
338.422	87.62
338.65	99.62
338.878	90.62
339.106	83.62
339.334	99.62
339.562	86.62
339.79	87.62
340.018	83.62
340.246	88.62
340.474	84.62
340.702	84.62
340.93	89.62
341.158	87.62
341.386	86.62
341.614	71.62
341.842	100.62
342.07	81.62
342.298	84.62
342.526	81.62
342.754	77.62
342.981	92.62
343.209	100.62
343.437	94.62
343.665	83.62
343.893	104.62
344.12	95.62
344.348	85.62
344.576	77.62
344.804	98.62
345.031	105.62
345.259	91.62
345.487	85.62
345.714	82.62
345.942	81.62
346.17	95.62
346.397	85.62
346.625	88.62
346.853	92.62
347.08	92.62
347.308	84.62
347.535	95.62
347.763	87.62
347.99	88.62
348.218	82.62
348.445	84.62
348.673	80.62
348.9	91.62
349.128	85.62
349.355	87.62
349.583	89.62
349.81	95.62
350.037	84.62
350.265	91.62
350.492	89.62
350.72	81.62
350.947	87.62
351.174	96.62
351.402	84.62
351.629	89.62
351.856	83.62
352.083	89.62
352.311	84.62
352.538	91.62
352.765	86.62
352.992	81.62
353.22	94.62
353.447	85.62
353.674	89.62
353.901	86.62
354.128	84.62
354.355	82.62
354.583	93.62
354.81	88.62
355.037	90.62
355.264	94.62
355.491	84.62
355.718	71.62
355.945	96.62
356.172	90.62
356.399	82.62
356.626	83.62
356.853	81.62
357.08	86.62
357.307	101.62
357.534	94.62
357.761	111.62
357.988	90.62
358.215	82.62
358.441	93.62
358.668	97.62
358.895	81.62
359.122	87.62
359.349	98.62
359.576	84.62
359.802	94.62
360.029	92.62
360.256	83.62
360.483	91.62
360.709	88.62
360.936	105.62
361.163	95.62
361.39	89.62
361.616	91.62
361.843	89.62
362.07	76.62
362.296	87.62
362.523	73.62
362.749	90.62
362.976	85.62
363.203	94.62
363.429	77.62
363.656	104.62
363.882	104.62
364.109	92.62
364.335	77.62
364.562	81.62
364.788	89.62
365.015	87.62
365.241	87.62
365.468	96.62
365.694	76.62
365.92	82.62
366.147	84.62
366.373	88.62
366.599	98.62
366.826	89.62
367.052	100.62
367.278	92.62
367.505	76.62
367.731	102.62
367.957	79.62
368.184	78.62
368.41	95.62
368.636	91.62
368.862	102.62
369.089	86.62
369.315	92.62
369.541	87.62
369.767	101.62
369.993	91.62
370.219	86.62
370.445	87.62
370.672	97.62
370.898	98.62
371.124	100.62
371.35	74.62
371.576	94.62
371.802	93.62
372.028	79.62
372.254	87.62
372.48	91.62
372.706	97.62
372.932	84.62
373.158	96.62
373.384	102.62
373.61	85.62
373.835	92.62
374.061	106.62
374.287	85.62
374.513	97.62
374.739	93.62
374.965	75.62
375.191	87.62
375.416	85.62
375.642	104.62
375.868	96.62
376.094	86.62
376.319	91.62
376.545	96.62
376.771	102.62
376.997	88.62
377.222	105.62
377.448	94.62
377.674	83.62
377.899	84.62
378.125	71.62
378.35	90.62
378.576	108.62
378.802	85.62
379.027	88.62
379.253	95.62
379.478	83.62
379.704	76.62
379.929	81.62
380.155	83.62
380.38	91.62
380.606	95.62
380.831	76.62
381.057	90.62
381.282	93.62
381.507	84.62
381.733	98.62
381.958	96.62
382.184	86.62
382.409	89.62
382.634	85.62
382.86	101.62
383.085	86.62
383.31	91.62
383.535	94.62
383.761	95.62
383.986	79.62
384.211	83.62
384.436	92.62
384.662	71.62
384.887	92.62
385.112	93.62
385.337	108.62
385.562	87.62
385.787	108.62
386.013	93.62
386.238	89.62
386.463	80.62
386.688	76.62
386.913	74.62
387.138	94.62
387.363	86.62
387.588	90.62
387.813	94.62
388.038	97.62
388.263	97.62
388.488	85.62
388.713	81.62
388.938	97.62
389.163	74.62
389.387	92.62
389.612	80.62
389.837	89.62
390.062	95.62
390.287	104.62
390.512	98.62
390.736	79.62
390.961	75.62
391.186	89.62
391.411	85.62
391.636	95.62
391.86	84.62
392.085	91.62
392.31	89.62
392.534	93.62
392.759	101.62
392.984	83.62
393.208	99.62
393.433	104.62
393.658	103.62
393.882	94.62
394.107	100.62
394.331	91.62
394.556	92.62
394.78	75.62
395.005	85.62
395.229	96.62
395.454	78.62
395.678	91.62
395.903	85.62
396.127	104.62
396.352	88.62
396.576	103.62
396.801	90.62
397.025	78.62
397.249	88.62
397.474	87.62
397.698	95.62
397.922	101.62
398.147	92.62
398.371	80.62
398.595	81.62
398.82	86.62
399.044	97.62
399.268	106.62
399.492	109.62
399.717	105.62
399.941	112.62
400.165	105.62
400.389	99.62
400.613	92.62
400.837	104.62
401.062	88.62
401.286	105.62
401.51	103.62
401.734	106.62
401.958	91.62
402.182	88.62
402.406	94.62
402.63	104.62
402.854	99.62
403.078	93.62
403.302	93.62
403.526	88.62
403.75	79.62
403.974	85.62
404.198	95.62
404.422	92.62
404.645	92.62
404.869	92.62
405.093	84.62
405.317	94.62
405.541	92.62
405.765	103.62
405.988	89.62
406.212	92.62
406.436	102.62
406.66	101.62
406.883	94.62
407.107	103.62
407.331	105.62
407.555	102.62
407.778	96.62
408.002	93.62
408.226	96.62
408.449	84.62
408.673	85.62
408.896	92.62
409.12	87.62
409.344	103.62
409.567	98.62
409.791	89.62
410.014	97.62
410.238	95.62
410.461	98.62
410.685	93.62
410.908	86.62
411.132	106.62
411.355	89.62
411.578	91.62
411.802	82.62
412.025	94.62
412.249	100.62
412.472	96.62
412.695	99.62
412.919	89.62
413.142	103.62
413.365	89.62
413.589	105.62
413.812	103.62
414.035	103.62
414.258	99.62
414.482	109.62
414.705	106.62
414.928	94.62
415.151	94.62
415.374	95.62
415.597	86.62
415.821	86.62
416.044	100.62
416.267	93.62
416.49	95.62
416.713	85.62
416.936	98.62
417.159	95.62
417.382	103.62
417.605	95.62
417.828	84.62
418.051	95.62
418.274	79.62
418.497	76.62
418.72	98.62
418.943	84.62
419.166	101.62
419.389	97.62
419.611	92.62
419.834	90.62
420.057	93.62
420.28	94.62
420.503	87.62
420.726	103.62
420.948	98.62
421.171	77.62
421.394	69.62
421.617	92.62
421.839	91.62
422.062	103.62
422.285	92.62
422.507	101.62
422.73	96.62
422.953	92.62
423.175	81.62
423.398	97.62
423.621	92.62
423.843	78.62
424.066	100.62
424.288	91.62
424.511	83.62
424.733	87.62
424.956	84.62
425.178	93.62
425.401	93.62
425.623	90.62
425.846	88.62
426.068	99.62
426.291	86.62
426.513	79.62
426.735	86.62
426.958	94.62
427.18	83.62
427.402	92.62
427.625	94.62
427.847	91.62
428.069	89.62
428.292	88.62
428.514	90.62
428.736	87.62
428.958	81.62
429.181	82.62
429.403	79.62
429.625	96.62
429.847	94.62
430.069	101.62
430.292	102.62
430.514	87.62
430.736	87.62
430.958	86.62
431.18	84.62
431.402	93.62
431.624	101.62
431.846	97.62
432.068	87.62
432.29	83.62
432.512	81.62
432.734	84.62
432.956	86.62
433.178	89.62
433.4	78.62
433.622	89.62
433.844	96.62
434.066	97.62
434.287	78.62
434.509	114.62
434.731	97.62
434.953	100.62
435.175	99.62
435.397	93.62
435.618	86.62
435.84	72.62
436.062	90.62
436.284	106.62
436.505	89.62
436.727	85.62
436.949	97.62
437.17	93.62
437.392	89.62
437.614	94.62
437.835	84.62
438.057	98.62
438.278	92.62
438.5	88.62
438.721	86.62
438.943	77.62
439.165	99.62
439.386	88.62
439.608	101.62
439.829	94.62
440.05	98.62
440.272	98.62
440.493	82.62
440.715	104.62
440.936	97.62
441.158	89.62
441.379	94.62
441.6	92.62
441.822	82.62
442.043	90.62
442.264	94.62
442.486	93.62
442.707	94.62
442.928	85.62
443.149	93.62
443.371	100.62
443.592	84.62
443.813	101.62
444.034	93.62
444.255	85.62
444.476	81.62
444.698	97.62
444.919	103.62
445.14	232.62
445.361	148.62
445.582	95.62
445.803	89.62
446.024	106.62
446.245	93.62
446.466	95.62
446.687	92.62
446.908	85.62
447.129	85.62
447.35	85.62
447.571	102.62
447.792	97.62
448.013	79.62
448.234	81.62
448.455	78.62
448.675	100.62
448.896	91.62
449.117	90.62
449.338	89.62
449.559	81.62
449.779	91.62
450	92.62
450.221	98.62
450.442	96.62
450.662	83.62
450.883	98.62
451.104	94.62
451.324	85.62
451.545	88.62
451.766	93.62
451.986	99.62
452.207	96.62
452.428	102.62
452.648	88.62
452.869	81.62
453.089	86.62
453.31	89.62
453.53	79.62
453.751	83.62
453.971	110.62
454.192	91.62
454.412	78.62
454.633	80.62
454.853	94.62
455.073	85.62
455.294	92.62
455.514	103.62
455.734	78.62
455.955	89.62
456.175	84.62
456.395	92.62
456.616	94.62
456.836	84.62
457.056	86.62
457.276	80.62
457.497	88.62
457.717	84.62
457.937	90.62
458.157	96.62
458.377	81.62
458.598	92.62
458.818	91.62
459.038	77.62
459.258	105.62
459.478	88.62
459.698	90.62
459.918	96.62
460.138	89.62
460.358	88.62
460.578	98.62
460.798	97.62
461.018	102.62
461.238	95.62
461.458	97.62
461.678	90.62
461.898	90.62
462.118	87.62
462.338	100.62
462.558	93.62
462.777	110.62
462.997	98.62
463.217	100.62
463.437	116.62
463.657	100.62
463.876	89.62
464.096	86.62
464.316	98.62
464.536	94.62
464.755	97.62
464.975	106.62
465.195	97.62
465.414	85.62
465.634	86.62
465.854	75.62
466.073	100.62
466.293	92.62
466.512	88.62
466.732	95.62
466.951	96.62
467.171	97.62
467.391	88.62
467.61	92.62
467.829	94.62
468.049	90.62
468.268	95.62
468.488	106.62
468.707	90.62
468.927	71.62
469.146	91.62
469.365	108.62
469.585	85.62
469.804	86.62
470.023	86.62
470.243	101.62
470.462	101.62
470.681	89.62
470.901	98.62
471.12	87.62
471.339	99.62
471.558	98.62
471.777	92.62
471.997	87.62
472.216	91.62
472.435	91.62
472.654	83.62
472.873	96.62
473.092	101.62
473.311	100.62
473.53	103.62
473.749	94.62
473.968	108.62
474.187	96.62
474.406	89.62
474.625	86.62
474.844	108.62
475.063	87.62
475.282	101.62
475.501	89.62
475.72	105.62
475.939	88.62
476.158	94.62
476.377	108.62
476.596	75.62
476.814	104.62
477.033	108.62
477.252	91.62
477.471	88.62
477.69	101.62
477.908	108.62
478.127	97.62
478.346	91.62
478.564	79.62
478.783	98.62
479.002	113.62
479.22	88.62
479.439	103.62
479.658	90.62
479.876	92.62
480.095	98.62
480.313	88.62
480.532	99.62
480.751	92.62
480.969	90.62
481.188	102.62
481.406	77.62
481.624	93.62
481.843	91.62
482.061	90.62
482.28	99.62
482.498	104.62
482.717	94.62
482.935	101.62
483.153	101.62
483.372	98.62
483.59	94.62
483.808	110.62
484.027	101.62
484.245	96.62
484.463	105.62
484.681	109.62
484.9	92.62
485.118	111.62
485.336	78.62
485.554	103.62
485.772	98.62
485.99	100.62
486.209	94.62
486.427	104.62
486.645	88.62
486.863	108.62
487.081	102.62
487.299	103.62
487.517	110.62
487.735	109.62
487.953	109.62
488.171	115.62
488.389	117.62
488.607	94.62
488.825	101.62
489.043	97.62
489.261	96.62
489.479	89.62
489.696	87.62
489.914	109.62
490.132	90.62
490.35	106.62
490.568	100.62
490.786	105.62
491.003	105.62
491.221	121.62
491.439	104.62
491.657	106.62
491.874	85.62
492.092	108.62
492.31	122.62
492.527	109.62
492.745	110.62
492.963	107.62
493.18	113.62
493.398	109.62
493.615	108.62
493.833	114.62
494.05	111.62
494.268	110.62
494.485	123.62
494.703	102.62
494.92	103.62
495.138	112.62
495.355	120.62
495.573	108.62
495.79	115.62
496.008	95.62
496.225	107.62
496.442	112.62
496.66	100.62
496.877	100.62
497.094	114.62
497.312	111.62
497.529	112.62
497.746	108.62
497.963	114.62
498.181	104.62
498.398	96.62
498.615	96.62
498.832	112.62
499.049	124.62
499.267	116.62
499.484	122.62
499.701	124.62
499.918	130.62
500.135	137.62
500.352	149.62
500.569	151.62
500.786	156.62
501.003	137.62
501.22	159.62
501.437	128.62
501.654	127.62
501.871	118.62
502.088	102.62
502.305	104.62
502.522	121.62
502.739	106.62
502.956	101.62
503.172	116.62
503.389	101.62
503.606	100.62
503.823	110.62
504.04	110.62
504.256	118.62
504.473	105.62
504.69	112.62
504.907	102.62
505.123	94.62
505.34	110.62
505.557	100.62
505.773	92.62
505.99	81.62
506.207	97.62
506.423	110.62
506.64	90.62
506.856	113.62
507.073	110.62
507.289	104.62
507.506	92.62
507.722	96.62
507.939	100.62
508.155	94.62
508.372	100.62
508.588	108.62
508.805	92.62
509.021	95.62
509.238	95.62
509.454	108.62
509.67	96.62
509.887	94.62
510.103	97.62
510.319	89.62
510.536	97.62
510.752	108.62
510.968	94.62
511.184	93.62
511.401	96.62
511.617	105.62
511.833	99.62
512.049	97.62
512.265	95.62
512.481	98.62
512.698	104.62
512.914	93.62
513.13	101.62
513.346	97.62
513.562	98.62
513.778	86.62
513.994	90.62
514.21	100.62
514.426	98.62
514.642	93.62
514.858	111.62
515.074	96.62
515.29	96.62
515.506	93.62
515.721	99.62
515.937	101.62
516.153	105.62
