Data from Location5.07152019.Energy5.Lamp.07192019.3%Agarose_HRD10591_16-02-33-628.txt Node
Date: Fri Jul 19 16:02:33 EDT 2019
User: cochatt
Spectrometer: HR+D1059
Trigger mode: 1
Integration Time (sec): 1.000000E-1
Scans to average: 1
Electric dark correction enabled: true
Nonlinearity correction enabled: false
Boxcar width: 0
XAxis mode: Wavelengths
Number of Pixels in Spectrum: 2048
>>>>>Begin Spectral Data<<<<<
223.165	-23.62
223.4	-23.62
223.635	-23.62
223.869	-16.62
224.104	-21.62
224.338	-0.62
224.573	-8.62
224.808	-20.62
225.042	-12.62
225.277	-1.62
225.511	3.38
225.746	-3.62
225.98	4.38
226.215	9.38
226.449	21.38
226.683	3.38
226.918	24.38
227.152	43.38
227.387	51.38
227.621	24.38
227.856	44.38
228.09	37.38
228.324	44.38
228.559	54.38
228.793	56.38
229.027	69.38
229.262	54.38
229.496	61.38
229.73	70.38
229.964	79.38
230.199	63.38
230.433	74.38
230.667	76.38
230.901	76.38
231.136	82.38
231.37	98.38
231.604	96.38
231.838	97.38
232.072	97.38
232.306	86.38
232.541	78.38
232.775	88.38
233.009	78.38
233.243	80.38
233.477	100.38
233.711	87.38
233.945	83.38
234.179	81.38
234.413	90.38
234.647	91.38
234.881	90.38
235.115	83.38
235.349	74.38
235.583	89.38
235.817	72.38
236.051	94.38
236.285	72.38
236.519	78.38
236.753	87.38
236.987	75.38
237.221	66.38
237.455	95.38
237.689	79.38
237.922	91.38
238.156	92.38
238.39	80.38
238.624	92.38
238.858	76.38
239.091	77.38
239.325	71.38
239.559	92.38
239.793	82.38
240.027	73.38
240.26	68.38
240.494	67.38
240.728	77.38
240.961	81.38
241.195	67.38
241.429	72.38
241.662	76.38
241.896	82.38
242.13	63.38
242.363	78.38
242.597	77.38
242.83	75.38
243.064	85.38
243.298	82.38
243.531	93.38
243.765	80.38
243.998	85.38
244.232	86.38
244.465	76.38
244.699	85.38
244.932	85.38
245.166	79.38
245.399	76.38
245.633	76.38
245.866	78.38
246.099	82.38
246.333	99.38
246.566	71.38
246.8	79.38
247.033	95.38
247.266	92.38
247.5	83.38
247.733	80.38
247.966	86.38
248.2	82.38
248.433	94.38
248.666	68.38
248.899	74.38
249.133	71.38
249.366	91.38
249.599	72.38
249.832	90.38
250.066	69.38
250.299	69.38
250.532	87.38
250.765	95.38
250.998	77.38
251.231	84.38
251.465	85.38
251.698	60.38
251.931	88.38
252.164	90.38
252.397	94.38
252.63	96.38
252.863	79.38
253.096	95.38
253.329	100.38
253.562	87.38
253.795	77.38
254.028	76.38
254.261	67.38
254.494	77.38
254.727	81.38
254.96	87.38
255.193	86.38
255.426	81.38
255.659	81.38
255.892	83.38
256.124	93.38
256.357	86.38
256.59	84.38
256.823	82.38
257.056	86.38
257.289	79.38
257.521	87.38
257.754	83.38
257.987	96.38
258.22	91.38
258.452	72.38
258.685	83.38
258.918	87.38
259.151	82.38
259.383	82.38
259.616	82.38
259.849	88.38
260.081	89.38
260.314	84.38
260.547	87.38
260.779	97.38
261.012	93.38
261.244	83.38
261.477	90.38
261.71	91.38
261.942	85.38
262.175	75.38
262.407	71.38
262.64	86.38
262.872	75.38
263.105	93.38
263.337	77.38
263.57	94.38
263.802	94.38
264.035	100.38
264.267	82.38
264.499	82.38
264.732	83.38
264.964	94.38
265.197	88.38
265.429	97.38
265.661	82.38
265.894	87.38
266.126	91.38
266.358	86.38
266.591	80.38
266.823	104.38
267.055	84.38
267.287	92.38
267.52	72.38
267.752	83.38
267.984	84.38
268.216	77.38
268.448	86.38
268.681	92.38
268.913	92.38
269.145	84.38
269.377	77.38
269.609	84.38
269.841	95.38
270.073	79.38
270.306	84.38
270.538	73.38
270.77	83.38
271.002	86.38
271.234	94.38
271.466	93.38
271.698	85.38
271.93	91.38
272.162	92.38
272.394	85.38
272.626	89.38
272.858	86.38
273.09	87.38
273.322	107.38
273.553	91.38
273.785	89.38
274.017	92.38
274.249	105.38
274.481	81.38
274.713	88.38
274.945	94.38
275.176	86.38
275.408	99.38
275.64	87.38
275.872	84.38
276.104	77.38
276.335	81.38
276.567	92.38
276.799	99.38
277.031	82.38
277.262	93.38
277.494	90.38
277.726	102.38
277.957	89.38
278.189	93.38
278.421	98.38
278.652	109.38
278.884	113.38
279.115	98.38
279.347	89.38
279.579	100.38
279.81	81.38
280.042	90.38
280.273	84.38
280.505	100.38
280.736	81.38
280.968	74.38
281.199	97.38
281.431	98.38
281.662	82.38
281.894	82.38
282.125	92.38
282.356	98.38
282.588	92.38
282.819	97.38
283.051	81.38
283.282	94.38
283.513	100.38
283.745	86.38
283.976	95.38
284.207	89.38
284.439	96.38
284.67	96.38
284.901	94.38
285.132	99.38
285.364	91.38
285.595	104.38
285.826	87.38
286.057	96.38
286.288	92.38
286.52	87.38
286.751	101.38
286.982	104.38
287.213	97.38
287.444	90.38
287.675	89.38
287.906	72.38
288.138	95.38
288.369	94.38
288.6	99.38
288.831	86.38
289.062	95.38
289.293	105.38
289.524	83.38
289.755	98.38
289.986	90.38
290.217	105.38
290.448	98.38
290.679	85.38
290.91	76.38
291.141	89.38
291.371	99.38
291.602	87.38
291.833	100.38
292.064	99.38
292.295	90.38
292.526	75.38
292.757	87.38
292.987	71.38
293.218	92.38
293.449	99.38
293.68	83.38
293.91	95.38
294.141	98.38
294.372	94.38
294.603	87.38
294.833	92.38
295.064	92.38
295.295	78.38
295.525	96.38
295.756	98.38
295.987	91.38
296.217	83.38
296.448	82.38
296.679	95.38
296.909	100.38
297.14	80.38
297.37	78.38
297.601	99.38
297.831	102.38
298.062	96.38
298.292	89.38
298.523	98.38
298.753	83.38
298.984	83.38
299.214	99.38
299.445	99.38
299.675	90.38
299.905	89.38
300.136	108.38
300.366	97.38
300.597	99.38
300.827	92.38
301.057	93.38
301.288	105.38
301.518	81.38
301.748	95.38
301.979	105.38
302.209	103.38
302.439	101.38
302.669	83.38
302.9	88.38
303.13	109.38
303.36	80.38
303.59	96.38
303.82	96.38
304.051	103.38
304.281	98.38
304.511	92.38
304.741	95.38
304.971	98.38
305.201	116.38
305.431	96.38
305.661	86.38
305.891	92.38
306.121	101.38
306.352	94.38
306.582	73.38
306.812	90.38
307.042	114.38
307.272	78.38
307.502	84.38
307.731	90.38
307.961	96.38
308.191	93.38
308.421	99.38
308.651	103.38
308.881	96.38
309.111	84.38
309.341	74.38
309.571	94.38
309.8	92.38
310.03	85.38
310.26	96.38
310.49	88.38
310.72	91.38
310.949	98.38
311.179	102.38
311.409	98.38
311.639	83.38
311.868	89.38
312.098	93.38
312.328	107.38
312.557	106.38
312.787	76.38
313.017	89.38
313.246	95.38
313.476	91.38
313.706	95.38
313.935	91.38
314.165	89.38
314.394	83.38
314.624	77.38
314.853	106.38
315.083	107.38
315.312	91.38
315.542	99.38
315.771	95.38
316.001	95.38
316.23	83.38
316.46	96.38
316.689	106.38
316.919	92.38
317.148	94.38
317.377	105.38
317.607	99.38
317.836	94.38
318.065	92.38
318.295	97.38
318.524	84.38
318.753	91.38
318.983	83.38
319.212	95.38
319.441	92.38
319.67	106.38
319.9	104.38
320.129	98.38
320.358	83.38
320.587	87.38
320.816	108.38
321.046	97.38
321.275	98.38
321.504	96.38
321.733	92.38
321.962	85.38
322.191	92.38
322.42	79.38
322.649	91.38
322.878	98.38
323.108	100.38
323.337	93.38
323.566	87.38
323.795	93.38
324.024	95.38
324.253	100.38
324.482	89.38
324.71	89.38
324.939	83.38
325.168	98.38
325.397	91.38
325.626	103.38
325.855	95.38
326.084	90.38
326.313	105.38
326.542	83.38
326.77	92.38
326.999	88.38
327.228	96.38
327.457	78.38
327.686	95.38
327.914	96.38
328.143	89.38
328.372	88.38
328.6	102.38
328.829	98.38
329.058	100.38
329.287	104.38
329.515	84.38
329.744	102.38
329.972	94.38
330.201	111.38
330.43	103.38
330.658	93.38
330.887	94.38
331.115	98.38
331.344	98.38
331.572	89.38
331.801	101.38
332.03	98.38
332.258	97.38
332.486	92.38
332.715	71.38
332.943	99.38
333.172	95.38
333.4	88.38
333.629	98.38
333.857	84.38
334.085	96.38
334.314	89.38
334.542	86.38
334.771	96.38
334.999	97.38
335.227	92.38
335.455	114.38
335.684	95.38
335.912	96.38
336.14	91.38
336.369	86.38
336.597	85.38
336.825	95.38
337.053	90.38
337.281	91.38
337.51	88.38
337.738	95.38
337.966	81.38
338.194	100.38
338.422	98.38
338.65	99.38
338.878	80.38
339.106	86.38
339.334	87.38
339.562	86.38
339.79	100.38
340.018	91.38
340.246	82.38
340.474	81.38
340.702	103.38
340.93	91.38
341.158	87.38
341.386	98.38
341.614	100.38
341.842	96.38
342.07	102.38
342.298	99.38
342.526	96.38
342.754	98.38
342.981	76.38
343.209	77.38
343.437	102.38
343.665	91.38
343.893	100.38
344.12	112.38
344.348	91.38
344.576	99.38
344.804	105.38
345.031	101.38
345.259	90.38
345.487	83.38
345.714	108.38
345.942	83.38
346.17	107.38
346.397	96.38
346.625	102.38
346.853	97.38
347.08	95.38
347.308	99.38
347.535	87.38
347.763	91.38
347.99	98.38
348.218	91.38
348.445	101.38
348.673	106.38
348.9	105.38
349.128	91.38
349.355	93.38
349.583	93.38
349.81	91.38
350.037	87.38
350.265	84.38
350.492	93.38
350.72	93.38
350.947	93.38
351.174	86.38
351.402	109.38
351.629	93.38
351.856	91.38
352.083	103.38
352.311	101.38
352.538	91.38
352.765	98.38
352.992	93.38
353.22	84.38
353.447	72.38
353.674	96.38
353.901	107.38
354.128	94.38
354.355	95.38
354.583	92.38
354.81	100.38
355.037	106.38
355.264	101.38
355.491	104.38
355.718	95.38
355.945	105.38
356.172	89.38
356.399	81.38
356.626	83.38
356.853	95.38
357.08	106.38
357.307	84.38
357.534	86.38
357.761	83.38
357.988	105.38
358.215	89.38
358.441	88.38
358.668	86.38
358.895	79.38
359.122	79.38
359.349	100.38
359.576	111.38
359.802	94.38
360.029	76.38
360.256	94.38
360.483	89.38
360.709	94.38
360.936	96.38
361.163	102.38
361.39	104.38
361.616	86.38
361.843	96.38
362.07	75.38
362.296	105.38
362.523	93.38
362.749	89.38
362.976	92.38
363.203	88.38
363.429	84.38
363.656	88.38
363.882	103.38
364.109	106.38
364.335	97.38
364.562	91.38
364.788	91.38
365.015	97.38
365.241	93.38
365.468	101.38
365.694	94.38
365.92	92.38
366.147	100.38
366.373	92.38
366.599	92.38
366.826	92.38
367.052	94.38
367.278	97.38
367.505	91.38
367.731	92.38
367.957	93.38
368.184	94.38
368.41	91.38
368.636	103.38
368.862	84.38
369.089	94.38
369.315	93.38
369.541	113.38
369.767	85.38
369.993	99.38
370.219	96.38
370.445	97.38
370.672	89.38
370.898	92.38
371.124	97.38
371.35	92.38
371.576	101.38
371.802	102.38
372.028	77.38
372.254	90.38
372.48	98.38
372.706	79.38
372.932	110.38
373.158	86.38
373.384	90.38
373.61	96.38
373.835	102.38
374.061	103.38
374.287	100.38
374.513	97.38
374.739	83.38
374.965	90.38
375.191	88.38
375.416	106.38
375.642	101.38
375.868	91.38
376.094	101.38
376.319	93.38
376.545	105.38
376.771	104.38
376.997	75.38
377.222	93.38
377.448	98.38
377.674	87.38
377.899	87.38
378.125	78.38
378.35	92.38
378.576	94.38
378.802	100.38
379.027	98.38
379.253	102.38
379.478	95.38
379.704	96.38
379.929	108.38
380.155	100.38
380.38	108.38
380.606	93.38
380.831	81.38
381.057	81.38
381.282	77.38
381.507	92.38
381.733	95.38
381.958	98.38
382.184	98.38
382.409	86.38
382.634	115.38
382.86	99.38
383.085	87.38
383.31	88.38
383.535	104.38
383.761	109.38
383.986	90.38
384.211	90.38
384.436	92.38
384.662	90.38
384.887	96.38
385.112	103.38
385.337	93.38
385.562	101.38
385.787	100.38
386.013	105.38
386.238	100.38
386.463	115.38
386.688	104.38
386.913	89.38
387.138	95.38
387.363	96.38
387.588	106.38
387.813	95.38
388.038	107.38
388.263	107.38
388.488	107.38
388.713	97.38
388.938	105.38
389.163	110.38
389.387	108.38
389.612	102.38
389.837	92.38
390.062	102.38
390.287	89.38
390.512	89.38
390.736	80.38
390.961	92.38
391.186	96.38
391.411	91.38
391.636	89.38
391.86	96.38
392.085	88.38
392.31	84.38
392.534	91.38
392.759	104.38
392.984	92.38
393.208	91.38
393.433	87.38
393.658	99.38
393.882	93.38
394.107	112.38
394.331	103.38
394.556	111.38
394.78	89.38
395.005	109.38
395.229	107.38
395.454	101.38
395.678	96.38
395.903	88.38
396.127	84.38
396.352	105.38
396.576	94.38
396.801	111.38
397.025	88.38
397.249	103.38
397.474	93.38
397.698	108.38
397.922	104.38
398.147	104.38
398.371	98.38
398.595	91.38
398.82	85.38
399.044	104.38
399.268	89.38
399.492	107.38
399.717	104.38
399.941	115.38
400.165	103.38
400.389	87.38
400.613	91.38
400.837	92.38
401.062	89.38
401.286	90.38
401.51	106.38
401.734	89.38
401.958	97.38
402.182	105.38
402.406	103.38
402.63	87.38
402.854	101.38
403.078	104.38
403.302	88.38
403.526	113.38
403.75	111.38
403.974	99.38
404.198	93.38
404.422	105.38
404.645	117.38
404.869	115.38
405.093	111.38
405.317	95.38
405.541	92.38
405.765	86.38
405.988	87.38
406.212	100.38
406.436	117.38
406.66	103.38
406.883	108.38
407.107	101.38
407.331	109.38
407.555	117.38
407.778	98.38
408.002	107.38
408.226	99.38
408.449	107.38
408.673	104.38
408.896	100.38
409.12	113.38
409.344	98.38
409.567	95.38
409.791	111.38
410.014	103.38
410.238	104.38
410.461	90.38
410.685	95.38
410.908	97.38
411.132	113.38
411.355	102.38
411.578	92.38
411.802	94.38
412.025	111.38
412.249	99.38
412.472	91.38
412.695	95.38
412.919	91.38
413.142	96.38
413.365	109.38
413.589	94.38
413.812	89.38
414.035	99.38
414.258	91.38
414.482	94.38
414.705	104.38
414.928	100.38
415.151	109.38
415.374	97.38
415.597	102.38
415.821	101.38
416.044	94.38
416.267	95.38
416.49	90.38
416.713	104.38
416.936	82.38
417.159	95.38
417.382	107.38
417.605	102.38
417.828	103.38
418.051	77.38
418.274	96.38
418.497	102.38
418.72	106.38
418.943	96.38
419.166	97.38
419.389	111.38
419.611	104.38
419.834	107.38
420.057	108.38
420.28	95.38
420.503	99.38
420.726	80.38
420.948	109.38
421.171	97.38
421.394	96.38
421.617	93.38
421.839	84.38
422.062	82.38
422.285	99.38
422.507	88.38
422.73	90.38
422.953	109.38
423.175	90.38
423.398	88.38
423.621	99.38
423.843	98.38
424.066	104.38
424.288	94.38
424.511	93.38
424.733	106.38
424.956	108.38
425.178	93.38
425.401	101.38
425.623	84.38
425.846	106.38
426.068	99.38
426.291	108.38
426.513	104.38
426.735	87.38
426.958	93.38
427.18	87.38
427.402	93.38
427.625	91.38
427.847	87.38
428.069	100.38
428.292	98.38
428.514	92.38
428.736	99.38
428.958	88.38
429.181	112.38
429.403	83.38
429.625	87.38
429.847	95.38
430.069	99.38
430.292	91.38
430.514	77.38
430.736	88.38
430.958	96.38
431.18	92.38
431.402	83.38
431.624	103.38
431.846	103.38
432.068	87.38
432.29	87.38
432.512	100.38
432.734	99.38
432.956	90.38
433.178	92.38
433.4	95.38
433.622	108.38
433.844	104.38
434.066	95.38
434.287	106.38
434.509	87.38
434.731	91.38
434.953	98.38
435.175	95.38
435.397	95.38
435.618	98.38
435.84	82.38
436.062	95.38
436.284	92.38
436.505	95.38
436.727	97.38
436.949	101.38
437.17	83.38
437.392	83.38
437.614	101.38
437.835	93.38
438.057	106.38
438.278	91.38
438.5	100.38
438.721	97.38
438.943	108.38
439.165	106.38
439.386	79.38
439.608	105.38
439.829	100.38
440.05	90.38
440.272	92.38
440.493	102.38
440.715	92.38
440.936	92.38
441.158	90.38
441.379	90.38
441.6	102.38
441.822	105.38
442.043	111.38
442.264	80.38
442.486	104.38
442.707	92.38
442.928	105.38
443.149	88.38
443.371	115.38
443.592	105.38
443.813	92.38
444.034	98.38
444.255	113.38
444.476	101.38
444.698	107.38
444.919	88.38
445.14	220.38
445.361	164.38
445.582	93.38
445.803	100.38
446.024	100.38
446.245	80.38
446.466	103.38
446.687	82.38
446.908	90.38
447.129	93.38
447.35	69.38
447.571	95.38
447.792	105.38
448.013	97.38
448.234	104.38
448.455	97.38
448.675	99.38
448.896	85.38
449.117	95.38
449.338	108.38
449.559	100.38
449.779	95.38
450	97.38
450.221	76.38
450.442	101.38
450.662	94.38
450.883	102.38
451.104	92.38
451.324	85.38
451.545	89.38
451.766	95.38
451.986	108.38
452.207	94.38
452.428	91.38
452.648	99.38
452.869	103.38
453.089	92.38
453.31	93.38
453.53	102.38
453.751	103.38
453.971	99.38
454.192	102.38
454.412	98.38
454.633	78.38
454.853	101.38
455.073	93.38
455.294	93.38
455.514	91.38
455.734	86.38
455.955	111.38
456.175	95.38
456.395	93.38
456.616	96.38
456.836	101.38
457.056	95.38
457.276	94.38
457.497	103.38
457.717	89.38
457.937	90.38
458.157	96.38
458.377	91.38
458.598	108.38
458.818	93.38
459.038	93.38
459.258	98.38
459.478	103.38
459.698	80.38
459.918	93.38
460.138	106.38
460.358	111.38
460.578	107.38
460.798	96.38
461.018	125.38
461.238	95.38
461.458	92.38
461.678	102.38
461.898	107.38
462.118	105.38
462.338	107.38
462.558	92.38
462.777	100.38
462.997	112.38
463.217	107.38
463.437	111.38
463.657	107.38
463.876	91.38
464.096	115.38
464.316	92.38
464.536	122.38
464.755	113.38
464.975	100.38
465.195	100.38
465.414	102.38
465.634	100.38
465.854	95.38
466.073	103.38
466.293	112.38
466.512	111.38
466.732	101.38
466.951	107.38
467.171	92.38
467.391	89.38
467.61	101.38
467.829	114.38
468.049	108.38
468.268	113.38
468.488	98.38
468.707	95.38
468.927	106.38
469.146	111.38
469.365	106.38
469.585	100.38
469.804	107.38
470.023	113.38
470.243	99.38
470.462	87.38
470.681	103.38
470.901	103.38
471.12	95.38
471.339	104.38
471.558	99.38
471.777	102.38
471.997	95.38
472.216	107.38
472.435	98.38
472.654	93.38
472.873	99.38
473.092	109.38
473.311	92.38
473.53	106.38
473.749	111.38
473.968	109.38
474.187	109.38
474.406	99.38
474.625	114.38
474.844	108.38
475.063	108.38
475.282	83.38
475.501	104.38
475.72	106.38
475.939	103.38
476.158	96.38
476.377	92.38
476.596	99.38
476.814	98.38
477.033	84.38
477.252	115.38
477.471	99.38
477.69	107.38
477.908	93.38
478.127	96.38
478.346	89.38
478.564	107.38
478.783	92.38
479.002	106.38
479.22	95.38
479.439	105.38
479.658	102.38
479.876	100.38
480.095	101.38
480.313	115.38
480.532	100.38
480.751	100.38
480.969	102.38
481.188	95.38
481.406	107.38
481.624	109.38
481.843	91.38
482.061	95.38
482.28	105.38
482.498	105.38
482.717	95.38
482.935	106.38
483.153	119.38
483.372	106.38
483.59	101.38
483.808	113.38
484.027	114.38
484.245	104.38
484.463	97.38
484.681	109.38
484.9	103.38
485.118	109.38
485.336	106.38
485.554	112.38
485.772	95.38
485.99	100.38
486.209	107.38
486.427	91.38
486.645	89.38
486.863	100.38
487.081	98.38
487.299	105.38
487.517	119.38
487.735	102.38
487.953	122.38
488.171	105.38
488.389	91.38
488.607	112.38
488.825	96.38
489.043	96.38
489.261	105.38
489.479	109.38
489.696	115.38
489.914	106.38
490.132	118.38
490.35	105.38
490.568	98.38
490.786	103.38
491.003	112.38
491.221	97.38
491.439	102.38
491.657	100.38
491.874	112.38
492.092	122.38
492.31	127.38
492.527	119.38
492.745	117.38
492.963	121.38
493.18	103.38
493.398	103.38
493.615	105.38
493.833	116.38
494.05	109.38
494.268	120.38
494.485	100.38
494.703	115.38
494.92	123.38
495.138	107.38
495.355	107.38
495.573	114.38
495.79	112.38
496.008	123.38
496.225	125.38
496.442	107.38
496.66	119.38
496.877	117.38
497.094	138.38
497.312	121.38
497.529	120.38
497.746	108.38
497.963	127.38
498.181	124.38
498.398	113.38
498.615	127.38
498.832	113.38
499.049	131.38
499.267	115.38
499.484	122.38
499.701	137.38
499.918	159.38
500.135	137.38
500.352	145.38
500.569	149.38
500.786	153.38
501.003	153.38
501.22	147.38
501.437	133.38
501.654	122.38
501.871	137.38
502.088	113.38
502.305	124.38
502.522	124.38
502.739	112.38
502.956	125.38
503.172	116.38
503.389	119.38
503.606	120.38
503.823	100.38
504.04	112.38
504.256	105.38
504.473	119.38
504.69	113.38
504.907	112.38
505.123	113.38
505.34	104.38
505.557	107.38
505.773	105.38
505.99	109.38
506.207	112.38
506.423	98.38
506.64	113.38
506.856	116.38
507.073	106.38
507.289	116.38
507.506	109.38
507.722	104.38
507.939	102.38
508.155	102.38
508.372	108.38
508.588	120.38
508.805	92.38
509.021	113.38
509.238	109.38
509.454	115.38
509.67	98.38
509.887	90.38
510.103	97.38
510.319	100.38
510.536	99.38
510.752	109.38
510.968	99.38
511.184	95.38
511.401	95.38
511.617	111.38
511.833	101.38
512.049	104.38
512.265	102.38
512.481	108.38
512.698	111.38
512.914	91.38
513.13	97.38
513.346	97.38
