Data from Location5.07152019.Energy5.Lamp.07192019.3%Agarose_HRD10591_16-04-30-629.txt Node
Date: Fri Jul 19 16:04:30 EDT 2019
User: cochatt
Spectrometer: HR+D1059
Trigger mode: 1
Integration Time (sec): 1.000000E-1
Scans to average: 1
Electric dark correction enabled: true
Nonlinearity correction enabled: false
Boxcar width: 0
XAxis mode: Wavelengths
Number of Pixels in Spectrum: 2048
>>>>>Begin Spectral Data<<<<<
223.165	-8.75
223.4	-8.75
223.635	-8.75
223.869	-13.75
224.104	-14.75
224.338	-14.75
224.573	-10.75
224.808	-20.75
225.042	-8.75
225.277	-10.75
225.511	-14.75
225.746	8.25
225.98	17.25
226.215	13.25
226.449	22.25
226.683	16.25
226.918	13.25
227.152	27.25
227.387	26.25
227.621	35.25
227.856	43.25
228.09	37.25
228.324	45.25
228.559	50.25
228.793	64.25
229.027	63.25
229.262	66.25
229.496	60.25
229.73	66.25
229.964	69.25
230.199	77.25
230.433	64.25
230.667	86.25
230.901	73.25
231.136	92.25
231.37	82.25
231.604	84.25
231.838	84.25
232.072	85.25
232.306	86.25
232.541	77.25
232.775	79.25
233.009	82.25
233.243	91.25
233.477	89.25
233.711	89.25
233.945	87.25
234.179	77.25
234.413	73.25
234.647	89.25
234.881	89.25
235.115	89.25
235.349	84.25
235.583	83.25
235.817	81.25
236.051	87.25
236.285	83.25
236.519	77.25
236.753	75.25
236.987	70.25
237.221	73.25
237.455	72.25
237.689	82.25
237.922	71.25
238.156	81.25
238.39	85.25
238.624	72.25
238.858	63.25
239.091	64.25
239.325	85.25
239.559	81.25
239.793	79.25
240.027	73.25
240.26	82.25
240.494	68.25
240.728	73.25
240.961	71.25
241.195	71.25
241.429	70.25
241.662	68.25
241.896	76.25
242.13	74.25
242.363	75.25
242.597	80.25
242.83	77.25
243.064	86.25
243.298	84.25
243.531	84.25
243.765	84.25
243.998	82.25
244.232	77.25
244.465	83.25
244.699	84.25
244.932	86.25
245.166	81.25
245.399	88.25
245.633	61.25
245.866	69.25
246.099	82.25
246.333	69.25
246.566	96.25
246.8	85.25
247.033	77.25
247.266	73.25
247.5	98.25
247.733	86.25
247.966	101.25
248.2	78.25
248.433	83.25
248.666	95.25
248.899	88.25
249.133	85.25
249.366	84.25
249.599	74.25
249.832	82.25
250.066	100.25
250.299	77.25
250.532	80.25
250.765	60.25
250.998	64.25
251.231	96.25
251.465	81.25
251.698	85.25
251.931	74.25
252.164	77.25
252.397	85.25
252.63	91.25
252.863	80.25
253.096	81.25
253.329	82.25
253.562	76.25
253.795	79.25
254.028	97.25
254.261	89.25
254.494	85.25
254.727	78.25
254.96	72.25
255.193	88.25
255.426	93.25
255.659	86.25
255.892	93.25
256.124	83.25
256.357	73.25
256.59	75.25
256.823	77.25
257.056	87.25
257.289	84.25
257.521	64.25
257.754	76.25
257.987	95.25
258.22	86.25
258.452	92.25
258.685	88.25
258.918	78.25
259.151	98.25
259.383	76.25
259.616	65.25
259.849	88.25
260.081	70.25
260.314	71.25
260.547	80.25
260.779	71.25
261.012	85.25
261.244	76.25
261.477	89.25
261.71	73.25
261.942	69.25
262.175	79.25
262.407	92.25
262.64	98.25
262.872	96.25
263.105	67.25
263.337	89.25
263.57	88.25
263.802	74.25
264.035	91.25
264.267	87.25
264.499	78.25
264.732	83.25
264.964	88.25
265.197	99.25
265.429	83.25
265.661	75.25
265.894	77.25
266.126	96.25
266.358	76.25
266.591	94.25
266.823	85.25
267.055	90.25
267.287	85.25
267.52	92.25
267.752	90.25
267.984	99.25
268.216	103.25
268.448	100.25
268.681	77.25
268.913	84.25
269.145	92.25
269.377	76.25
269.609	83.25
269.841	74.25
270.073	81.25
270.306	91.25
270.538	86.25
270.77	82.25
271.002	79.25
271.234	75.25
271.466	82.25
271.698	88.25
271.93	87.25
272.162	89.25
272.394	94.25
272.626	92.25
272.858	75.25
273.09	86.25
273.322	74.25
273.553	80.25
273.785	91.25
274.017	95.25
274.249	66.25
274.481	88.25
274.713	88.25
274.945	74.25
275.176	84.25
275.408	81.25
275.64	82.25
275.872	91.25
276.104	83.25
276.335	89.25
276.567	79.25
276.799	83.25
277.031	84.25
277.262	87.25
277.494	91.25
277.726	79.25
277.957	98.25
278.189	75.25
278.421	89.25
278.652	84.25
278.884	76.25
279.115	95.25
279.347	93.25
279.579	89.25
279.81	81.25
280.042	84.25
280.273	88.25
280.505	73.25
280.736	93.25
280.968	91.25
281.199	81.25
281.431	95.25
281.662	95.25
281.894	90.25
282.125	77.25
282.356	88.25
282.588	85.25
282.819	85.25
283.051	96.25
283.282	90.25
283.513	80.25
283.745	79.25
283.976	88.25
284.207	88.25
284.439	97.25
284.67	94.25
284.901	86.25
285.132	87.25
285.364	97.25
285.595	89.25
285.826	83.25
286.057	79.25
286.288	84.25
286.52	95.25
286.751	87.25
286.982	79.25
287.213	83.25
287.444	83.25
287.675	82.25
287.906	87.25
288.138	88.25
288.369	76.25
288.6	88.25
288.831	85.25
289.062	88.25
289.293	94.25
289.524	91.25
289.755	93.25
289.986	74.25
290.217	95.25
290.448	101.25
290.679	103.25
290.91	93.25
291.141	87.25
291.371	72.25
291.602	87.25
291.833	90.25
292.064	94.25
292.295	80.25
292.526	87.25
292.757	80.25
292.987	89.25
293.218	80.25
293.449	85.25
293.68	92.25
293.91	100.25
294.141	93.25
294.372	90.25
294.603	104.25
294.833	95.25
295.064	91.25
295.295	79.25
295.525	69.25
295.756	95.25
295.987	80.25
296.217	90.25
296.448	82.25
296.679	83.25
296.909	85.25
297.14	92.25
297.37	86.25
297.601	91.25
297.831	98.25
298.062	88.25
298.292	93.25
298.523	92.25
298.753	94.25
298.984	84.25
299.214	106.25
299.445	101.25
299.675	94.25
299.905	92.25
300.136	95.25
300.366	88.25
300.597	97.25
300.827	97.25
301.057	90.25
301.288	85.25
301.518	105.25
301.748	88.25
301.979	99.25
302.209	88.25
302.439	92.25
302.669	96.25
302.9	83.25
303.13	75.25
303.36	89.25
303.59	99.25
303.82	91.25
304.051	90.25
304.281	90.25
304.511	101.25
304.741	97.25
304.971	93.25
305.201	109.25
305.431	90.25
305.661	88.25
305.891	90.25
306.121	87.25
306.352	96.25
306.582	73.25
306.812	90.25
307.042	94.25
307.272	82.25
307.502	99.25
307.731	87.25
307.961	82.25
308.191	99.25
308.421	85.25
308.651	87.25
308.881	96.25
309.111	86.25
309.341	75.25
309.571	78.25
309.8	93.25
310.03	84.25
310.26	85.25
310.49	87.25
310.72	85.25
310.949	85.25
311.179	86.25
311.409	87.25
311.639	90.25
311.868	89.25
312.098	88.25
312.328	97.25
312.557	91.25
312.787	79.25
313.017	108.25
313.246	100.25
313.476	94.25
313.706	84.25
313.935	74.25
314.165	89.25
314.394	92.25
314.624	75.25
314.853	89.25
315.083	90.25
315.312	87.25
315.542	91.25
315.771	96.25
316.001	85.25
316.23	88.25
316.46	95.25
316.689	83.25
316.919	85.25
317.148	89.25
317.377	89.25
317.607	90.25
317.836	101.25
318.065	92.25
318.295	98.25
318.524	78.25
318.753	84.25
318.983	79.25
319.212	73.25
319.441	75.25
319.67	80.25
319.9	89.25
320.129	90.25
320.358	95.25
320.587	88.25
320.816	93.25
321.046	93.25
321.275	90.25
321.504	87.25
321.733	102.25
321.962	83.25
322.191	91.25
322.42	115.25
322.649	99.25
322.878	91.25
323.108	84.25
323.337	87.25
323.566	85.25
323.795	81.25
324.024	77.25
324.253	90.25
324.482	93.25
324.71	101.25
324.939	92.25
325.168	85.25
325.397	87.25
325.626	90.25
325.855	84.25
326.084	99.25
326.313	109.25
326.542	89.25
326.77	80.25
326.999	94.25
327.228	98.25
327.457	75.25
327.686	97.25
327.914	100.25
328.143	85.25
328.372	77.25
328.6	85.25
328.829	104.25
329.058	89.25
329.287	84.25
329.515	88.25
329.744	95.25
329.972	80.25
330.201	95.25
330.43	89.25
330.658	97.25
330.887	97.25
331.115	90.25
331.344	92.25
331.572	107.25
331.801	86.25
332.03	87.25
332.258	100.25
332.486	97.25
332.715	84.25
332.943	90.25
333.172	86.25
333.4	87.25
333.629	89.25
333.857	100.25
334.085	92.25
334.314	94.25
334.542	81.25
334.771	93.25
334.999	91.25
335.227	101.25
335.455	95.25
335.684	100.25
335.912	87.25
336.14	96.25
336.369	112.25
336.597	75.25
336.825	91.25
337.053	91.25
337.281	81.25
337.51	92.25
337.738	103.25
337.966	85.25
338.194	96.25
338.422	90.25
338.65	99.25
338.878	107.25
339.106	92.25
339.334	99.25
339.562	80.25
339.79	95.25
340.018	95.25
340.246	91.25
340.474	79.25
340.702	101.25
340.93	91.25
341.158	82.25
341.386	89.25
341.614	80.25
341.842	87.25
342.07	93.25
342.298	95.25
342.526	97.25
342.754	96.25
342.981	92.25
343.209	93.25
343.437	90.25
343.665	80.25
343.893	91.25
344.12	98.25
344.348	102.25
344.576	94.25
344.804	106.25
345.031	85.25
345.259	92.25
345.487	86.25
345.714	93.25
345.942	101.25
346.17	82.25
346.397	77.25
346.625	112.25
346.853	88.25
347.08	88.25
347.308	91.25
347.535	95.25
347.763	93.25
347.99	81.25
348.218	88.25
348.445	79.25
348.673	88.25
348.9	98.25
349.128	83.25
349.355	84.25
349.583	88.25
349.81	97.25
350.037	78.25
350.265	89.25
350.492	84.25
350.72	100.25
350.947	87.25
351.174	89.25
351.402	93.25
351.629	94.25
351.856	91.25
352.083	97.25
352.311	88.25
352.538	85.25
352.765	92.25
352.992	89.25
353.22	94.25
353.447	93.25
353.674	91.25
353.901	98.25
354.128	92.25
354.355	93.25
354.583	95.25
354.81	74.25
355.037	95.25
355.264	79.25
355.491	75.25
355.718	85.25
355.945	92.25
356.172	80.25
356.399	96.25
356.626	85.25
356.853	91.25
357.08	95.25
357.307	87.25
357.534	86.25
357.761	84.25
357.988	95.25
358.215	102.25
358.441	94.25
358.668	91.25
358.895	91.25
359.122	99.25
359.349	87.25
359.576	95.25
359.802	90.25
360.029	84.25
360.256	100.25
360.483	78.25
360.709	97.25
360.936	101.25
361.163	94.25
361.39	90.25
361.616	111.25
361.843	87.25
362.07	100.25
362.296	115.25
362.523	99.25
362.749	93.25
362.976	89.25
363.203	81.25
363.429	95.25
363.656	95.25
363.882	77.25
364.109	88.25
364.335	99.25
364.562	87.25
364.788	90.25
365.015	92.25
365.241	97.25
365.468	77.25
365.694	89.25
365.92	96.25
366.147	106.25
366.373	83.25
366.599	96.25
366.826	88.25
367.052	96.25
367.278	85.25
367.505	84.25
367.731	94.25
367.957	92.25
368.184	93.25
368.41	80.25
368.636	95.25
368.862	98.25
369.089	81.25
369.315	83.25
369.541	99.25
369.767	90.25
369.993	83.25
370.219	102.25
370.445	107.25
370.672	104.25
370.898	85.25
371.124	85.25
371.35	81.25
371.576	97.25
371.802	95.25
372.028	98.25
372.254	95.25
372.48	82.25
372.706	99.25
372.932	94.25
373.158	88.25
373.384	94.25
373.61	94.25
373.835	83.25
374.061	82.25
374.287	86.25
374.513	83.25
374.739	91.25
374.965	78.25
375.191	101.25
375.416	93.25
375.642	100.25
375.868	89.25
376.094	92.25
376.319	80.25
376.545	81.25
376.771	87.25
376.997	92.25
377.222	91.25
377.448	96.25
377.674	87.25
377.899	88.25
378.125	86.25
378.35	90.25
378.576	94.25
378.802	66.25
379.027	85.25
379.253	100.25
379.478	85.25
379.704	82.25
379.929	89.25
380.155	89.25
380.38	95.25
380.606	94.25
380.831	96.25
381.057	80.25
381.282	83.25
381.507	80.25
381.733	80.25
381.958	89.25
382.184	100.25
382.409	91.25
382.634	81.25
382.86	98.25
383.085	91.25
383.31	92.25
383.535	93.25
383.761	97.25
383.986	98.25
384.211	99.25
384.436	95.25
384.662	104.25
384.887	85.25
385.112	94.25
385.337	96.25
385.562	99.25
385.787	93.25
386.013	92.25
386.238	96.25
386.463	90.25
386.688	109.25
386.913	99.25
387.138	103.25
387.363	93.25
387.588	90.25
387.813	104.25
388.038	87.25
388.263	86.25
388.488	91.25
388.713	94.25
388.938	88.25
389.163	98.25
389.387	92.25
389.612	103.25
389.837	86.25
390.062	88.25
390.287	84.25
390.512	90.25
390.736	94.25
390.961	90.25
391.186	89.25
391.411	95.25
391.636	89.25
391.86	94.25
392.085	98.25
392.31	104.25
392.534	88.25
392.759	95.25
392.984	88.25
393.208	85.25
393.433	112.25
393.658	96.25
393.882	96.25
394.107	95.25
394.331	107.25
394.556	91.25
394.78	93.25
395.005	95.25
395.229	80.25
395.454	95.25
395.678	95.25
395.903	90.25
396.127	109.25
396.352	93.25
396.576	104.25
396.801	93.25
397.025	88.25
397.249	103.25
397.474	99.25
397.698	94.25
397.922	91.25
398.147	88.25
398.371	84.25
398.595	85.25
398.82	75.25
399.044	104.25
399.268	91.25
399.492	99.25
399.717	92.25
399.941	104.25
400.165	108.25
400.389	103.25
400.613	92.25
400.837	82.25
401.062	101.25
401.286	113.25
401.51	87.25
401.734	92.25
401.958	87.25
402.182	96.25
402.406	96.25
402.63	100.25
402.854	100.25
403.078	115.25
403.302	97.25
403.526	118.25
403.75	101.25
403.974	92.25
404.198	91.25
404.422	91.25
404.645	102.25
404.869	90.25
405.093	102.25
405.317	97.25
405.541	97.25
405.765	88.25
405.988	85.25
406.212	84.25
406.436	87.25
406.66	83.25
406.883	96.25
407.107	107.25
407.331	94.25
407.555	95.25
407.778	109.25
408.002	102.25
408.226	91.25
408.449	97.25
408.673	97.25
408.896	86.25
409.12	92.25
409.344	103.25
409.567	103.25
409.791	100.25
410.014	92.25
410.238	88.25
410.461	101.25
410.685	104.25
410.908	90.25
411.132	94.25
411.355	96.25
411.578	111.25
411.802	114.25
412.025	107.25
412.249	107.25
412.472	84.25
412.695	79.25
412.919	104.25
413.142	103.25
413.365	119.25
413.589	107.25
413.812	93.25
414.035	99.25
414.258	67.25
414.482	95.25
414.705	87.25
414.928	104.25
415.151	97.25
415.374	100.25
415.597	105.25
415.821	90.25
416.044	99.25
416.267	101.25
416.49	111.25
416.713	94.25
416.936	78.25
417.159	90.25
417.382	106.25
417.605	80.25
417.828	95.25
418.051	91.25
418.274	100.25
418.497	92.25
418.72	78.25
418.943	100.25
419.166	112.25
419.389	91.25
419.611	95.25
419.834	92.25
420.057	83.25
420.28	99.25
420.503	86.25
420.726	107.25
420.948	109.25
421.171	95.25
421.394	88.25
421.617	97.25
421.839	88.25
422.062	86.25
422.285	88.25
422.507	85.25
422.73	96.25
422.953	108.25
423.175	97.25
423.398	97.25
423.621	88.25
423.843	87.25
424.066	101.25
424.288	89.25
424.511	94.25
424.733	107.25
424.956	98.25
425.178	85.25
425.401	98.25
425.623	99.25
425.846	93.25
426.068	100.25
426.291	102.25
426.513	96.25
426.735	103.25
426.958	107.25
427.18	97.25
427.402	104.25
427.625	95.25
427.847	96.25
428.069	99.25
428.292	81.25
428.514	83.25
428.736	96.25
428.958	102.25
429.181	92.25
429.403	94.25
429.625	108.25
429.847	89.25
430.069	100.25
430.292	101.25
430.514	92.25
430.736	93.25
430.958	93.25
431.18	101.25
431.402	100.25
431.624	87.25
431.846	107.25
432.068	98.25
432.29	72.25
432.512	101.25
432.734	94.25
432.956	92.25
433.178	88.25
433.4	97.25
433.622	107.25
433.844	80.25
434.066	95.25
434.287	103.25
434.509	96.25
434.731	89.25
434.953	100.25
435.175	85.25
435.397	91.25
435.618	90.25
435.84	90.25
436.062	86.25
436.284	79.25
436.505	95.25
436.727	85.25
436.949	99.25
437.17	87.25
437.392	103.25
437.614	89.25
437.835	84.25
438.057	91.25
438.278	98.25
438.5	108.25
438.721	91.25
438.943	108.25
439.165	97.25
439.386	91.25
439.608	89.25
439.829	97.25
440.05	86.25
440.272	112.25
440.493	88.25
440.715	97.25
440.936	88.25
441.158	98.25
441.379	100.25
441.6	117.25
441.822	87.25
442.043	96.25
442.264	92.25
442.486	92.25
442.707	103.25
442.928	91.25
443.149	91.25
443.371	92.25
443.592	89.25
443.813	100.25
444.034	113.25
444.255	108.25
444.476	93.25
444.698	99.25
444.919	95.25
445.14	208.25
445.361	151.25
445.582	104.25
445.803	89.25
446.024	94.25
446.245	93.25
446.466	80.25
446.687	82.25
446.908	92.25
447.129	106.25
447.35	88.25
447.571	83.25
447.792	102.25
448.013	88.25
448.234	93.25
448.455	99.25
448.675	82.25
448.896	89.25
449.117	101.25
449.338	75.25
449.559	95.25
449.779	92.25
450	80.25
450.221	102.25
450.442	90.25
450.662	98.25
450.883	92.25
451.104	99.25
451.324	85.25
451.545	100.25
451.766	95.25
451.986	85.25
452.207	96.25
452.428	91.25
452.648	99.25
452.869	86.25
453.089	94.25
453.31	80.25
453.53	84.25
453.751	98.25
453.971	97.25
454.192	87.25
454.412	90.25
454.633	88.25
454.853	95.25
455.073	84.25
455.294	94.25
455.514	105.25
455.734	95.25
455.955	88.25
456.175	89.25
456.395	98.25
456.616	72.25
456.836	88.25
457.056	89.25
457.276	112.25
457.497	83.25
457.717	90.25
457.937	85.25
458.157	88.25
458.377	92.25
458.598	77.25
458.818	89.25
459.038	94.25
459.258	99.25
459.478	105.25
459.698	93.25
459.918	104.25
460.138	91.25
460.358	90.25
460.578	91.25
460.798	89.25
461.018	95.25
461.238	91.25
461.458	100.25
461.678	88.25
461.898	106.25
462.118	94.25
462.338	98.25
462.558	88.25
462.777	86.25
462.997	105.25
463.217	100.25
463.437	85.25
463.657	90.25
463.876	101.25
464.096	80.25
464.316	91.25
464.536	102.25
464.755	99.25
464.975	100.25
465.195	121.25
465.414	95.25
465.634	107.25
465.854	97.25
466.073	97.25
466.293	91.25
466.512	98.25
466.732	79.25
466.951	91.25
467.171	102.25
467.391	104.25
467.61	96.25
467.829	87.25
468.049	96.25
468.268	97.25
468.488	96.25
468.707	104.25
468.927	98.25
469.146	86.25
469.365	83.25
469.585	82.25
469.804	96.25
470.023	97.25
470.243	95.25
470.462	96.25
470.681	101.25
470.901	90.25
471.12	94.25
471.339	101.25
471.558	94.25
471.777	108.25
471.997	93.25
472.216	76.25
472.435	98.25
472.654	92.25
472.873	104.25
473.092	101.25
473.311	101.25
473.53	92.25
473.749	104.25
473.968	105.25
474.187	95.25
474.406	91.25
474.625	85.25
474.844	95.25
475.063	86.25
475.282	103.25
475.501	87.25
475.72	86.25
475.939	86.25
476.158	88.25
476.377	107.25
476.596	85.25
476.814	90.25
477.033	94.25
477.252	102.25
477.471	98.25
477.69	88.25
477.908	95.25
478.127	101.25
478.346	95.25
478.564	111.25
478.783	94.25
479.002	101.25
479.22	107.25
479.439	88.25
479.658	95.25
479.876	99.25
480.095	96.25
480.313	98.25
480.532	99.25
480.751	101.25
480.969	89.25
481.188	90.25
481.406	103.25
481.624	102.25
481.843	92.25
482.061	109.25
482.28	83.25
482.498	97.25
482.717	97.25
482.935	95.25
483.153	95.25
483.372	111.25
483.59	98.25
483.808	104.25
484.027	96.25
484.245	86.25
484.463	116.25
484.681	107.25
484.9	101.25
485.118	92.25
485.336	100.25
485.554	96.25
485.772	77.25
485.99	93.25
486.209	97.25
486.427	97.25
486.645	101.25
486.863	105.25
487.081	106.25
487.299	97.25
487.517	107.25
487.735	103.25
487.953	113.25
488.171	108.25
488.389	115.25
488.607	97.25
488.825	101.25
489.043	99.25
489.261	100.25
489.479	101.25
489.696	111.25
489.914	99.25
490.132	97.25
490.35	102.25
490.568	92.25
490.786	99.25
491.003	101.25
491.221	93.25
491.439	114.25
491.657	119.25
491.874	113.25
492.092	111.25
492.31	101.25
492.527	120.25
492.745	107.25
492.963	116.25
493.18	98.25
493.398	109.25
493.615	98.25
493.833	105.25
494.05	98.25
494.268	96.25
494.485	120.25
494.703	111.25
494.92	108.25
495.138	114.25
495.355	97.25
495.573	120.25
495.79	99.25
496.008	119.25
496.225	118.25
496.442	98.25
496.66	115.25
496.877	97.25
497.094	109.25
497.312	111.25
497.529	94.25
497.746	115.25
497.963	99.25
498.181	103.25
498.398	91.25
498.615	118.25
498.832	111.25
499.049	107.25
499.267	101.25
499.484	122.25
499.701	116.25
499.918	121.25
500.135	136.25
500.352	147.25
500.569	144.25
500.786	140.25
501.003	141.25
501.22	141.25
501.437	126.25
501.654	120.25
501.871	127.25
502.088	125.25
502.305	98.25
502.522	107.25
502.739	111.25
502.956	127.25
503.172	115.25
503.389	103.25
503.606	96.25
503.823	98.25
504.04	100.25
504.256	113.25
504.473	117.25
504.69	93.25
504.907	103.25
505.123	120.25
505.34	102.25
505.557	110.25
505.773	99.25
505.99	92.25
506.207	106.25
506.423	84.25
506.64	98.25
506.856	108.25
507.073	107.25
507.289	105.25
507.506	107.25
507.722	110.25
507.939	115.25
508.155	93.25
508.372	108.25
508.588	98.25
508.805	96.25
509.021	103.25
509.238	101.25
509.454	98.25
509.67	103.25
509.887	104.25
510.103	88.25
510.319	101.25
510.536	101.25
510.752	81.25
510.968	91.25
511.184	94.25
511.401	90.25
511.617	106.25
511.833	101.25
512.049	91.25
512.265	75.25
512.481	101.25
512.698	103.25
512.914	93.25
513.13	96.25
513.346	93.25
513.562	92.25
513.778	104.25
513.994	97.25
514.21	99.25
514.426	105.25
514.642	96.25
514.858	98.25
515.074	106.25
515.29	104.25
515.506	106.25
515.721	92.25
