Data from Location5.07152019.Energy5.Lamp.07192019.3%Agarose_HRD10591_15-37-53-387.txt Node
Date: Fri Jul 19 15:37:53 EDT 2019
User: cochatt
Spectrometer: HR+D1059
Trigger mode: 1
Integration Time (sec): 1.000000E-1
Scans to average: 1
Electric dark correction enabled: true
Nonlinearity correction enabled: false
Boxcar width: 0
XAxis mode: Wavelengths
Number of Pixels in Spectrum: 2048
>>>>>Begin Spectral Data<<<<<
223.165	-5.81
223.4	-5.81
223.635	-5.81
223.869	-9.81
224.104	-16.81
224.338	-33.81
224.573	-9.81
224.808	-9.81
225.042	-1.81
225.277	5.19
225.511	-2.81
225.746	-4.81
225.98	4.19
226.215	2.19
226.449	11.19
226.683	31.19
226.918	22.19
227.152	19.19
227.387	51.19
227.621	46.19
227.856	42.19
228.09	65.19
228.324	46.19
228.559	52.19
228.793	62.19
229.027	64.19
229.262	73.19
229.496	74.19
229.73	75.19
229.964	87.19
230.199	79.19
230.433	86.19
230.667	78.19
230.901	95.19
231.136	84.19
231.37	99.19
231.604	90.19
231.838	93.19
232.072	93.19
232.306	80.19
232.541	81.19
232.775	84.19
233.009	91.19
233.243	89.19
233.477	98.19
233.711	93.19
233.945	86.19
234.179	95.19
234.413	91.19
234.647	93.19
234.881	97.19
235.115	71.19
235.349	90.19
235.583	75.19
235.817	77.19
236.051	95.19
236.285	99.19
236.519	76.19
236.753	76.19
236.987	88.19
237.221	75.19
237.455	76.19
237.689	72.19
237.922	78.19
238.156	90.19
238.39	74.19
238.624	92.19
238.858	85.19
239.091	82.19
239.325	83.19
239.559	89.19
239.793	96.19
240.027	89.19
240.26	74.19
240.494	70.19
240.728	88.19
240.961	85.19
241.195	83.19
241.429	86.19
241.662	70.19
241.896	69.19
242.13	71.19
242.363	79.19
242.597	81.19
242.83	85.19
243.064	74.19
243.298	86.19
243.531	82.19
243.765	78.19
243.998	94.19
244.232	86.19
244.465	75.19
244.699	77.19
244.932	83.19
245.166	86.19
245.399	75.19
245.633	79.19
245.866	87.19
246.099	87.19
246.333	79.19
246.566	91.19
246.8	67.19
247.033	82.19
247.266	80.19
247.5	76.19
247.733	78.19
247.966	85.19
248.2	85.19
248.433	91.19
248.666	77.19
248.899	76.19
249.133	90.19
249.366	86.19
249.599	98.19
249.832	90.19
250.066	74.19
250.299	79.19
250.532	82.19
250.765	80.19
250.998	83.19
251.231	82.19
251.465	69.19
251.698	79.19
251.931	80.19
252.164	76.19
252.397	71.19
252.63	84.19
252.863	92.19
253.096	87.19
253.329	82.19
253.562	82.19
253.795	79.19
254.028	80.19
254.261	77.19
254.494	83.19
254.727	98.19
254.96	83.19
255.193	90.19
255.426	80.19
255.659	85.19
255.892	83.19
256.124	72.19
256.357	87.19
256.59	78.19
256.823	74.19
257.056	78.19
257.289	78.19
257.521	77.19
257.754	78.19
257.987	79.19
258.22	80.19
258.452	92.19
258.685	95.19
258.918	87.19
259.151	91.19
259.383	85.19
259.616	90.19
259.849	91.19
260.081	91.19
260.314	92.19
260.547	93.19
260.779	91.19
261.012	90.19
261.244	86.19
261.477	91.19
261.71	83.19
261.942	78.19
262.175	75.19
262.407	87.19
262.64	76.19
262.872	84.19
263.105	76.19
263.337	89.19
263.57	80.19
263.802	82.19
264.035	99.19
264.267	84.19
264.499	85.19
264.732	86.19
264.964	92.19
265.197	93.19
265.429	87.19
265.661	92.19
265.894	80.19
266.126	92.19
266.358	85.19
266.591	93.19
266.823	88.19
267.055	91.19
267.287	80.19
267.52	83.19
267.752	94.19
267.984	74.19
268.216	86.19
268.448	98.19
268.681	83.19
268.913	82.19
269.145	89.19
269.377	82.19
269.609	81.19
269.841	92.19
270.073	84.19
270.306	93.19
270.538	90.19
270.77	94.19
271.002	98.19
271.234	82.19
271.466	86.19
271.698	99.19
271.93	99.19
272.162	93.19
272.394	93.19
272.626	85.19
272.858	90.19
273.09	88.19
273.322	78.19
273.553	85.19
273.785	83.19
274.017	86.19
274.249	91.19
274.481	81.19
274.713	95.19
274.945	90.19
275.176	84.19
275.408	95.19
275.64	87.19
275.872	89.19
276.104	76.19
276.335	83.19
276.567	82.19
276.799	88.19
277.031	79.19
277.262	87.19
277.494	88.19
277.726	89.19
277.957	83.19
278.189	90.19
278.421	77.19
278.652	86.19
278.884	86.19
279.115	102.19
279.347	86.19
279.579	86.19
279.81	77.19
280.042	93.19
280.273	92.19
280.505	88.19
280.736	91.19
280.968	105.19
281.199	85.19
281.431	92.19
281.662	96.19
281.894	92.19
282.125	93.19
282.356	96.19
282.588	83.19
282.819	80.19
283.051	90.19
283.282	82.19
283.513	96.19
283.745	79.19
283.976	86.19
284.207	94.19
284.439	82.19
284.67	86.19
284.901	86.19
285.132	72.19
285.364	84.19
285.595	91.19
285.826	86.19
286.057	102.19
286.288	92.19
286.52	89.19
286.751	89.19
286.982	106.19
287.213	88.19
287.444	88.19
287.675	79.19
287.906	79.19
288.138	82.19
288.369	91.19
288.6	71.19
288.831	76.19
289.062	84.19
289.293	94.19
289.524	84.19
289.755	66.19
289.986	81.19
290.217	87.19
290.448	84.19
290.679	90.19
290.91	84.19
291.141	94.19
291.371	76.19
291.602	89.19
291.833	89.19
292.064	91.19
292.295	86.19
292.526	111.19
292.757	80.19
292.987	102.19
293.218	73.19
293.449	92.19
293.68	88.19
293.91	89.19
294.141	83.19
294.372	87.19
294.603	75.19
294.833	95.19
295.064	79.19
295.295	86.19
295.525	89.19
295.756	96.19
295.987	89.19
296.217	94.19
296.448	87.19
296.679	91.19
296.909	69.19
297.14	81.19
297.37	98.19
297.601	75.19
297.831	80.19
298.062	83.19
298.292	99.19
298.523	90.19
298.753	101.19
298.984	94.19
299.214	79.19
299.445	96.19
299.675	90.19
299.905	94.19
300.136	76.19
300.366	86.19
300.597	100.19
300.827	89.19
301.057	90.19
301.288	86.19
301.518	70.19
301.748	90.19
301.979	102.19
302.209	98.19
302.439	89.19
302.669	82.19
302.9	86.19
303.13	76.19
303.36	106.19
303.59	98.19
303.82	87.19
304.051	92.19
304.281	95.19
304.511	87.19
304.741	91.19
304.971	92.19
305.201	89.19
305.431	89.19
305.661	97.19
305.891	76.19
306.121	85.19
306.352	82.19
306.582	88.19
306.812	89.19
307.042	82.19
307.272	93.19
307.502	85.19
307.731	88.19
307.961	95.19
308.191	96.19
308.421	75.19
308.651	95.19
308.881	89.19
309.111	95.19
309.341	78.19
309.571	82.19
309.8	87.19
310.03	93.19
310.26	73.19
310.49	80.19
310.72	95.19
310.949	77.19
311.179	85.19
311.409	87.19
311.639	99.19
311.868	81.19
312.098	96.19
312.328	98.19
312.557	89.19
312.787	83.19
313.017	98.19
313.246	91.19
313.476	98.19
313.706	83.19
313.935	84.19
314.165	81.19
314.394	103.19
314.624	88.19
314.853	93.19
315.083	90.19
315.312	80.19
315.542	82.19
315.771	94.19
316.001	79.19
316.23	89.19
316.46	81.19
316.689	86.19
316.919	77.19
317.148	81.19
317.377	95.19
317.607	98.19
317.836	96.19
318.065	94.19
318.295	83.19
318.524	90.19
318.753	84.19
318.983	92.19
319.212	73.19
319.441	85.19
319.67	83.19
319.9	96.19
320.129	88.19
320.358	97.19
320.587	84.19
320.816	88.19
321.046	92.19
321.275	95.19
321.504	96.19
321.733	79.19
321.962	82.19
322.191	94.19
322.42	100.19
322.649	87.19
322.878	85.19
323.108	79.19
323.337	84.19
323.566	71.19
323.795	91.19
324.024	88.19
324.253	93.19
324.482	97.19
324.71	98.19
324.939	85.19
325.168	89.19
325.397	85.19
325.626	94.19
325.855	86.19
326.084	86.19
326.313	91.19
326.542	79.19
326.77	77.19
326.999	86.19
327.228	90.19
327.457	88.19
327.686	103.19
327.914	89.19
328.143	99.19
328.372	85.19
328.6	80.19
328.829	77.19
329.058	72.19
329.287	90.19
329.515	94.19
329.744	97.19
329.972	77.19
330.201	99.19
330.43	90.19
330.658	71.19
330.887	94.19
331.115	86.19
331.344	80.19
331.572	84.19
331.801	93.19
332.03	86.19
332.258	80.19
332.486	80.19
332.715	76.19
332.943	82.19
333.172	98.19
333.4	89.19
333.629	88.19
333.857	90.19
334.085	90.19
334.314	90.19
334.542	88.19
334.771	91.19
334.999	102.19
335.227	87.19
335.455	82.19
335.684	100.19
335.912	97.19
336.14	72.19
336.369	88.19
336.597	95.19
336.825	100.19
337.053	90.19
337.281	85.19
337.51	71.19
337.738	86.19
337.966	82.19
338.194	88.19
338.422	96.19
338.65	83.19
338.878	82.19
339.106	94.19
339.334	90.19
339.562	90.19
339.79	74.19
340.018	106.19
340.246	102.19
340.474	75.19
340.702	84.19
340.93	92.19
341.158	101.19
341.386	87.19
341.614	101.19
341.842	89.19
342.07	73.19
342.298	87.19
342.526	90.19
342.754	81.19
342.981	81.19
343.209	83.19
343.437	77.19
343.665	96.19
343.893	85.19
344.12	87.19
344.348	84.19
344.576	99.19
344.804	86.19
345.031	92.19
345.259	78.19
345.487	91.19
345.714	95.19
345.942	105.19
346.17	76.19
346.397	96.19
346.625	85.19
346.853	93.19
347.08	85.19
347.308	95.19
347.535	93.19
347.763	98.19
347.99	84.19
348.218	95.19
348.445	80.19
348.673	88.19
348.9	85.19
349.128	100.19
349.355	99.19
349.583	86.19
349.81	86.19
350.037	81.19
350.265	77.19
350.492	83.19
350.72	71.19
350.947	85.19
351.174	79.19
351.402	80.19
351.629	93.19
351.856	103.19
352.083	93.19
352.311	81.19
352.538	82.19
352.765	89.19
352.992	99.19
353.22	99.19
353.447	91.19
353.674	82.19
353.901	91.19
354.128	85.19
354.355	97.19
354.583	101.19
354.81	87.19
355.037	85.19
355.264	83.19
355.491	105.19
355.718	90.19
355.945	91.19
356.172	91.19
356.399	80.19
356.626	93.19
356.853	105.19
357.08	85.19
357.307	96.19
357.534	90.19
357.761	85.19
357.988	89.19
358.215	99.19
358.441	94.19
358.668	91.19
358.895	90.19
359.122	85.19
359.349	89.19
359.576	87.19
359.802	89.19
360.029	96.19
360.256	76.19
360.483	93.19
360.709	84.19
360.936	89.19
361.163	100.19
361.39	93.19
361.616	89.19
361.843	80.19
362.07	82.19
362.296	83.19
362.523	90.19
362.749	80.19
362.976	100.19
363.203	85.19
363.429	81.19
363.656	77.19
363.882	91.19
364.109	100.19
364.335	84.19
364.562	102.19
364.788	89.19
365.015	83.19
365.241	99.19
365.468	91.19
365.694	92.19
365.92	101.19
366.147	84.19
366.373	92.19
366.599	80.19
366.826	79.19
367.052	108.19
367.278	88.19
367.505	99.19
367.731	95.19
367.957	94.19
368.184	83.19
368.41	91.19
368.636	95.19
368.862	97.19
369.089	95.19
369.315	83.19
369.541	94.19
369.767	77.19
369.993	89.19
370.219	79.19
370.445	94.19
370.672	98.19
370.898	82.19
371.124	80.19
371.35	84.19
371.576	91.19
371.802	84.19
372.028	84.19
372.254	89.19
372.48	90.19
372.706	78.19
372.932	82.19
373.158	80.19
373.384	94.19
373.61	80.19
373.835	96.19
374.061	85.19
374.287	98.19
374.513	92.19
374.739	90.19
374.965	88.19
375.191	87.19
375.416	80.19
375.642	90.19
375.868	92.19
376.094	91.19
376.319	90.19
376.545	90.19
376.771	78.19
376.997	86.19
377.222	85.19
377.448	84.19
377.674	103.19
377.899	85.19
378.125	90.19
378.35	88.19
378.576	93.19
378.802	90.19
379.027	91.19
379.253	84.19
379.478	79.19
379.704	99.19
379.929	86.19
380.155	97.19
380.38	101.19
380.606	83.19
380.831	103.19
381.057	101.19
381.282	77.19
381.507	91.19
381.733	82.19
381.958	85.19
382.184	91.19
382.409	95.19
382.634	103.19
382.86	86.19
383.085	85.19
383.31	80.19
383.535	115.19
383.761	89.19
383.986	92.19
384.211	102.19
384.436	92.19
384.662	87.19
384.887	91.19
385.112	83.19
385.337	87.19
385.562	95.19
385.787	80.19
386.013	93.19
386.238	84.19
386.463	76.19
386.688	84.19
386.913	84.19
387.138	81.19
387.363	95.19
387.588	100.19
387.813	99.19
388.038	92.19
388.263	81.19
388.488	92.19
388.713	104.19
388.938	85.19
389.163	86.19
389.387	81.19
389.612	92.19
389.837	80.19
390.062	91.19
390.287	106.19
390.512	95.19
390.736	98.19
390.961	92.19
391.186	100.19
391.411	100.19
391.636	108.19
391.86	101.19
392.085	83.19
392.31	87.19
392.534	92.19
392.759	101.19
392.984	84.19
393.208	85.19
393.433	79.19
393.658	103.19
393.882	88.19
394.107	85.19
394.331	93.19
394.556	94.19
394.78	86.19
395.005	91.19
395.229	102.19
395.454	101.19
395.678	103.19
395.903	91.19
396.127	89.19
396.352	93.19
396.576	95.19
396.801	95.19
397.025	85.19
397.249	95.19
397.474	88.19
397.698	91.19
397.922	84.19
398.147	89.19
398.371	87.19
398.595	90.19
398.82	92.19
399.044	96.19
399.268	93.19
399.492	94.19
399.717	84.19
399.941	99.19
400.165	94.19
400.389	95.19
400.613	108.19
400.837	95.19
401.062	94.19
401.286	92.19
401.51	98.19
401.734	88.19
401.958	87.19
402.182	101.19
402.406	90.19
402.63	103.19
402.854	82.19
403.078	92.19
403.302	98.19
403.526	89.19
403.75	92.19
403.974	90.19
404.198	94.19
404.422	94.19
404.645	76.19
404.869	87.19
405.093	88.19
405.317	95.19
405.541	85.19
405.765	94.19
405.988	106.19
406.212	103.19
406.436	95.19
406.66	104.19
406.883	101.19
407.107	84.19
407.331	92.19
407.555	79.19
407.778	97.19
408.002	105.19
408.226	78.19
408.449	87.19
408.673	104.19
408.896	104.19
409.12	90.19
409.344	109.19
409.567	100.19
409.791	114.19
410.014	101.19
410.238	74.19
410.461	101.19
410.685	99.19
410.908	102.19
411.132	99.19
411.355	97.19
411.578	101.19
411.802	88.19
412.025	108.19
412.249	106.19
412.472	100.19
412.695	82.19
412.919	92.19
413.142	108.19
413.365	93.19
413.589	87.19
413.812	101.19
414.035	98.19
414.258	88.19
414.482	102.19
414.705	87.19
414.928	89.19
415.151	92.19
415.374	95.19
415.597	86.19
415.821	91.19
416.044	92.19
416.267	100.19
416.49	91.19
416.713	99.19
416.936	97.19
417.159	100.19
417.382	95.19
417.605	91.19
417.828	85.19
418.051	97.19
418.274	103.19
418.497	106.19
418.72	92.19
418.943	95.19
419.166	102.19
419.389	87.19
419.611	99.19
419.834	91.19
420.057	93.19
420.28	90.19
420.503	87.19
420.726	105.19
420.948	112.19
421.171	102.19
421.394	97.19
421.617	86.19
421.839	83.19
422.062	100.19
422.285	100.19
422.507	99.19
422.73	106.19
422.953	99.19
423.175	96.19
423.398	95.19
423.621	95.19
423.843	91.19
424.066	91.19
424.288	100.19
424.511	102.19
424.733	96.19
424.956	102.19
425.178	104.19
425.401	95.19
425.623	104.19
425.846	102.19
426.068	96.19
426.291	98.19
426.513	102.19
426.735	110.19
426.958	104.19
427.18	101.19
427.402	97.19
427.625	109.19
427.847	75.19
428.069	94.19
428.292	106.19
428.514	95.19
428.736	87.19
428.958	110.19
429.181	106.19
429.403	91.19
429.625	99.19
429.847	90.19
430.069	98.19
430.292	103.19
430.514	91.19
430.736	83.19
430.958	102.19
431.18	85.19
431.402	99.19
431.624	96.19
431.846	94.19
432.068	88.19
432.29	85.19
432.512	81.19
432.734	94.19
432.956	95.19
433.178	101.19
433.4	91.19
433.622	90.19
433.844	78.19
434.066	90.19
434.287	108.19
434.509	81.19
434.731	92.19
434.953	104.19
435.175	84.19
435.397	101.19
435.618	90.19
435.84	96.19
436.062	99.19
436.284	93.19
436.505	94.19
436.727	95.19
436.949	99.19
437.17	99.19
437.392	115.19
437.614	93.19
437.835	88.19
438.057	87.19
438.278	91.19
438.5	103.19
438.721	109.19
438.943	96.19
439.165	95.19
439.386	100.19
439.608	95.19
439.829	99.19
440.05	93.19
440.272	102.19
440.493	106.19
440.715	97.19
440.936	108.19
441.158	105.19
441.379	103.19
441.6	99.19
441.822	116.19
442.043	110.19
442.264	95.19
442.486	99.19
442.707	98.19
442.928	95.19
443.149	108.19
443.371	104.19
443.592	102.19
443.813	97.19
444.034	102.19
444.255	91.19
444.476	109.19
444.698	94.19
444.919	104.19
445.14	224.19
445.361	151.19
445.582	95.19
445.803	97.19
446.024	77.19
446.245	104.19
446.466	100.19
446.687	110.19
446.908	107.19
447.129	111.19
447.35	112.19
447.571	104.19
447.792	99.19
448.013	96.19
448.234	89.19
448.455	88.19
448.675	69.19
448.896	103.19
449.117	95.19
449.338	103.19
449.559	94.19
449.779	106.19
450	83.19
450.221	97.19
450.442	93.19
450.662	92.19
450.883	91.19
451.104	105.19
451.324	94.19
451.545	99.19
451.766	98.19
451.986	96.19
452.207	105.19
452.428	85.19
452.648	89.19
452.869	86.19
453.089	81.19
453.31	99.19
453.53	110.19
453.751	80.19
453.971	109.19
454.192	85.19
454.412	94.19
454.633	96.19
454.853	91.19
455.073	101.19
455.294	99.19
455.514	88.19
455.734	86.19
455.955	100.19
456.175	95.19
456.395	103.19
456.616	89.19
456.836	109.19
457.056	93.19
457.276	75.19
457.497	95.19
457.717	91.19
457.937	95.19
458.157	101.19
458.377	96.19
458.598	80.19
458.818	88.19
459.038	90.19
459.258	91.19
459.478	89.19
459.698	95.19
459.918	86.19
460.138	100.19
460.358	99.19
460.578	106.19
460.798	95.19
461.018	96.19
461.238	105.19
461.458	103.19
461.678	95.19
461.898	103.19
462.118	90.19
462.338	82.19
462.558	92.19
462.777	85.19
462.997	86.19
463.217	90.19
463.437	103.19
463.657	85.19
463.876	93.19
464.096	95.19
464.316	99.19
464.536	90.19
464.755	97.19
464.975	87.19
465.195	101.19
465.414	94.19
465.634	92.19
465.854	87.19
466.073	112.19
466.293	107.19
466.512	92.19
466.732	95.19
466.951	95.19
467.171	91.19
467.391	90.19
467.61	97.19
467.829	102.19
468.049	99.19
468.268	95.19
468.488	98.19
468.707	88.19
468.927	91.19
469.146	106.19
469.365	117.19
469.585	94.19
469.804	107.19
470.023	80.19
470.243	98.19
470.462	108.19
470.681	81.19
470.901	95.19
471.12	108.19
471.339	101.19
471.558	99.19
471.777	106.19
471.997	93.19
472.216	87.19
472.435	91.19
472.654	93.19
472.873	95.19
473.092	104.19
473.311	107.19
473.53	92.19
473.749	109.19
473.968	82.19
474.187	99.19
474.406	94.19
474.625	100.19
474.844	116.19
475.063	109.19
475.282	98.19
475.501	97.19
475.72	110.19
475.939	82.19
476.158	100.19
476.377	86.19
476.596	89.19
476.814	91.19
477.033	104.19
477.252	90.19
477.471	100.19
477.69	103.19
477.908	101.19
478.127	111.19
478.346	104.19
478.564	112.19
478.783	92.19
479.002	109.19
479.22	91.19
479.439	98.19
479.658	107.19
479.876	99.19
480.095	95.19
480.313	92.19
480.532	110.19
480.751	89.19
480.969	87.19
481.188	91.19
481.406	82.19
481.624	88.19
481.843	94.19
482.061	95.19
482.28	94.19
482.498	95.19
482.717	99.19
482.935	100.19
483.153	102.19
483.372	103.19
483.59	107.19
483.808	95.19
484.027	105.19
484.245	103.19
484.463	98.19
484.681	116.19
484.9	99.19
485.118	99.19
485.336	83.19
485.554	80.19
485.772	87.19
485.99	113.19
486.209	95.19
486.427	99.19
486.645	91.19
486.863	105.19
487.081	105.19
487.299	98.19
487.517	115.19
487.735	106.19
487.953	119.19
488.171	116.19
488.389	111.19
488.607	119.19
488.825	104.19
489.043	114.19
489.261	99.19
489.479	82.19
489.696	87.19
489.914	110.19
490.132	105.19
490.35	111.19
490.568	109.19
490.786	109.19
491.003	116.19
491.221	110.19
491.439	109.19
491.657	105.19
491.874	125.19
492.092	123.19
492.31	137.19
492.527	127.19
492.745	119.19
492.963	122.19
493.18	118.19
493.398	102.19
493.615	125.19
493.833	108.19
494.05	114.19
494.268	118.19
494.485	99.19
494.703	118.19
494.92	108.19
495.138	105.19
495.355	108.19
495.573	114.19
495.79	111.19
496.008	109.19
496.225	100.19
496.442	102.19
496.66	97.19
496.877	112.19
497.094	101.19
497.312	100.19
497.529	105.19
497.746	118.19
497.963	97.19
498.181	91.19
498.398	95.19
498.615	102.19
498.832	94.19
499.049	106.19
499.267	97.19
499.484	97.19
499.701	107.19
499.918	106.19
500.135	94.19
500.352	101.19
500.569	98.19
500.786	87.19
501.003	98.19
501.22	100.19
501.437	92.19
501.654	103.19
501.871	102.19
502.088	104.19
502.305	108.19
502.522	112.19
502.739	92.19
502.956	86.19
503.172	96.19
503.389	96.19
503.606	100.19
503.823	91.19
504.04	105.19
504.256	102.19
504.473	104.19
504.69	101.19
504.907	109.19
505.123	91.19
505.34	100.19
505.557	109.19
505.773	94.19
505.99	85.19
506.207	86.19
506.423	80.19
506.64	98.19
506.856	98.19
507.073	93.19
507.289	101.19
507.506	96.19
507.722	95.19
507.939	92.19
508.155	87.19
508.372	91.19
508.588	107.19
508.805	99.19
509.021	86.19
509.238	100.19
509.454	91.19
509.67	104.19
509.887	90.19
510.103	83.19
510.319	98.19
510.536	83.19
510.752	81.19
510.968	103.19
511.184	91.19
511.401	92.19
511.617	91.19
511.833	92.19
512.049	94.19
512.265	93.19
512.481	105.19
512.698	80.19
512.914	100.19
513.13	101.19
513.346	79.19
513.562	103.19
513.778	96.19
513.994	90.19
514.21	94.19
514.426	94.19
514.642	93.19
514.858	85.19
515.074	79.19
515.29	92.19
515.506	88.19
515.721	90.19
515.937	93.19
