Data from Location5.07152019.Energy5.Lamp.07192019.3%Agarose_HRD10591_16-05-26-629.txt Node
Date: Fri Jul 19 16:05:26 EDT 2019
User: cochatt
Spectrometer: HR+D1059
Trigger mode: 1
Integration Time (sec): 1.000000E-1
Scans to average: 1
Electric dark correction enabled: true
Nonlinearity correction enabled: false
Boxcar width: 0
XAxis mode: Wavelengths
Number of Pixels in Spectrum: 2048
>>>>>Begin Spectral Data<<<<<
223.165	-12.88
223.4	-12.88
223.635	-12.88
223.869	-11.88
224.104	-9.88
224.338	-23.88
224.573	-10.88
224.808	-14.88
225.042	-14.88
225.277	-2.88
225.511	-6.88
225.746	17.12
225.98	-5.88
226.215	15.12
226.449	15.12
226.683	12.12
226.918	22.12
227.152	33.12
227.387	34.12
227.621	37.12
227.856	45.12
228.09	48.12
228.324	36.12
228.559	62.12
228.793	55.12
229.027	57.12
229.262	65.12
229.496	52.12
229.73	77.12
229.964	69.12
230.199	69.12
230.433	63.12
230.667	75.12
230.901	81.12
231.136	66.12
231.37	84.12
231.604	61.12
231.838	74.12
232.072	81.12
232.306	73.12
232.541	94.12
232.775	92.12
233.009	84.12
233.243	86.12
233.477	93.12
233.711	83.12
233.945	84.12
234.179	69.12
234.413	83.12
234.647	85.12
234.881	83.12
235.115	71.12
235.349	69.12
235.583	90.12
235.817	79.12
236.051	89.12
236.285	62.12
236.519	79.12
236.753	71.12
236.987	71.12
237.221	74.12
237.455	81.12
237.689	81.12
237.922	81.12
238.156	80.12
238.39	66.12
238.624	79.12
238.858	69.12
239.091	87.12
239.325	84.12
239.559	94.12
239.793	71.12
240.027	85.12
240.26	90.12
240.494	70.12
240.728	77.12
240.961	67.12
241.195	85.12
241.429	76.12
241.662	73.12
241.896	73.12
242.13	81.12
242.363	69.12
242.597	91.12
242.83	80.12
243.064	72.12
243.298	77.12
243.531	73.12
243.765	83.12
243.998	92.12
244.232	83.12
244.465	82.12
244.699	87.12
244.932	63.12
245.166	75.12
245.399	75.12
245.633	78.12
245.866	81.12
246.099	63.12
246.333	92.12
246.566	68.12
246.8	72.12
247.033	66.12
247.266	75.12
247.5	79.12
247.733	63.12
247.966	78.12
248.2	76.12
248.433	81.12
248.666	76.12
248.899	73.12
249.133	71.12
249.366	88.12
249.599	71.12
249.832	84.12
250.066	83.12
250.299	74.12
250.532	79.12
250.765	66.12
250.998	70.12
251.231	78.12
251.465	90.12
251.698	83.12
251.931	69.12
252.164	74.12
252.397	81.12
252.63	81.12
252.863	82.12
253.096	86.12
253.329	91.12
253.562	82.12
253.795	80.12
254.028	101.12
254.261	95.12
254.494	78.12
254.727	87.12
254.96	81.12
255.193	93.12
255.426	85.12
255.659	77.12
255.892	80.12
256.124	89.12
256.357	77.12
256.59	82.12
256.823	95.12
257.056	76.12
257.289	78.12
257.521	81.12
257.754	77.12
257.987	82.12
258.22	75.12
258.452	74.12
258.685	88.12
258.918	86.12
259.151	64.12
259.383	75.12
259.616	69.12
259.849	85.12
260.081	79.12
260.314	80.12
260.547	81.12
260.779	94.12
261.012	81.12
261.244	82.12
261.477	76.12
261.71	63.12
261.942	81.12
262.175	71.12
262.407	78.12
262.64	78.12
262.872	88.12
263.105	86.12
263.337	75.12
263.57	73.12
263.802	72.12
264.035	70.12
264.267	84.12
264.499	79.12
264.732	97.12
264.964	89.12
265.197	69.12
265.429	77.12
265.661	90.12
265.894	77.12
266.126	98.12
266.358	73.12
266.591	72.12
266.823	82.12
267.055	69.12
267.287	76.12
267.52	82.12
267.752	87.12
267.984	81.12
268.216	82.12
268.448	98.12
268.681	86.12
268.913	87.12
269.145	77.12
269.377	90.12
269.609	74.12
269.841	90.12
270.073	85.12
270.306	70.12
270.538	82.12
270.77	85.12
271.002	83.12
271.234	89.12
271.466	93.12
271.698	87.12
271.93	80.12
272.162	96.12
272.394	95.12
272.626	93.12
272.858	85.12
273.09	82.12
273.322	83.12
273.553	87.12
273.785	82.12
274.017	89.12
274.249	88.12
274.481	79.12
274.713	89.12
274.945	88.12
275.176	88.12
275.408	90.12
275.64	79.12
275.872	80.12
276.104	95.12
276.335	86.12
276.567	91.12
276.799	88.12
277.031	80.12
277.262	81.12
277.494	93.12
277.726	80.12
277.957	89.12
278.189	78.12
278.421	89.12
278.652	74.12
278.884	87.12
279.115	87.12
279.347	82.12
279.579	79.12
279.81	78.12
280.042	87.12
280.273	97.12
280.505	95.12
280.736	78.12
280.968	87.12
281.199	89.12
281.431	81.12
281.662	97.12
281.894	80.12
282.125	86.12
282.356	83.12
282.588	95.12
282.819	87.12
283.051	85.12
283.282	101.12
283.513	85.12
283.745	90.12
283.976	93.12
284.207	81.12
284.439	94.12
284.67	86.12
284.901	78.12
285.132	85.12
285.364	99.12
285.595	83.12
285.826	94.12
286.057	94.12
286.288	88.12
286.52	93.12
286.751	93.12
286.982	88.12
287.213	85.12
287.444	96.12
287.675	74.12
287.906	71.12
288.138	96.12
288.369	86.12
288.6	90.12
288.831	89.12
289.062	72.12
289.293	78.12
289.524	82.12
289.755	85.12
289.986	84.12
290.217	91.12
290.448	85.12
290.679	99.12
290.91	103.12
291.141	97.12
291.371	83.12
291.602	83.12
291.833	82.12
292.064	90.12
292.295	78.12
292.526	95.12
292.757	88.12
292.987	76.12
293.218	87.12
293.449	97.12
293.68	86.12
293.91	67.12
294.141	102.12
294.372	87.12
294.603	91.12
294.833	94.12
295.064	90.12
295.295	83.12
295.525	91.12
295.756	85.12
295.987	92.12
296.217	87.12
296.448	83.12
296.679	98.12
296.909	98.12
297.14	77.12
297.37	92.12
297.601	103.12
297.831	94.12
298.062	94.12
298.292	86.12
298.523	96.12
298.753	91.12
298.984	92.12
299.214	86.12
299.445	95.12
299.675	96.12
299.905	109.12
300.136	92.12
300.366	80.12
300.597	85.12
300.827	98.12
301.057	90.12
301.288	88.12
301.518	97.12
301.748	89.12
301.979	83.12
302.209	90.12
302.439	94.12
302.669	97.12
302.9	78.12
303.13	89.12
303.36	98.12
303.59	87.12
303.82	73.12
304.051	101.12
304.281	85.12
304.511	98.12
304.741	92.12
304.971	73.12
305.201	96.12
305.431	92.12
305.661	86.12
305.891	87.12
306.121	82.12
306.352	75.12
306.582	94.12
306.812	87.12
307.042	103.12
307.272	94.12
307.502	95.12
307.731	95.12
307.961	103.12
308.191	112.12
308.421	104.12
308.651	81.12
308.881	89.12
309.111	88.12
309.341	98.12
309.571	94.12
309.8	89.12
310.03	94.12
310.26	93.12
310.49	87.12
310.72	84.12
310.949	87.12
311.179	95.12
311.409	90.12
311.639	78.12
311.868	90.12
312.098	89.12
312.328	79.12
312.557	92.12
312.787	94.12
313.017	81.12
313.246	110.12
313.476	101.12
313.706	101.12
313.935	85.12
314.165	99.12
314.394	85.12
314.624	88.12
314.853	76.12
315.083	84.12
315.312	99.12
315.542	85.12
315.771	95.12
316.001	98.12
316.23	79.12
316.46	88.12
316.689	87.12
316.919	88.12
317.148	103.12
317.377	94.12
317.607	93.12
317.836	105.12
318.065	87.12
318.295	81.12
318.524	81.12
318.753	80.12
318.983	103.12
319.212	105.12
319.441	90.12
319.67	90.12
319.9	89.12
320.129	84.12
320.358	93.12
320.587	74.12
320.816	86.12
321.046	88.12
321.275	90.12
321.504	97.12
321.733	93.12
321.962	96.12
322.191	80.12
322.42	82.12
322.649	96.12
322.878	99.12
323.108	85.12
323.337	98.12
323.566	102.12
323.795	92.12
324.024	100.12
324.253	106.12
324.482	99.12
324.71	75.12
324.939	88.12
325.168	89.12
325.397	87.12
325.626	92.12
325.855	92.12
326.084	82.12
326.313	83.12
326.542	85.12
326.77	96.12
326.999	85.12
327.228	89.12
327.457	94.12
327.686	96.12
327.914	75.12
328.143	83.12
328.372	86.12
328.6	99.12
328.829	100.12
329.058	82.12
329.287	84.12
329.515	83.12
329.744	86.12
329.972	73.12
330.201	96.12
330.43	97.12
330.658	89.12
330.887	89.12
331.115	80.12
331.344	76.12
331.572	87.12
331.801	101.12
332.03	99.12
332.258	100.12
332.486	107.12
332.715	98.12
332.943	95.12
333.172	109.12
333.4	89.12
333.629	94.12
333.857	95.12
334.085	101.12
334.314	101.12
334.542	89.12
334.771	84.12
334.999	88.12
335.227	89.12
335.455	85.12
335.684	99.12
335.912	107.12
336.14	98.12
336.369	87.12
336.597	104.12
336.825	92.12
337.053	106.12
337.281	78.12
337.51	95.12
337.738	89.12
337.966	99.12
338.194	106.12
338.422	88.12
338.65	91.12
338.878	95.12
339.106	70.12
339.334	81.12
339.562	96.12
339.79	86.12
340.018	87.12
340.246	82.12
340.474	90.12
340.702	84.12
340.93	99.12
341.158	98.12
341.386	92.12
341.614	86.12
341.842	95.12
342.07	102.12
342.298	100.12
342.526	90.12
342.754	89.12
342.981	85.12
343.209	89.12
343.437	95.12
343.665	97.12
343.893	94.12
344.12	88.12
344.348	101.12
344.576	94.12
344.804	96.12
345.031	97.12
345.259	94.12
345.487	83.12
345.714	80.12
345.942	94.12
346.17	89.12
346.397	106.12
346.625	103.12
346.853	96.12
347.08	81.12
347.308	90.12
347.535	91.12
347.763	90.12
347.99	94.12
348.218	92.12
348.445	98.12
348.673	81.12
348.9	78.12
349.128	101.12
349.355	83.12
349.583	84.12
349.81	84.12
350.037	96.12
350.265	91.12
350.492	88.12
350.72	84.12
350.947	106.12
351.174	73.12
351.402	97.12
351.629	81.12
351.856	102.12
352.083	94.12
352.311	82.12
352.538	78.12
352.765	78.12
352.992	99.12
353.22	101.12
353.447	93.12
353.674	89.12
353.901	73.12
354.128	107.12
354.355	90.12
354.583	98.12
354.81	83.12
355.037	101.12
355.264	90.12
355.491	86.12
355.718	96.12
355.945	84.12
356.172	96.12
356.399	96.12
356.626	82.12
356.853	89.12
357.08	90.12
357.307	66.12
357.534	81.12
357.761	95.12
357.988	93.12
358.215	90.12
358.441	94.12
358.668	80.12
358.895	71.12
359.122	90.12
359.349	90.12
359.576	89.12
359.802	97.12
360.029	90.12
360.256	72.12
360.483	81.12
360.709	78.12
360.936	84.12
361.163	86.12
361.39	88.12
361.616	83.12
361.843	91.12
362.07	80.12
362.296	92.12
362.523	96.12
362.749	95.12
362.976	86.12
363.203	74.12
363.429	89.12
363.656	95.12
363.882	91.12
364.109	100.12
364.335	98.12
364.562	101.12
364.788	86.12
365.015	89.12
365.241	78.12
365.468	95.12
365.694	87.12
365.92	82.12
366.147	97.12
366.373	88.12
366.599	102.12
366.826	82.12
367.052	83.12
367.278	89.12
367.505	91.12
367.731	102.12
367.957	88.12
368.184	83.12
368.41	88.12
368.636	84.12
368.862	103.12
369.089	96.12
369.315	90.12
369.541	95.12
369.767	98.12
369.993	75.12
370.219	84.12
370.445	85.12
370.672	77.12
370.898	85.12
371.124	100.12
371.35	95.12
371.576	96.12
371.802	90.12
372.028	77.12
372.254	86.12
372.48	101.12
372.706	85.12
372.932	91.12
373.158	96.12
373.384	97.12
373.61	80.12
373.835	91.12
374.061	98.12
374.287	90.12
374.513	97.12
374.739	96.12
374.965	105.12
375.191	102.12
375.416	89.12
375.642	96.12
375.868	90.12
376.094	88.12
376.319	88.12
376.545	99.12
376.771	89.12
376.997	80.12
377.222	90.12
377.448	91.12
377.674	99.12
377.899	94.12
378.125	100.12
378.35	99.12
378.576	104.12
378.802	97.12
379.027	87.12
379.253	81.12
379.478	78.12
379.704	76.12
379.929	94.12
380.155	90.12
380.38	98.12
380.606	97.12
380.831	93.12
381.057	99.12
381.282	101.12
381.507	86.12
381.733	90.12
381.958	74.12
382.184	86.12
382.409	86.12
382.634	79.12
382.86	82.12
383.085	81.12
383.31	84.12
383.535	102.12
383.761	83.12
383.986	86.12
384.211	93.12
384.436	91.12
384.662	92.12
384.887	88.12
385.112	96.12
385.337	86.12
385.562	76.12
385.787	91.12
386.013	87.12
386.238	91.12
386.463	103.12
386.688	100.12
386.913	104.12
387.138	78.12
387.363	90.12
387.588	90.12
387.813	84.12
388.038	104.12
388.263	89.12
388.488	96.12
388.713	93.12
388.938	93.12
389.163	90.12
389.387	100.12
389.612	85.12
389.837	100.12
390.062	82.12
390.287	90.12
390.512	95.12
390.736	93.12
390.961	96.12
391.186	87.12
391.411	94.12
391.636	102.12
391.86	101.12
392.085	98.12
392.31	103.12
392.534	98.12
392.759	80.12
392.984	95.12
393.208	103.12
393.433	100.12
393.658	81.12
393.882	103.12
394.107	95.12
394.331	110.12
394.556	80.12
394.78	89.12
395.005	98.12
395.229	76.12
395.454	96.12
395.678	76.12
395.903	107.12
396.127	101.12
396.352	80.12
396.576	90.12
396.801	88.12
397.025	104.12
397.249	94.12
397.474	93.12
397.698	95.12
397.922	94.12
398.147	93.12
398.371	107.12
398.595	100.12
398.82	103.12
399.044	94.12
399.268	97.12
399.492	99.12
399.717	110.12
399.941	106.12
400.165	102.12
400.389	89.12
400.613	102.12
400.837	90.12
401.062	91.12
401.286	94.12
401.51	86.12
401.734	96.12
401.958	104.12
402.182	86.12
402.406	101.12
402.63	105.12
402.854	95.12
403.078	83.12
403.302	89.12
403.526	102.12
403.75	101.12
403.974	103.12
404.198	74.12
404.422	93.12
404.645	106.12
404.869	90.12
405.093	110.12
405.317	100.12
405.541	90.12
405.765	97.12
405.988	106.12
406.212	96.12
406.436	109.12
406.66	82.12
406.883	109.12
407.107	109.12
407.331	109.12
407.555	115.12
407.778	96.12
408.002	103.12
408.226	98.12
408.449	107.12
408.673	96.12
408.896	95.12
409.12	95.12
409.344	85.12
409.567	92.12
409.791	89.12
410.014	85.12
410.238	101.12
410.461	86.12
410.685	98.12
410.908	96.12
411.132	104.12
411.355	99.12
411.578	101.12
411.802	100.12
412.025	96.12
412.249	85.12
412.472	86.12
412.695	92.12
412.919	91.12
413.142	106.12
413.365	95.12
413.589	99.12
413.812	90.12
414.035	96.12
414.258	88.12
414.482	99.12
414.705	86.12
414.928	101.12
415.151	85.12
415.374	100.12
415.597	95.12
415.821	94.12
416.044	88.12
416.267	94.12
416.49	83.12
416.713	91.12
416.936	102.12
417.159	101.12
417.382	91.12
417.605	104.12
417.828	96.12
418.051	98.12
418.274	88.12
418.497	93.12
418.72	94.12
418.943	109.12
419.166	93.12
419.389	104.12
419.611	104.12
419.834	101.12
420.057	94.12
420.28	87.12
420.503	94.12
420.726	91.12
420.948	101.12
421.171	91.12
421.394	105.12
421.617	93.12
421.839	99.12
422.062	90.12
422.285	87.12
422.507	79.12
422.73	99.12
422.953	70.12
423.175	93.12
423.398	83.12
423.621	104.12
423.843	95.12
424.066	95.12
424.288	98.12
424.511	86.12
424.733	97.12
424.956	89.12
425.178	94.12
425.401	95.12
425.623	99.12
425.846	86.12
426.068	98.12
426.291	96.12
426.513	84.12
426.735	88.12
426.958	88.12
427.18	94.12
427.402	85.12
427.625	76.12
427.847	79.12
428.069	89.12
428.292	85.12
428.514	89.12
428.736	79.12
428.958	98.12
429.181	96.12
429.403	98.12
429.625	86.12
429.847	77.12
430.069	75.12
430.292	93.12
430.514	102.12
430.736	95.12
430.958	95.12
431.18	89.12
431.402	94.12
431.624	87.12
431.846	111.12
432.068	98.12
432.29	85.12
432.512	91.12
432.734	102.12
432.956	86.12
433.178	107.12
433.4	93.12
433.622	89.12
433.844	85.12
434.066	93.12
434.287	81.12
434.509	93.12
434.731	93.12
434.953	85.12
435.175	99.12
435.397	108.12
435.618	87.12
435.84	93.12
436.062	94.12
436.284	103.12
436.505	85.12
436.727	89.12
436.949	81.12
437.17	79.12
437.392	86.12
437.614	88.12
437.835	101.12
438.057	100.12
438.278	92.12
438.5	87.12
438.721	94.12
438.943	86.12
439.165	102.12
439.386	88.12
439.608	93.12
439.829	104.12
440.05	108.12
440.272	91.12
440.493	93.12
440.715	102.12
440.936	86.12
441.158	101.12
441.379	95.12
441.6	104.12
441.822	93.12
442.043	86.12
442.264	101.12
442.486	100.12
442.707	94.12
442.928	90.12
443.149	81.12
443.371	97.12
443.592	87.12
443.813	85.12
444.034	89.12
444.255	103.12
444.476	94.12
444.698	94.12
444.919	97.12
445.14	225.12
445.361	155.12
445.582	93.12
445.803	91.12
446.024	83.12
446.245	74.12
446.466	93.12
446.687	87.12
446.908	98.12
447.129	90.12
447.35	95.12
447.571	93.12
447.792	104.12
448.013	101.12
448.234	93.12
448.455	83.12
448.675	84.12
448.896	93.12
449.117	88.12
449.338	97.12
449.559	91.12
449.779	97.12
450	95.12
450.221	94.12
450.442	83.12
450.662	95.12
450.883	93.12
451.104	81.12
451.324	89.12
451.545	83.12
451.766	87.12
451.986	101.12
452.207	90.12
452.428	98.12
452.648	97.12
452.869	80.12
453.089	99.12
453.31	78.12
453.53	83.12
453.751	83.12
453.971	82.12
454.192	96.12
454.412	98.12
454.633	94.12
454.853	93.12
455.073	93.12
455.294	93.12
455.514	111.12
455.734	87.12
455.955	83.12
456.175	95.12
456.395	86.12
456.616	88.12
456.836	94.12
457.056	84.12
457.276	89.12
457.497	92.12
457.717	88.12
457.937	90.12
458.157	79.12
458.377	92.12
458.598	104.12
458.818	105.12
459.038	87.12
459.258	95.12
459.478	94.12
459.698	100.12
459.918	97.12
460.138	102.12
460.358	94.12
460.578	98.12
460.798	94.12
461.018	106.12
461.238	75.12
461.458	106.12
461.678	103.12
461.898	102.12
462.118	93.12
462.338	91.12
462.558	94.12
462.777	103.12
462.997	94.12
463.217	109.12
463.437	100.12
463.657	92.12
463.876	99.12
464.096	102.12
464.316	89.12
464.536	95.12
464.755	94.12
464.975	105.12
465.195	104.12
465.414	82.12
465.634	98.12
465.854	90.12
466.073	86.12
466.293	87.12
466.512	91.12
466.732	97.12
466.951	103.12
467.171	98.12
467.391	91.12
467.61	81.12
467.829	98.12
468.049	86.12
468.268	96.12
468.488	83.12
468.707	93.12
468.927	101.12
469.146	101.12
469.365	98.12
469.585	89.12
469.804	94.12
470.023	97.12
470.243	94.12
470.462	103.12
470.681	108.12
470.901	88.12
471.12	86.12
471.339	109.12
471.558	102.12
471.777	99.12
471.997	96.12
472.216	96.12
472.435	102.12
472.654	86.12
472.873	91.12
473.092	88.12
473.311	86.12
473.53	92.12
473.749	91.12
473.968	86.12
474.187	100.12
474.406	95.12
474.625	101.12
474.844	95.12
475.063	99.12
475.282	85.12
475.501	98.12
475.72	112.12
475.939	83.12
476.158	101.12
476.377	95.12
476.596	83.12
476.814	86.12
477.033	101.12
477.252	92.12
477.471	100.12
477.69	97.12
477.908	88.12
478.127	93.12
478.346	86.12
478.564	110.12
478.783	94.12
479.002	97.12
479.22	105.12
479.439	102.12
479.658	100.12
479.876	92.12
480.095	93.12
480.313	96.12
480.532	105.12
480.751	100.12
480.969	88.12
481.188	92.12
481.406	99.12
481.624	87.12
481.843	81.12
482.061	103.12
482.28	95.12
482.498	103.12
482.717	80.12
482.935	97.12
483.153	99.12
483.372	96.12
483.59	100.12
483.808	111.12
484.027	96.12
484.245	111.12
484.463	97.12
484.681	107.12
484.9	105.12
485.118	101.12
485.336	91.12
485.554	91.12
485.772	101.12
485.99	99.12
486.209	114.12
486.427	103.12
486.645	101.12
486.863	106.12
487.081	108.12
487.299	107.12
487.517	109.12
487.735	120.12
487.953	112.12
488.171	102.12
488.389	107.12
488.607	105.12
488.825	98.12
489.043	96.12
489.261	108.12
489.479	96.12
489.696	83.12
489.914	82.12
490.132	112.12
490.35	104.12
490.568	117.12
490.786	112.12
491.003	109.12
491.221	103.12
491.439	117.12
491.657	101.12
491.874	119.12
492.092	105.12
492.31	117.12
492.527	115.12
492.745	123.12
492.963	107.12
493.18	104.12
493.398	104.12
493.615	102.12
493.833	117.12
494.05	101.12
494.268	107.12
494.485	116.12
494.703	104.12
494.92	96.12
495.138	114.12
495.355	97.12
495.573	100.12
495.79	99.12
496.008	114.12
496.225	111.12
496.442	110.12
496.66	102.12
496.877	115.12
497.094	102.12
497.312	103.12
497.529	106.12
497.746	105.12
497.963	114.12
498.181	113.12
498.398	110.12
498.615	111.12
498.832	98.12
499.049	125.12
499.267	111.12
499.484	123.12
499.701	127.12
499.918	135.12
500.135	144.12
500.352	150.12
500.569	148.12
500.786	140.12
501.003	138.12
501.22	149.12
501.437	131.12
501.654	135.12
501.871	114.12
502.088	111.12
502.305	107.12
502.522	119.12
502.739	102.12
502.956	116.12
503.172	104.12
503.389	113.12
503.606	125.12
503.823	111.12
504.04	110.12
504.256	105.12
504.473	98.12
504.69	120.12
504.907	107.12
505.123	121.12
505.34	91.12
505.557	112.12
505.773	111.12
505.99	104.12
506.207	96.12
506.423	94.12
506.64	86.12
506.856	97.12
507.073	112.12
507.289	117.12
507.506	102.12
507.722	103.12
507.939	99.12
508.155	105.12
508.372	99.12
508.588	101.12
508.805	94.12
509.021	96.12
509.238	113.12
509.454	98.12
509.67	95.12
509.887	95.12
510.103	87.12
510.319	88.12
510.536	79.12
510.752	93.12
510.968	95.12
511.184	109.12
511.401	106.12
511.617	85.12
511.833	82.12
512.049	95.12
512.265	89.12
512.481	84.12
512.698	94.12
512.914	84.12
513.13	92.12
513.346	94.12
513.562	92.12
513.778	109.12
513.994	93.12
514.21	96.12
514.426	91.12
514.642	104.12
514.858	106.12
515.074	110.12
515.29	102.12
515.506	101.12
