Data from Location5.07152019.Energy5.Lamp.07192019.3%Agarose_HRD10591_15-39-27-388.txt Node
Date: Fri Jul 19 15:39:27 EDT 2019
User: cochatt
Spectrometer: HR+D1059
Trigger mode: 1
Integration Time (sec): 1.000000E-1
Scans to average: 1
Electric dark correction enabled: true
Nonlinearity correction enabled: false
Boxcar width: 0
XAxis mode: Wavelengths
Number of Pixels in Spectrum: 2048
>>>>>Begin Spectral Data<<<<<
223.165	-18.5
223.4	-18.5
223.635	-18.5
223.869	-22.5
224.104	-3.5
224.338	-29.5
224.573	-22.5
224.808	-4.5
225.042	-9.5
225.277	-6.5
225.511	15.5
225.746	7.5
225.98	11.5
226.215	8.5
226.449	7.5
226.683	4.5
226.918	33.5
227.152	28.5
227.387	46.5
227.621	43.5
227.856	37.5
228.09	39.5
228.324	50.5
228.559	66.5
228.793	51.5
229.027	58.5
229.262	58.5
229.496	65.5
229.73	61.5
229.964	55.5
230.199	63.5
230.433	67.5
230.667	68.5
230.901	95.5
231.136	92.5
231.37	70.5
231.604	81.5
231.838	98.5
232.072	74.5
232.306	61.5
232.541	82.5
232.775	96.5
233.009	79.5
233.243	87.5
233.477	79.5
233.711	70.5
233.945	85.5
234.179	72.5
234.413	89.5
234.647	81.5
234.881	73.5
235.115	85.5
235.349	70.5
235.583	72.5
235.817	82.5
236.051	81.5
236.285	93.5
236.519	73.5
236.753	84.5
236.987	70.5
237.221	75.5
237.455	74.5
237.689	78.5
237.922	85.5
238.156	67.5
238.39	68.5
238.624	78.5
238.858	62.5
239.091	63.5
239.325	77.5
239.559	77.5
239.793	80.5
240.027	83.5
240.26	72.5
240.494	79.5
240.728	74.5
240.961	64.5
241.195	73.5
241.429	79.5
241.662	86.5
241.896	80.5
242.13	76.5
242.363	76.5
242.597	82.5
242.83	66.5
243.064	69.5
243.298	78.5
243.531	72.5
243.765	81.5
243.998	72.5
244.232	80.5
244.465	81.5
244.699	85.5
244.932	72.5
245.166	74.5
245.399	89.5
245.633	95.5
245.866	91.5
246.099	69.5
246.333	81.5
246.566	72.5
246.8	77.5
247.033	84.5
247.266	71.5
247.5	85.5
247.733	82.5
247.966	88.5
248.2	74.5
248.433	95.5
248.666	83.5
248.899	81.5
249.133	75.5
249.366	76.5
249.599	72.5
249.832	78.5
250.066	81.5
250.299	86.5
250.532	82.5
250.765	79.5
250.998	75.5
251.231	84.5
251.465	81.5
251.698	84.5
251.931	75.5
252.164	75.5
252.397	89.5
252.63	86.5
252.863	75.5
253.096	81.5
253.329	78.5
253.562	75.5
253.795	95.5
254.028	84.5
254.261	84.5
254.494	79.5
254.727	90.5
254.96	88.5
255.193	87.5
255.426	86.5
255.659	59.5
255.892	78.5
256.124	79.5
256.357	66.5
256.59	74.5
256.823	85.5
257.056	83.5
257.289	85.5
257.521	75.5
257.754	75.5
257.987	86.5
258.22	79.5
258.452	65.5
258.685	83.5
258.918	77.5
259.151	61.5
259.383	73.5
259.616	73.5
259.849	102.5
260.081	84.5
260.314	75.5
260.547	73.5
260.779	81.5
261.012	65.5
261.244	71.5
261.477	85.5
261.71	81.5
261.942	73.5
262.175	67.5
262.407	86.5
262.64	83.5
262.872	81.5
263.105	86.5
263.337	77.5
263.57	83.5
263.802	76.5
264.035	85.5
264.267	74.5
264.499	74.5
264.732	75.5
264.964	79.5
265.197	89.5
265.429	88.5
265.661	74.5
265.894	78.5
266.126	80.5
266.358	83.5
266.591	92.5
266.823	84.5
267.055	86.5
267.287	88.5
267.52	85.5
267.752	63.5
267.984	76.5
268.216	81.5
268.448	94.5
268.681	83.5
268.913	79.5
269.145	81.5
269.377	73.5
269.609	75.5
269.841	90.5
270.073	83.5
270.306	86.5
270.538	82.5
270.77	65.5
271.002	84.5
271.234	85.5
271.466	76.5
271.698	63.5
271.93	99.5
272.162	90.5
272.394	79.5
272.626	81.5
272.858	78.5
273.09	80.5
273.322	88.5
273.553	62.5
273.785	95.5
274.017	92.5
274.249	97.5
274.481	96.5
274.713	82.5
274.945	84.5
275.176	76.5
275.408	102.5
275.64	86.5
275.872	85.5
276.104	70.5
276.335	85.5
276.567	71.5
276.799	69.5
277.031	64.5
277.262	86.5
277.494	80.5
277.726	95.5
277.957	70.5
278.189	64.5
278.421	92.5
278.652	85.5
278.884	89.5
279.115	87.5
279.347	94.5
279.579	97.5
279.81	91.5
280.042	85.5
280.273	85.5
280.505	80.5
280.736	86.5
280.968	83.5
281.199	84.5
281.431	77.5
281.662	89.5
281.894	82.5
282.125	69.5
282.356	73.5
282.588	85.5
282.819	75.5
283.051	91.5
283.282	92.5
283.513	65.5
283.745	93.5
283.976	85.5
284.207	78.5
284.439	100.5
284.67	88.5
284.901	91.5
285.132	67.5
285.364	91.5
285.595	98.5
285.826	82.5
286.057	86.5
286.288	74.5
286.52	81.5
286.751	81.5
286.982	87.5
287.213	93.5
287.444	77.5
287.675	81.5
287.906	76.5
288.138	86.5
288.369	82.5
288.6	80.5
288.831	89.5
289.062	82.5
289.293	89.5
289.524	98.5
289.755	96.5
289.986	85.5
290.217	79.5
290.448	63.5
290.679	84.5
290.91	98.5
291.141	83.5
291.371	70.5
291.602	77.5
291.833	81.5
292.064	77.5
292.295	86.5
292.526	89.5
292.757	59.5
292.987	86.5
293.218	100.5
293.449	88.5
293.68	87.5
293.91	89.5
294.141	84.5
294.372	82.5
294.603	97.5
294.833	88.5
295.064	77.5
295.295	84.5
295.525	73.5
295.756	89.5
295.987	75.5
296.217	87.5
296.448	91.5
296.679	102.5
296.909	85.5
297.14	100.5
297.37	83.5
297.601	71.5
297.831	72.5
298.062	74.5
298.292	76.5
298.523	97.5
298.753	86.5
298.984	69.5
299.214	77.5
299.445	88.5
299.675	73.5
299.905	79.5
300.136	88.5
300.366	78.5
300.597	85.5
300.827	78.5
301.057	85.5
301.288	95.5
301.518	90.5
301.748	75.5
301.979	95.5
302.209	84.5
302.439	100.5
302.669	81.5
302.9	100.5
303.13	78.5
303.36	93.5
303.59	86.5
303.82	92.5
304.051	89.5
304.281	86.5
304.511	93.5
304.741	71.5
304.971	76.5
305.201	95.5
305.431	93.5
305.661	90.5
305.891	83.5
306.121	76.5
306.352	88.5
306.582	79.5
306.812	79.5
307.042	82.5
307.272	91.5
307.502	82.5
307.731	78.5
307.961	86.5
308.191	83.5
308.421	85.5
308.651	103.5
308.881	84.5
309.111	87.5
309.341	72.5
309.571	82.5
309.8	69.5
310.03	65.5
310.26	73.5
310.49	97.5
310.72	86.5
310.949	86.5
311.179	78.5
311.409	79.5
311.639	75.5
311.868	85.5
312.098	82.5
312.328	85.5
312.557	89.5
312.787	94.5
313.017	75.5
313.246	93.5
313.476	82.5
313.706	91.5
313.935	84.5
314.165	75.5
314.394	89.5
314.624	93.5
314.853	93.5
315.083	87.5
315.312	84.5
315.542	80.5
315.771	80.5
316.001	92.5
316.23	85.5
316.46	79.5
316.689	83.5
316.919	85.5
317.148	89.5
317.377	85.5
317.607	89.5
317.836	83.5
318.065	73.5
318.295	80.5
318.524	85.5
318.753	81.5
318.983	75.5
319.212	89.5
319.441	78.5
319.67	81.5
319.9	87.5
320.129	80.5
320.358	83.5
320.587	74.5
320.816	97.5
321.046	79.5
321.275	78.5
321.504	88.5
321.733	86.5
321.962	83.5
322.191	82.5
322.42	90.5
322.649	84.5
322.878	94.5
323.108	82.5
323.337	77.5
323.566	78.5
323.795	88.5
324.024	89.5
324.253	88.5
324.482	92.5
324.71	82.5
324.939	90.5
325.168	82.5
325.397	81.5
325.626	78.5
325.855	93.5
326.084	74.5
326.313	85.5
326.542	88.5
326.77	88.5
326.999	84.5
327.228	77.5
327.457	69.5
327.686	87.5
327.914	82.5
328.143	90.5
328.372	90.5
328.6	77.5
328.829	81.5
329.058	82.5
329.287	87.5
329.515	82.5
329.744	69.5
329.972	77.5
330.201	89.5
330.43	72.5
330.658	83.5
330.887	87.5
331.115	70.5
331.344	90.5
331.572	85.5
331.801	96.5
332.03	80.5
332.258	85.5
332.486	78.5
332.715	74.5
332.943	87.5
333.172	97.5
333.4	88.5
333.629	87.5
333.857	67.5
334.085	85.5
334.314	78.5
334.542	84.5
334.771	79.5
334.999	79.5
335.227	90.5
335.455	90.5
335.684	60.5
335.912	86.5
336.14	93.5
336.369	71.5
336.597	71.5
336.825	89.5
337.053	89.5
337.281	86.5
337.51	92.5
337.738	80.5
337.966	91.5
338.194	81.5
338.422	91.5
338.65	79.5
338.878	97.5
339.106	90.5
339.334	96.5
339.562	82.5
339.79	89.5
340.018	85.5
340.246	89.5
340.474	80.5
340.702	86.5
340.93	104.5
341.158	84.5
341.386	77.5
341.614	96.5
341.842	89.5
342.07	85.5
342.298	88.5
342.526	89.5
342.754	90.5
342.981	86.5
343.209	89.5
343.437	95.5
343.665	89.5
343.893	85.5
344.12	89.5
344.348	71.5
344.576	92.5
344.804	86.5
345.031	85.5
345.259	79.5
345.487	88.5
345.714	90.5
345.942	77.5
346.17	74.5
346.397	85.5
346.625	80.5
346.853	75.5
347.08	77.5
347.308	83.5
347.535	84.5
347.763	74.5
347.99	87.5
348.218	94.5
348.445	77.5
348.673	75.5
348.9	87.5
349.128	85.5
349.355	84.5
349.583	73.5
349.81	87.5
350.037	78.5
350.265	88.5
350.492	95.5
350.72	80.5
350.947	81.5
351.174	84.5
351.402	77.5
351.629	76.5
351.856	95.5
352.083	75.5
352.311	86.5
352.538	92.5
352.765	92.5
352.992	75.5
353.22	68.5
353.447	87.5
353.674	92.5
353.901	86.5
354.128	88.5
354.355	62.5
354.583	90.5
354.81	94.5
355.037	86.5
355.264	91.5
355.491	91.5
355.718	86.5
355.945	83.5
356.172	80.5
356.399	79.5
356.626	73.5
356.853	100.5
357.08	97.5
357.307	104.5
357.534	89.5
357.761	78.5
357.988	81.5
358.215	89.5
358.441	90.5
358.668	88.5
358.895	83.5
359.122	89.5
359.349	78.5
359.576	94.5
359.802	80.5
360.029	82.5
360.256	80.5
360.483	70.5
360.709	69.5
360.936	83.5
361.163	91.5
361.39	99.5
361.616	75.5
361.843	85.5
362.07	81.5
362.296	72.5
362.523	87.5
362.749	79.5
362.976	78.5
363.203	86.5
363.429	79.5
363.656	90.5
363.882	62.5
364.109	82.5
364.335	81.5
364.562	87.5
364.788	104.5
365.015	82.5
365.241	64.5
365.468	79.5
365.694	83.5
365.92	70.5
366.147	65.5
366.373	83.5
366.599	83.5
366.826	99.5
367.052	84.5
367.278	90.5
367.505	80.5
367.731	86.5
367.957	87.5
368.184	89.5
368.41	105.5
368.636	86.5
368.862	87.5
369.089	73.5
369.315	86.5
369.541	96.5
369.767	85.5
369.993	82.5
370.219	83.5
370.445	84.5
370.672	84.5
370.898	76.5
371.124	79.5
371.35	91.5
371.576	85.5
371.802	91.5
372.028	86.5
372.254	85.5
372.48	79.5
372.706	81.5
372.932	87.5
373.158	79.5
373.384	88.5
373.61	85.5
373.835	79.5
374.061	81.5
374.287	79.5
374.513	84.5
374.739	77.5
374.965	83.5
375.191	82.5
375.416	85.5
375.642	83.5
375.868	74.5
376.094	85.5
376.319	83.5
376.545	82.5
376.771	81.5
376.997	89.5
377.222	87.5
377.448	72.5
377.674	81.5
377.899	84.5
378.125	97.5
378.35	92.5
378.576	82.5
378.802	94.5
379.027	88.5
379.253	83.5
379.478	87.5
379.704	90.5
379.929	86.5
380.155	93.5
380.38	87.5
380.606	75.5
380.831	72.5
381.057	100.5
381.282	78.5
381.507	68.5
381.733	89.5
381.958	81.5
382.184	90.5
382.409	90.5
382.634	73.5
382.86	79.5
383.085	80.5
383.31	74.5
383.535	77.5
383.761	83.5
383.986	80.5
384.211	84.5
384.436	86.5
384.662	83.5
384.887	75.5
385.112	78.5
385.337	83.5
385.562	83.5
385.787	90.5
386.013	80.5
386.238	83.5
386.463	92.5
386.688	89.5
386.913	90.5
387.138	79.5
387.363	88.5
387.588	78.5
387.813	84.5
388.038	90.5
388.263	102.5
388.488	81.5
388.713	75.5
388.938	79.5
389.163	90.5
389.387	65.5
389.612	82.5
389.837	70.5
390.062	62.5
390.287	101.5
390.512	83.5
390.736	79.5
390.961	76.5
391.186	81.5
391.411	95.5
391.636	88.5
391.86	112.5
392.085	99.5
392.31	75.5
392.534	88.5
392.759	71.5
392.984	81.5
393.208	95.5
393.433	79.5
393.658	81.5
393.882	82.5
394.107	90.5
394.331	84.5
394.556	95.5
394.78	87.5
395.005	85.5
395.229	75.5
395.454	86.5
395.678	80.5
395.903	88.5
396.127	81.5
396.352	88.5
396.576	91.5
396.801	83.5
397.025	87.5
397.249	91.5
397.474	97.5
397.698	88.5
397.922	108.5
398.147	101.5
398.371	90.5
398.595	85.5
398.82	98.5
399.044	84.5
399.268	94.5
399.492	82.5
399.717	83.5
399.941	83.5
400.165	87.5
400.389	101.5
400.613	94.5
400.837	90.5
401.062	79.5
401.286	78.5
401.51	94.5
401.734	98.5
401.958	91.5
402.182	82.5
402.406	79.5
402.63	82.5
402.854	93.5
403.078	100.5
403.302	93.5
403.526	93.5
403.75	89.5
403.974	104.5
404.198	83.5
404.422	103.5
404.645	86.5
404.869	95.5
405.093	99.5
405.317	80.5
405.541	95.5
405.765	93.5
405.988	99.5
406.212	86.5
406.436	93.5
406.66	92.5
406.883	86.5
407.107	87.5
407.331	84.5
407.555	87.5
407.778	83.5
408.002	99.5
408.226	94.5
408.449	95.5
408.673	96.5
408.896	90.5
409.12	87.5
409.344	87.5
409.567	90.5
409.791	82.5
410.014	88.5
410.238	93.5
410.461	83.5
410.685	84.5
410.908	91.5
411.132	86.5
411.355	98.5
411.578	105.5
411.802	87.5
412.025	94.5
412.249	79.5
412.472	92.5
412.695	92.5
412.919	82.5
413.142	92.5
413.365	99.5
413.589	85.5
413.812	94.5
414.035	89.5
414.258	97.5
414.482	88.5
414.705	101.5
414.928	84.5
415.151	97.5
415.374	91.5
415.597	83.5
415.821	78.5
416.044	83.5
416.267	105.5
416.49	86.5
416.713	88.5
416.936	88.5
417.159	99.5
417.382	81.5
417.605	95.5
417.828	98.5
418.051	94.5
418.274	88.5
418.497	103.5
418.72	86.5
418.943	86.5
419.166	94.5
419.389	80.5
419.611	84.5
419.834	93.5
420.057	91.5
420.28	93.5
420.503	79.5
420.726	80.5
420.948	86.5
421.171	89.5
421.394	97.5
421.617	88.5
421.839	94.5
422.062	89.5
422.285	78.5
422.507	83.5
422.73	85.5
422.953	87.5
423.175	92.5
423.398	82.5
423.621	98.5
423.843	99.5
424.066	91.5
424.288	100.5
424.511	88.5
424.733	98.5
424.956	93.5
425.178	100.5
425.401	92.5
425.623	98.5
425.846	95.5
426.068	102.5
426.291	98.5
426.513	102.5
426.735	88.5
426.958	98.5
427.18	87.5
427.402	95.5
427.625	76.5
427.847	83.5
428.069	86.5
428.292	82.5
428.514	98.5
428.736	98.5
428.958	96.5
429.181	87.5
429.403	95.5
429.625	87.5
429.847	96.5
430.069	95.5
430.292	86.5
430.514	105.5
430.736	81.5
430.958	96.5
431.18	111.5
431.402	95.5
431.624	86.5
431.846	78.5
432.068	94.5
432.29	99.5
432.512	89.5
432.734	94.5
432.956	79.5
433.178	100.5
433.4	89.5
433.622	98.5
433.844	92.5
434.066	89.5
434.287	91.5
434.509	95.5
434.731	89.5
434.953	86.5
435.175	88.5
435.397	85.5
435.618	97.5
435.84	91.5
436.062	80.5
436.284	90.5
436.505	91.5
436.727	96.5
436.949	82.5
437.17	91.5
437.392	102.5
437.614	86.5
437.835	79.5
438.057	96.5
438.278	96.5
438.5	82.5
438.721	82.5
438.943	86.5
439.165	88.5
439.386	84.5
439.608	91.5
439.829	94.5
440.05	98.5
440.272	98.5
440.493	97.5
440.715	106.5
440.936	92.5
441.158	81.5
441.379	85.5
441.6	97.5
441.822	93.5
442.043	89.5
442.264	108.5
442.486	79.5
442.707	90.5
442.928	75.5
443.149	77.5
443.371	93.5
443.592	98.5
443.813	88.5
444.034	85.5
444.255	98.5
444.476	106.5
444.698	103.5
444.919	86.5
445.14	231.5
445.361	154.5
445.582	113.5
445.803	87.5
446.024	95.5
446.245	87.5
446.466	100.5
446.687	99.5
446.908	97.5
447.129	105.5
447.35	86.5
447.571	78.5
447.792	96.5
448.013	87.5
448.234	81.5
448.455	88.5
448.675	85.5
448.896	90.5
449.117	90.5
449.338	97.5
449.559	92.5
449.779	86.5
450	84.5
450.221	106.5
450.442	83.5
450.662	97.5
450.883	92.5
451.104	86.5
451.324	81.5
451.545	82.5
451.766	91.5
451.986	96.5
452.207	82.5
452.428	84.5
452.648	97.5
452.869	95.5
453.089	98.5
453.31	83.5
453.53	96.5
453.751	97.5
453.971	81.5
454.192	89.5
454.412	86.5
454.633	107.5
454.853	96.5
455.073	81.5
455.294	85.5
455.514	93.5
455.734	89.5
455.955	101.5
456.175	95.5
456.395	94.5
456.616	97.5
456.836	105.5
457.056	85.5
457.276	90.5
457.497	80.5
457.717	89.5
457.937	88.5
458.157	78.5
458.377	90.5
458.598	84.5
458.818	73.5
459.038	83.5
459.258	79.5
459.478	86.5
459.698	73.5
459.918	75.5
460.138	84.5
460.358	73.5
460.578	85.5
460.798	83.5
461.018	97.5
461.238	91.5
461.458	73.5
461.678	104.5
461.898	98.5
462.118	90.5
462.338	97.5
462.558	79.5
462.777	80.5
462.997	91.5
463.217	93.5
463.437	90.5
463.657	80.5
463.876	92.5
464.096	81.5
464.316	96.5
464.536	83.5
464.755	79.5
464.975	77.5
465.195	102.5
465.414	104.5
465.634	87.5
465.854	95.5
466.073	93.5
466.293	104.5
466.512	91.5
466.732	91.5
466.951	84.5
467.171	95.5
467.391	106.5
467.61	97.5
467.829	93.5
468.049	100.5
468.268	88.5
468.488	90.5
468.707	97.5
468.927	86.5
469.146	97.5
469.365	97.5
469.585	114.5
469.804	95.5
470.023	85.5
470.243	84.5
470.462	102.5
470.681	107.5
470.901	90.5
471.12	86.5
471.339	88.5
471.558	94.5
471.777	100.5
471.997	105.5
472.216	102.5
472.435	102.5
472.654	86.5
472.873	79.5
473.092	68.5
473.311	81.5
473.53	77.5
473.749	82.5
473.968	87.5
474.187	95.5
474.406	90.5
474.625	83.5
474.844	95.5
475.063	98.5
475.282	81.5
475.501	91.5
475.72	90.5
475.939	88.5
476.158	85.5
476.377	83.5
476.596	87.5
476.814	102.5
477.033	84.5
477.252	87.5
477.471	84.5
477.69	80.5
477.908	95.5
478.127	95.5
478.346	94.5
478.564	98.5
478.783	100.5
479.002	91.5
479.22	83.5
479.439	96.5
479.658	95.5
479.876	101.5
480.095	82.5
480.313	98.5
480.532	90.5
480.751	90.5
480.969	85.5
481.188	85.5
481.406	85.5
481.624	78.5
481.843	84.5
482.061	86.5
482.28	94.5
482.498	89.5
482.717	80.5
482.935	92.5
483.153	97.5
483.372	86.5
483.59	92.5
483.808	90.5
484.027	95.5
484.245	89.5
484.463	104.5
484.681	105.5
484.9	94.5
485.118	100.5
485.336	84.5
485.554	90.5
485.772	80.5
485.99	81.5
486.209	91.5
486.427	84.5
486.645	88.5
486.863	90.5
487.081	105.5
487.299	99.5
487.517	110.5
487.735	108.5
487.953	100.5
488.171	103.5
488.389	114.5
488.607	106.5
488.825	95.5
489.043	96.5
489.261	86.5
489.479	98.5
489.696	90.5
489.914	89.5
490.132	93.5
490.35	87.5
490.568	109.5
490.786	109.5
491.003	105.5
491.221	108.5
491.439	112.5
491.657	112.5
491.874	115.5
492.092	121.5
492.31	143.5
492.527	132.5
492.745	122.5
492.963	103.5
493.18	98.5
493.398	117.5
493.615	117.5
493.833	116.5
494.05	107.5
494.268	103.5
494.485	101.5
494.703	106.5
494.92	114.5
495.138	101.5
495.355	104.5
495.573	97.5
495.79	104.5
496.008	105.5
496.225	98.5
496.442	114.5
496.66	112.5
496.877	110.5
497.094	94.5
497.312	95.5
497.529	97.5
497.746	100.5
497.963	95.5
498.181	71.5
498.398	85.5
498.615	88.5
498.832	91.5
499.049	91.5
499.267	94.5
499.484	103.5
499.701	95.5
499.918	119.5
500.135	110.5
500.352	89.5
500.569	104.5
500.786	104.5
501.003	76.5
501.22	89.5
501.437	98.5
501.654	90.5
501.871	100.5
502.088	93.5
502.305	96.5
502.522	94.5
502.739	102.5
502.956	82.5
503.172	86.5
503.389	81.5
503.606	87.5
503.823	101.5
504.04	95.5
504.256	88.5
504.473	86.5
504.69	95.5
504.907	79.5
505.123	82.5
505.34	90.5
505.557	95.5
505.773	103.5
505.99	106.5
506.207	95.5
506.423	91.5
506.64	91.5
506.856	85.5
507.073	91.5
507.289	96.5
507.506	90.5
507.722	95.5
507.939	83.5
508.155	103.5
508.372	102.5
508.588	95.5
508.805	75.5
509.021	84.5
509.238	87.5
509.454	83.5
509.67	87.5
509.887	78.5
510.103	91.5
510.319	90.5
510.536	88.5
510.752	73.5
510.968	77.5
511.184	103.5
511.401	76.5
511.617	83.5
511.833	82.5
512.049	86.5
512.265	93.5
512.481	86.5
512.698	83.5
512.914	94.5
513.13	90.5
513.346	90.5
513.562	91.5
513.778	86.5
513.994	79.5
514.21	97.5
514.426	72.5
514.642	86.5
514.858	94.5
515.074	78.5
515.29	94.5
515.506	82.5
515.721	93.5
515.937	85.5
516.153	88.5
516.369	73.5
516.585	90.5
516.801	102.5
517.016	86.5
517.232	85.5
517.448	82.5
517.664	75.5
517.879	87.5
518.095	75.5
518.311	77.5
518.527	90.5
518.742	88.5
518.958	81.5
519.173	78.5
519.389	73.5
519.605	77.5
519.82	86.5
520.036	90.5
520.251	90.5
520.467	94.5
520.682	73.5
520.898	87.5
521.113	75.5
521.329	87.5
521.544	57.5
521.76	86.5
521.975	83.5
522.19	87.5
522.406	94.5
522.621	95.5
522.836	88.5
523.052	93.5
523.267	93.5
523.482	98.5
523.698	102.5
523.913	76.5
524.128	89.5
524.343	92.5
524.559	78.5
524.774	99.5
524.989	95.5
525.204	86.5
525.419	94.5
525.634	89.5
525.849	96.5
526.064	85.5
526.28	94.5
526.495	82.5
526.71	82.5
526.925	76.5
527.14	78.5
527.355	101.5
527.57	88.5
527.785	82.5
527.999	88.5
528.214	80.5
528.429	86.5
528.644	100.5
528.859	98.5
529.074	94.5
529.289	91.5
529.503	91.5
529.718	98.5
529.933	99.5
530.148	86.5
530.363	94.5
530.577	86.5
530.792	89.5
531.007	83.5
531.221	82.5
531.436	90.5
531.651	71.5
531.865	71.5
532.08	94.5
532.295	101.5
532.509	100.5
532.724	93.5
532.938	96.5
533.153	94.5
533.367	79.5
533.582	95.5
533.796	85.5
534.011	90.5
534.225	91.5
534.44	87.5
534.654	79.5
534.868	70.5
535.083	84.5
535.297	74.5
535.511	85.5
535.726	87.5
535.94	78.5
536.154	92.5
536.369	77.5
536.583	89.5
536.797	94.5
537.011	71.5
537.225	85.5
537.44	81.5
537.654	84.5
537.868	86.5
538.082	84.5
