Data from Location5.07152019.Energy5.Lamp.07192019.3%Agarose_HRD10591_15-36-23-386.txt Node
Date: Fri Jul 19 15:36:23 EDT 2019
User: cochatt
Spectrometer: HR+D1059
Trigger mode: 1
Integration Time (sec): 1.000000E-1
Scans to average: 1
Electric dark correction enabled: true
Nonlinearity correction enabled: false
Boxcar width: 0
XAxis mode: Wavelengths
Number of Pixels in Spectrum: 2048
>>>>>Begin Spectral Data<<<<<
223.165	-34.94
223.4	-34.94
223.635	-34.94
223.869	-18.94
224.104	-11.94
224.338	-5.94
224.573	-5.94
224.808	-17.94
225.042	-11.94
225.277	2.06
225.511	1.06
225.746	-5.94
225.98	1.06
226.215	11.06
226.449	19.06
226.683	23.06
226.918	24.06
227.152	32.06
227.387	40.06
227.621	44.06
227.856	34.06
228.09	34.06
228.324	56.06
228.559	47.06
228.793	61.06
229.027	76.06
229.262	67.06
229.496	62.06
229.73	60.06
229.964	81.06
230.199	75.06
230.433	62.06
230.667	81.06
230.901	77.06
231.136	74.06
231.37	60.06
231.604	92.06
231.838	77.06
232.072	71.06
232.306	71.06
232.541	74.06
232.775	82.06
233.009	79.06
233.243	85.06
233.477	89.06
233.711	92.06
233.945	84.06
234.179	73.06
234.413	81.06
234.647	76.06
234.881	81.06
235.115	60.06
235.349	84.06
235.583	80.06
235.817	71.06
236.051	86.06
236.285	82.06
236.519	77.06
236.753	67.06
236.987	81.06
237.221	81.06
237.455	84.06
237.689	73.06
237.922	72.06
238.156	65.06
238.39	73.06
238.624	61.06
238.858	73.06
239.091	67.06
239.325	70.06
239.559	73.06
239.793	77.06
240.027	84.06
240.26	66.06
240.494	80.06
240.728	69.06
240.961	79.06
241.195	78.06
241.429	69.06
241.662	85.06
241.896	68.06
242.13	74.06
242.363	65.06
242.597	68.06
242.83	69.06
243.064	96.06
243.298	79.06
243.531	69.06
243.765	81.06
243.998	75.06
244.232	74.06
244.465	67.06
244.699	63.06
244.932	79.06
245.166	84.06
245.399	68.06
245.633	77.06
245.866	80.06
246.099	77.06
246.333	88.06
246.566	91.06
246.8	89.06
247.033	72.06
247.266	72.06
247.5	68.06
247.733	68.06
247.966	89.06
248.2	76.06
248.433	72.06
248.666	80.06
248.899	71.06
249.133	87.06
249.366	86.06
249.599	84.06
249.832	76.06
250.066	88.06
250.299	65.06
250.532	72.06
250.765	82.06
250.998	83.06
251.231	77.06
251.465	86.06
251.698	68.06
251.931	82.06
252.164	76.06
252.397	74.06
252.63	65.06
252.863	69.06
253.096	83.06
253.329	82.06
253.562	73.06
253.795	80.06
254.028	86.06
254.261	68.06
254.494	70.06
254.727	83.06
254.96	80.06
255.193	77.06
255.426	70.06
255.659	76.06
255.892	67.06
256.124	81.06
256.357	89.06
256.59	93.06
256.823	74.06
257.056	89.06
257.289	76.06
257.521	87.06
257.754	77.06
257.987	84.06
258.22	82.06
258.452	85.06
258.685	87.06
258.918	81.06
259.151	55.06
259.383	70.06
259.616	74.06
259.849	80.06
260.081	82.06
260.314	73.06
260.547	76.06
260.779	89.06
261.012	79.06
261.244	88.06
261.477	86.06
261.71	88.06
261.942	70.06
262.175	79.06
262.407	82.06
262.64	68.06
262.872	83.06
263.105	81.06
263.337	79.06
263.57	85.06
263.802	72.06
264.035	73.06
264.267	74.06
264.499	73.06
264.732	77.06
264.964	70.06
265.197	82.06
265.429	62.06
265.661	81.06
265.894	84.06
266.126	87.06
266.358	77.06
266.591	74.06
266.823	68.06
267.055	72.06
267.287	84.06
267.52	69.06
267.752	78.06
267.984	89.06
268.216	75.06
268.448	82.06
268.681	71.06
268.913	85.06
269.145	67.06
269.377	78.06
269.609	91.06
269.841	87.06
270.073	75.06
270.306	79.06
270.538	70.06
270.77	77.06
271.002	93.06
271.234	64.06
271.466	81.06
271.698	79.06
271.93	73.06
272.162	90.06
272.394	84.06
272.626	77.06
272.858	80.06
273.09	76.06
273.322	78.06
273.553	88.06
273.785	93.06
274.017	81.06
274.249	82.06
274.481	90.06
274.713	73.06
274.945	65.06
275.176	85.06
275.408	78.06
275.64	81.06
275.872	98.06
276.104	81.06
276.335	76.06
276.567	68.06
276.799	77.06
277.031	77.06
277.262	81.06
277.494	92.06
277.726	76.06
277.957	73.06
278.189	79.06
278.421	87.06
278.652	70.06
278.884	74.06
279.115	81.06
279.347	92.06
279.579	81.06
279.81	80.06
280.042	84.06
280.273	96.06
280.505	96.06
280.736	81.06
280.968	79.06
281.199	83.06
281.431	89.06
281.662	85.06
281.894	85.06
282.125	88.06
282.356	94.06
282.588	84.06
282.819	85.06
283.051	82.06
283.282	78.06
283.513	74.06
283.745	82.06
283.976	82.06
284.207	86.06
284.439	83.06
284.67	69.06
284.901	75.06
285.132	70.06
285.364	77.06
285.595	87.06
285.826	70.06
286.057	90.06
286.288	83.06
286.52	89.06
286.751	76.06
286.982	86.06
287.213	85.06
287.444	85.06
287.675	88.06
287.906	98.06
288.138	79.06
288.369	94.06
288.6	79.06
288.831	88.06
289.062	75.06
289.293	77.06
289.524	82.06
289.755	97.06
289.986	68.06
290.217	107.06
290.448	77.06
290.679	87.06
290.91	77.06
291.141	75.06
291.371	82.06
291.602	92.06
291.833	84.06
292.064	93.06
292.295	85.06
292.526	82.06
292.757	85.06
292.987	74.06
293.218	89.06
293.449	82.06
293.68	74.06
293.91	62.06
294.141	85.06
294.372	79.06
294.603	69.06
294.833	83.06
295.064	81.06
295.295	73.06
295.525	78.06
295.756	80.06
295.987	77.06
296.217	85.06
296.448	97.06
296.679	83.06
296.909	87.06
297.14	72.06
297.37	83.06
297.601	88.06
297.831	73.06
298.062	84.06
298.292	80.06
298.523	78.06
298.753	95.06
298.984	86.06
299.214	88.06
299.445	92.06
299.675	76.06
299.905	77.06
300.136	96.06
300.366	86.06
300.597	84.06
300.827	86.06
301.057	88.06
301.288	80.06
301.518	96.06
301.748	95.06
301.979	74.06
302.209	84.06
302.439	79.06
302.669	84.06
302.9	71.06
303.13	83.06
303.36	78.06
303.59	82.06
303.82	78.06
304.051	88.06
304.281	96.06
304.511	89.06
304.741	71.06
304.971	86.06
305.201	93.06
305.431	86.06
305.661	80.06
305.891	92.06
306.121	87.06
306.352	83.06
306.582	77.06
306.812	71.06
307.042	68.06
307.272	71.06
307.502	86.06
307.731	76.06
307.961	85.06
308.191	82.06
308.421	87.06
308.651	67.06
308.881	85.06
309.111	93.06
309.341	98.06
309.571	97.06
309.8	71.06
310.03	84.06
310.26	75.06
310.49	85.06
310.72	85.06
310.949	68.06
311.179	86.06
311.409	67.06
311.639	77.06
311.868	80.06
312.098	87.06
312.328	74.06
312.557	85.06
312.787	83.06
313.017	85.06
313.246	94.06
313.476	83.06
313.706	81.06
313.935	65.06
314.165	87.06
314.394	78.06
314.624	84.06
314.853	67.06
315.083	68.06
315.312	83.06
315.542	98.06
315.771	92.06
316.001	73.06
316.23	82.06
316.46	79.06
316.689	78.06
316.919	71.06
317.148	85.06
317.377	74.06
317.607	87.06
317.836	84.06
318.065	84.06
318.295	80.06
318.524	71.06
318.753	85.06
318.983	78.06
319.212	79.06
319.441	80.06
319.67	87.06
319.9	84.06
320.129	89.06
320.358	89.06
320.587	81.06
320.816	83.06
321.046	73.06
321.275	69.06
321.504	80.06
321.733	86.06
321.962	67.06
322.191	81.06
322.42	84.06
322.649	86.06
322.878	77.06
323.108	90.06
323.337	87.06
323.566	81.06
323.795	67.06
324.024	71.06
324.253	69.06
324.482	80.06
324.71	81.06
324.939	77.06
325.168	81.06
325.397	80.06
325.626	101.06
325.855	83.06
326.084	74.06
326.313	81.06
326.542	93.06
326.77	109.06
326.999	90.06
327.228	74.06
327.457	88.06
327.686	84.06
327.914	70.06
328.143	79.06
328.372	88.06
328.6	74.06
328.829	84.06
329.058	93.06
329.287	80.06
329.515	84.06
329.744	78.06
329.972	83.06
330.201	84.06
330.43	97.06
330.658	86.06
330.887	85.06
331.115	89.06
331.344	81.06
331.572	97.06
331.801	85.06
332.03	77.06
332.258	80.06
332.486	80.06
332.715	80.06
332.943	77.06
333.172	88.06
333.4	98.06
333.629	79.06
333.857	82.06
334.085	93.06
334.314	82.06
334.542	70.06
334.771	84.06
334.999	81.06
335.227	91.06
335.455	83.06
335.684	89.06
335.912	88.06
336.14	76.06
336.369	82.06
336.597	80.06
336.825	87.06
337.053	77.06
337.281	85.06
337.51	79.06
337.738	77.06
337.966	72.06
338.194	86.06
338.422	77.06
338.65	88.06
338.878	85.06
339.106	86.06
339.334	86.06
339.562	78.06
339.79	86.06
340.018	72.06
340.246	87.06
340.474	94.06
340.702	92.06
340.93	94.06
341.158	82.06
341.386	79.06
341.614	66.06
341.842	89.06
342.07	87.06
342.298	77.06
342.526	73.06
342.754	82.06
342.981	104.06
343.209	87.06
343.437	90.06
343.665	86.06
343.893	86.06
344.12	81.06
344.348	76.06
344.576	86.06
344.804	79.06
345.031	78.06
345.259	78.06
345.487	89.06
345.714	94.06
345.942	85.06
346.17	91.06
346.397	86.06
346.625	88.06
346.853	86.06
347.08	70.06
347.308	95.06
347.535	88.06
347.763	84.06
347.99	85.06
348.218	81.06
348.445	81.06
348.673	71.06
348.9	76.06
349.128	78.06
349.355	81.06
349.583	74.06
349.81	84.06
350.037	94.06
350.265	77.06
350.492	71.06
350.72	79.06
350.947	93.06
351.174	70.06
351.402	66.06
351.629	70.06
351.856	101.06
352.083	85.06
352.311	86.06
352.538	74.06
352.765	80.06
352.992	97.06
353.22	72.06
353.447	72.06
353.674	89.06
353.901	79.06
354.128	83.06
354.355	81.06
354.583	81.06
354.81	74.06
355.037	76.06
355.264	78.06
355.491	80.06
355.718	82.06
355.945	90.06
356.172	76.06
356.399	92.06
356.626	56.06
356.853	65.06
357.08	86.06
357.307	78.06
357.534	76.06
357.761	83.06
357.988	83.06
358.215	81.06
358.441	76.06
358.668	58.06
358.895	85.06
359.122	84.06
359.349	101.06
359.576	79.06
359.802	78.06
360.029	74.06
360.256	79.06
360.483	83.06
360.709	80.06
360.936	73.06
361.163	76.06
361.39	107.06
361.616	60.06
361.843	86.06
362.07	85.06
362.296	81.06
362.523	95.06
362.749	72.06
362.976	77.06
363.203	83.06
363.429	76.06
363.656	76.06
363.882	83.06
364.109	84.06
364.335	66.06
364.562	77.06
364.788	76.06
365.015	78.06
365.241	80.06
365.468	81.06
365.694	82.06
365.92	77.06
366.147	76.06
366.373	87.06
366.599	77.06
366.826	81.06
367.052	72.06
367.278	84.06
367.505	73.06
367.731	93.06
367.957	87.06
368.184	81.06
368.41	95.06
368.636	91.06
368.862	75.06
369.089	84.06
369.315	94.06
369.541	73.06
369.767	85.06
369.993	77.06
370.219	75.06
370.445	63.06
370.672	70.06
370.898	85.06
371.124	88.06
371.35	78.06
371.576	81.06
371.802	75.06
372.028	73.06
372.254	94.06
372.48	73.06
372.706	74.06
372.932	96.06
373.158	80.06
373.384	72.06
373.61	77.06
373.835	70.06
374.061	73.06
374.287	86.06
374.513	87.06
374.739	78.06
374.965	74.06
375.191	70.06
375.416	85.06
375.642	83.06
375.868	84.06
376.094	71.06
376.319	89.06
376.545	88.06
376.771	79.06
376.997	85.06
377.222	83.06
377.448	89.06
377.674	83.06
377.899	93.06
378.125	65.06
378.35	85.06
378.576	73.06
378.802	81.06
379.027	81.06
379.253	82.06
379.478	80.06
379.704	77.06
379.929	84.06
380.155	66.06
380.38	85.06
380.606	89.06
380.831	78.06
381.057	73.06
381.282	90.06
381.507	92.06
381.733	91.06
381.958	74.06
382.184	76.06
382.409	80.06
382.634	75.06
382.86	73.06
383.085	80.06
383.31	83.06
383.535	78.06
383.761	85.06
383.986	88.06
384.211	73.06
384.436	84.06
384.662	79.06
384.887	81.06
385.112	72.06
385.337	85.06
385.562	63.06
385.787	84.06
386.013	100.06
386.238	79.06
386.463	78.06
386.688	88.06
386.913	89.06
387.138	68.06
387.363	71.06
387.588	79.06
387.813	79.06
388.038	71.06
388.263	88.06
388.488	80.06
388.713	80.06
388.938	84.06
389.163	88.06
389.387	87.06
389.612	83.06
389.837	75.06
390.062	81.06
390.287	86.06
390.512	77.06
390.736	65.06
390.961	78.06
391.186	89.06
391.411	85.06
391.636	80.06
391.86	78.06
392.085	89.06
392.31	77.06
392.534	76.06
392.759	80.06
392.984	89.06
393.208	79.06
393.433	67.06
393.658	74.06
393.882	85.06
394.107	74.06
394.331	83.06
394.556	89.06
394.78	83.06
395.005	96.06
395.229	88.06
395.454	79.06
395.678	85.06
395.903	97.06
396.127	93.06
396.352	92.06
396.576	86.06
396.801	63.06
397.025	84.06
397.249	76.06
397.474	80.06
397.698	79.06
397.922	99.06
398.147	73.06
398.371	83.06
398.595	99.06
398.82	87.06
399.044	94.06
399.268	91.06
399.492	87.06
399.717	84.06
399.941	82.06
400.165	84.06
400.389	84.06
400.613	77.06
400.837	89.06
401.062	74.06
401.286	81.06
401.51	82.06
401.734	88.06
401.958	83.06
402.182	79.06
402.406	88.06
402.63	81.06
402.854	85.06
403.078	80.06
403.302	84.06
403.526	86.06
403.75	84.06
403.974	87.06
404.198	72.06
404.422	82.06
404.645	90.06
404.869	77.06
405.093	79.06
405.317	73.06
405.541	76.06
405.765	96.06
405.988	83.06
406.212	80.06
406.436	84.06
406.66	72.06
406.883	92.06
407.107	85.06
407.331	96.06
407.555	89.06
407.778	78.06
408.002	71.06
408.226	83.06
408.449	81.06
408.673	81.06
408.896	80.06
409.12	87.06
409.344	80.06
409.567	90.06
409.791	99.06
410.014	92.06
410.238	85.06
410.461	80.06
410.685	81.06
410.908	87.06
411.132	83.06
411.355	75.06
411.578	80.06
411.802	76.06
412.025	84.06
412.249	74.06
412.472	85.06
412.695	81.06
412.919	97.06
413.142	88.06
413.365	87.06
413.589	95.06
413.812	97.06
414.035	90.06
414.258	86.06
414.482	84.06
414.705	80.06
414.928	82.06
415.151	78.06
415.374	88.06
415.597	85.06
415.821	91.06
416.044	105.06
416.267	87.06
416.49	83.06
416.713	88.06
416.936	83.06
417.159	99.06
417.382	81.06
417.605	79.06
417.828	85.06
418.051	80.06
418.274	69.06
418.497	75.06
418.72	92.06
418.943	87.06
419.166	73.06
419.389	85.06
419.611	80.06
419.834	84.06
420.057	84.06
420.28	94.06
420.503	96.06
420.726	83.06
420.948	97.06
421.171	88.06
421.394	75.06
421.617	70.06
421.839	90.06
422.062	79.06
422.285	99.06
422.507	99.06
422.73	88.06
422.953	87.06
423.175	90.06
423.398	82.06
423.621	102.06
423.843	96.06
424.066	88.06
424.288	95.06
424.511	88.06
424.733	103.06
424.956	94.06
425.178	81.06
425.401	88.06
425.623	83.06
425.846	78.06
426.068	79.06
426.291	80.06
426.513	86.06
426.735	87.06
426.958	97.06
427.18	82.06
427.402	93.06
427.625	92.06
427.847	86.06
428.069	87.06
428.292	89.06
428.514	85.06
428.736	90.06
428.958	86.06
429.181	83.06
429.403	72.06
429.625	96.06
429.847	108.06
430.069	89.06
430.292	90.06
430.514	65.06
430.736	80.06
430.958	81.06
431.18	82.06
431.402	95.06
431.624	94.06
431.846	81.06
432.068	86.06
432.29	83.06
432.512	90.06
432.734	89.06
432.956	97.06
433.178	108.06
433.4	100.06
433.622	86.06
433.844	90.06
434.066	102.06
434.287	78.06
434.509	87.06
434.731	74.06
434.953	82.06
435.175	90.06
435.397	80.06
435.618	87.06
435.84	80.06
436.062	79.06
436.284	91.06
436.505	96.06
436.727	81.06
436.949	84.06
437.17	89.06
437.392	77.06
437.614	81.06
437.835	84.06
438.057	86.06
438.278	89.06
438.5	93.06
438.721	102.06
438.943	78.06
439.165	95.06
439.386	87.06
439.608	93.06
439.829	86.06
440.05	82.06
440.272	94.06
440.493	92.06
440.715	86.06
440.936	91.06
441.158	92.06
441.379	77.06
441.6	81.06
441.822	94.06
442.043	93.06
442.264	101.06
442.486	97.06
442.707	76.06
442.928	85.06
443.149	91.06
443.371	99.06
443.592	95.06
443.813	79.06
444.034	85.06
444.255	90.06
444.476	94.06
444.698	101.06
444.919	97.06
445.14	223.06
445.361	144.06
445.582	90.06
445.803	94.06
446.024	85.06
446.245	96.06
446.466	91.06
446.687	93.06
446.908	90.06
447.129	81.06
447.35	84.06
447.571	108.06
447.792	92.06
448.013	85.06
448.234	96.06
448.455	100.06
448.675	84.06
448.896	92.06
449.117	87.06
449.338	94.06
449.559	87.06
449.779	90.06
450	86.06
450.221	100.06
450.442	98.06
450.662	76.06
450.883	94.06
451.104	99.06
451.324	101.06
451.545	95.06
451.766	85.06
451.986	85.06
452.207	85.06
452.428	97.06
452.648	84.06
452.869	79.06
453.089	73.06
453.31	78.06
453.53	81.06
453.751	81.06
453.971	87.06
454.192	76.06
454.412	98.06
454.633	89.06
454.853	94.06
455.073	83.06
455.294	78.06
455.514	78.06
455.734	88.06
455.955	75.06
456.175	102.06
456.395	86.06
456.616	83.06
456.836	74.06
457.056	89.06
457.276	96.06
457.497	93.06
457.717	87.06
457.937	89.06
458.157	76.06
458.377	85.06
458.598	77.06
458.818	80.06
459.038	85.06
459.258	79.06
459.478	91.06
459.698	65.06
459.918	74.06
460.138	77.06
460.358	72.06
460.578	85.06
460.798	88.06
461.018	79.06
461.238	88.06
461.458	83.06
461.678	80.06
461.898	84.06
462.118	85.06
462.338	83.06
462.558	80.06
462.777	76.06
462.997	94.06
463.217	84.06
463.437	79.06
463.657	84.06
463.876	86.06
464.096	80.06
464.316	84.06
464.536	90.06
464.755	108.06
464.975	79.06
465.195	92.06
465.414	79.06
465.634	92.06
465.854	87.06
466.073	89.06
466.293	85.06
466.512	95.06
466.732	89.06
466.951	108.06
467.171	89.06
467.391	89.06
467.61	102.06
467.829	90.06
468.049	95.06
468.268	92.06
468.488	98.06
468.707	92.06
468.927	81.06
469.146	102.06
469.365	100.06
469.585	94.06
469.804	96.06
470.023	101.06
470.243	94.06
470.462	74.06
470.681	88.06
470.901	102.06
471.12	88.06
471.339	100.06
471.558	94.06
471.777	85.06
471.997	92.06
472.216	96.06
472.435	88.06
472.654	86.06
472.873	95.06
473.092	99.06
473.311	74.06
473.53	93.06
473.749	83.06
473.968	101.06
474.187	90.06
474.406	77.06
474.625	94.06
474.844	101.06
475.063	86.06
475.282	78.06
475.501	86.06
475.72	88.06
475.939	80.06
476.158	86.06
476.377	91.06
476.596	91.06
476.814	88.06
477.033	88.06
477.252	77.06
477.471	74.06
477.69	84.06
477.908	80.06
478.127	96.06
478.346	85.06
478.564	93.06
478.783	101.06
479.002	92.06
479.22	91.06
479.439	88.06
479.658	92.06
479.876	89.06
480.095	81.06
480.313	89.06
480.532	81.06
480.751	86.06
480.969	83.06
481.188	90.06
481.406	87.06
481.624	97.06
481.843	82.06
482.061	75.06
482.28	94.06
482.498	84.06
482.717	92.06
482.935	86.06
483.153	90.06
483.372	88.06
483.59	104.06
483.808	79.06
484.027	102.06
484.245	101.06
484.463	97.06
484.681	102.06
484.9	81.06
485.118	96.06
485.336	87.06
485.554	87.06
485.772	74.06
485.99	88.06
486.209	92.06
486.427	93.06
486.645	96.06
486.863	93.06
487.081	102.06
487.299	83.06
487.517	89.06
487.735	92.06
487.953	108.06
488.171	108.06
488.389	124.06
488.607	96.06
488.825	94.06
489.043	100.06
489.261	88.06
489.479	101.06
489.696	100.06
489.914	105.06
490.132	97.06
490.35	93.06
490.568	99.06
490.786	91.06
491.003	96.06
491.221	87.06
491.439	92.06
491.657	97.06
491.874	113.06
492.092	126.06
492.31	124.06
492.527	110.06
492.745	106.06
492.963	92.06
493.18	90.06
493.398	114.06
493.615	97.06
493.833	99.06
494.05	93.06
494.268	90.06
494.485	109.06
494.703	97.06
494.92	96.06
495.138	96.06
495.355	111.06
495.573	92.06
495.79	104.06
496.008	99.06
496.225	98.06
496.442	105.06
496.66	106.06
496.877	110.06
497.094	109.06
497.312	99.06
497.529	90.06
497.746	81.06
497.963	89.06
498.181	87.06
498.398	105.06
498.615	82.06
498.832	91.06
499.049	98.06
499.267	86.06
499.484	106.06
499.701	90.06
499.918	78.06
500.135	98.06
500.352	85.06
500.569	98.06
500.786	107.06
501.003	98.06
501.22	80.06
501.437	92.06
501.654	93.06
501.871	101.06
502.088	90.06
502.305	92.06
502.522	84.06
502.739	92.06
502.956	98.06
503.172	90.06
503.389	89.06
503.606	99.06
503.823	98.06
504.04	80.06
504.256	86.06
504.473	96.06
504.69	82.06
504.907	97.06
505.123	94.06
505.34	86.06
505.557	88.06
505.773	90.06
505.99	88.06
506.207	74.06
506.423	92.06
506.64	89.06
506.856	93.06
507.073	86.06
507.289	96.06
507.506	80.06
507.722	99.06
507.939	89.06
508.155	83.06
508.372	83.06
508.588	81.06
508.805	83.06
509.021	92.06
509.238	80.06
509.454	70.06
509.67	84.06
509.887	85.06
510.103	71.06
510.319	88.06
510.536	80.06
510.752	79.06
510.968	88.06
511.184	83.06
511.401	83.06
511.617	85.06
511.833	89.06
512.049	85.06
512.265	79.06
512.481	83.06
512.698	88.06
512.914	79.06
513.13	85.06
513.346	85.06
513.562	82.06
513.778	85.06
513.994	93.06
514.21	94.06
514.426	99.06
514.642	88.06
514.858	81.06
515.074	82.06
515.29	75.06
515.506	68.06
515.721	86.06
515.937	84.06
516.153	73.06
516.369	86.06
516.585	90.06
516.801	75.06
517.016	82.06
517.232	86.06
517.448	92.06
517.664	83.06
517.879	89.06
518.095	88.06
518.311	80.06
518.527	83.06
