Data from Location5.07152019.Energy5.Lamp.07192019.3%Agarose_HRD10591_16-05-04-629.txt Node
Date: Fri Jul 19 16:05:04 EDT 2019
User: cochatt
Spectrometer: HR+D1059
Trigger mode: 1
Integration Time (sec): 1.000000E-1
Scans to average: 1
Electric dark correction enabled: true
Nonlinearity correction enabled: false
Boxcar width: 0
XAxis mode: Wavelengths
Number of Pixels in Spectrum: 2048
>>>>>Begin Spectral Data<<<<<
223.165	-22.44
223.4	-22.44
223.635	-22.44
223.869	-13.44
224.104	-9.44
224.338	-11.44
224.573	-9.44
224.808	-16.44
225.042	-11.44
225.277	-21.44
225.511	-12.44
225.746	14.56
225.98	13.56
226.215	6.56
226.449	22.56
226.683	14.56
226.918	23.56
227.152	32.56
227.387	36.56
227.621	39.56
227.856	38.56
228.09	51.56
228.324	53.56
228.559	50.56
228.793	59.56
229.027	54.56
229.262	49.56
229.496	56.56
229.73	63.56
229.964	78.56
230.199	70.56
230.433	59.56
230.667	74.56
230.901	83.56
231.136	78.56
231.37	86.56
231.604	67.56
231.838	75.56
232.072	65.56
232.306	81.56
232.541	88.56
232.775	97.56
233.009	89.56
233.243	83.56
233.477	82.56
233.711	68.56
233.945	74.56
234.179	93.56
234.413	83.56
234.647	85.56
234.881	81.56
235.115	76.56
235.349	81.56
235.583	83.56
235.817	91.56
236.051	84.56
236.285	74.56
236.519	73.56
236.753	89.56
236.987	80.56
237.221	71.56
237.455	70.56
237.689	82.56
237.922	84.56
238.156	67.56
238.39	66.56
238.624	83.56
238.858	74.56
239.091	59.56
239.325	84.56
239.559	74.56
239.793	67.56
240.027	81.56
240.26	81.56
240.494	83.56
240.728	74.56
240.961	74.56
241.195	90.56
241.429	80.56
241.662	82.56
241.896	74.56
242.13	83.56
242.363	78.56
242.597	70.56
242.83	92.56
243.064	82.56
243.298	76.56
243.531	75.56
243.765	66.56
243.998	87.56
244.232	78.56
244.465	89.56
244.699	87.56
244.932	83.56
245.166	79.56
245.399	71.56
245.633	76.56
245.866	80.56
246.099	77.56
246.333	82.56
246.566	61.56
246.8	68.56
247.033	93.56
247.266	74.56
247.5	79.56
247.733	64.56
247.966	77.56
248.2	66.56
248.433	88.56
248.666	82.56
248.899	87.56
249.133	69.56
249.366	70.56
249.599	76.56
249.832	71.56
250.066	91.56
250.299	93.56
250.532	67.56
250.765	74.56
250.998	90.56
251.231	91.56
251.465	80.56
251.698	89.56
251.931	77.56
252.164	57.56
252.397	71.56
252.63	81.56
252.863	75.56
253.096	76.56
253.329	88.56
253.562	90.56
253.795	84.56
254.028	78.56
254.261	86.56
254.494	84.56
254.727	93.56
254.96	80.56
255.193	84.56
255.426	81.56
255.659	94.56
255.892	94.56
256.124	89.56
256.357	97.56
256.59	77.56
256.823	93.56
257.056	87.56
257.289	79.56
257.521	101.56
257.754	85.56
257.987	79.56
258.22	80.56
258.452	80.56
258.685	85.56
258.918	84.56
259.151	93.56
259.383	87.56
259.616	79.56
259.849	92.56
260.081	75.56
260.314	76.56
260.547	91.56
260.779	85.56
261.012	80.56
261.244	74.56
261.477	85.56
261.71	87.56
261.942	91.56
262.175	80.56
262.407	71.56
262.64	88.56
262.872	87.56
263.105	94.56
263.337	82.56
263.57	68.56
263.802	77.56
264.035	80.56
264.267	89.56
264.499	80.56
264.732	90.56
264.964	85.56
265.197	91.56
265.429	79.56
265.661	82.56
265.894	102.56
266.126	91.56
266.358	90.56
266.591	74.56
266.823	90.56
267.055	60.56
267.287	76.56
267.52	72.56
267.752	84.56
267.984	93.56
268.216	89.56
268.448	87.56
268.681	88.56
268.913	78.56
269.145	85.56
269.377	93.56
269.609	76.56
269.841	91.56
270.073	91.56
270.306	84.56
270.538	87.56
270.77	81.56
271.002	85.56
271.234	80.56
271.466	100.56
271.698	84.56
271.93	99.56
272.162	105.56
272.394	91.56
272.626	85.56
272.858	91.56
273.09	82.56
273.322	80.56
273.553	83.56
273.785	75.56
274.017	72.56
274.249	89.56
274.481	90.56
274.713	95.56
274.945	84.56
275.176	73.56
275.408	84.56
275.64	78.56
275.872	92.56
276.104	102.56
276.335	100.56
276.567	92.56
276.799	88.56
277.031	84.56
277.262	86.56
277.494	83.56
277.726	84.56
277.957	88.56
278.189	86.56
278.421	83.56
278.652	91.56
278.884	70.56
279.115	94.56
279.347	89.56
279.579	84.56
279.81	98.56
280.042	89.56
280.273	81.56
280.505	77.56
280.736	96.56
280.968	89.56
281.199	90.56
281.431	95.56
281.662	90.56
281.894	98.56
282.125	88.56
282.356	97.56
282.588	99.56
282.819	100.56
283.051	68.56
283.282	92.56
283.513	93.56
283.745	88.56
283.976	97.56
284.207	83.56
284.439	82.56
284.67	82.56
284.901	78.56
285.132	84.56
285.364	86.56
285.595	89.56
285.826	91.56
286.057	94.56
286.288	87.56
286.52	87.56
286.751	83.56
286.982	89.56
287.213	86.56
287.444	106.56
287.675	75.56
287.906	96.56
288.138	90.56
288.369	93.56
288.6	89.56
288.831	91.56
289.062	89.56
289.293	97.56
289.524	80.56
289.755	76.56
289.986	94.56
290.217	82.56
290.448	87.56
290.679	77.56
290.91	100.56
291.141	80.56
291.371	78.56
291.602	81.56
291.833	85.56
292.064	97.56
292.295	96.56
292.526	90.56
292.757	94.56
292.987	94.56
293.218	92.56
293.449	86.56
293.68	82.56
293.91	88.56
294.141	83.56
294.372	81.56
294.603	92.56
294.833	99.56
295.064	82.56
295.295	92.56
295.525	90.56
295.756	102.56
295.987	76.56
296.217	81.56
296.448	79.56
296.679	91.56
296.909	95.56
297.14	79.56
297.37	92.56
297.601	95.56
297.831	93.56
298.062	94.56
298.292	91.56
298.523	89.56
298.753	100.56
298.984	97.56
299.214	96.56
299.445	85.56
299.675	86.56
299.905	91.56
300.136	93.56
300.366	91.56
300.597	91.56
300.827	94.56
301.057	98.56
301.288	85.56
301.518	88.56
301.748	90.56
301.979	91.56
302.209	97.56
302.439	79.56
302.669	92.56
302.9	99.56
303.13	98.56
303.36	84.56
303.59	82.56
303.82	93.56
304.051	87.56
304.281	105.56
304.511	92.56
304.741	95.56
304.971	66.56
305.201	111.56
305.431	102.56
305.661	97.56
305.891	102.56
306.121	94.56
306.352	86.56
306.582	79.56
306.812	85.56
307.042	81.56
307.272	90.56
307.502	83.56
307.731	97.56
307.961	92.56
308.191	106.56
308.421	92.56
308.651	104.56
308.881	80.56
309.111	94.56
309.341	99.56
309.571	97.56
309.8	102.56
310.03	109.56
310.26	87.56
310.49	97.56
310.72	98.56
310.949	92.56
311.179	101.56
311.409	89.56
311.639	83.56
311.868	98.56
312.098	94.56
312.328	86.56
312.557	92.56
312.787	86.56
313.017	94.56
313.246	98.56
313.476	92.56
313.706	76.56
313.935	99.56
314.165	87.56
314.394	102.56
314.624	87.56
314.853	105.56
315.083	101.56
315.312	90.56
315.542	94.56
315.771	103.56
316.001	97.56
316.23	88.56
316.46	92.56
316.689	86.56
316.919	85.56
317.148	88.56
317.377	79.56
317.607	86.56
317.836	99.56
318.065	81.56
318.295	98.56
318.524	87.56
318.753	79.56
318.983	89.56
319.212	101.56
319.441	95.56
319.67	75.56
319.9	89.56
320.129	84.56
320.358	101.56
320.587	90.56
320.816	94.56
321.046	85.56
321.275	98.56
321.504	96.56
321.733	89.56
321.962	83.56
322.191	94.56
322.42	102.56
322.649	107.56
322.878	97.56
323.108	95.56
323.337	82.56
323.566	85.56
323.795	88.56
324.024	111.56
324.253	75.56
324.482	80.56
324.71	86.56
324.939	95.56
325.168	72.56
325.397	80.56
325.626	96.56
325.855	89.56
326.084	89.56
326.313	98.56
326.542	86.56
326.77	88.56
326.999	103.56
327.228	87.56
327.457	92.56
327.686	102.56
327.914	90.56
328.143	90.56
328.372	103.56
328.6	81.56
328.829	93.56
329.058	103.56
329.287	107.56
329.515	99.56
329.744	99.56
329.972	90.56
330.201	94.56
330.43	74.56
330.658	78.56
330.887	81.56
331.115	84.56
331.344	86.56
331.572	97.56
331.801	91.56
332.03	90.56
332.258	106.56
332.486	95.56
332.715	78.56
332.943	90.56
333.172	94.56
333.4	114.56
333.629	103.56
333.857	91.56
334.085	98.56
334.314	92.56
334.542	105.56
334.771	94.56
334.999	88.56
335.227	97.56
335.455	102.56
335.684	92.56
335.912	107.56
336.14	107.56
336.369	94.56
336.597	97.56
336.825	89.56
337.053	81.56
337.281	102.56
337.51	83.56
337.738	110.56
337.966	72.56
338.194	85.56
338.422	92.56
338.65	85.56
338.878	82.56
339.106	80.56
339.334	95.56
339.562	88.56
339.79	90.56
340.018	94.56
340.246	97.56
340.474	98.56
340.702	102.56
340.93	80.56
341.158	86.56
341.386	91.56
341.614	89.56
341.842	96.56
342.07	95.56
342.298	96.56
342.526	94.56
342.754	86.56
342.981	98.56
343.209	81.56
343.437	83.56
343.665	103.56
343.893	108.56
344.12	90.56
344.348	80.56
344.576	91.56
344.804	80.56
345.031	82.56
345.259	98.56
345.487	91.56
345.714	84.56
345.942	94.56
346.17	99.56
346.397	102.56
346.625	92.56
346.853	89.56
347.08	95.56
347.308	103.56
347.535	85.56
347.763	91.56
347.99	94.56
348.218	88.56
348.445	82.56
348.673	96.56
348.9	91.56
349.128	98.56
349.355	86.56
349.583	89.56
349.81	96.56
350.037	92.56
350.265	81.56
350.492	86.56
350.72	95.56
350.947	91.56
351.174	90.56
351.402	85.56
351.629	79.56
351.856	98.56
352.083	93.56
352.311	95.56
352.538	87.56
352.765	92.56
352.992	94.56
353.22	94.56
353.447	97.56
353.674	73.56
353.901	92.56
354.128	100.56
354.355	95.56
354.583	86.56
354.81	89.56
355.037	81.56
355.264	84.56
355.491	90.56
355.718	85.56
355.945	88.56
356.172	95.56
356.399	87.56
356.626	97.56
356.853	88.56
357.08	101.56
357.307	87.56
357.534	102.56
357.761	88.56
357.988	83.56
358.215	91.56
358.441	96.56
358.668	95.56
358.895	101.56
359.122	102.56
359.349	97.56
359.576	92.56
359.802	99.56
360.029	91.56
360.256	91.56
360.483	98.56
360.709	87.56
360.936	93.56
361.163	90.56
361.39	84.56
361.616	81.56
361.843	92.56
362.07	98.56
362.296	82.56
362.523	90.56
362.749	92.56
362.976	82.56
363.203	85.56
363.429	83.56
363.656	87.56
363.882	81.56
364.109	87.56
364.335	100.56
364.562	96.56
364.788	84.56
365.015	95.56
365.241	93.56
365.468	86.56
365.694	86.56
365.92	102.56
366.147	91.56
366.373	82.56
366.599	86.56
366.826	94.56
367.052	90.56
367.278	97.56
367.505	97.56
367.731	101.56
367.957	91.56
368.184	94.56
368.41	90.56
368.636	101.56
368.862	95.56
369.089	92.56
369.315	87.56
369.541	93.56
369.767	88.56
369.993	97.56
370.219	82.56
370.445	87.56
370.672	99.56
370.898	90.56
371.124	86.56
371.35	83.56
371.576	98.56
371.802	85.56
372.028	99.56
372.254	102.56
372.48	79.56
372.706	91.56
372.932	102.56
373.158	88.56
373.384	96.56
373.61	94.56
373.835	79.56
374.061	93.56
374.287	97.56
374.513	96.56
374.739	94.56
374.965	83.56
375.191	77.56
375.416	87.56
375.642	90.56
375.868	87.56
376.094	96.56
376.319	88.56
376.545	94.56
376.771	80.56
376.997	91.56
377.222	76.56
377.448	92.56
377.674	92.56
377.899	96.56
378.125	95.56
378.35	99.56
378.576	91.56
378.802	95.56
379.027	98.56
379.253	99.56
379.478	87.56
379.704	98.56
379.929	91.56
380.155	93.56
380.38	94.56
380.606	96.56
380.831	93.56
381.057	93.56
381.282	95.56
381.507	82.56
381.733	88.56
381.958	102.56
382.184	94.56
382.409	92.56
382.634	91.56
382.86	110.56
383.085	100.56
383.31	91.56
383.535	87.56
383.761	83.56
383.986	88.56
384.211	99.56
384.436	95.56
384.662	83.56
384.887	88.56
385.112	97.56
385.337	88.56
385.562	86.56
385.787	97.56
386.013	88.56
386.238	88.56
386.463	95.56
386.688	89.56
386.913	105.56
387.138	93.56
387.363	98.56
387.588	83.56
387.813	93.56
388.038	89.56
388.263	87.56
388.488	86.56
388.713	87.56
388.938	92.56
389.163	102.56
389.387	86.56
389.612	91.56
389.837	89.56
390.062	93.56
390.287	81.56
390.512	87.56
390.736	92.56
390.961	76.56
391.186	91.56
391.411	98.56
391.636	86.56
391.86	92.56
392.085	93.56
392.31	94.56
392.534	89.56
392.759	86.56
392.984	87.56
393.208	99.56
393.433	88.56
393.658	78.56
393.882	108.56
394.107	88.56
394.331	88.56
394.556	98.56
394.78	99.56
395.005	86.56
395.229	80.56
395.454	100.56
395.678	94.56
395.903	101.56
396.127	103.56
396.352	72.56
396.576	86.56
396.801	84.56
397.025	90.56
397.249	90.56
397.474	96.56
397.698	110.56
397.922	88.56
398.147	95.56
398.371	91.56
398.595	98.56
398.82	95.56
399.044	92.56
399.268	98.56
399.492	104.56
399.717	121.56
399.941	110.56
400.165	95.56
400.389	98.56
400.613	78.56
400.837	95.56
401.062	101.56
401.286	91.56
401.51	94.56
401.734	93.56
401.958	102.56
402.182	105.56
402.406	100.56
402.63	89.56
402.854	98.56
403.078	99.56
403.302	91.56
403.526	85.56
403.75	99.56
403.974	90.56
404.198	94.56
404.422	95.56
404.645	106.56
404.869	107.56
405.093	98.56
405.317	92.56
405.541	103.56
405.765	101.56
405.988	89.56
406.212	96.56
406.436	96.56
406.66	88.56
406.883	95.56
407.107	91.56
407.331	87.56
407.555	90.56
407.778	112.56
408.002	102.56
408.226	103.56
408.449	91.56
408.673	88.56
408.896	113.56
409.12	94.56
409.344	92.56
409.567	98.56
409.791	103.56
410.014	97.56
410.238	94.56
410.461	88.56
410.685	96.56
410.908	89.56
411.132	87.56
411.355	92.56
411.578	89.56
411.802	105.56
412.025	85.56
412.249	85.56
412.472	99.56
412.695	89.56
412.919	94.56
413.142	102.56
413.365	97.56
413.589	91.56
413.812	87.56
414.035	82.56
414.258	97.56
414.482	89.56
414.705	92.56
414.928	90.56
415.151	96.56
415.374	87.56
415.597	94.56
415.821	95.56
416.044	100.56
416.267	97.56
416.49	95.56
416.713	89.56
416.936	98.56
417.159	90.56
417.382	78.56
417.605	93.56
417.828	118.56
418.051	101.56
418.274	88.56
418.497	93.56
418.72	102.56
418.943	101.56
419.166	96.56
419.389	79.56
419.611	110.56
419.834	92.56
420.057	79.56
420.28	89.56
420.503	109.56
420.726	93.56
420.948	102.56
421.171	104.56
421.394	100.56
421.617	105.56
421.839	86.56
422.062	89.56
422.285	92.56
422.507	88.56
422.73	93.56
422.953	99.56
423.175	85.56
423.398	97.56
423.621	115.56
423.843	85.56
424.066	97.56
424.288	100.56
424.511	99.56
424.733	99.56
424.956	100.56
425.178	104.56
425.401	99.56
425.623	97.56
425.846	88.56
426.068	101.56
426.291	86.56
426.513	96.56
426.735	98.56
426.958	88.56
427.18	93.56
427.402	93.56
427.625	88.56
427.847	93.56
428.069	106.56
428.292	80.56
428.514	89.56
428.736	96.56
428.958	92.56
429.181	102.56
429.403	104.56
429.625	102.56
429.847	99.56
430.069	89.56
430.292	80.56
430.514	91.56
430.736	89.56
430.958	81.56
431.18	83.56
431.402	80.56
431.624	86.56
431.846	96.56
432.068	88.56
432.29	111.56
432.512	106.56
432.734	91.56
432.956	99.56
433.178	84.56
433.4	94.56
433.622	97.56
433.844	79.56
434.066	91.56
434.287	95.56
434.509	107.56
434.731	95.56
434.953	101.56
435.175	95.56
435.397	89.56
435.618	94.56
435.84	99.56
436.062	100.56
436.284	92.56
436.505	93.56
436.727	82.56
436.949	93.56
437.17	94.56
437.392	99.56
437.614	89.56
437.835	84.56
438.057	105.56
438.278	102.56
438.5	92.56
438.721	105.56
438.943	86.56
439.165	86.56
439.386	98.56
439.608	103.56
439.829	90.56
440.05	88.56
440.272	89.56
440.493	105.56
440.715	95.56
440.936	99.56
441.158	93.56
441.379	84.56
441.6	91.56
441.822	87.56
442.043	103.56
442.264	85.56
442.486	94.56
442.707	82.56
442.928	98.56
443.149	95.56
443.371	90.56
443.592	73.56
443.813	96.56
444.034	95.56
444.255	94.56
444.476	115.56
444.698	87.56
444.919	86.56
445.14	209.56
445.361	142.56
445.582	102.56
445.803	89.56
446.024	90.56
446.245	81.56
446.466	99.56
446.687	84.56
446.908	90.56
447.129	94.56
447.35	91.56
447.571	98.56
447.792	93.56
448.013	97.56
448.234	106.56
448.455	101.56
448.675	108.56
448.896	75.56
449.117	95.56
449.338	99.56
449.559	94.56
449.779	98.56
450	82.56
450.221	97.56
450.442	90.56
450.662	96.56
450.883	90.56
451.104	91.56
451.324	84.56
451.545	96.56
451.766	113.56
451.986	84.56
452.207	89.56
452.428	74.56
452.648	81.56
452.869	87.56
453.089	90.56
453.31	90.56
453.53	95.56
453.751	98.56
453.971	90.56
454.192	90.56
454.412	94.56
454.633	95.56
454.853	89.56
455.073	89.56
455.294	101.56
455.514	103.56
455.734	103.56
455.955	90.56
456.175	76.56
456.395	89.56
456.616	94.56
456.836	90.56
457.056	85.56
457.276	95.56
457.497	80.56
457.717	97.56
457.937	87.56
458.157	94.56
458.377	95.56
458.598	93.56
458.818	89.56
459.038	94.56
459.258	107.56
459.478	101.56
459.698	97.56
459.918	104.56
460.138	90.56
460.358	96.56
460.578	105.56
460.798	97.56
461.018	103.56
461.238	79.56
461.458	94.56
461.678	102.56
461.898	98.56
462.118	111.56
462.338	88.56
462.558	94.56
462.777	89.56
462.997	99.56
463.217	112.56
463.437	99.56
463.657	91.56
463.876	97.56
464.096	115.56
464.316	96.56
464.536	112.56
464.755	99.56
464.975	98.56
465.195	83.56
465.414	104.56
465.634	93.56
465.854	99.56
466.073	101.56
466.293	88.56
466.512	86.56
466.732	102.56
466.951	97.56
467.171	97.56
467.391	80.56
467.61	80.56
467.829	98.56
468.049	95.56
468.268	99.56
468.488	96.56
468.707	86.56
468.927	87.56
469.146	102.56
469.365	97.56
469.585	108.56
469.804	106.56
470.023	101.56
470.243	89.56
470.462	94.56
470.681	94.56
470.901	92.56
471.12	90.56
471.339	104.56
471.558	97.56
471.777	103.56
471.997	95.56
472.216	96.56
472.435	107.56
472.654	95.56
472.873	95.56
473.092	97.56
473.311	94.56
473.53	89.56
473.749	99.56
473.968	96.56
474.187	108.56
474.406	104.56
474.625	100.56
474.844	98.56
475.063	97.56
475.282	90.56
475.501	89.56
475.72	88.56
475.939	96.56
476.158	96.56
476.377	95.56
476.596	102.56
476.814	102.56
477.033	104.56
477.252	97.56
477.471	100.56
477.69	97.56
477.908	96.56
478.127	104.56
478.346	96.56
478.564	114.56
478.783	115.56
479.002	94.56
479.22	114.56
479.439	100.56
479.658	112.56
479.876	103.56
480.095	103.56
480.313	106.56
480.532	97.56
480.751	99.56
480.969	96.56
481.188	107.56
481.406	85.56
481.624	108.56
481.843	104.56
482.061	100.56
482.28	90.56
482.498	83.56
482.717	102.56
482.935	103.56
483.153	105.56
483.372	100.56
483.59	101.56
483.808	105.56
484.027	104.56
484.245	106.56
484.463	78.56
484.681	95.56
484.9	94.56
485.118	85.56
485.336	110.56
485.554	105.56
485.772	115.56
485.99	104.56
486.209	96.56
486.427	110.56
486.645	105.56
486.863	106.56
487.081	96.56
487.299	101.56
487.517	99.56
487.735	97.56
487.953	89.56
488.171	116.56
488.389	115.56
488.607	111.56
488.825	100.56
489.043	82.56
489.261	94.56
489.479	94.56
489.696	91.56
489.914	102.56
490.132	104.56
490.35	101.56
490.568	106.56
490.786	100.56
491.003	101.56
491.221	111.56
491.439	114.56
491.657	113.56
491.874	121.56
492.092	119.56
492.31	122.56
492.527	110.56
492.745	113.56
492.963	107.56
493.18	111.56
493.398	113.56
493.615	114.56
493.833	105.56
494.05	115.56
494.268	103.56
494.485	121.56
494.703	116.56
494.92	102.56
495.138	129.56
495.355	112.56
495.573	110.56
495.79	114.56
496.008	107.56
496.225	105.56
496.442	108.56
496.66	117.56
496.877	105.56
497.094	124.56
497.312	122.56
497.529	118.56
497.746	93.56
497.963	120.56
498.181	101.56
498.398	110.56
498.615	110.56
498.832	112.56
499.049	103.56
499.267	120.56
499.484	118.56
499.701	126.56
499.918	136.56
500.135	140.56
500.352	166.56
500.569	151.56
500.786	154.56
501.003	137.56
501.22	150.56
501.437	132.56
501.654	143.56
501.871	128.56
502.088	112.56
502.305	129.56
502.522	111.56
502.739	120.56
502.956	128.56
503.172	111.56
503.389	111.56
503.606	113.56
503.823	99.56
504.04	105.56
504.256	111.56
504.473	114.56
504.69	100.56
504.907	112.56
505.123	101.56
505.34	113.56
505.557	97.56
505.773	99.56
505.99	110.56
506.207	102.56
506.423	98.56
506.64	112.56
506.856	89.56
507.073	108.56
507.289	103.56
507.506	104.56
507.722	96.56
507.939	111.56
508.155	102.56
508.372	111.56
508.588	101.56
508.805	97.56
509.021	102.56
509.238	103.56
509.454	94.56
509.67	104.56
509.887	110.56
510.103	91.56
510.319	99.56
510.536	101.56
510.752	86.56
510.968	106.56
511.184	112.56
511.401	89.56
511.617	98.56
511.833	107.56
512.049	98.56
512.265	94.56
512.481	86.56
512.698	97.56
512.914	104.56
513.13	98.56
513.346	98.56
513.562	114.56
513.778	92.56
513.994	96.56
514.21	109.56
514.426	92.56
514.642	98.56
514.858	103.56
515.074	99.56
515.29	119.56
515.506	92.56
