Data from Location5.07152019.Energy5.Lamp.07192019.3%Agarose_HRD10591_16-02-34-629.txt Node
Date: Fri Jul 19 16:02:34 EDT 2019
User: cochatt
Spectrometer: HR+D1059
Trigger mode: 1
Integration Time (sec): 1.000000E-1
Scans to average: 1
Electric dark correction enabled: true
Nonlinearity correction enabled: false
Boxcar width: 0
XAxis mode: Wavelengths
Number of Pixels in Spectrum: 2048
>>>>>Begin Spectral Data<<<<<
223.165	-1.19
223.4	-1.19
223.635	-1.19
223.869	-5.19
224.104	-24.19
224.338	-16.19
224.573	-5.19
224.808	-18.19
225.042	-4.19
225.277	-21.19
225.511	-12.19
225.746	-13.19
225.98	3.81
226.215	15.81
226.449	15.81
226.683	23.81
226.918	21.81
227.152	39.81
227.387	37.81
227.621	41.81
227.856	41.81
228.09	45.81
228.324	53.81
228.559	62.81
228.793	53.81
229.027	66.81
229.262	66.81
229.496	69.81
229.73	79.81
229.964	87.81
230.199	73.81
230.433	61.81
230.667	79.81
230.901	68.81
231.136	80.81
231.37	91.81
231.604	78.81
231.838	83.81
232.072	93.81
232.306	72.81
232.541	92.81
232.775	68.81
233.009	97.81
233.243	71.81
233.477	72.81
233.711	81.81
233.945	79.81
234.179	88.81
234.413	79.81
234.647	69.81
234.881	74.81
235.115	84.81
235.349	91.81
235.583	74.81
235.817	90.81
236.051	63.81
236.285	80.81
236.519	77.81
236.753	79.81
236.987	70.81
237.221	84.81
237.455	82.81
237.689	77.81
237.922	74.81
238.156	78.81
238.39	83.81
238.624	69.81
238.858	94.81
239.091	92.81
239.325	88.81
239.559	81.81
239.793	74.81
240.027	76.81
240.26	77.81
240.494	82.81
240.728	88.81
240.961	83.81
241.195	84.81
241.429	86.81
241.662	81.81
241.896	74.81
242.13	77.81
242.363	74.81
242.597	98.81
242.83	72.81
243.064	73.81
243.298	88.81
243.531	82.81
243.765	95.81
243.998	92.81
244.232	77.81
244.465	81.81
244.699	82.81
244.932	83.81
245.166	70.81
245.399	86.81
245.633	83.81
245.866	89.81
246.099	76.81
246.333	78.81
246.566	97.81
246.8	72.81
247.033	91.81
247.266	78.81
247.5	93.81
247.733	90.81
247.966	77.81
248.2	86.81
248.433	79.81
248.666	76.81
248.899	72.81
249.133	81.81
249.366	82.81
249.599	92.81
249.832	82.81
250.066	81.81
250.299	77.81
250.532	72.81
250.765	88.81
250.998	68.81
251.231	88.81
251.465	86.81
251.698	92.81
251.931	91.81
252.164	78.81
252.397	86.81
252.63	78.81
252.863	88.81
253.096	84.81
253.329	74.81
253.562	89.81
253.795	90.81
254.028	73.81
254.261	80.81
254.494	79.81
254.727	91.81
254.96	76.81
255.193	97.81
255.426	87.81
255.659	84.81
255.892	82.81
256.124	82.81
256.357	90.81
256.59	81.81
256.823	79.81
257.056	77.81
257.289	93.81
257.521	90.81
257.754	82.81
257.987	95.81
258.22	79.81
258.452	90.81
258.685	87.81
258.918	77.81
259.151	92.81
259.383	81.81
259.616	82.81
259.849	83.81
260.081	82.81
260.314	89.81
260.547	89.81
260.779	85.81
261.012	83.81
261.244	77.81
261.477	87.81
261.71	92.81
261.942	83.81
262.175	82.81
262.407	83.81
262.64	82.81
262.872	61.81
263.105	109.81
263.337	77.81
263.57	93.81
263.802	80.81
264.035	78.81
264.267	82.81
264.499	95.81
264.732	89.81
264.964	89.81
265.197	89.81
265.429	88.81
265.661	83.81
265.894	83.81
266.126	88.81
266.358	82.81
266.591	100.81
266.823	83.81
267.055	79.81
267.287	83.81
267.52	75.81
267.752	78.81
267.984	91.81
268.216	93.81
268.448	83.81
268.681	91.81
268.913	83.81
269.145	86.81
269.377	73.81
269.609	90.81
269.841	85.81
270.073	97.81
270.306	83.81
270.538	92.81
270.77	88.81
271.002	79.81
271.234	83.81
271.466	92.81
271.698	87.81
271.93	85.81
272.162	92.81
272.394	86.81
272.626	82.81
272.858	87.81
273.09	86.81
273.322	91.81
273.553	89.81
273.785	87.81
274.017	79.81
274.249	83.81
274.481	90.81
274.713	92.81
274.945	85.81
275.176	104.81
275.408	89.81
275.64	95.81
275.872	88.81
276.104	77.81
276.335	102.81
276.567	84.81
276.799	92.81
277.031	89.81
277.262	95.81
277.494	84.81
277.726	86.81
277.957	95.81
278.189	86.81
278.421	84.81
278.652	86.81
278.884	82.81
279.115	83.81
279.347	73.81
279.579	93.81
279.81	92.81
280.042	96.81
280.273	84.81
280.505	88.81
280.736	97.81
280.968	88.81
281.199	81.81
281.431	77.81
281.662	82.81
281.894	106.81
282.125	99.81
282.356	98.81
282.588	95.81
282.819	84.81
283.051	101.81
283.282	88.81
283.513	90.81
283.745	86.81
283.976	93.81
284.207	84.81
284.439	97.81
284.67	86.81
284.901	98.81
285.132	93.81
285.364	91.81
285.595	84.81
285.826	88.81
286.057	83.81
286.288	82.81
286.52	94.81
286.751	88.81
286.982	80.81
287.213	85.81
287.444	81.81
287.675	86.81
287.906	98.81
288.138	91.81
288.369	91.81
288.6	78.81
288.831	82.81
289.062	89.81
289.293	83.81
289.524	99.81
289.755	105.81
289.986	87.81
290.217	93.81
290.448	82.81
290.679	83.81
290.91	88.81
291.141	83.81
291.371	84.81
291.602	98.81
291.833	103.81
292.064	86.81
292.295	78.81
292.526	99.81
292.757	100.81
292.987	89.81
293.218	107.81
293.449	107.81
293.68	91.81
293.91	96.81
294.141	91.81
294.372	95.81
294.603	95.81
294.833	85.81
295.064	84.81
295.295	91.81
295.525	91.81
295.756	96.81
295.987	94.81
296.217	79.81
296.448	100.81
296.679	102.81
296.909	79.81
297.14	78.81
297.37	98.81
297.601	92.81
297.831	118.81
298.062	94.81
298.292	92.81
298.523	100.81
298.753	99.81
298.984	96.81
299.214	101.81
299.445	90.81
299.675	97.81
299.905	96.81
300.136	86.81
300.366	93.81
300.597	85.81
300.827	90.81
301.057	100.81
301.288	91.81
301.518	91.81
301.748	104.81
301.979	105.81
302.209	87.81
302.439	89.81
302.669	77.81
302.9	96.81
303.13	98.81
303.36	94.81
303.59	74.81
303.82	92.81
304.051	94.81
304.281	94.81
304.511	82.81
304.741	98.81
304.971	82.81
305.201	93.81
305.431	103.81
305.661	92.81
305.891	96.81
306.121	98.81
306.352	89.81
306.582	87.81
306.812	96.81
307.042	96.81
307.272	86.81
307.502	94.81
307.731	91.81
307.961	88.81
308.191	91.81
308.421	91.81
308.651	117.81
308.881	104.81
309.111	100.81
309.341	92.81
309.571	86.81
309.8	70.81
310.03	96.81
310.26	82.81
310.49	89.81
310.72	92.81
310.949	86.81
311.179	98.81
311.409	84.81
311.639	99.81
311.868	95.81
312.098	105.81
312.328	92.81
312.557	92.81
312.787	89.81
313.017	80.81
313.246	93.81
313.476	93.81
313.706	99.81
313.935	104.81
314.165	103.81
314.394	108.81
314.624	99.81
314.853	98.81
315.083	98.81
315.312	88.81
315.542	88.81
315.771	82.81
316.001	93.81
316.23	97.81
316.46	103.81
316.689	104.81
316.919	93.81
317.148	76.81
317.377	99.81
317.607	90.81
317.836	86.81
318.065	93.81
318.295	95.81
318.524	84.81
318.753	81.81
318.983	93.81
319.212	98.81
319.441	103.81
319.67	103.81
319.9	89.81
320.129	89.81
320.358	91.81
320.587	94.81
320.816	111.81
321.046	98.81
321.275	97.81
321.504	106.81
321.733	97.81
321.962	101.81
322.191	92.81
322.42	100.81
322.649	97.81
322.878	109.81
323.108	97.81
323.337	92.81
323.566	92.81
323.795	79.81
324.024	84.81
324.253	82.81
324.482	96.81
324.71	92.81
324.939	85.81
325.168	85.81
325.397	99.81
325.626	96.81
325.855	94.81
326.084	107.81
326.313	83.81
326.542	87.81
326.77	106.81
326.999	93.81
327.228	102.81
327.457	96.81
327.686	101.81
327.914	114.81
328.143	108.81
328.372	89.81
328.6	101.81
328.829	96.81
329.058	95.81
329.287	91.81
329.515	100.81
329.744	83.81
329.972	94.81
330.201	88.81
330.43	90.81
330.658	99.81
330.887	94.81
331.115	97.81
331.344	90.81
331.572	97.81
331.801	88.81
332.03	106.81
332.258	91.81
332.486	95.81
332.715	107.81
332.943	81.81
333.172	87.81
333.4	107.81
333.629	108.81
333.857	99.81
334.085	94.81
334.314	97.81
334.542	102.81
334.771	83.81
334.999	112.81
335.227	107.81
335.455	101.81
335.684	98.81
335.912	99.81
336.14	105.81
336.369	98.81
336.597	91.81
336.825	84.81
337.053	101.81
337.281	106.81
337.51	99.81
337.738	81.81
337.966	97.81
338.194	100.81
338.422	89.81
338.65	93.81
338.878	102.81
339.106	99.81
339.334	95.81
339.562	98.81
339.79	91.81
340.018	87.81
340.246	87.81
340.474	86.81
340.702	98.81
340.93	95.81
341.158	97.81
341.386	98.81
341.614	115.81
341.842	89.81
342.07	85.81
342.298	76.81
342.526	73.81
342.754	91.81
342.981	80.81
343.209	103.81
343.437	100.81
343.665	89.81
343.893	80.81
344.12	104.81
344.348	90.81
344.576	117.81
344.804	84.81
345.031	85.81
345.259	81.81
345.487	98.81
345.714	97.81
345.942	101.81
346.17	89.81
346.397	97.81
346.625	100.81
346.853	113.81
347.08	94.81
347.308	99.81
347.535	104.81
347.763	98.81
347.99	99.81
348.218	107.81
348.445	105.81
348.673	87.81
348.9	98.81
349.128	97.81
349.355	101.81
349.583	87.81
349.81	87.81
350.037	103.81
350.265	110.81
350.492	83.81
350.72	106.81
350.947	90.81
351.174	89.81
351.402	93.81
351.629	107.81
351.856	99.81
352.083	92.81
352.311	103.81
352.538	103.81
352.765	92.81
352.992	96.81
353.22	107.81
353.447	78.81
353.674	95.81
353.901	93.81
354.128	93.81
354.355	93.81
354.583	102.81
354.81	90.81
355.037	89.81
355.264	88.81
355.491	93.81
355.718	98.81
355.945	98.81
356.172	89.81
356.399	104.81
356.626	91.81
356.853	103.81
357.08	99.81
357.307	84.81
357.534	104.81
357.761	101.81
357.988	92.81
358.215	93.81
358.441	91.81
358.668	103.81
358.895	93.81
359.122	103.81
359.349	90.81
359.576	79.81
359.802	86.81
360.029	100.81
360.256	97.81
360.483	87.81
360.709	80.81
360.936	109.81
361.163	102.81
361.39	89.81
361.616	102.81
361.843	95.81
362.07	95.81
362.296	100.81
362.523	97.81
362.749	96.81
362.976	93.81
363.203	92.81
363.429	99.81
363.656	91.81
363.882	98.81
364.109	86.81
364.335	104.81
364.562	76.81
364.788	83.81
365.015	92.81
365.241	105.81
365.468	105.81
365.694	96.81
365.92	110.81
366.147	117.81
366.373	98.81
366.599	96.81
366.826	90.81
367.052	97.81
367.278	79.81
367.505	91.81
367.731	100.81
367.957	87.81
368.184	94.81
368.41	88.81
368.636	97.81
368.862	87.81
369.089	100.81
369.315	102.81
369.541	105.81
369.767	90.81
369.993	95.81
370.219	96.81
370.445	91.81
370.672	91.81
370.898	103.81
371.124	93.81
371.35	85.81
371.576	96.81
371.802	84.81
372.028	86.81
372.254	101.81
372.48	96.81
372.706	102.81
372.932	90.81
373.158	84.81
373.384	76.81
373.61	97.81
373.835	102.81
374.061	88.81
374.287	88.81
374.513	96.81
374.739	111.81
374.965	95.81
375.191	108.81
375.416	89.81
375.642	82.81
375.868	105.81
376.094	91.81
376.319	72.81
376.545	90.81
376.771	96.81
376.997	110.81
377.222	84.81
377.448	107.81
377.674	99.81
377.899	100.81
378.125	85.81
378.35	96.81
378.576	94.81
378.802	89.81
379.027	78.81
379.253	96.81
379.478	95.81
379.704	110.81
379.929	104.81
380.155	97.81
380.38	87.81
380.606	82.81
380.831	89.81
381.057	93.81
381.282	86.81
381.507	107.81
381.733	83.81
381.958	91.81
382.184	104.81
382.409	100.81
382.634	97.81
382.86	86.81
383.085	83.81
383.31	114.81
383.535	95.81
383.761	97.81
383.986	99.81
384.211	91.81
384.436	101.81
384.662	97.81
384.887	99.81
385.112	97.81
385.337	96.81
385.562	97.81
385.787	107.81
386.013	98.81
386.238	103.81
386.463	91.81
386.688	92.81
386.913	84.81
387.138	90.81
387.363	115.81
387.588	102.81
387.813	102.81
388.038	91.81
388.263	97.81
388.488	94.81
388.713	98.81
388.938	92.81
389.163	90.81
389.387	78.81
389.612	82.81
389.837	92.81
390.062	111.81
390.287	96.81
390.512	93.81
390.736	105.81
390.961	88.81
391.186	101.81
391.411	102.81
391.636	107.81
391.86	102.81
392.085	102.81
392.31	105.81
392.534	97.81
392.759	85.81
392.984	105.81
393.208	98.81
393.433	114.81
393.658	87.81
393.882	101.81
394.107	101.81
394.331	95.81
394.556	98.81
394.78	90.81
395.005	93.81
395.229	117.81
395.454	113.81
395.678	98.81
395.903	103.81
396.127	84.81
396.352	86.81
396.576	97.81
396.801	99.81
397.025	108.81
397.249	118.81
397.474	124.81
397.698	115.81
397.922	89.81
398.147	107.81
398.371	98.81
398.595	101.81
398.82	90.81
399.044	102.81
399.268	97.81
399.492	98.81
399.717	130.81
399.941	107.81
400.165	114.81
400.389	104.81
400.613	91.81
400.837	89.81
401.062	105.81
401.286	91.81
401.51	103.81
401.734	101.81
401.958	88.81
402.182	91.81
402.406	90.81
402.63	103.81
402.854	123.81
403.078	87.81
403.302	111.81
403.526	118.81
403.75	101.81
403.974	94.81
404.198	96.81
404.422	103.81
404.645	105.81
404.869	104.81
405.093	97.81
405.317	81.81
405.541	90.81
405.765	101.81
405.988	109.81
406.212	110.81
406.436	99.81
406.66	115.81
406.883	123.81
407.107	124.81
407.331	114.81
407.555	93.81
407.778	110.81
408.002	119.81
408.226	108.81
408.449	100.81
408.673	113.81
408.896	117.81
409.12	99.81
409.344	116.81
409.567	95.81
409.791	102.81
410.014	98.81
410.238	113.81
410.461	109.81
410.685	118.81
410.908	98.81
411.132	90.81
411.355	101.81
411.578	97.81
411.802	103.81
412.025	94.81
412.249	98.81
412.472	103.81
412.695	107.81
412.919	99.81
413.142	100.81
413.365	107.81
413.589	100.81
413.812	105.81
414.035	97.81
414.258	98.81
414.482	88.81
414.705	102.81
414.928	101.81
415.151	97.81
415.374	97.81
415.597	93.81
415.821	102.81
416.044	94.81
416.267	82.81
416.49	93.81
416.713	92.81
416.936	107.81
417.159	88.81
417.382	99.81
417.605	113.81
417.828	105.81
418.051	99.81
418.274	96.81
418.497	102.81
418.72	95.81
418.943	92.81
419.166	82.81
419.389	116.81
419.611	116.81
419.834	103.81
420.057	91.81
420.28	103.81
420.503	103.81
420.726	100.81
420.948	102.81
421.171	89.81
421.394	112.81
421.617	117.81
421.839	93.81
422.062	109.81
422.285	95.81
422.507	87.81
422.73	104.81
422.953	93.81
423.175	90.81
423.398	104.81
423.621	96.81
423.843	111.81
424.066	102.81
424.288	92.81
424.511	106.81
424.733	99.81
424.956	102.81
425.178	96.81
425.401	98.81
425.623	96.81
425.846	109.81
426.068	108.81
426.291	101.81
426.513	103.81
426.735	107.81
426.958	103.81
427.18	89.81
427.402	106.81
427.625	97.81
427.847	102.81
428.069	91.81
428.292	97.81
428.514	101.81
428.736	90.81
428.958	93.81
429.181	89.81
429.403	94.81
429.625	93.81
429.847	95.81
430.069	97.81
430.292	88.81
430.514	96.81
430.736	96.81
430.958	97.81
431.18	90.81
431.402	73.81
431.624	88.81
431.846	103.81
432.068	116.81
432.29	90.81
432.512	91.81
432.734	90.81
432.956	86.81
433.178	103.81
433.4	100.81
433.622	98.81
433.844	108.81
434.066	100.81
434.287	100.81
434.509	108.81
434.731	100.81
434.953	91.81
435.175	96.81
435.397	101.81
435.618	101.81
435.84	99.81
436.062	121.81
436.284	106.81
436.505	97.81
436.727	100.81
436.949	97.81
437.17	96.81
437.392	103.81
437.614	95.81
437.835	103.81
438.057	102.81
438.278	87.81
438.5	98.81
438.721	102.81
438.943	84.81
439.165	91.81
439.386	102.81
439.608	88.81
439.829	98.81
440.05	91.81
440.272	84.81
440.493	92.81
440.715	101.81
440.936	98.81
441.158	105.81
441.379	108.81
441.6	96.81
441.822	112.81
442.043	93.81
442.264	116.81
442.486	91.81
442.707	103.81
442.928	86.81
443.149	96.81
443.371	103.81
443.592	107.81
443.813	105.81
444.034	113.81
444.255	104.81
444.476	97.81
444.698	94.81
444.919	84.81
445.14	198.81
445.361	151.81
445.582	102.81
445.803	103.81
446.024	106.81
446.245	97.81
446.466	99.81
446.687	84.81
446.908	94.81
447.129	98.81
447.35	99.81
447.571	94.81
447.792	93.81
448.013	94.81
448.234	91.81
448.455	98.81
448.675	92.81
448.896	95.81
449.117	96.81
449.338	93.81
449.559	81.81
449.779	98.81
450	95.81
450.221	93.81
450.442	106.81
450.662	99.81
450.883	103.81
451.104	114.81
451.324	101.81
451.545	109.81
451.766	93.81
451.986	86.81
452.207	113.81
452.428	109.81
452.648	94.81
452.869	97.81
453.089	99.81
453.31	90.81
453.53	93.81
453.751	98.81
453.971	96.81
454.192	90.81
454.412	86.81
454.633	96.81
454.853	97.81
455.073	97.81
455.294	92.81
455.514	92.81
455.734	97.81
455.955	91.81
456.175	88.81
456.395	88.81
456.616	100.81
456.836	94.81
457.056	107.81
457.276	84.81
457.497	101.81
457.717	99.81
457.937	97.81
458.157	90.81
458.377	98.81
458.598	91.81
458.818	99.81
459.038	85.81
459.258	96.81
459.478	98.81
459.698	84.81
459.918	94.81
460.138	93.81
460.358	107.81
460.578	100.81
460.798	101.81
461.018	115.81
461.238	102.81
461.458	101.81
461.678	106.81
461.898	89.81
462.118	98.81
462.338	102.81
462.558	97.81
462.777	105.81
462.997	108.81
463.217	106.81
463.437	113.81
463.657	107.81
463.876	116.81
464.096	106.81
464.316	100.81
464.536	100.81
464.755	108.81
464.975	97.81
465.195	103.81
465.414	95.81
465.634	94.81
465.854	110.81
466.073	94.81
466.293	91.81
466.512	99.81
466.732	107.81
466.951	91.81
467.171	97.81
467.391	99.81
467.61	94.81
467.829	100.81
468.049	99.81
468.268	89.81
468.488	109.81
468.707	94.81
468.927	102.81
469.146	102.81
469.365	99.81
469.585	97.81
469.804	112.81
470.023	101.81
470.243	88.81
470.462	97.81
470.681	90.81
470.901	100.81
471.12	98.81
471.339	103.81
471.558	101.81
471.777	104.81
471.997	87.81
472.216	90.81
472.435	109.81
472.654	85.81
472.873	94.81
473.092	90.81
473.311	98.81
473.53	91.81
473.749	95.81
473.968	99.81
474.187	102.81
474.406	100.81
474.625	102.81
474.844	105.81
475.063	110.81
475.282	120.81
475.501	117.81
475.72	107.81
475.939	90.81
476.158	93.81
476.377	89.81
476.596	106.81
476.814	91.81
477.033	100.81
477.252	106.81
477.471	106.81
477.69	103.81
477.908	113.81
478.127	107.81
478.346	93.81
478.564	115.81
478.783	120.81
479.002	116.81
479.22	116.81
479.439	105.81
479.658	106.81
479.876	98.81
480.095	102.81
480.313	116.81
480.532	105.81
480.751	100.81
480.969	99.81
481.188	98.81
481.406	113.81
481.624	111.81
481.843	94.81
482.061	99.81
482.28	100.81
482.498	108.81
482.717	108.81
482.935	107.81
483.153	99.81
483.372	101.81
483.59	108.81
483.808	110.81
484.027	108.81
484.245	105.81
484.463	101.81
484.681	121.81
484.9	118.81
485.118	100.81
485.336	101.81
485.554	114.81
485.772	104.81
485.99	96.81
486.209	104.81
486.427	102.81
486.645	111.81
486.863	113.81
487.081	99.81
487.299	102.81
487.517	109.81
487.735	105.81
487.953	108.81
488.171	104.81
488.389	115.81
488.607	116.81
488.825	103.81
489.043	118.81
489.261	109.81
489.479	93.81
489.696	97.81
489.914	101.81
490.132	113.81
490.35	118.81
490.568	114.81
490.786	118.81
491.003	99.81
491.221	121.81
491.439	99.81
491.657	110.81
491.874	131.81
492.092	128.81
492.31	117.81
492.527	124.81
492.745	130.81
492.963	132.81
493.18	121.81
493.398	117.81
493.615	120.81
493.833	121.81
494.05	105.81
494.268	121.81
494.485	107.81
494.703	123.81
494.92	120.81
495.138	128.81
495.355	126.81
495.573	115.81
495.79	118.81
496.008	113.81
496.225	110.81
496.442	118.81
496.66	124.81
496.877	115.81
497.094	128.81
497.312	117.81
497.529	116.81
497.746	108.81
497.963	121.81
498.181	119.81
498.398	110.81
498.615	100.81
498.832	107.81
499.049	114.81
499.267	140.81
499.484	132.81
499.701	138.81
499.918	155.81
500.135	147.81
500.352	160.81
500.569	171.81
500.786	160.81
501.003	157.81
501.22	154.81
501.437	148.81
501.654	130.81
501.871	126.81
502.088	116.81
502.305	137.81
502.522	115.81
502.739	118.81
502.956	128.81
503.172	96.81
503.389	105.81
503.606	109.81
503.823	123.81
504.04	116.81
504.256	124.81
504.473	110.81
504.69	102.81
504.907	115.81
505.123	111.81
505.34	113.81
505.557	116.81
505.773	112.81
505.99	114.81
506.207	104.81
506.423	108.81
506.64	98.81
506.856	121.81
507.073	119.81
507.289	108.81
507.506	116.81
507.722	102.81
507.939	100.81
508.155	114.81
508.372	100.81
508.588	104.81
508.805	113.81
509.021	99.81
509.238	103.81
509.454	98.81
509.67	118.81
509.887	103.81
510.103	105.81
510.319	92.81
510.536	94.81
510.752	98.81
510.968	88.81
511.184	109.81
511.401	89.81
511.617	102.81
511.833	84.81
512.049	91.81
512.265	100.81
512.481	109.81
512.698	98.81
512.914	101.81
513.13	119.81
