Data from Location5.07152019.Energy5.Lamp.07192019.3%Agarose_HRD10591_15-38-48-388.txt Node
Date: Fri Jul 19 15:38:48 EDT 2019
User: cochatt
Spectrometer: HR+D1059
Trigger mode: 1
Integration Time (sec): 1.000000E-1
Scans to average: 1
Electric dark correction enabled: true
Nonlinearity correction enabled: false
Boxcar width: 0
XAxis mode: Wavelengths
Number of Pixels in Spectrum: 2048
>>>>>Begin Spectral Data<<<<<
223.165	-20.62
223.4	-20.62
223.635	-20.62
223.869	-17.62
224.104	-26.62
224.338	-13.62
224.573	-27.62
224.808	-19.62
225.042	4.38
225.277	-10.62
225.511	-0.62
225.746	-5.62
225.98	8.38
226.215	18.38
226.449	23.38
226.683	27.38
226.918	30.38
227.152	30.38
227.387	37.38
227.621	33.38
227.856	46.38
228.09	52.38
228.324	42.38
228.559	57.38
228.793	51.38
229.027	56.38
229.262	60.38
229.496	65.38
229.73	64.38
229.964	68.38
230.199	60.38
230.433	66.38
230.667	70.38
230.901	62.38
231.136	81.38
231.37	70.38
231.604	65.38
231.838	94.38
232.072	71.38
232.306	77.38
232.541	93.38
232.775	78.38
233.009	67.38
233.243	73.38
233.477	81.38
233.711	72.38
233.945	84.38
234.179	78.38
234.413	85.38
234.647	87.38
234.881	80.38
235.115	75.38
235.349	81.38
235.583	80.38
235.817	80.38
236.051	87.38
236.285	78.38
236.519	81.38
236.753	70.38
236.987	68.38
237.221	70.38
237.455	74.38
237.689	64.38
237.922	72.38
238.156	77.38
238.39	64.38
238.624	76.38
238.858	76.38
239.091	69.38
239.325	77.38
239.559	74.38
239.793	57.38
240.027	79.38
240.26	69.38
240.494	82.38
240.728	76.38
240.961	76.38
241.195	82.38
241.429	70.38
241.662	62.38
241.896	74.38
242.13	70.38
242.363	70.38
242.597	69.38
242.83	79.38
243.064	84.38
243.298	86.38
243.531	79.38
243.765	76.38
243.998	66.38
244.232	75.38
244.465	74.38
244.699	82.38
244.932	76.38
245.166	90.38
245.399	87.38
245.633	80.38
245.866	69.38
246.099	58.38
246.333	79.38
246.566	74.38
246.8	82.38
247.033	65.38
247.266	74.38
247.5	71.38
247.733	71.38
247.966	76.38
248.2	69.38
248.433	66.38
248.666	71.38
248.899	83.38
249.133	79.38
249.366	93.38
249.599	76.38
249.832	80.38
250.066	87.38
250.299	85.38
250.532	69.38
250.765	78.38
250.998	71.38
251.231	84.38
251.465	79.38
251.698	80.38
251.931	68.38
252.164	74.38
252.397	88.38
252.63	83.38
252.863	73.38
253.096	82.38
253.329	76.38
253.562	75.38
253.795	65.38
254.028	64.38
254.261	87.38
254.494	79.38
254.727	75.38
254.96	77.38
255.193	75.38
255.426	73.38
255.659	84.38
255.892	82.38
256.124	76.38
256.357	85.38
256.59	84.38
256.823	77.38
257.056	82.38
257.289	80.38
257.521	93.38
257.754	75.38
257.987	85.38
258.22	79.38
258.452	83.38
258.685	91.38
258.918	74.38
259.151	73.38
259.383	95.38
259.616	74.38
259.849	83.38
260.081	71.38
260.314	71.38
260.547	74.38
260.779	100.38
261.012	74.38
261.244	71.38
261.477	87.38
261.71	92.38
261.942	80.38
262.175	76.38
262.407	69.38
262.64	81.38
262.872	72.38
263.105	74.38
263.337	63.38
263.57	86.38
263.802	77.38
264.035	81.38
264.267	73.38
264.499	67.38
264.732	76.38
264.964	85.38
265.197	74.38
265.429	77.38
265.661	73.38
265.894	80.38
266.126	77.38
266.358	81.38
266.591	93.38
266.823	80.38
267.055	77.38
267.287	69.38
267.52	81.38
267.752	81.38
267.984	67.38
268.216	93.38
268.448	79.38
268.681	72.38
268.913	73.38
269.145	88.38
269.377	80.38
269.609	77.38
269.841	82.38
270.073	75.38
270.306	84.38
270.538	81.38
270.77	80.38
271.002	75.38
271.234	96.38
271.466	93.38
271.698	78.38
271.93	77.38
272.162	84.38
272.394	81.38
272.626	73.38
272.858	78.38
273.09	85.38
273.322	76.38
273.553	83.38
273.785	84.38
274.017	74.38
274.249	89.38
274.481	76.38
274.713	87.38
274.945	84.38
275.176	72.38
275.408	105.38
275.64	74.38
275.872	62.38
276.104	89.38
276.335	72.38
276.567	80.38
276.799	66.38
277.031	69.38
277.262	71.38
277.494	83.38
277.726	87.38
277.957	83.38
278.189	87.38
278.421	88.38
278.652	77.38
278.884	82.38
279.115	94.38
279.347	92.38
279.579	94.38
279.81	88.38
280.042	89.38
280.273	89.38
280.505	73.38
280.736	91.38
280.968	84.38
281.199	86.38
281.431	90.38
281.662	82.38
281.894	69.38
282.125	91.38
282.356	72.38
282.588	95.38
282.819	80.38
283.051	64.38
283.282	88.38
283.513	90.38
283.745	88.38
283.976	82.38
284.207	72.38
284.439	84.38
284.67	82.38
284.901	79.38
285.132	87.38
285.364	85.38
285.595	76.38
285.826	88.38
286.057	95.38
286.288	84.38
286.52	79.38
286.751	95.38
286.982	73.38
287.213	77.38
287.444	77.38
287.675	85.38
287.906	90.38
288.138	85.38
288.369	69.38
288.6	66.38
288.831	74.38
289.062	78.38
289.293	81.38
289.524	86.38
289.755	76.38
289.986	71.38
290.217	80.38
290.448	71.38
290.679	86.38
290.91	91.38
291.141	83.38
291.371	95.38
291.602	85.38
291.833	74.38
292.064	73.38
292.295	73.38
292.526	87.38
292.757	89.38
292.987	79.38
293.218	70.38
293.449	80.38
293.68	85.38
293.91	84.38
294.141	77.38
294.372	86.38
294.603	74.38
294.833	82.38
295.064	65.38
295.295	76.38
295.525	91.38
295.756	99.38
295.987	87.38
296.217	97.38
296.448	95.38
296.679	87.38
296.909	92.38
297.14	78.38
297.37	82.38
297.601	84.38
297.831	84.38
298.062	82.38
298.292	81.38
298.523	73.38
298.753	67.38
298.984	80.38
299.214	85.38
299.445	74.38
299.675	87.38
299.905	83.38
300.136	75.38
300.366	85.38
300.597	81.38
300.827	76.38
301.057	85.38
301.288	80.38
301.518	89.38
301.748	74.38
301.979	85.38
302.209	91.38
302.439	96.38
302.669	91.38
302.9	84.38
303.13	80.38
303.36	95.38
303.59	79.38
303.82	83.38
304.051	77.38
304.281	71.38
304.511	72.38
304.741	94.38
304.971	79.38
305.201	84.38
305.431	78.38
305.661	75.38
305.891	88.38
306.121	86.38
306.352	75.38
306.582	84.38
306.812	71.38
307.042	90.38
307.272	77.38
307.502	85.38
307.731	95.38
307.961	89.38
308.191	88.38
308.421	74.38
308.651	84.38
308.881	82.38
309.111	79.38
309.341	93.38
309.571	75.38
309.8	87.38
310.03	87.38
310.26	87.38
310.49	102.38
310.72	94.38
310.949	68.38
311.179	91.38
311.409	79.38
311.639	79.38
311.868	97.38
312.098	89.38
312.328	81.38
312.557	88.38
312.787	75.38
313.017	69.38
313.246	80.38
313.476	82.38
313.706	71.38
313.935	85.38
314.165	92.38
314.394	80.38
314.624	93.38
314.853	80.38
315.083	93.38
315.312	76.38
315.542	76.38
315.771	83.38
316.001	77.38
316.23	68.38
316.46	81.38
316.689	82.38
316.919	95.38
317.148	82.38
317.377	84.38
317.607	74.38
317.836	79.38
318.065	84.38
318.295	90.38
318.524	79.38
318.753	85.38
318.983	100.38
319.212	89.38
319.441	84.38
319.67	76.38
319.9	87.38
320.129	57.38
320.358	66.38
320.587	74.38
320.816	71.38
321.046	79.38
321.275	81.38
321.504	74.38
321.733	78.38
321.962	80.38
322.191	86.38
322.42	83.38
322.649	70.38
322.878	74.38
323.108	79.38
323.337	90.38
323.566	93.38
323.795	75.38
324.024	84.38
324.253	72.38
324.482	79.38
324.71	85.38
324.939	90.38
325.168	75.38
325.397	76.38
325.626	75.38
325.855	74.38
326.084	85.38
326.313	84.38
326.542	78.38
326.77	70.38
326.999	78.38
327.228	95.38
327.457	86.38
327.686	80.38
327.914	82.38
328.143	91.38
328.372	75.38
328.6	85.38
328.829	80.38
329.058	86.38
329.287	80.38
329.515	76.38
329.744	77.38
329.972	75.38
330.201	68.38
330.43	81.38
330.658	82.38
330.887	80.38
331.115	85.38
331.344	77.38
331.572	93.38
331.801	72.38
332.03	77.38
332.258	90.38
332.486	84.38
332.715	81.38
332.943	97.38
333.172	81.38
333.4	82.38
333.629	86.38
333.857	79.38
334.085	81.38
334.314	85.38
334.542	70.38
334.771	83.38
334.999	85.38
335.227	99.38
335.455	81.38
335.684	83.38
335.912	92.38
336.14	85.38
336.369	77.38
336.597	79.38
336.825	75.38
337.053	98.38
337.281	85.38
337.51	81.38
337.738	94.38
337.966	84.38
338.194	92.38
338.422	73.38
338.65	74.38
338.878	86.38
339.106	89.38
339.334	81.38
339.562	79.38
339.79	73.38
340.018	77.38
340.246	79.38
340.474	92.38
340.702	88.38
340.93	83.38
341.158	83.38
341.386	83.38
341.614	76.38
341.842	88.38
342.07	83.38
342.298	92.38
342.526	80.38
342.754	84.38
342.981	84.38
343.209	88.38
343.437	74.38
343.665	97.38
343.893	84.38
344.12	85.38
344.348	81.38
344.576	85.38
344.804	89.38
345.031	81.38
345.259	80.38
345.487	82.38
345.714	73.38
345.942	82.38
346.17	80.38
346.397	78.38
346.625	71.38
346.853	68.38
347.08	81.38
347.308	82.38
347.535	80.38
347.763	76.38
347.99	79.38
348.218	80.38
348.445	75.38
348.673	73.38
348.9	84.38
349.128	84.38
349.355	70.38
349.583	71.38
349.81	90.38
350.037	70.38
350.265	81.38
350.492	87.38
350.72	77.38
350.947	87.38
351.174	83.38
351.402	90.38
351.629	80.38
351.856	78.38
352.083	82.38
352.311	85.38
352.538	72.38
352.765	74.38
352.992	85.38
353.22	96.38
353.447	90.38
353.674	74.38
353.901	83.38
354.128	73.38
354.355	78.38
354.583	72.38
354.81	72.38
355.037	95.38
355.264	72.38
355.491	78.38
355.718	86.38
355.945	84.38
356.172	83.38
356.399	69.38
356.626	82.38
356.853	90.38
357.08	81.38
357.307	91.38
357.534	74.38
357.761	73.38
357.988	92.38
358.215	86.38
358.441	94.38
358.668	79.38
358.895	86.38
359.122	90.38
359.349	74.38
359.576	65.38
359.802	76.38
360.029	83.38
360.256	96.38
360.483	81.38
360.709	73.38
360.936	82.38
361.163	92.38
361.39	86.38
361.616	84.38
361.843	70.38
362.07	75.38
362.296	93.38
362.523	87.38
362.749	88.38
362.976	79.38
363.203	65.38
363.429	74.38
363.656	92.38
363.882	77.38
364.109	85.38
364.335	82.38
364.562	82.38
364.788	73.38
365.015	95.38
365.241	85.38
365.468	86.38
365.694	77.38
365.92	77.38
366.147	78.38
366.373	78.38
366.599	70.38
366.826	91.38
367.052	88.38
367.278	93.38
367.505	85.38
367.731	78.38
367.957	93.38
368.184	82.38
368.41	82.38
368.636	82.38
368.862	80.38
369.089	61.38
369.315	73.38
369.541	89.38
369.767	87.38
369.993	91.38
370.219	69.38
370.445	85.38
370.672	78.38
370.898	89.38
371.124	72.38
371.35	78.38
371.576	81.38
371.802	91.38
372.028	68.38
372.254	66.38
372.48	84.38
372.706	72.38
372.932	72.38
373.158	82.38
373.384	90.38
373.61	80.38
373.835	73.38
374.061	83.38
374.287	95.38
374.513	89.38
374.739	68.38
374.965	77.38
375.191	84.38
375.416	87.38
375.642	82.38
375.868	86.38
376.094	93.38
376.319	77.38
376.545	60.38
376.771	89.38
376.997	85.38
377.222	81.38
377.448	80.38
377.674	73.38
377.899	89.38
378.125	86.38
378.35	92.38
378.576	82.38
378.802	77.38
379.027	84.38
379.253	74.38
379.478	85.38
379.704	82.38
379.929	81.38
380.155	85.38
380.38	85.38
380.606	82.38
380.831	75.38
381.057	73.38
381.282	75.38
381.507	69.38
381.733	82.38
381.958	89.38
382.184	92.38
382.409	89.38
382.634	93.38
382.86	89.38
383.085	71.38
383.31	82.38
383.535	96.38
383.761	73.38
383.986	80.38
384.211	88.38
384.436	75.38
384.662	92.38
384.887	93.38
385.112	73.38
385.337	78.38
385.562	74.38
385.787	81.38
386.013	90.38
386.238	79.38
386.463	91.38
386.688	81.38
386.913	76.38
387.138	83.38
387.363	86.38
387.588	85.38
387.813	81.38
388.038	70.38
388.263	78.38
388.488	82.38
388.713	81.38
388.938	85.38
389.163	89.38
389.387	68.38
389.612	96.38
389.837	76.38
390.062	81.38
390.287	97.38
390.512	73.38
390.736	80.38
390.961	80.38
391.186	86.38
391.411	84.38
391.636	83.38
391.86	70.38
392.085	85.38
392.31	81.38
392.534	87.38
392.759	87.38
392.984	74.38
393.208	87.38
393.433	79.38
393.658	85.38
393.882	84.38
394.107	111.38
394.331	85.38
394.556	77.38
394.78	85.38
395.005	66.38
395.229	83.38
395.454	87.38
395.678	67.38
395.903	67.38
396.127	90.38
396.352	74.38
396.576	81.38
396.801	84.38
397.025	76.38
397.249	101.38
397.474	80.38
397.698	82.38
397.922	90.38
398.147	84.38
398.371	79.38
398.595	80.38
398.82	74.38
399.044	80.38
399.268	76.38
399.492	80.38
399.717	74.38
399.941	84.38
400.165	92.38
400.389	82.38
400.613	86.38
400.837	72.38
401.062	69.38
401.286	77.38
401.51	98.38
401.734	82.38
401.958	90.38
402.182	91.38
402.406	93.38
402.63	68.38
402.854	84.38
403.078	104.38
403.302	88.38
403.526	85.38
403.75	88.38
403.974	84.38
404.198	82.38
404.422	78.38
404.645	80.38
404.869	79.38
405.093	89.38
405.317	98.38
405.541	96.38
405.765	97.38
405.988	87.38
406.212	91.38
406.436	94.38
406.66	76.38
406.883	97.38
407.107	86.38
407.331	88.38
407.555	93.38
407.778	75.38
408.002	100.38
408.226	97.38
408.449	86.38
408.673	70.38
408.896	89.38
409.12	92.38
409.344	86.38
409.567	89.38
409.791	79.38
410.014	94.38
410.238	102.38
410.461	77.38
410.685	95.38
410.908	85.38
411.132	90.38
411.355	92.38
411.578	85.38
411.802	80.38
412.025	77.38
412.249	81.38
412.472	76.38
412.695	93.38
412.919	79.38
413.142	82.38
413.365	79.38
413.589	78.38
413.812	78.38
414.035	85.38
414.258	81.38
414.482	94.38
414.705	98.38
414.928	80.38
415.151	82.38
415.374	92.38
415.597	91.38
415.821	89.38
416.044	80.38
416.267	96.38
416.49	85.38
416.713	84.38
416.936	89.38
417.159	75.38
417.382	90.38
417.605	92.38
417.828	105.38
418.051	103.38
418.274	100.38
418.497	78.38
418.72	82.38
418.943	88.38
419.166	85.38
419.389	87.38
419.611	92.38
419.834	98.38
420.057	90.38
420.28	89.38
420.503	96.38
420.726	93.38
420.948	90.38
421.171	100.38
421.394	98.38
421.617	89.38
421.839	89.38
422.062	89.38
422.285	112.38
422.507	82.38
422.73	86.38
422.953	85.38
423.175	100.38
423.398	93.38
423.621	86.38
423.843	87.38
424.066	78.38
424.288	82.38
424.511	98.38
424.733	93.38
424.956	89.38
425.178	74.38
425.401	102.38
425.623	84.38
425.846	95.38
426.068	98.38
426.291	90.38
426.513	88.38
426.735	97.38
426.958	82.38
427.18	76.38
427.402	86.38
427.625	93.38
427.847	89.38
428.069	98.38
428.292	89.38
428.514	85.38
428.736	88.38
428.958	76.38
429.181	82.38
429.403	95.38
429.625	80.38
429.847	90.38
430.069	89.38
430.292	82.38
430.514	84.38
430.736	89.38
430.958	84.38
431.18	81.38
431.402	88.38
431.624	85.38
431.846	85.38
432.068	76.38
432.29	84.38
432.512	86.38
432.734	85.38
432.956	93.38
433.178	90.38
433.4	82.38
433.622	100.38
433.844	90.38
434.066	89.38
434.287	74.38
434.509	84.38
434.731	90.38
434.953	96.38
435.175	78.38
435.397	95.38
435.618	75.38
435.84	82.38
436.062	102.38
436.284	93.38
436.505	68.38
436.727	82.38
436.949	74.38
437.17	79.38
437.392	92.38
437.614	83.38
437.835	86.38
438.057	93.38
438.278	76.38
438.5	86.38
438.721	97.38
438.943	92.38
439.165	92.38
439.386	102.38
439.608	79.38
439.829	102.38
440.05	95.38
440.272	79.38
440.493	106.38
440.715	93.38
440.936	90.38
441.158	103.38
441.379	94.38
441.6	109.38
441.822	109.38
442.043	86.38
442.264	91.38
442.486	87.38
442.707	74.38
442.928	97.38
443.149	80.38
443.371	93.38
443.592	102.38
443.813	102.38
444.034	90.38
444.255	77.38
444.476	99.38
444.698	83.38
444.919	103.38
445.14	215.38
445.361	140.38
445.582	104.38
445.803	99.38
446.024	82.38
446.245	96.38
446.466	96.38
446.687	89.38
446.908	100.38
447.129	84.38
447.35	101.38
447.571	96.38
447.792	76.38
448.013	100.38
448.234	94.38
448.455	89.38
448.675	103.38
448.896	103.38
449.117	98.38
449.338	90.38
449.559	90.38
449.779	84.38
450	94.38
450.221	88.38
450.442	89.38
450.662	90.38
450.883	83.38
451.104	82.38
451.324	89.38
451.545	101.38
451.766	91.38
451.986	82.38
452.207	94.38
452.428	84.38
452.648	98.38
452.869	92.38
453.089	94.38
453.31	79.38
453.53	72.38
453.751	74.38
453.971	86.38
454.192	85.38
454.412	74.38
454.633	87.38
454.853	82.38
455.073	99.38
455.294	93.38
455.514	96.38
455.734	86.38
455.955	75.38
456.175	80.38
456.395	93.38
456.616	83.38
456.836	89.38
457.056	85.38
457.276	81.38
457.497	90.38
457.717	86.38
457.937	86.38
458.157	77.38
458.377	78.38
458.598	90.38
458.818	87.38
459.038	75.38
459.258	88.38
459.478	78.38
459.698	72.38
459.918	53.38
460.138	73.38
460.358	81.38
460.578	73.38
460.798	86.38
461.018	85.38
461.238	87.38
461.458	81.38
461.678	91.38
461.898	80.38
462.118	83.38
462.338	94.38
462.558	82.38
462.777	78.38
462.997	72.38
463.217	74.38
463.437	80.38
463.657	95.38
463.876	84.38
464.096	83.38
464.316	95.38
464.536	87.38
464.755	100.38
464.975	83.38
465.195	108.38
465.414	98.38
465.634	84.38
465.854	86.38
466.073	89.38
466.293	84.38
466.512	69.38
466.732	85.38
466.951	95.38
467.171	92.38
467.391	96.38
467.61	98.38
467.829	92.38
468.049	98.38
468.268	88.38
468.488	90.38
468.707	98.38
468.927	97.38
469.146	90.38
469.365	90.38
469.585	93.38
469.804	82.38
470.023	103.38
470.243	99.38
470.462	105.38
470.681	94.38
470.901	87.38
471.12	76.38
471.339	92.38
471.558	95.38
471.777	95.38
471.997	86.38
472.216	96.38
472.435	100.38
472.654	79.38
472.873	89.38
473.092	86.38
473.311	82.38
473.53	96.38
473.749	89.38
473.968	100.38
474.187	89.38
474.406	96.38
474.625	87.38
474.844	90.38
475.063	86.38
475.282	83.38
475.501	82.38
475.72	106.38
475.939	88.38
476.158	103.38
476.377	78.38
476.596	101.38
476.814	84.38
477.033	81.38
477.252	91.38
477.471	98.38
477.69	91.38
477.908	106.38
478.127	85.38
478.346	84.38
478.564	94.38
478.783	72.38
479.002	92.38
479.22	93.38
479.439	104.38
479.658	103.38
479.876	88.38
480.095	86.38
480.313	86.38
480.532	89.38
480.751	95.38
480.969	77.38
481.188	77.38
481.406	77.38
481.624	87.38
481.843	89.38
482.061	75.38
482.28	95.38
482.498	106.38
482.717	98.38
482.935	96.38
483.153	88.38
483.372	101.38
483.59	84.38
483.808	99.38
484.027	108.38
484.245	90.38
484.463	81.38
484.681	99.38
484.9	97.38
485.118	96.38
485.336	82.38
485.554	82.38
485.772	88.38
485.99	91.38
486.209	86.38
486.427	92.38
486.645	99.38
486.863	111.38
487.081	92.38
487.299	94.38
487.517	95.38
487.735	98.38
487.953	112.38
488.171	105.38
488.389	97.38
488.607	99.38
488.825	86.38
489.043	87.38
489.261	98.38
489.479	84.38
489.696	85.38
489.914	89.38
490.132	86.38
490.35	102.38
490.568	90.38
490.786	104.38
491.003	103.38
491.221	98.38
491.439	104.38
491.657	98.38
491.874	101.38
492.092	120.38
492.31	124.38
492.527	118.38
492.745	97.38
492.963	110.38
493.18	106.38
493.398	95.38
493.615	103.38
493.833	103.38
494.05	111.38
494.268	108.38
494.485	98.38
494.703	96.38
494.92	95.38
495.138	89.38
495.355	102.38
495.573	100.38
495.79	93.38
496.008	102.38
496.225	108.38
496.442	96.38
496.66	110.38
496.877	89.38
497.094	81.38
497.312	106.38
497.529	112.38
497.746	101.38
497.963	97.38
498.181	102.38
498.398	90.38
498.615	85.38
498.832	83.38
499.049	99.38
499.267	87.38
499.484	81.38
499.701	83.38
499.918	108.38
500.135	93.38
500.352	105.38
500.569	87.38
500.786	108.38
501.003	110.38
501.22	93.38
501.437	102.38
501.654	97.38
501.871	84.38
502.088	111.38
502.305	97.38
502.522	96.38
502.739	99.38
502.956	83.38
503.172	102.38
503.389	90.38
503.606	93.38
503.823	83.38
504.04	82.38
504.256	96.38
504.473	89.38
504.69	80.38
504.907	100.38
505.123	88.38
505.34	80.38
505.557	93.38
505.773	106.38
505.99	93.38
506.207	100.38
506.423	83.38
506.64	80.38
506.856	95.38
507.073	82.38
507.289	88.38
507.506	88.38
507.722	82.38
507.939	101.38
508.155	110.38
508.372	86.38
508.588	90.38
508.805	89.38
509.021	84.38
509.238	90.38
509.454	84.38
509.67	86.38
509.887	90.38
510.103	78.38
510.319	86.38
510.536	86.38
510.752	81.38
510.968	87.38
511.184	72.38
511.401	78.38
511.617	75.38
511.833	71.38
512.049	78.38
512.265	78.38
512.481	79.38
512.698	85.38
512.914	64.38
513.13	73.38
513.346	85.38
513.562	88.38
513.778	75.38
513.994	94.38
514.21	84.38
514.426	104.38
514.642	94.38
514.858	93.38
515.074	92.38
515.29	82.38
515.506	79.38
515.721	70.38
515.937	76.38
516.153	78.38
516.369	72.38
516.585	74.38
516.801	75.38
517.016	87.38
517.232	72.38
517.448	75.38
517.664	82.38
517.879	72.38
518.095	86.38
518.311	81.38
