Data from Location5.07152019.Energy5.Lamp.07192019.3%Agarose_HRD10591_15-38-14-388.txt Node
Date: Fri Jul 19 15:38:14 EDT 2019
User: cochatt
Spectrometer: HR+D1059
Trigger mode: 1
Integration Time (sec): 1.000000E-1
Scans to average: 1
Electric dark correction enabled: true
Nonlinearity correction enabled: false
Boxcar width: 0
XAxis mode: Wavelengths
Number of Pixels in Spectrum: 2048
>>>>>Begin Spectral Data<<<<<
223.165	-22.12
223.4	-22.12
223.635	-22.12
223.869	-23.12
224.104	-12.12
224.338	-13.12
224.573	-22.12
224.808	-10.12
225.042	-8.12
225.277	-0.12
225.511	2.88
225.746	0.88
225.98	6.88
226.215	5.88
226.449	23.88
226.683	16.88
226.918	27.88
227.152	25.88
227.387	33.88
227.621	31.88
227.856	47.88
228.09	47.88
228.324	52.88
228.559	48.88
228.793	55.88
229.027	64.88
229.262	55.88
229.496	65.88
229.73	70.88
229.964	62.88
230.199	65.88
230.433	79.88
230.667	86.88
230.901	90.88
231.136	81.88
231.37	78.88
231.604	77.88
231.838	78.88
232.072	66.88
232.306	88.88
232.541	77.88
232.775	70.88
233.009	85.88
233.243	79.88
233.477	72.88
233.711	95.88
233.945	71.88
234.179	75.88
234.413	73.88
234.647	70.88
234.881	73.88
235.115	71.88
235.349	66.88
235.583	80.88
235.817	77.88
236.051	79.88
236.285	93.88
236.519	84.88
236.753	81.88
236.987	84.88
237.221	78.88
237.455	85.88
237.689	77.88
237.922	70.88
238.156	72.88
238.39	79.88
238.624	74.88
238.858	78.88
239.091	72.88
239.325	83.88
239.559	77.88
239.793	64.88
240.027	77.88
240.26	64.88
240.494	73.88
240.728	64.88
240.961	72.88
241.195	74.88
241.429	81.88
241.662	80.88
241.896	60.88
242.13	76.88
242.363	79.88
242.597	75.88
242.83	74.88
243.064	77.88
243.298	97.88
243.531	73.88
243.765	75.88
243.998	72.88
244.232	77.88
244.465	69.88
244.699	71.88
244.932	73.88
245.166	65.88
245.399	74.88
245.633	73.88
245.866	69.88
246.099	78.88
246.333	62.88
246.566	73.88
246.8	94.88
247.033	76.88
247.266	84.88
247.5	80.88
247.733	78.88
247.966	81.88
248.2	81.88
248.433	81.88
248.666	70.88
248.899	86.88
249.133	71.88
249.366	82.88
249.599	82.88
249.832	79.88
250.066	76.88
250.299	74.88
250.532	69.88
250.765	82.88
250.998	76.88
251.231	62.88
251.465	68.88
251.698	67.88
251.931	84.88
252.164	69.88
252.397	75.88
252.63	83.88
252.863	77.88
253.096	70.88
253.329	73.88
253.562	79.88
253.795	88.88
254.028	89.88
254.261	80.88
254.494	78.88
254.727	95.88
254.96	87.88
255.193	82.88
255.426	76.88
255.659	79.88
255.892	80.88
256.124	79.88
256.357	69.88
256.59	68.88
256.823	82.88
257.056	66.88
257.289	77.88
257.521	71.88
257.754	68.88
257.987	69.88
258.22	86.88
258.452	74.88
258.685	84.88
258.918	76.88
259.151	69.88
259.383	74.88
259.616	84.88
259.849	86.88
260.081	85.88
260.314	77.88
260.547	94.88
260.779	93.88
261.012	81.88
261.244	78.88
261.477	91.88
261.71	83.88
261.942	69.88
262.175	69.88
262.407	77.88
262.64	86.88
262.872	82.88
263.105	88.88
263.337	78.88
263.57	71.88
263.802	93.88
264.035	81.88
264.267	75.88
264.499	80.88
264.732	79.88
264.964	65.88
265.197	94.88
265.429	78.88
265.661	86.88
265.894	74.88
266.126	88.88
266.358	85.88
266.591	82.88
266.823	73.88
267.055	66.88
267.287	89.88
267.52	92.88
267.752	84.88
267.984	81.88
268.216	54.88
268.448	85.88
268.681	81.88
268.913	91.88
269.145	74.88
269.377	88.88
269.609	77.88
269.841	78.88
270.073	74.88
270.306	77.88
270.538	86.88
270.77	86.88
271.002	91.88
271.234	86.88
271.466	85.88
271.698	87.88
271.93	84.88
272.162	86.88
272.394	85.88
272.626	78.88
272.858	87.88
273.09	80.88
273.322	74.88
273.553	79.88
273.785	76.88
274.017	78.88
274.249	88.88
274.481	94.88
274.713	87.88
274.945	82.88
275.176	88.88
275.408	88.88
275.64	85.88
275.872	78.88
276.104	90.88
276.335	76.88
276.567	74.88
276.799	85.88
277.031	75.88
277.262	85.88
277.494	82.88
277.726	73.88
277.957	94.88
278.189	86.88
278.421	93.88
278.652	90.88
278.884	87.88
279.115	84.88
279.347	84.88
279.579	69.88
279.81	72.88
280.042	83.88
280.273	75.88
280.505	82.88
280.736	79.88
280.968	90.88
281.199	81.88
281.431	83.88
281.662	80.88
281.894	78.88
282.125	72.88
282.356	78.88
282.588	87.88
282.819	79.88
283.051	83.88
283.282	102.88
283.513	82.88
283.745	90.88
283.976	69.88
284.207	87.88
284.439	81.88
284.67	74.88
284.901	82.88
285.132	83.88
285.364	82.88
285.595	77.88
285.826	88.88
286.057	92.88
286.288	64.88
286.52	77.88
286.751	86.88
286.982	74.88
287.213	76.88
287.444	75.88
287.675	101.88
287.906	88.88
288.138	81.88
288.369	92.88
288.6	88.88
288.831	74.88
289.062	83.88
289.293	73.88
289.524	92.88
289.755	80.88
289.986	84.88
290.217	82.88
290.448	67.88
290.679	68.88
290.91	83.88
291.141	85.88
291.371	82.88
291.602	86.88
291.833	78.88
292.064	78.88
292.295	84.88
292.526	88.88
292.757	93.88
292.987	88.88
293.218	86.88
293.449	82.88
293.68	90.88
293.91	89.88
294.141	82.88
294.372	74.88
294.603	61.88
294.833	95.88
295.064	75.88
295.295	86.88
295.525	80.88
295.756	89.88
295.987	85.88
296.217	83.88
296.448	81.88
296.679	97.88
296.909	90.88
297.14	82.88
297.37	76.88
297.601	76.88
297.831	84.88
298.062	81.88
298.292	73.88
298.523	68.88
298.753	84.88
298.984	87.88
299.214	96.88
299.445	90.88
299.675	80.88
299.905	84.88
300.136	69.88
300.366	79.88
300.597	70.88
300.827	83.88
301.057	73.88
301.288	80.88
301.518	90.88
301.748	89.88
301.979	82.88
302.209	78.88
302.439	82.88
302.669	100.88
302.9	86.88
303.13	86.88
303.36	73.88
303.59	68.88
303.82	88.88
304.051	64.88
304.281	85.88
304.511	86.88
304.741	92.88
304.971	92.88
305.201	78.88
305.431	92.88
305.661	85.88
305.891	70.88
306.121	87.88
306.352	94.88
306.582	88.88
306.812	71.88
307.042	86.88
307.272	80.88
307.502	72.88
307.731	79.88
307.961	82.88
308.191	91.88
308.421	93.88
308.651	104.88
308.881	88.88
309.111	90.88
309.341	89.88
309.571	80.88
309.8	84.88
310.03	81.88
310.26	89.88
310.49	84.88
310.72	88.88
310.949	89.88
311.179	74.88
311.409	74.88
311.639	84.88
311.868	84.88
312.098	89.88
312.328	69.88
312.557	76.88
312.787	88.88
313.017	70.88
313.246	69.88
313.476	86.88
313.706	78.88
313.935	75.88
314.165	89.88
314.394	70.88
314.624	86.88
314.853	74.88
315.083	82.88
315.312	72.88
315.542	73.88
315.771	76.88
316.001	82.88
316.23	78.88
316.46	87.88
316.689	97.88
316.919	69.88
317.148	93.88
317.377	90.88
317.607	80.88
317.836	80.88
318.065	83.88
318.295	84.88
318.524	65.88
318.753	75.88
318.983	89.88
319.212	96.88
319.441	82.88
319.67	97.88
319.9	77.88
320.129	78.88
320.358	81.88
320.587	86.88
320.816	92.88
321.046	101.88
321.275	88.88
321.504	73.88
321.733	71.88
321.962	86.88
322.191	86.88
322.42	89.88
322.649	83.88
322.878	92.88
323.108	82.88
323.337	81.88
323.566	75.88
323.795	87.88
324.024	86.88
324.253	70.88
324.482	75.88
324.71	82.88
324.939	89.88
325.168	95.88
325.397	89.88
325.626	90.88
325.855	78.88
326.084	85.88
326.313	87.88
326.542	86.88
326.77	93.88
326.999	89.88
327.228	84.88
327.457	98.88
327.686	87.88
327.914	82.88
328.143	86.88
328.372	73.88
328.6	74.88
328.829	82.88
329.058	73.88
329.287	79.88
329.515	84.88
329.744	86.88
329.972	62.88
330.201	82.88
330.43	81.88
330.658	76.88
330.887	81.88
331.115	96.88
331.344	98.88
331.572	87.88
331.801	72.88
332.03	85.88
332.258	72.88
332.486	86.88
332.715	73.88
332.943	91.88
333.172	94.88
333.4	86.88
333.629	79.88
333.857	94.88
334.085	85.88
334.314	87.88
334.542	97.88
334.771	68.88
334.999	80.88
335.227	88.88
335.455	85.88
335.684	86.88
335.912	70.88
336.14	74.88
336.369	73.88
336.597	84.88
336.825	80.88
337.053	83.88
337.281	75.88
337.51	87.88
337.738	83.88
337.966	88.88
338.194	81.88
338.422	85.88
338.65	86.88
338.878	85.88
339.106	82.88
339.334	74.88
339.562	90.88
339.79	88.88
340.018	89.88
340.246	76.88
340.474	94.88
340.702	86.88
340.93	86.88
341.158	96.88
341.386	75.88
341.614	84.88
341.842	73.88
342.07	78.88
342.298	86.88
342.526	79.88
342.754	80.88
342.981	79.88
343.209	81.88
343.437	87.88
343.665	82.88
343.893	64.88
344.12	88.88
344.348	91.88
344.576	90.88
344.804	93.88
345.031	80.88
345.259	92.88
345.487	77.88
345.714	83.88
345.942	74.88
346.17	71.88
346.397	70.88
346.625	88.88
346.853	76.88
347.08	90.88
347.308	90.88
347.535	76.88
347.763	76.88
347.99	91.88
348.218	93.88
348.445	81.88
348.673	79.88
348.9	88.88
349.128	80.88
349.355	85.88
349.583	77.88
349.81	77.88
350.037	83.88
350.265	85.88
350.492	85.88
350.72	87.88
350.947	96.88
351.174	94.88
351.402	85.88
351.629	97.88
351.856	84.88
352.083	77.88
352.311	82.88
352.538	73.88
352.765	89.88
352.992	79.88
353.22	74.88
353.447	84.88
353.674	88.88
353.901	81.88
354.128	93.88
354.355	75.88
354.583	93.88
354.81	84.88
355.037	79.88
355.264	79.88
355.491	77.88
355.718	84.88
355.945	78.88
356.172	63.88
356.399	80.88
356.626	86.88
356.853	92.88
357.08	89.88
357.307	70.88
357.534	86.88
357.761	83.88
357.988	94.88
358.215	81.88
358.441	71.88
358.668	90.88
358.895	83.88
359.122	81.88
359.349	82.88
359.576	74.88
359.802	86.88
360.029	72.88
360.256	77.88
360.483	88.88
360.709	86.88
360.936	87.88
361.163	80.88
361.39	92.88
361.616	77.88
361.843	78.88
362.07	93.88
362.296	70.88
362.523	70.88
362.749	73.88
362.976	78.88
363.203	83.88
363.429	72.88
363.656	81.88
363.882	77.88
364.109	88.88
364.335	69.88
364.562	96.88
364.788	78.88
365.015	89.88
365.241	75.88
365.468	83.88
365.694	95.88
365.92	77.88
366.147	87.88
366.373	85.88
366.599	75.88
366.826	85.88
367.052	86.88
367.278	72.88
367.505	77.88
367.731	91.88
367.957	75.88
368.184	79.88
368.41	94.88
368.636	91.88
368.862	76.88
369.089	73.88
369.315	90.88
369.541	63.88
369.767	87.88
369.993	74.88
370.219	81.88
370.445	70.88
370.672	74.88
370.898	64.88
371.124	81.88
371.35	83.88
371.576	84.88
371.802	80.88
372.028	88.88
372.254	88.88
372.48	83.88
372.706	83.88
372.932	88.88
373.158	84.88
373.384	82.88
373.61	97.88
373.835	84.88
374.061	96.88
374.287	95.88
374.513	78.88
374.739	92.88
374.965	81.88
375.191	73.88
375.416	69.88
375.642	89.88
375.868	91.88
376.094	73.88
376.319	85.88
376.545	86.88
376.771	84.88
376.997	95.88
377.222	85.88
377.448	85.88
377.674	96.88
377.899	87.88
378.125	78.88
378.35	82.88
378.576	93.88
378.802	84.88
379.027	79.88
379.253	86.88
379.478	94.88
379.704	84.88
379.929	85.88
380.155	94.88
380.38	80.88
380.606	72.88
380.831	84.88
381.057	87.88
381.282	96.88
381.507	72.88
381.733	81.88
381.958	80.88
382.184	81.88
382.409	83.88
382.634	86.88
382.86	82.88
383.085	71.88
383.31	85.88
383.535	75.88
383.761	90.88
383.986	87.88
384.211	81.88
384.436	65.88
384.662	78.88
384.887	71.88
385.112	71.88
385.337	78.88
385.562	82.88
385.787	77.88
386.013	99.88
386.238	79.88
386.463	68.88
386.688	84.88
386.913	93.88
387.138	85.88
387.363	82.88
387.588	92.88
387.813	79.88
388.038	93.88
388.263	78.88
388.488	93.88
388.713	87.88
388.938	78.88
389.163	82.88
389.387	77.88
389.612	97.88
389.837	88.88
390.062	90.88
390.287	95.88
390.512	93.88
390.736	90.88
390.961	79.88
391.186	82.88
391.411	83.88
391.636	84.88
391.86	81.88
392.085	76.88
392.31	76.88
392.534	73.88
392.759	86.88
392.984	89.88
393.208	74.88
393.433	92.88
393.658	89.88
393.882	83.88
394.107	87.88
394.331	71.88
394.556	84.88
394.78	84.88
395.005	71.88
395.229	80.88
395.454	86.88
395.678	81.88
395.903	89.88
396.127	81.88
396.352	93.88
396.576	93.88
396.801	85.88
397.025	71.88
397.249	74.88
397.474	79.88
397.698	94.88
397.922	75.88
398.147	84.88
398.371	94.88
398.595	91.88
398.82	90.88
399.044	83.88
399.268	69.88
399.492	97.88
399.717	94.88
399.941	76.88
400.165	89.88
400.389	96.88
400.613	100.88
400.837	93.88
401.062	82.88
401.286	84.88
401.51	103.88
401.734	70.88
401.958	80.88
402.182	100.88
402.406	91.88
402.63	97.88
402.854	89.88
403.078	80.88
403.302	80.88
403.526	93.88
403.75	84.88
403.974	81.88
404.198	89.88
404.422	92.88
404.645	90.88
404.869	88.88
405.093	90.88
405.317	90.88
405.541	97.88
405.765	78.88
405.988	76.88
406.212	68.88
406.436	71.88
406.66	109.88
406.883	98.88
407.107	86.88
407.331	92.88
407.555	91.88
407.778	89.88
408.002	95.88
408.226	87.88
408.449	92.88
408.673	81.88
408.896	101.88
409.12	76.88
409.344	80.88
409.567	85.88
409.791	101.88
410.014	94.88
410.238	85.88
410.461	98.88
410.685	96.88
410.908	80.88
411.132	105.88
411.355	85.88
411.578	96.88
411.802	80.88
412.025	81.88
412.249	94.88
412.472	76.88
412.695	88.88
412.919	85.88
413.142	96.88
413.365	90.88
413.589	82.88
413.812	86.88
414.035	92.88
414.258	81.88
414.482	88.88
414.705	87.88
414.928	92.88
415.151	82.88
415.374	100.88
415.597	89.88
415.821	70.88
416.044	86.88
416.267	83.88
416.49	93.88
416.713	100.88
416.936	94.88
417.159	85.88
417.382	92.88
417.605	87.88
417.828	78.88
418.051	94.88
418.274	104.88
418.497	98.88
418.72	105.88
418.943	85.88
419.166	85.88
419.389	94.88
419.611	88.88
419.834	101.88
420.057	101.88
420.28	94.88
420.503	89.88
420.726	88.88
420.948	79.88
421.171	79.88
421.394	92.88
421.617	84.88
421.839	95.88
422.062	93.88
422.285	92.88
422.507	90.88
422.73	101.88
422.953	94.88
423.175	89.88
423.398	82.88
423.621	89.88
423.843	86.88
424.066	92.88
424.288	86.88
424.511	80.88
424.733	92.88
424.956	99.88
425.178	97.88
425.401	99.88
425.623	102.88
425.846	82.88
426.068	90.88
426.291	98.88
426.513	83.88
426.735	87.88
426.958	86.88
427.18	93.88
427.402	85.88
427.625	95.88
427.847	90.88
428.069	104.88
428.292	110.88
428.514	80.88
428.736	72.88
428.958	100.88
429.181	90.88
429.403	95.88
429.625	92.88
429.847	90.88
430.069	81.88
430.292	97.88
430.514	86.88
430.736	94.88
430.958	89.88
431.18	90.88
431.402	77.88
431.624	80.88
431.846	89.88
432.068	93.88
432.29	79.88
432.512	67.88
432.734	84.88
432.956	92.88
433.178	92.88
433.4	111.88
433.622	88.88
433.844	77.88
434.066	90.88
434.287	82.88
434.509	79.88
434.731	89.88
434.953	80.88
435.175	85.88
435.397	99.88
435.618	83.88
435.84	80.88
436.062	92.88
436.284	91.88
436.505	100.88
436.727	81.88
436.949	89.88
437.17	88.88
437.392	96.88
437.614	97.88
437.835	83.88
438.057	97.88
438.278	85.88
438.5	96.88
438.721	83.88
438.943	114.88
439.165	91.88
439.386	97.88
439.608	96.88
439.829	105.88
440.05	109.88
440.272	103.88
440.493	91.88
440.715	103.88
440.936	97.88
441.158	102.88
441.379	94.88
441.6	98.88
441.822	96.88
442.043	102.88
442.264	91.88
442.486	87.88
442.707	74.88
442.928	92.88
443.149	106.88
443.371	94.88
443.592	89.88
443.813	94.88
444.034	89.88
444.255	94.88
444.476	88.88
444.698	96.88
444.919	90.88
445.14	233.88
445.361	169.88
445.582	99.88
445.803	88.88
446.024	85.88
446.245	102.88
446.466	91.88
446.687	83.88
446.908	113.88
447.129	100.88
447.35	95.88
447.571	90.88
447.792	84.88
448.013	98.88
448.234	96.88
448.455	111.88
448.675	89.88
448.896	94.88
449.117	78.88
449.338	93.88
449.559	85.88
449.779	93.88
450	84.88
450.221	96.88
450.442	96.88
450.662	85.88
450.883	95.88
451.104	95.88
451.324	84.88
451.545	101.88
451.766	84.88
451.986	105.88
452.207	101.88
452.428	87.88
452.648	86.88
452.869	99.88
453.089	91.88
453.31	88.88
453.53	95.88
453.751	81.88
453.971	87.88
454.192	89.88
454.412	95.88
454.633	102.88
454.853	82.88
455.073	92.88
455.294	90.88
455.514	84.88
455.734	84.88
455.955	90.88
456.175	86.88
456.395	89.88
456.616	89.88
456.836	84.88
457.056	97.88
457.276	81.88
457.497	98.88
457.717	88.88
457.937	89.88
458.157	88.88
458.377	91.88
458.598	80.88
458.818	81.88
459.038	92.88
459.258	85.88
459.478	85.88
459.698	79.88
459.918	84.88
460.138	71.88
460.358	93.88
460.578	92.88
460.798	81.88
461.018	77.88
461.238	89.88
461.458	94.88
461.678	81.88
461.898	89.88
462.118	92.88
462.338	91.88
462.558	97.88
462.777	98.88
462.997	88.88
463.217	84.88
463.437	95.88
463.657	98.88
463.876	86.88
464.096	92.88
464.316	77.88
464.536	79.88
464.755	92.88
464.975	82.88
465.195	99.88
465.414	89.88
465.634	80.88
465.854	104.88
466.073	77.88
466.293	98.88
466.512	95.88
466.732	96.88
466.951	88.88
467.171	101.88
467.391	80.88
467.61	88.88
467.829	94.88
468.049	89.88
468.268	95.88
468.488	104.88
468.707	95.88
468.927	85.88
469.146	78.88
469.365	94.88
469.585	89.88
469.804	91.88
470.023	101.88
470.243	95.88
470.462	91.88
470.681	89.88
470.901	80.88
471.12	88.88
471.339	77.88
471.558	100.88
471.777	103.88
471.997	89.88
472.216	74.88
472.435	103.88
472.654	90.88
472.873	83.88
473.092	89.88
473.311	96.88
473.53	97.88
473.749	82.88
473.968	100.88
474.187	90.88
474.406	94.88
474.625	101.88
474.844	108.88
475.063	84.88
475.282	80.88
475.501	92.88
475.72	97.88
475.939	79.88
476.158	88.88
476.377	93.88
476.596	93.88
476.814	79.88
477.033	80.88
477.252	80.88
477.471	98.88
477.69	91.88
477.908	84.88
478.127	93.88
478.346	93.88
478.564	93.88
478.783	93.88
479.002	102.88
479.22	104.88
479.439	88.88
479.658	94.88
479.876	77.88
480.095	98.88
480.313	86.88
480.532	88.88
480.751	93.88
480.969	78.88
481.188	93.88
481.406	80.88
481.624	77.88
481.843	82.88
482.061	84.88
482.28	84.88
482.498	83.88
482.717	87.88
482.935	80.88
483.153	103.88
483.372	96.88
483.59	98.88
483.808	99.88
484.027	88.88
484.245	94.88
484.463	86.88
484.681	91.88
484.9	88.88
485.118	103.88
485.336	82.88
485.554	96.88
485.772	99.88
485.99	94.88
486.209	89.88
486.427	86.88
486.645	80.88
486.863	85.88
487.081	98.88
487.299	93.88
487.517	94.88
487.735	94.88
487.953	113.88
488.171	87.88
488.389	109.88
488.607	109.88
488.825	97.88
489.043	100.88
489.261	92.88
489.479	101.88
489.696	92.88
489.914	94.88
490.132	87.88
490.35	112.88
490.568	108.88
490.786	108.88
491.003	115.88
491.221	105.88
491.439	115.88
491.657	116.88
491.874	109.88
492.092	106.88
492.31	113.88
492.527	130.88
492.745	122.88
492.963	115.88
493.18	98.88
493.398	113.88
493.615	116.88
493.833	120.88
494.05	122.88
494.268	98.88
494.485	100.88
494.703	112.88
494.92	112.88
495.138	106.88
495.355	100.88
495.573	107.88
495.79	94.88
496.008	97.88
496.225	91.88
496.442	110.88
496.66	118.88
496.877	103.88
497.094	112.88
497.312	117.88
497.529	93.88
497.746	104.88
497.963	94.88
498.181	92.88
498.398	87.88
498.615	91.88
498.832	81.88
499.049	79.88
499.267	97.88
499.484	89.88
499.701	86.88
499.918	105.88
500.135	85.88
500.352	88.88
500.569	96.88
500.786	81.88
501.003	104.88
501.22	89.88
501.437	107.88
501.654	96.88
501.871	82.88
502.088	81.88
502.305	82.88
502.522	104.88
502.739	91.88
502.956	102.88
503.172	104.88
503.389	118.88
503.606	93.88
503.823	76.88
504.04	89.88
504.256	100.88
504.473	95.88
504.69	90.88
504.907	91.88
505.123	80.88
505.34	96.88
505.557	103.88
505.773	94.88
505.99	94.88
506.207	89.88
506.423	99.88
506.64	94.88
506.856	83.88
507.073	95.88
507.289	93.88
507.506	95.88
507.722	87.88
507.939	71.88
508.155	92.88
508.372	92.88
508.588	84.88
508.805	85.88
509.021	85.88
509.238	97.88
509.454	77.88
509.67	77.88
509.887	102.88
510.103	86.88
510.319	86.88
510.536	82.88
510.752	84.88
510.968	70.88
511.184	87.88
511.401	83.88
511.617	86.88
511.833	90.88
512.049	84.88
512.265	82.88
512.481	95.88
512.698	84.88
512.914	81.88
513.13	70.88
513.346	83.88
513.562	103.88
513.778	79.88
513.994	90.88
514.21	93.88
514.426	85.88
514.642	76.88
514.858	81.88
515.074	64.88
515.29	92.88
515.506	80.88
515.721	79.88
515.937	86.88
516.153	78.88
516.369	81.88
516.585	90.88
516.801	60.88
517.016	83.88
517.232	98.88
517.448	78.88
517.664	91.88
517.879	84.88
518.095	84.88
