Data from Location5.07152019.Energy5.Lamp.07192019.3%Agarose_HRD10591_16-02-30-628.txt Node
Date: Fri Jul 19 16:02:30 EDT 2019
User: cochatt
Spectrometer: HR+D1059
Trigger mode: 1
Integration Time (sec): 1.000000E-1
Scans to average: 1
Electric dark correction enabled: true
Nonlinearity correction enabled: false
Boxcar width: 0
XAxis mode: Wavelengths
Number of Pixels in Spectrum: 2048
>>>>>Begin Spectral Data<<<<<
223.165	-12.12
223.4	-12.12
223.635	-12.12
223.869	-20.12
224.104	-11.12
224.338	-10.12
224.573	-23.12
224.808	-16.12
225.042	-3.12
225.277	-14.12
225.511	-6.12
225.746	6.88
225.98	-3.12
226.215	26.88
226.449	20.88
226.683	22.88
226.918	15.88
227.152	25.88
227.387	23.88
227.621	40.88
227.856	43.88
228.09	40.88
228.324	33.88
228.559	53.88
228.793	60.88
229.027	62.88
229.262	69.88
229.496	66.88
229.73	63.88
229.964	66.88
230.199	65.88
230.433	69.88
230.667	75.88
230.901	82.88
231.136	83.88
231.37	78.88
231.604	85.88
231.838	79.88
232.072	80.88
232.306	79.88
232.541	85.88
232.775	84.88
233.009	91.88
233.243	80.88
233.477	96.88
233.711	96.88
233.945	69.88
234.179	76.88
234.413	93.88
234.647	76.88
234.881	88.88
235.115	68.88
235.349	76.88
235.583	81.88
235.817	86.88
236.051	70.88
236.285	67.88
236.519	88.88
236.753	82.88
236.987	77.88
237.221	74.88
237.455	74.88
237.689	87.88
237.922	91.88
238.156	78.88
238.39	72.88
238.624	71.88
238.858	77.88
239.091	58.88
239.325	67.88
239.559	71.88
239.793	86.88
240.027	87.88
240.26	81.88
240.494	69.88
240.728	78.88
240.961	64.88
241.195	83.88
241.429	85.88
241.662	74.88
241.896	72.88
242.13	71.88
242.363	58.88
242.597	67.88
242.83	81.88
243.064	81.88
243.298	62.88
243.531	81.88
243.765	70.88
243.998	71.88
244.232	80.88
244.465	67.88
244.699	69.88
244.932	73.88
245.166	77.88
245.399	92.88
245.633	72.88
245.866	73.88
246.099	73.88
246.333	68.88
246.566	88.88
246.8	75.88
247.033	79.88
247.266	87.88
247.5	78.88
247.733	73.88
247.966	82.88
248.2	68.88
248.433	72.88
248.666	72.88
248.899	78.88
249.133	81.88
249.366	80.88
249.599	82.88
249.832	65.88
250.066	94.88
250.299	82.88
250.532	80.88
250.765	82.88
250.998	72.88
251.231	78.88
251.465	66.88
251.698	72.88
251.931	86.88
252.164	93.88
252.397	78.88
252.63	84.88
252.863	78.88
253.096	81.88
253.329	76.88
253.562	74.88
253.795	86.88
254.028	79.88
254.261	82.88
254.494	87.88
254.727	81.88
254.96	67.88
255.193	79.88
255.426	92.88
255.659	86.88
255.892	90.88
256.124	92.88
256.357	79.88
256.59	74.88
256.823	86.88
257.056	89.88
257.289	75.88
257.521	71.88
257.754	75.88
257.987	79.88
258.22	88.88
258.452	77.88
258.685	85.88
258.918	76.88
259.151	94.88
259.383	81.88
259.616	78.88
259.849	95.88
260.081	88.88
260.314	67.88
260.547	83.88
260.779	75.88
261.012	86.88
261.244	86.88
261.477	102.88
261.71	84.88
261.942	77.88
262.175	79.88
262.407	77.88
262.64	70.88
262.872	85.88
263.105	82.88
263.337	85.88
263.57	85.88
263.802	83.88
264.035	80.88
264.267	67.88
264.499	79.88
264.732	91.88
264.964	79.88
265.197	86.88
265.429	79.88
265.661	80.88
265.894	80.88
266.126	88.88
266.358	79.88
266.591	76.88
266.823	87.88
267.055	77.88
267.287	81.88
267.52	72.88
267.752	86.88
267.984	95.88
268.216	73.88
268.448	88.88
268.681	87.88
268.913	82.88
269.145	79.88
269.377	89.88
269.609	88.88
269.841	78.88
270.073	90.88
270.306	81.88
270.538	87.88
270.77	83.88
271.002	86.88
271.234	79.88
271.466	79.88
271.698	86.88
271.93	85.88
272.162	87.88
272.394	85.88
272.626	103.88
272.858	88.88
273.09	72.88
273.322	79.88
273.553	80.88
273.785	86.88
274.017	76.88
274.249	95.88
274.481	90.88
274.713	83.88
274.945	86.88
275.176	81.88
275.408	100.88
275.64	95.88
275.872	90.88
276.104	95.88
276.335	86.88
276.567	90.88
276.799	85.88
277.031	83.88
277.262	91.88
277.494	90.88
277.726	86.88
277.957	84.88
278.189	80.88
278.421	86.88
278.652	67.88
278.884	85.88
279.115	96.88
279.347	94.88
279.579	81.88
279.81	93.88
280.042	85.88
280.273	86.88
280.505	96.88
280.736	83.88
280.968	97.88
281.199	91.88
281.431	85.88
281.662	79.88
281.894	96.88
282.125	73.88
282.356	76.88
282.588	87.88
282.819	86.88
283.051	89.88
283.282	97.88
283.513	87.88
283.745	82.88
283.976	87.88
284.207	87.88
284.439	98.88
284.67	81.88
284.901	86.88
285.132	85.88
285.364	80.88
285.595	91.88
285.826	91.88
286.057	87.88
286.288	88.88
286.52	97.88
286.751	85.88
286.982	87.88
287.213	80.88
287.444	81.88
287.675	78.88
287.906	96.88
288.138	83.88
288.369	85.88
288.6	78.88
288.831	89.88
289.062	92.88
289.293	95.88
289.524	83.88
289.755	89.88
289.986	79.88
290.217	85.88
290.448	86.88
290.679	93.88
290.91	89.88
291.141	97.88
291.371	99.88
291.602	90.88
291.833	99.88
292.064	105.88
292.295	90.88
292.526	87.88
292.757	85.88
292.987	86.88
293.218	93.88
293.449	79.88
293.68	78.88
293.91	98.88
294.141	96.88
294.372	97.88
294.603	89.88
294.833	78.88
295.064	80.88
295.295	90.88
295.525	88.88
295.756	84.88
295.987	76.88
296.217	74.88
296.448	96.88
296.679	80.88
296.909	74.88
297.14	96.88
297.37	93.88
297.601	84.88
297.831	90.88
298.062	94.88
298.292	85.88
298.523	89.88
298.753	92.88
298.984	80.88
299.214	96.88
299.445	94.88
299.675	92.88
299.905	92.88
300.136	84.88
300.366	102.88
300.597	88.88
300.827	88.88
301.057	86.88
301.288	90.88
301.518	96.88
301.748	98.88
301.979	110.88
302.209	89.88
302.439	95.88
302.669	89.88
302.9	96.88
303.13	93.88
303.36	88.88
303.59	105.88
303.82	89.88
304.051	90.88
304.281	92.88
304.511	104.88
304.741	91.88
304.971	78.88
305.201	75.88
305.431	74.88
305.661	82.88
305.891	85.88
306.121	97.88
306.352	92.88
306.582	81.88
306.812	92.88
307.042	94.88
307.272	91.88
307.502	90.88
307.731	101.88
307.961	80.88
308.191	88.88
308.421	97.88
308.651	86.88
308.881	97.88
309.111	89.88
309.341	87.88
309.571	88.88
309.8	90.88
310.03	97.88
310.26	96.88
310.49	98.88
310.72	96.88
310.949	93.88
311.179	86.88
311.409	87.88
311.639	85.88
311.868	86.88
312.098	103.88
312.328	105.88
312.557	90.88
312.787	88.88
313.017	91.88
313.246	101.88
313.476	79.88
313.706	89.88
313.935	100.88
314.165	91.88
314.394	98.88
314.624	92.88
314.853	96.88
315.083	86.88
315.312	88.88
315.542	95.88
315.771	93.88
316.001	83.88
316.23	87.88
316.46	95.88
316.689	93.88
316.919	80.88
317.148	85.88
317.377	84.88
317.607	94.88
317.836	97.88
318.065	86.88
318.295	80.88
318.524	84.88
318.753	106.88
318.983	81.88
319.212	83.88
319.441	102.88
319.67	82.88
319.9	82.88
320.129	83.88
320.358	94.88
320.587	94.88
320.816	77.88
321.046	92.88
321.275	79.88
321.504	96.88
321.733	80.88
321.962	79.88
322.191	99.88
322.42	90.88
322.649	90.88
322.878	93.88
323.108	84.88
323.337	74.88
323.566	102.88
323.795	90.88
324.024	92.88
324.253	86.88
324.482	94.88
324.71	93.88
324.939	103.88
325.168	97.88
325.397	88.88
325.626	101.88
325.855	107.88
326.084	96.88
326.313	95.88
326.542	90.88
326.77	101.88
326.999	108.88
327.228	94.88
327.457	91.88
327.686	95.88
327.914	83.88
328.143	90.88
328.372	94.88
328.6	88.88
328.829	106.88
329.058	82.88
329.287	93.88
329.515	92.88
329.744	95.88
329.972	80.88
330.201	88.88
330.43	87.88
330.658	80.88
330.887	91.88
331.115	101.88
331.344	86.88
331.572	99.88
331.801	88.88
332.03	94.88
332.258	101.88
332.486	92.88
332.715	96.88
332.943	93.88
333.172	88.88
333.4	91.88
333.629	89.88
333.857	97.88
334.085	95.88
334.314	97.88
334.542	94.88
334.771	96.88
334.999	110.88
335.227	96.88
335.455	89.88
335.684	97.88
335.912	89.88
336.14	84.88
336.369	100.88
336.597	95.88
336.825	109.88
337.053	78.88
337.281	104.88
337.51	97.88
337.738	96.88
337.966	102.88
338.194	106.88
338.422	96.88
338.65	91.88
338.878	102.88
339.106	94.88
339.334	96.88
339.562	89.88
339.79	93.88
340.018	89.88
340.246	90.88
340.474	103.88
340.702	105.88
340.93	94.88
341.158	77.88
341.386	82.88
341.614	102.88
341.842	89.88
342.07	95.88
342.298	80.88
342.526	102.88
342.754	96.88
342.981	96.88
343.209	102.88
343.437	86.88
343.665	85.88
343.893	88.88
344.12	101.88
344.348	113.88
344.576	97.88
344.804	93.88
345.031	86.88
345.259	111.88
345.487	108.88
345.714	71.88
345.942	88.88
346.17	94.88
346.397	97.88
346.625	91.88
346.853	90.88
347.08	73.88
347.308	99.88
347.535	88.88
347.763	80.88
347.99	85.88
348.218	97.88
348.445	96.88
348.673	81.88
348.9	111.88
349.128	91.88
349.355	90.88
349.583	103.88
349.81	91.88
350.037	80.88
350.265	95.88
350.492	81.88
350.72	85.88
350.947	101.88
351.174	94.88
351.402	100.88
351.629	79.88
351.856	99.88
352.083	84.88
352.311	98.88
352.538	94.88
352.765	92.88
352.992	90.88
353.22	82.88
353.447	102.88
353.674	94.88
353.901	101.88
354.128	88.88
354.355	98.88
354.583	90.88
354.81	100.88
355.037	104.88
355.264	85.88
355.491	95.88
355.718	94.88
355.945	104.88
356.172	92.88
356.399	102.88
356.626	84.88
356.853	90.88
357.08	84.88
357.307	93.88
357.534	85.88
357.761	95.88
357.988	82.88
358.215	94.88
358.441	88.88
358.668	94.88
358.895	92.88
359.122	81.88
359.349	92.88
359.576	103.88
359.802	88.88
360.029	89.88
360.256	83.88
360.483	85.88
360.709	87.88
360.936	105.88
361.163	95.88
361.39	84.88
361.616	101.88
361.843	79.88
362.07	89.88
362.296	70.88
362.523	90.88
362.749	85.88
362.976	88.88
363.203	92.88
363.429	89.88
363.656	87.88
363.882	83.88
364.109	95.88
364.335	81.88
364.562	98.88
364.788	87.88
365.015	93.88
365.241	89.88
365.468	96.88
365.694	99.88
365.92	105.88
366.147	94.88
366.373	99.88
366.599	89.88
366.826	89.88
367.052	88.88
367.278	92.88
367.505	88.88
367.731	92.88
367.957	102.88
368.184	97.88
368.41	87.88
368.636	91.88
368.862	79.88
369.089	102.88
369.315	110.88
369.541	96.88
369.767	82.88
369.993	95.88
370.219	96.88
370.445	91.88
370.672	100.88
370.898	62.88
371.124	97.88
371.35	92.88
371.576	103.88
371.802	95.88
372.028	94.88
372.254	82.88
372.48	82.88
372.706	85.88
372.932	87.88
373.158	106.88
373.384	90.88
373.61	90.88
373.835	90.88
374.061	88.88
374.287	97.88
374.513	106.88
374.739	98.88
374.965	90.88
375.191	101.88
375.416	97.88
375.642	98.88
375.868	88.88
376.094	101.88
376.319	93.88
376.545	80.88
376.771	96.88
376.997	97.88
377.222	89.88
377.448	95.88
377.674	104.88
377.899	82.88
378.125	101.88
378.35	73.88
378.576	100.88
378.802	103.88
379.027	87.88
379.253	91.88
379.478	89.88
379.704	94.88
379.929	84.88
380.155	90.88
380.38	93.88
380.606	85.88
380.831	96.88
381.057	94.88
381.282	90.88
381.507	91.88
381.733	85.88
381.958	98.88
382.184	86.88
382.409	86.88
382.634	102.88
382.86	116.88
383.085	86.88
383.31	93.88
383.535	94.88
383.761	101.88
383.986	92.88
384.211	96.88
384.436	103.88
384.662	93.88
384.887	92.88
385.112	95.88
385.337	84.88
385.562	94.88
385.787	90.88
386.013	96.88
386.238	89.88
386.463	93.88
386.688	88.88
386.913	89.88
387.138	88.88
387.363	98.88
387.588	98.88
387.813	88.88
388.038	90.88
388.263	104.88
388.488	93.88
388.713	86.88
388.938	91.88
389.163	101.88
389.387	94.88
389.612	94.88
389.837	98.88
390.062	88.88
390.287	101.88
390.512	104.88
390.736	96.88
390.961	78.88
391.186	101.88
391.411	101.88
391.636	90.88
391.86	96.88
392.085	92.88
392.31	100.88
392.534	89.88
392.759	110.88
392.984	90.88
393.208	116.88
393.433	90.88
393.658	87.88
393.882	90.88
394.107	88.88
394.331	101.88
394.556	108.88
394.78	97.88
395.005	89.88
395.229	98.88
395.454	108.88
395.678	96.88
395.903	90.88
396.127	83.88
396.352	82.88
396.576	96.88
396.801	87.88
397.025	96.88
397.249	88.88
397.474	81.88
397.698	100.88
397.922	98.88
398.147	102.88
398.371	101.88
398.595	89.88
398.82	104.88
399.044	97.88
399.268	101.88
399.492	111.88
399.717	118.88
399.941	108.88
400.165	101.88
400.389	109.88
400.613	105.88
400.837	118.88
401.062	114.88
401.286	110.88
401.51	93.88
401.734	94.88
401.958	99.88
402.182	96.88
402.406	94.88
402.63	101.88
402.854	97.88
403.078	89.88
403.302	97.88
403.526	115.88
403.75	112.88
403.974	109.88
404.198	102.88
404.422	98.88
404.645	75.88
404.869	94.88
405.093	96.88
405.317	88.88
405.541	94.88
405.765	97.88
405.988	103.88
406.212	107.88
406.436	108.88
406.66	101.88
406.883	98.88
407.107	98.88
407.331	112.88
407.555	100.88
407.778	106.88
408.002	102.88
408.226	98.88
408.449	90.88
408.673	101.88
408.896	94.88
409.12	111.88
409.344	98.88
409.567	93.88
409.791	89.88
410.014	111.88
410.238	102.88
410.461	110.88
410.685	97.88
410.908	89.88
411.132	102.88
411.355	114.88
411.578	110.88
411.802	112.88
412.025	82.88
412.249	101.88
412.472	100.88
412.695	90.88
412.919	100.88
413.142	106.88
413.365	103.88
413.589	74.88
413.812	102.88
414.035	85.88
414.258	82.88
414.482	105.88
414.705	106.88
414.928	101.88
415.151	96.88
415.374	92.88
415.597	95.88
415.821	110.88
416.044	107.88
416.267	97.88
416.49	118.88
416.713	88.88
416.936	105.88
417.159	104.88
417.382	87.88
417.605	98.88
417.828	107.88
418.051	99.88
418.274	96.88
418.497	98.88
418.72	100.88
418.943	95.88
419.166	97.88
419.389	90.88
419.611	95.88
419.834	100.88
420.057	93.88
420.28	93.88
420.503	108.88
420.726	98.88
420.948	108.88
421.171	111.88
421.394	93.88
421.617	85.88
421.839	83.88
422.062	100.88
422.285	108.88
422.507	100.88
422.73	102.88
422.953	98.88
423.175	88.88
423.398	101.88
423.621	89.88
423.843	94.88
424.066	95.88
424.288	97.88
424.511	101.88
424.733	90.88
424.956	100.88
425.178	94.88
425.401	102.88
425.623	92.88
425.846	98.88
426.068	90.88
426.291	104.88
426.513	93.88
426.735	87.88
426.958	88.88
427.18	95.88
427.402	105.88
427.625	81.88
427.847	78.88
428.069	83.88
428.292	88.88
428.514	97.88
428.736	104.88
428.958	94.88
429.181	87.88
429.403	99.88
429.625	97.88
429.847	116.88
430.069	94.88
430.292	101.88
430.514	85.88
430.736	88.88
430.958	90.88
431.18	99.88
431.402	94.88
431.624	85.88
431.846	103.88
432.068	95.88
432.29	102.88
432.512	93.88
432.734	105.88
432.956	98.88
433.178	93.88
433.4	86.88
433.622	95.88
433.844	87.88
434.066	109.88
434.287	87.88
434.509	93.88
434.731	86.88
434.953	98.88
435.175	79.88
435.397	87.88
435.618	94.88
435.84	100.88
436.062	99.88
436.284	98.88
436.505	95.88
436.727	107.88
436.949	91.88
437.17	89.88
437.392	86.88
437.614	88.88
437.835	99.88
438.057	111.88
438.278	90.88
438.5	95.88
438.721	98.88
438.943	93.88
439.165	94.88
439.386	105.88
439.608	95.88
439.829	92.88
440.05	87.88
440.272	92.88
440.493	96.88
440.715	87.88
440.936	96.88
441.158	91.88
441.379	110.88
441.6	89.88
441.822	108.88
442.043	108.88
442.264	109.88
442.486	99.88
442.707	101.88
442.928	94.88
443.149	89.88
443.371	105.88
443.592	104.88
443.813	83.88
444.034	90.88
444.255	83.88
444.476	92.88
444.698	88.88
444.919	97.88
445.14	216.88
445.361	152.88
445.582	94.88
445.803	108.88
446.024	89.88
446.245	109.88
446.466	88.88
446.687	95.88
446.908	95.88
447.129	81.88
447.35	81.88
447.571	98.88
447.792	70.88
448.013	103.88
448.234	111.88
448.455	102.88
448.675	95.88
448.896	85.88
449.117	84.88
449.338	92.88
449.559	109.88
449.779	102.88
450	85.88
450.221	102.88
450.442	78.88
450.662	92.88
450.883	106.88
451.104	94.88
451.324	99.88
451.545	96.88
451.766	94.88
451.986	94.88
452.207	92.88
452.428	88.88
452.648	86.88
452.869	90.88
453.089	84.88
453.31	95.88
453.53	96.88
453.751	101.88
453.971	91.88
454.192	83.88
454.412	87.88
454.633	88.88
454.853	95.88
455.073	79.88
455.294	83.88
455.514	94.88
455.734	98.88
455.955	100.88
456.175	91.88
456.395	98.88
456.616	97.88
456.836	87.88
457.056	96.88
457.276	81.88
457.497	98.88
457.717	96.88
457.937	77.88
458.157	93.88
458.377	76.88
458.598	98.88
458.818	91.88
459.038	84.88
459.258	91.88
459.478	95.88
459.698	84.88
459.918	104.88
460.138	109.88
460.358	94.88
460.578	103.88
460.798	112.88
461.018	108.88
461.238	91.88
461.458	94.88
461.678	94.88
461.898	109.88
462.118	103.88
462.338	126.88
462.558	97.88
462.777	105.88
462.997	101.88
463.217	105.88
463.437	96.88
463.657	89.88
463.876	127.88
464.096	113.88
464.316	95.88
464.536	93.88
464.755	119.88
464.975	103.88
465.195	102.88
465.414	118.88
465.634	92.88
465.854	90.88
466.073	93.88
466.293	96.88
466.512	86.88
466.732	90.88
466.951	89.88
467.171	96.88
467.391	105.88
467.61	101.88
467.829	93.88
468.049	98.88
468.268	92.88
468.488	103.88
468.707	80.88
468.927	94.88
469.146	81.88
469.365	98.88
469.585	94.88
469.804	105.88
470.023	96.88
470.243	101.88
470.462	112.88
470.681	94.88
470.901	117.88
471.12	96.88
471.339	96.88
471.558	91.88
471.777	100.88
471.997	90.88
472.216	90.88
472.435	100.88
472.654	105.88
472.873	87.88
473.092	95.88
473.311	101.88
473.53	93.88
473.749	102.88
473.968	103.88
474.187	98.88
474.406	85.88
474.625	99.88
474.844	94.88
475.063	100.88
475.282	122.88
475.501	101.88
475.72	94.88
475.939	112.88
476.158	96.88
476.377	93.88
476.596	107.88
476.814	104.88
477.033	99.88
477.252	87.88
477.471	106.88
477.69	101.88
477.908	104.88
478.127	119.88
478.346	116.88
478.564	94.88
478.783	102.88
479.002	100.88
479.22	102.88
479.439	97.88
479.658	120.88
479.876	110.88
480.095	124.88
480.313	117.88
480.532	112.88
480.751	94.88
480.969	103.88
481.188	102.88
481.406	92.88
481.624	97.88
481.843	99.88
482.061	101.88
482.28	115.88
482.498	110.88
482.717	89.88
482.935	93.88
483.153	89.88
483.372	95.88
483.59	110.88
483.808	105.88
484.027	109.88
484.245	122.88
484.463	99.88
484.681	101.88
484.9	96.88
485.118	97.88
485.336	104.88
485.554	109.88
485.772	108.88
485.99	93.88
486.209	97.88
486.427	100.88
486.645	103.88
486.863	108.88
487.081	97.88
487.299	105.88
487.517	110.88
487.735	110.88
487.953	90.88
488.171	116.88
488.389	105.88
488.607	116.88
488.825	103.88
489.043	113.88
489.261	97.88
489.479	103.88
489.696	97.88
489.914	102.88
490.132	100.88
490.35	108.88
490.568	107.88
490.786	121.88
491.003	101.88
491.221	119.88
491.439	94.88
491.657	103.88
491.874	102.88
492.092	122.88
492.31	102.88
492.527	120.88
492.745	116.88
492.963	112.88
493.18	110.88
493.398	101.88
493.615	138.88
493.833	110.88
494.05	112.88
494.268	110.88
494.485	101.88
494.703	110.88
494.92	111.88
495.138	106.88
495.355	111.88
495.573	109.88
495.79	112.88
496.008	101.88
496.225	103.88
496.442	107.88
496.66	113.88
496.877	112.88
497.094	117.88
497.312	103.88
497.529	114.88
497.746	118.88
497.963	105.88
498.181	98.88
498.398	118.88
498.615	106.88
498.832	119.88
499.049	122.88
499.267	136.88
499.484	132.88
499.701	131.88
499.918	143.88
500.135	160.88
500.352	177.88
500.569	152.88
500.786	157.88
501.003	161.88
501.22	165.88
501.437	148.88
501.654	121.88
501.871	130.88
502.088	128.88
502.305	121.88
502.522	97.88
502.739	120.88
502.956	120.88
503.172	110.88
503.389	113.88
503.606	121.88
503.823	105.88
504.04	118.88
504.256	118.88
504.473	98.88
504.69	114.88
504.907	114.88
505.123	112.88
505.34	119.88
505.557	110.88
505.773	100.88
505.99	112.88
506.207	118.88
506.423	86.88
506.64	108.88
506.856	124.88
507.073	107.88
507.289	112.88
507.506	98.88
507.722	95.88
507.939	101.88
508.155	97.88
508.372	97.88
508.588	108.88
508.805	94.88
509.021	104.88
509.238	87.88
509.454	89.88
509.67	117.88
509.887	113.88
510.103	113.88
510.319	98.88
510.536	98.88
510.752	91.88
510.968	93.88
511.184	88.88
511.401	96.88
511.617	104.88
511.833	83.88
512.049	105.88
512.265	107.88
512.481	95.88
512.698	108.88
512.914	101.88
513.13	98.88
513.346	97.88
513.562	99.88
513.778	108.88
513.994	104.88
514.21	96.88
514.426	100.88
514.642	94.88
