Data from Location5.07152019.Energy5.Lamp.07192019.3%Agarose_HRD10591_16-04-36-629.txt Node
Date: Fri Jul 19 16:04:36 EDT 2019
User: cochatt
Spectrometer: HR+D1059
Trigger mode: 1
Integration Time (sec): 1.000000E-1
Scans to average: 1
Electric dark correction enabled: true
Nonlinearity correction enabled: false
Boxcar width: 0
XAxis mode: Wavelengths
Number of Pixels in Spectrum: 2048
>>>>>Begin Spectral Data<<<<<
223.165	-25.88
223.4	-25.88
223.635	-25.88
223.869	-6.88
224.104	-21.88
224.338	-8.88
224.573	0.12
224.808	-15.88
225.042	-10.88
225.277	-1.88
225.511	3.12
225.746	-4.88
225.98	6.12
226.215	13.12
226.449	12.12
226.683	15.12
226.918	29.12
227.152	18.12
227.387	33.12
227.621	28.12
227.856	39.12
228.09	45.12
228.324	56.12
228.559	48.12
228.793	53.12
229.027	64.12
229.262	55.12
229.496	58.12
229.73	65.12
229.964	67.12
230.199	84.12
230.433	75.12
230.667	65.12
230.901	83.12
231.136	82.12
231.37	81.12
231.604	77.12
231.838	82.12
232.072	78.12
232.306	83.12
232.541	75.12
232.775	76.12
233.009	77.12
233.243	90.12
233.477	84.12
233.711	77.12
233.945	70.12
234.179	80.12
234.413	82.12
234.647	81.12
234.881	79.12
235.115	83.12
235.349	79.12
235.583	78.12
235.817	79.12
236.051	62.12
236.285	66.12
236.519	82.12
236.753	72.12
236.987	84.12
237.221	77.12
237.455	69.12
237.689	76.12
237.922	69.12
238.156	66.12
238.39	82.12
238.624	81.12
238.858	75.12
239.091	70.12
239.325	68.12
239.559	67.12
239.793	72.12
240.027	92.12
240.26	78.12
240.494	77.12
240.728	83.12
240.961	75.12
241.195	78.12
241.429	70.12
241.662	71.12
241.896	64.12
242.13	64.12
242.363	74.12
242.597	74.12
242.83	80.12
243.064	79.12
243.298	73.12
243.531	79.12
243.765	73.12
243.998	78.12
244.232	74.12
244.465	84.12
244.699	70.12
244.932	82.12
245.166	84.12
245.399	86.12
245.633	77.12
245.866	76.12
246.099	80.12
246.333	67.12
246.566	76.12
246.8	82.12
247.033	80.12
247.266	83.12
247.5	75.12
247.733	76.12
247.966	82.12
248.2	75.12
248.433	99.12
248.666	77.12
248.899	83.12
249.133	83.12
249.366	98.12
249.599	78.12
249.832	77.12
250.066	85.12
250.299	85.12
250.532	77.12
250.765	76.12
250.998	66.12
251.231	82.12
251.465	73.12
251.698	65.12
251.931	91.12
252.164	72.12
252.397	65.12
252.63	83.12
252.863	79.12
253.096	85.12
253.329	82.12
253.562	78.12
253.795	76.12
254.028	87.12
254.261	80.12
254.494	78.12
254.727	92.12
254.96	86.12
255.193	85.12
255.426	73.12
255.659	76.12
255.892	79.12
256.124	71.12
256.357	84.12
256.59	82.12
256.823	67.12
257.056	70.12
257.289	82.12
257.521	72.12
257.754	83.12
257.987	79.12
258.22	94.12
258.452	83.12
258.685	84.12
258.918	71.12
259.151	67.12
259.383	77.12
259.616	88.12
259.849	78.12
260.081	90.12
260.314	82.12
260.547	76.12
260.779	78.12
261.012	75.12
261.244	94.12
261.477	105.12
261.71	80.12
261.942	82.12
262.175	80.12
262.407	89.12
262.64	76.12
262.872	82.12
263.105	85.12
263.337	76.12
263.57	72.12
263.802	87.12
264.035	54.12
264.267	69.12
264.499	85.12
264.732	96.12
264.964	87.12
265.197	82.12
265.429	95.12
265.661	80.12
265.894	87.12
266.126	86.12
266.358	91.12
266.591	75.12
266.823	80.12
267.055	94.12
267.287	93.12
267.52	95.12
267.752	96.12
267.984	78.12
268.216	85.12
268.448	87.12
268.681	85.12
268.913	94.12
269.145	85.12
269.377	102.12
269.609	68.12
269.841	87.12
270.073	82.12
270.306	83.12
270.538	70.12
270.77	90.12
271.002	62.12
271.234	79.12
271.466	87.12
271.698	67.12
271.93	78.12
272.162	101.12
272.394	88.12
272.626	74.12
272.858	78.12
273.09	82.12
273.322	83.12
273.553	88.12
273.785	90.12
274.017	85.12
274.249	70.12
274.481	95.12
274.713	78.12
274.945	92.12
275.176	72.12
275.408	81.12
275.64	80.12
275.872	70.12
276.104	80.12
276.335	83.12
276.567	90.12
276.799	93.12
277.031	79.12
277.262	82.12
277.494	81.12
277.726	94.12
277.957	87.12
278.189	72.12
278.421	86.12
278.652	83.12
278.884	82.12
279.115	110.12
279.347	95.12
279.579	78.12
279.81	90.12
280.042	80.12
280.273	80.12
280.505	82.12
280.736	88.12
280.968	81.12
281.199	78.12
281.431	80.12
281.662	86.12
281.894	90.12
282.125	93.12
282.356	91.12
282.588	88.12
282.819	80.12
283.051	88.12
283.282	81.12
283.513	84.12
283.745	82.12
283.976	78.12
284.207	89.12
284.439	86.12
284.67	94.12
284.901	96.12
285.132	95.12
285.364	87.12
285.595	82.12
285.826	85.12
286.057	84.12
286.288	79.12
286.52	92.12
286.751	92.12
286.982	86.12
287.213	77.12
287.444	85.12
287.675	86.12
287.906	83.12
288.138	101.12
288.369	85.12
288.6	94.12
288.831	80.12
289.062	106.12
289.293	100.12
289.524	96.12
289.755	90.12
289.986	90.12
290.217	87.12
290.448	81.12
290.679	78.12
290.91	82.12
291.141	94.12
291.371	87.12
291.602	96.12
291.833	91.12
292.064	94.12
292.295	107.12
292.526	98.12
292.757	95.12
292.987	86.12
293.218	86.12
293.449	76.12
293.68	92.12
293.91	98.12
294.141	90.12
294.372	70.12
294.603	96.12
294.833	91.12
295.064	86.12
295.295	91.12
295.525	101.12
295.756	87.12
295.987	94.12
296.217	79.12
296.448	83.12
296.679	91.12
296.909	88.12
297.14	93.12
297.37	100.12
297.601	81.12
297.831	93.12
298.062	83.12
298.292	92.12
298.523	94.12
298.753	92.12
298.984	71.12
299.214	90.12
299.445	73.12
299.675	92.12
299.905	84.12
300.136	85.12
300.366	94.12
300.597	90.12
300.827	95.12
301.057	90.12
301.288	95.12
301.518	101.12
301.748	94.12
301.979	96.12
302.209	95.12
302.439	77.12
302.669	70.12
302.9	86.12
303.13	93.12
303.36	110.12
303.59	93.12
303.82	88.12
304.051	87.12
304.281	89.12
304.511	82.12
304.741	87.12
304.971	90.12
305.201	87.12
305.431	99.12
305.661	87.12
305.891	88.12
306.121	79.12
306.352	82.12
306.582	90.12
306.812	81.12
307.042	82.12
307.272	92.12
307.502	93.12
307.731	77.12
307.961	82.12
308.191	85.12
308.421	78.12
308.651	90.12
308.881	93.12
309.111	87.12
309.341	84.12
309.571	84.12
309.8	82.12
310.03	86.12
310.26	101.12
310.49	92.12
310.72	83.12
310.949	78.12
311.179	98.12
311.409	90.12
311.639	87.12
311.868	96.12
312.098	87.12
312.328	81.12
312.557	91.12
312.787	88.12
313.017	96.12
313.246	107.12
313.476	76.12
313.706	99.12
313.935	93.12
314.165	89.12
314.394	91.12
314.624	81.12
314.853	88.12
315.083	106.12
315.312	76.12
315.542	85.12
315.771	82.12
316.001	95.12
316.23	84.12
316.46	87.12
316.689	78.12
316.919	88.12
317.148	92.12
317.377	77.12
317.607	91.12
317.836	73.12
318.065	93.12
318.295	80.12
318.524	79.12
318.753	84.12
318.983	88.12
319.212	86.12
319.441	96.12
319.67	85.12
319.9	94.12
320.129	73.12
320.358	88.12
320.587	68.12
320.816	98.12
321.046	90.12
321.275	88.12
321.504	87.12
321.733	86.12
321.962	93.12
322.191	86.12
322.42	82.12
322.649	99.12
322.878	87.12
323.108	90.12
323.337	91.12
323.566	79.12
323.795	90.12
324.024	85.12
324.253	92.12
324.482	72.12
324.71	79.12
324.939	97.12
325.168	77.12
325.397	76.12
325.626	89.12
325.855	92.12
326.084	97.12
326.313	90.12
326.542	70.12
326.77	71.12
326.999	82.12
327.228	79.12
327.457	91.12
327.686	91.12
327.914	89.12
328.143	85.12
328.372	89.12
328.6	87.12
328.829	95.12
329.058	90.12
329.287	77.12
329.515	98.12
329.744	92.12
329.972	89.12
330.201	93.12
330.43	100.12
330.658	88.12
330.887	96.12
331.115	84.12
331.344	101.12
331.572	91.12
331.801	80.12
332.03	94.12
332.258	86.12
332.486	95.12
332.715	85.12
332.943	92.12
333.172	81.12
333.4	94.12
333.629	101.12
333.857	86.12
334.085	91.12
334.314	95.12
334.542	92.12
334.771	90.12
334.999	98.12
335.227	86.12
335.455	88.12
335.684	95.12
335.912	92.12
336.14	90.12
336.369	85.12
336.597	98.12
336.825	82.12
337.053	83.12
337.281	100.12
337.51	84.12
337.738	78.12
337.966	77.12
338.194	84.12
338.422	96.12
338.65	92.12
338.878	85.12
339.106	94.12
339.334	110.12
339.562	81.12
339.79	89.12
340.018	88.12
340.246	88.12
340.474	79.12
340.702	91.12
340.93	91.12
341.158	83.12
341.386	89.12
341.614	88.12
341.842	91.12
342.07	83.12
342.298	89.12
342.526	86.12
342.754	86.12
342.981	95.12
343.209	90.12
343.437	83.12
343.665	85.12
343.893	103.12
344.12	99.12
344.348	93.12
344.576	97.12
344.804	92.12
345.031	82.12
345.259	87.12
345.487	94.12
345.714	92.12
345.942	102.12
346.17	89.12
346.397	91.12
346.625	92.12
346.853	83.12
347.08	93.12
347.308	75.12
347.535	83.12
347.763	84.12
347.99	81.12
348.218	84.12
348.445	86.12
348.673	96.12
348.9	83.12
349.128	92.12
349.355	76.12
349.583	82.12
349.81	83.12
350.037	70.12
350.265	100.12
350.492	94.12
350.72	77.12
350.947	80.12
351.174	82.12
351.402	80.12
351.629	80.12
351.856	91.12
352.083	85.12
352.311	72.12
352.538	87.12
352.765	106.12
352.992	93.12
353.22	93.12
353.447	84.12
353.674	78.12
353.901	84.12
354.128	92.12
354.355	87.12
354.583	93.12
354.81	96.12
355.037	97.12
355.264	76.12
355.491	95.12
355.718	87.12
355.945	90.12
356.172	101.12
356.399	88.12
356.626	95.12
356.853	83.12
357.08	82.12
357.307	103.12
357.534	96.12
357.761	89.12
357.988	87.12
358.215	87.12
358.441	88.12
358.668	95.12
358.895	84.12
359.122	90.12
359.349	79.12
359.576	82.12
359.802	86.12
360.029	80.12
360.256	80.12
360.483	82.12
360.709	99.12
360.936	100.12
361.163	106.12
361.39	84.12
361.616	88.12
361.843	81.12
362.07	96.12
362.296	90.12
362.523	74.12
362.749	85.12
362.976	78.12
363.203	89.12
363.429	82.12
363.656	88.12
363.882	87.12
364.109	103.12
364.335	84.12
364.562	82.12
364.788	82.12
365.015	83.12
365.241	76.12
365.468	92.12
365.694	86.12
365.92	98.12
366.147	86.12
366.373	84.12
366.599	86.12
366.826	103.12
367.052	86.12
367.278	84.12
367.505	74.12
367.731	79.12
367.957	98.12
368.184	87.12
368.41	94.12
368.636	99.12
368.862	113.12
369.089	76.12
369.315	86.12
369.541	96.12
369.767	94.12
369.993	87.12
370.219	62.12
370.445	92.12
370.672	85.12
370.898	104.12
371.124	81.12
371.35	96.12
371.576	102.12
371.802	97.12
372.028	85.12
372.254	85.12
372.48	83.12
372.706	99.12
372.932	94.12
373.158	77.12
373.384	80.12
373.61	89.12
373.835	96.12
374.061	79.12
374.287	97.12
374.513	76.12
374.739	78.12
374.965	101.12
375.191	94.12
375.416	93.12
375.642	104.12
375.868	106.12
376.094	78.12
376.319	87.12
376.545	86.12
376.771	85.12
376.997	92.12
377.222	81.12
377.448	91.12
377.674	90.12
377.899	79.12
378.125	90.12
378.35	90.12
378.576	82.12
378.802	86.12
379.027	83.12
379.253	88.12
379.478	84.12
379.704	87.12
379.929	102.12
380.155	87.12
380.38	82.12
380.606	84.12
380.831	87.12
381.057	88.12
381.282	81.12
381.507	87.12
381.733	102.12
381.958	87.12
382.184	83.12
382.409	84.12
382.634	101.12
382.86	79.12
383.085	99.12
383.31	82.12
383.535	84.12
383.761	88.12
383.986	80.12
384.211	79.12
384.436	78.12
384.662	83.12
384.887	75.12
385.112	84.12
385.337	95.12
385.562	83.12
385.787	75.12
386.013	90.12
386.238	85.12
386.463	93.12
386.688	91.12
386.913	85.12
387.138	76.12
387.363	98.12
387.588	96.12
387.813	100.12
388.038	103.12
388.263	103.12
388.488	97.12
388.713	78.12
388.938	79.12
389.163	73.12
389.387	96.12
389.612	81.12
389.837	92.12
390.062	96.12
390.287	99.12
390.512	97.12
390.736	93.12
390.961	98.12
391.186	91.12
391.411	83.12
391.636	89.12
391.86	102.12
392.085	89.12
392.31	98.12
392.534	95.12
392.759	95.12
392.984	91.12
393.208	86.12
393.433	75.12
393.658	92.12
393.882	97.12
394.107	90.12
394.331	89.12
394.556	79.12
394.78	91.12
395.005	83.12
395.229	84.12
395.454	99.12
395.678	90.12
395.903	82.12
396.127	91.12
396.352	100.12
396.576	84.12
396.801	105.12
397.025	92.12
397.249	87.12
397.474	84.12
397.698	95.12
397.922	82.12
398.147	80.12
398.371	99.12
398.595	84.12
398.82	92.12
399.044	98.12
399.268	102.12
399.492	84.12
399.717	87.12
399.941	97.12
400.165	103.12
400.389	96.12
400.613	74.12
400.837	89.12
401.062	94.12
401.286	89.12
401.51	97.12
401.734	86.12
401.958	88.12
402.182	97.12
402.406	79.12
402.63	87.12
402.854	99.12
403.078	100.12
403.302	85.12
403.526	87.12
403.75	116.12
403.974	94.12
404.198	107.12
404.422	99.12
404.645	99.12
404.869	82.12
405.093	87.12
405.317	80.12
405.541	109.12
405.765	83.12
405.988	98.12
406.212	92.12
406.436	94.12
406.66	100.12
406.883	82.12
407.107	94.12
407.331	90.12
407.555	97.12
407.778	84.12
408.002	105.12
408.226	90.12
408.449	103.12
408.673	94.12
408.896	83.12
409.12	93.12
409.344	85.12
409.567	90.12
409.791	98.12
410.014	99.12
410.238	86.12
410.461	91.12
410.685	84.12
410.908	96.12
411.132	86.12
411.355	93.12
411.578	91.12
411.802	96.12
412.025	87.12
412.249	99.12
412.472	98.12
412.695	107.12
412.919	103.12
413.142	106.12
413.365	102.12
413.589	91.12
413.812	87.12
414.035	101.12
414.258	99.12
414.482	88.12
414.705	87.12
414.928	85.12
415.151	87.12
415.374	93.12
415.597	88.12
415.821	96.12
416.044	84.12
416.267	97.12
416.49	83.12
416.713	84.12
416.936	92.12
417.159	85.12
417.382	93.12
417.605	83.12
417.828	96.12
418.051	99.12
418.274	82.12
418.497	94.12
418.72	82.12
418.943	97.12
419.166	86.12
419.389	100.12
419.611	114.12
419.834	97.12
420.057	99.12
420.28	88.12
420.503	85.12
420.726	86.12
420.948	80.12
421.171	90.12
421.394	92.12
421.617	78.12
421.839	101.12
422.062	85.12
422.285	90.12
422.507	75.12
422.73	79.12
422.953	89.12
423.175	89.12
423.398	91.12
423.621	89.12
423.843	96.12
424.066	84.12
424.288	95.12
424.511	107.12
424.733	100.12
424.956	74.12
425.178	101.12
425.401	93.12
425.623	88.12
425.846	101.12
426.068	91.12
426.291	90.12
426.513	97.12
426.735	93.12
426.958	98.12
427.18	83.12
427.402	82.12
427.625	90.12
427.847	86.12
428.069	84.12
428.292	92.12
428.514	84.12
428.736	98.12
428.958	87.12
429.181	83.12
429.403	87.12
429.625	100.12
429.847	68.12
430.069	84.12
430.292	96.12
430.514	100.12
430.736	86.12
430.958	96.12
431.18	96.12
431.402	86.12
431.624	75.12
431.846	77.12
432.068	82.12
432.29	94.12
432.512	96.12
432.734	92.12
432.956	91.12
433.178	94.12
433.4	80.12
433.622	80.12
433.844	102.12
434.066	103.12
434.287	87.12
434.509	93.12
434.731	87.12
434.953	98.12
435.175	95.12
435.397	99.12
435.618	95.12
435.84	99.12
436.062	92.12
436.284	91.12
436.505	90.12
436.727	84.12
436.949	83.12
437.17	79.12
437.392	86.12
437.614	82.12
437.835	83.12
438.057	84.12
438.278	73.12
438.5	87.12
438.721	93.12
438.943	107.12
439.165	87.12
439.386	86.12
439.608	91.12
439.829	83.12
440.05	94.12
440.272	85.12
440.493	83.12
440.715	90.12
440.936	100.12
441.158	92.12
441.379	82.12
441.6	94.12
441.822	91.12
442.043	88.12
442.264	90.12
442.486	93.12
442.707	92.12
442.928	86.12
443.149	88.12
443.371	87.12
443.592	98.12
443.813	93.12
444.034	91.12
444.255	83.12
444.476	98.12
444.698	105.12
444.919	96.12
445.14	229.12
445.361	136.12
445.582	97.12
445.803	91.12
446.024	80.12
446.245	103.12
446.466	109.12
446.687	78.12
446.908	87.12
447.129	89.12
447.35	95.12
447.571	103.12
447.792	79.12
448.013	86.12
448.234	78.12
448.455	86.12
448.675	82.12
448.896	81.12
449.117	82.12
449.338	69.12
449.559	90.12
449.779	90.12
450	85.12
450.221	85.12
450.442	74.12
450.662	97.12
450.883	80.12
451.104	82.12
451.324	83.12
451.545	87.12
451.766	84.12
451.986	83.12
452.207	92.12
452.428	93.12
452.648	88.12
452.869	79.12
453.089	90.12
453.31	88.12
453.53	98.12
453.751	97.12
453.971	72.12
454.192	78.12
454.412	87.12
454.633	93.12
454.853	102.12
455.073	82.12
455.294	84.12
455.514	88.12
455.734	92.12
455.955	91.12
456.175	95.12
456.395	99.12
456.616	93.12
456.836	83.12
457.056	80.12
457.276	76.12
457.497	84.12
457.717	83.12
457.937	99.12
458.157	80.12
458.377	75.12
458.598	73.12
458.818	95.12
459.038	76.12
459.258	86.12
459.478	80.12
459.698	66.12
459.918	78.12
460.138	96.12
460.358	99.12
460.578	83.12
460.798	111.12
461.018	89.12
461.238	97.12
461.458	95.12
461.678	99.12
461.898	106.12
462.118	101.12
462.338	87.12
462.558	93.12
462.777	98.12
462.997	110.12
463.217	101.12
463.437	103.12
463.657	117.12
463.876	101.12
464.096	98.12
464.316	88.12
464.536	102.12
464.755	91.12
464.975	90.12
465.195	99.12
465.414	81.12
465.634	84.12
465.854	98.12
466.073	96.12
466.293	81.12
466.512	81.12
466.732	85.12
466.951	82.12
467.171	93.12
467.391	85.12
467.61	101.12
467.829	93.12
468.049	91.12
468.268	96.12
468.488	80.12
468.707	94.12
468.927	93.12
469.146	89.12
469.365	97.12
469.585	97.12
469.804	90.12
470.023	86.12
470.243	92.12
470.462	92.12
470.681	97.12
470.901	105.12
471.12	82.12
471.339	78.12
471.558	92.12
471.777	94.12
471.997	99.12
472.216	91.12
472.435	87.12
472.654	86.12
472.873	85.12
473.092	82.12
473.311	110.12
473.53	91.12
473.749	91.12
473.968	91.12
474.187	87.12
474.406	96.12
474.625	83.12
474.844	95.12
475.063	92.12
475.282	97.12
475.501	92.12
475.72	108.12
475.939	88.12
476.158	100.12
476.377	95.12
476.596	93.12
476.814	98.12
477.033	91.12
477.252	106.12
477.471	82.12
477.69	87.12
477.908	87.12
478.127	85.12
478.346	104.12
478.564	92.12
478.783	97.12
479.002	95.12
479.22	104.12
479.439	106.12
479.658	86.12
479.876	95.12
480.095	107.12
480.313	103.12
480.532	108.12
480.751	94.12
480.969	85.12
481.188	101.12
481.406	86.12
481.624	90.12
481.843	106.12
482.061	83.12
482.28	95.12
482.498	93.12
482.717	95.12
482.935	95.12
483.153	95.12
483.372	84.12
483.59	84.12
483.808	94.12
484.027	95.12
484.245	105.12
484.463	83.12
484.681	112.12
484.9	101.12
485.118	101.12
485.336	92.12
485.554	103.12
485.772	99.12
485.99	95.12
486.209	95.12
486.427	98.12
486.645	86.12
486.863	80.12
487.081	92.12
487.299	97.12
487.517	99.12
487.735	93.12
487.953	107.12
488.171	91.12
488.389	100.12
488.607	110.12
488.825	78.12
489.043	103.12
489.261	98.12
489.479	92.12
489.696	98.12
489.914	96.12
490.132	96.12
490.35	119.12
490.568	86.12
490.786	113.12
491.003	112.12
491.221	102.12
491.439	110.12
491.657	102.12
491.874	112.12
492.092	107.12
492.31	119.12
492.527	116.12
492.745	114.12
492.963	115.12
493.18	101.12
493.398	115.12
493.615	114.12
493.833	100.12
494.05	109.12
494.268	113.12
494.485	118.12
494.703	122.12
494.92	106.12
495.138	95.12
495.355	110.12
495.573	114.12
495.79	100.12
496.008	104.12
496.225	111.12
496.442	95.12
496.66	116.12
496.877	90.12
497.094	106.12
497.312	89.12
497.529	105.12
497.746	99.12
497.963	91.12
498.181	98.12
498.398	112.12
498.615	103.12
498.832	111.12
499.049	106.12
499.267	117.12
499.484	123.12
499.701	136.12
499.918	133.12
500.135	149.12
500.352	146.12
500.569	160.12
500.786	157.12
501.003	143.12
501.22	132.12
501.437	126.12
501.654	123.12
501.871	133.12
502.088	116.12
502.305	111.12
502.522	128.12
502.739	112.12
502.956	103.12
503.172	110.12
503.389	117.12
503.606	106.12
503.823	108.12
504.04	102.12
504.256	98.12
504.473	111.12
504.69	113.12
504.907	118.12
505.123	110.12
505.34	99.12
505.557	106.12
505.773	95.12
505.99	102.12
506.207	100.12
506.423	95.12
506.64	90.12
506.856	108.12
507.073	99.12
507.289	99.12
507.506	93.12
507.722	85.12
507.939	99.12
508.155	102.12
508.372	100.12
508.588	120.12
508.805	99.12
509.021	110.12
509.238	90.12
509.454	93.12
509.67	79.12
509.887	96.12
510.103	100.12
510.319	100.12
510.536	108.12
510.752	95.12
510.968	90.12
511.184	103.12
511.401	87.12
511.617	84.12
511.833	81.12
512.049	98.12
512.265	90.12
512.481	103.12
512.698	99.12
512.914	94.12
513.13	100.12
513.346	95.12
513.562	95.12
513.778	104.12
513.994	110.12
514.21	79.12
514.426	95.12
514.642	98.12
514.858	95.12
515.074	95.12
515.29	101.12
515.506	93.12
515.721	87.12
515.937	108.12
516.153	79.12
516.369	87.12
516.585	95.12
516.801	101.12
