Data from Location5.07152019.Energy5.Lamp.07192019.3%Agarose_HRD10591_15-38-33-389.txt Node
Date: Fri Jul 19 15:38:33 EDT 2019
User: cochatt
Spectrometer: HR+D1059
Trigger mode: 1
Integration Time (sec): 1.000000E-1
Scans to average: 1
Electric dark correction enabled: true
Nonlinearity correction enabled: false
Boxcar width: 0
XAxis mode: Wavelengths
Number of Pixels in Spectrum: 2048
>>>>>Begin Spectral Data<<<<<
223.165	-7.69
223.4	-7.69
223.635	-7.69
223.869	0.31
224.104	-27.69
224.338	-22.69
224.573	-14.69
224.808	0.31
225.042	-5.69
225.277	-0.69
225.511	-12.69
225.746	15.31
225.98	8.31
226.215	8.31
226.449	3.31
226.683	19.31
226.918	21.31
227.152	15.31
227.387	24.31
227.621	40.31
227.856	37.31
228.09	35.31
228.324	55.31
228.559	55.31
228.793	64.31
229.027	49.31
229.262	62.31
229.496	67.31
229.73	77.31
229.964	75.31
230.199	64.31
230.433	62.31
230.667	69.31
230.901	88.31
231.136	85.31
231.37	80.31
231.604	80.31
231.838	83.31
232.072	68.31
232.306	91.31
232.541	81.31
232.775	94.31
233.009	67.31
233.243	76.31
233.477	84.31
233.711	95.31
233.945	83.31
234.179	78.31
234.413	69.31
234.647	89.31
234.881	81.31
235.115	85.31
235.349	72.31
235.583	84.31
235.817	70.31
236.051	77.31
236.285	84.31
236.519	78.31
236.753	71.31
236.987	68.31
237.221	76.31
237.455	89.31
237.689	64.31
237.922	80.31
238.156	78.31
238.39	89.31
238.624	81.31
238.858	69.31
239.091	91.31
239.325	77.31
239.559	75.31
239.793	69.31
240.027	75.31
240.26	70.31
240.494	85.31
240.728	79.31
240.961	96.31
241.195	78.31
241.429	75.31
241.662	65.31
241.896	88.31
242.13	66.31
242.363	85.31
242.597	62.31
242.83	73.31
243.064	84.31
243.298	75.31
243.531	81.31
243.765	69.31
243.998	91.31
244.232	86.31
244.465	77.31
244.699	80.31
244.932	85.31
245.166	62.31
245.399	70.31
245.633	84.31
245.866	84.31
246.099	85.31
246.333	80.31
246.566	80.31
246.8	75.31
247.033	81.31
247.266	73.31
247.5	72.31
247.733	83.31
247.966	88.31
248.2	88.31
248.433	85.31
248.666	97.31
248.899	94.31
249.133	73.31
249.366	86.31
249.599	84.31
249.832	81.31
250.066	71.31
250.299	85.31
250.532	84.31
250.765	84.31
250.998	80.31
251.231	80.31
251.465	64.31
251.698	72.31
251.931	90.31
252.164	94.31
252.397	87.31
252.63	75.31
252.863	71.31
253.096	66.31
253.329	74.31
253.562	86.31
253.795	79.31
254.028	90.31
254.261	79.31
254.494	72.31
254.727	82.31
254.96	78.31
255.193	75.31
255.426	80.31
255.659	91.31
255.892	86.31
256.124	83.31
256.357	78.31
256.59	84.31
256.823	87.31
257.056	83.31
257.289	77.31
257.521	84.31
257.754	82.31
257.987	83.31
258.22	81.31
258.452	75.31
258.685	76.31
258.918	80.31
259.151	84.31
259.383	86.31
259.616	87.31
259.849	93.31
260.081	85.31
260.314	78.31
260.547	90.31
260.779	69.31
261.012	76.31
261.244	72.31
261.477	87.31
261.71	88.31
261.942	69.31
262.175	88.31
262.407	83.31
262.64	88.31
262.872	102.31
263.105	81.31
263.337	82.31
263.57	82.31
263.802	70.31
264.035	94.31
264.267	81.31
264.499	90.31
264.732	99.31
264.964	88.31
265.197	82.31
265.429	99.31
265.661	80.31
265.894	75.31
266.126	77.31
266.358	74.31
266.591	76.31
266.823	84.31
267.055	75.31
267.287	86.31
267.52	91.31
267.752	88.31
267.984	90.31
268.216	94.31
268.448	79.31
268.681	80.31
268.913	77.31
269.145	81.31
269.377	77.31
269.609	91.31
269.841	83.31
270.073	73.31
270.306	68.31
270.538	77.31
270.77	81.31
271.002	83.31
271.234	82.31
271.466	85.31
271.698	77.31
271.93	92.31
272.162	93.31
272.394	85.31
272.626	84.31
272.858	84.31
273.09	84.31
273.322	90.31
273.553	83.31
273.785	98.31
274.017	90.31
274.249	81.31
274.481	82.31
274.713	85.31
274.945	86.31
275.176	75.31
275.408	95.31
275.64	78.31
275.872	87.31
276.104	67.31
276.335	88.31
276.567	75.31
276.799	74.31
277.031	79.31
277.262	79.31
277.494	73.31
277.726	69.31
277.957	78.31
278.189	93.31
278.421	77.31
278.652	75.31
278.884	86.31
279.115	66.31
279.347	78.31
279.579	82.31
279.81	86.31
280.042	83.31
280.273	85.31
280.505	81.31
280.736	99.31
280.968	84.31
281.199	82.31
281.431	79.31
281.662	85.31
281.894	85.31
282.125	69.31
282.356	89.31
282.588	74.31
282.819	82.31
283.051	97.31
283.282	80.31
283.513	92.31
283.745	74.31
283.976	83.31
284.207	83.31
284.439	74.31
284.67	97.31
284.901	93.31
285.132	85.31
285.364	86.31
285.595	88.31
285.826	86.31
286.057	87.31
286.288	77.31
286.52	90.31
286.751	82.31
286.982	70.31
287.213	77.31
287.444	101.31
287.675	85.31
287.906	75.31
288.138	80.31
288.369	89.31
288.6	85.31
288.831	83.31
289.062	86.31
289.293	87.31
289.524	96.31
289.755	83.31
289.986	89.31
290.217	87.31
290.448	84.31
290.679	82.31
290.91	80.31
291.141	76.31
291.371	89.31
291.602	93.31
291.833	91.31
292.064	77.31
292.295	75.31
292.526	81.31
292.757	85.31
292.987	89.31
293.218	84.31
293.449	92.31
293.68	83.31
293.91	83.31
294.141	76.31
294.372	70.31
294.603	78.31
294.833	83.31
295.064	79.31
295.295	94.31
295.525	87.31
295.756	93.31
295.987	92.31
296.217	80.31
296.448	90.31
296.679	78.31
296.909	78.31
297.14	93.31
297.37	74.31
297.601	73.31
297.831	81.31
298.062	108.31
298.292	80.31
298.523	84.31
298.753	90.31
298.984	89.31
299.214	92.31
299.445	89.31
299.675	86.31
299.905	87.31
300.136	76.31
300.366	96.31
300.597	83.31
300.827	82.31
301.057	80.31
301.288	85.31
301.518	85.31
301.748	88.31
301.979	77.31
302.209	97.31
302.439	78.31
302.669	77.31
302.9	84.31
303.13	90.31
303.36	101.31
303.59	73.31
303.82	82.31
304.051	98.31
304.281	100.31
304.511	78.31
304.741	91.31
304.971	74.31
305.201	100.31
305.431	79.31
305.661	88.31
305.891	77.31
306.121	94.31
306.352	84.31
306.582	73.31
306.812	93.31
307.042	98.31
307.272	83.31
307.502	84.31
307.731	89.31
307.961	86.31
308.191	86.31
308.421	99.31
308.651	81.31
308.881	86.31
309.111	88.31
309.341	85.31
309.571	87.31
309.8	75.31
310.03	86.31
310.26	66.31
310.49	74.31
310.72	96.31
310.949	89.31
311.179	85.31
311.409	76.31
311.639	81.31
311.868	90.31
312.098	80.31
312.328	73.31
312.557	87.31
312.787	82.31
313.017	75.31
313.246	98.31
313.476	96.31
313.706	85.31
313.935	82.31
314.165	77.31
314.394	91.31
314.624	85.31
314.853	83.31
315.083	85.31
315.312	89.31
315.542	79.31
315.771	79.31
316.001	92.31
316.23	84.31
316.46	80.31
316.689	89.31
316.919	77.31
317.148	97.31
317.377	110.31
317.607	78.31
317.836	89.31
318.065	100.31
318.295	78.31
318.524	94.31
318.753	90.31
318.983	91.31
319.212	84.31
319.441	79.31
319.67	80.31
319.9	88.31
320.129	83.31
320.358	83.31
320.587	89.31
320.816	95.31
321.046	95.31
321.275	72.31
321.504	88.31
321.733	77.31
321.962	87.31
322.191	85.31
322.42	92.31
322.649	84.31
322.878	93.31
323.108	77.31
323.337	74.31
323.566	81.31
323.795	90.31
324.024	92.31
324.253	86.31
324.482	91.31
324.71	90.31
324.939	94.31
325.168	85.31
325.397	84.31
325.626	85.31
325.855	97.31
326.084	71.31
326.313	76.31
326.542	81.31
326.77	83.31
326.999	80.31
327.228	74.31
327.457	99.31
327.686	87.31
327.914	83.31
328.143	84.31
328.372	92.31
328.6	90.31
328.829	92.31
329.058	85.31
329.287	91.31
329.515	84.31
329.744	92.31
329.972	82.31
330.201	75.31
330.43	81.31
330.658	81.31
330.887	88.31
331.115	89.31
331.344	76.31
331.572	81.31
331.801	76.31
332.03	78.31
332.258	81.31
332.486	72.31
332.715	69.31
332.943	96.31
333.172	79.31
333.4	77.31
333.629	84.31
333.857	86.31
334.085	98.31
334.314	99.31
334.542	93.31
334.771	86.31
334.999	87.31
335.227	92.31
335.455	96.31
335.684	96.31
335.912	89.31
336.14	91.31
336.369	84.31
336.597	86.31
336.825	80.31
337.053	81.31
337.281	84.31
337.51	76.31
337.738	74.31
337.966	78.31
338.194	88.31
338.422	85.31
338.65	86.31
338.878	83.31
339.106	76.31
339.334	93.31
339.562	95.31
339.79	77.31
340.018	95.31
340.246	76.31
340.474	90.31
340.702	81.31
340.93	76.31
341.158	91.31
341.386	76.31
341.614	78.31
341.842	69.31
342.07	77.31
342.298	82.31
342.526	84.31
342.754	85.31
342.981	74.31
343.209	71.31
343.437	85.31
343.665	81.31
343.893	74.31
344.12	91.31
344.348	80.31
344.576	83.31
344.804	74.31
345.031	82.31
345.259	97.31
345.487	85.31
345.714	73.31
345.942	86.31
346.17	91.31
346.397	84.31
346.625	87.31
346.853	84.31
347.08	88.31
347.308	90.31
347.535	93.31
347.763	91.31
347.99	94.31
348.218	98.31
348.445	72.31
348.673	87.31
348.9	91.31
349.128	93.31
349.355	81.31
349.583	78.31
349.81	85.31
350.037	80.31
350.265	83.31
350.492	84.31
350.72	80.31
350.947	91.31
351.174	101.31
351.402	81.31
351.629	78.31
351.856	96.31
352.083	91.31
352.311	83.31
352.538	96.31
352.765	69.31
352.992	79.31
353.22	96.31
353.447	89.31
353.674	80.31
353.901	86.31
354.128	92.31
354.355	91.31
354.583	84.31
354.81	86.31
355.037	85.31
355.264	83.31
355.491	81.31
355.718	89.31
355.945	78.31
356.172	84.31
356.399	85.31
356.626	87.31
356.853	89.31
357.08	105.31
357.307	86.31
357.534	69.31
357.761	68.31
357.988	76.31
358.215	81.31
358.441	85.31
358.668	89.31
358.895	91.31
359.122	82.31
359.349	77.31
359.576	78.31
359.802	96.31
360.029	82.31
360.256	101.31
360.483	76.31
360.709	82.31
360.936	84.31
361.163	95.31
361.39	84.31
361.616	92.31
361.843	84.31
362.07	89.31
362.296	90.31
362.523	83.31
362.749	72.31
362.976	83.31
363.203	96.31
363.429	92.31
363.656	95.31
363.882	71.31
364.109	84.31
364.335	93.31
364.562	80.31
364.788	73.31
365.015	92.31
365.241	89.31
365.468	81.31
365.694	86.31
365.92	74.31
366.147	97.31
366.373	94.31
366.599	75.31
366.826	75.31
367.052	79.31
367.278	85.31
367.505	88.31
367.731	83.31
367.957	84.31
368.184	76.31
368.41	96.31
368.636	91.31
368.862	73.31
369.089	82.31
369.315	83.31
369.541	99.31
369.767	87.31
369.993	83.31
370.219	94.31
370.445	82.31
370.672	75.31
370.898	72.31
371.124	88.31
371.35	81.31
371.576	80.31
371.802	91.31
372.028	99.31
372.254	82.31
372.48	80.31
372.706	95.31
372.932	96.31
373.158	83.31
373.384	78.31
373.61	82.31
373.835	99.31
374.061	87.31
374.287	71.31
374.513	83.31
374.739	92.31
374.965	92.31
375.191	77.31
375.416	83.31
375.642	81.31
375.868	88.31
376.094	100.31
376.319	84.31
376.545	81.31
376.771	87.31
376.997	96.31
377.222	73.31
377.448	91.31
377.674	83.31
377.899	92.31
378.125	89.31
378.35	72.31
378.576	112.31
378.802	83.31
379.027	80.31
379.253	92.31
379.478	83.31
379.704	80.31
379.929	77.31
380.155	77.31
380.38	85.31
380.606	92.31
380.831	75.31
381.057	86.31
381.282	81.31
381.507	83.31
381.733	91.31
381.958	85.31
382.184	68.31
382.409	100.31
382.634	106.31
382.86	101.31
383.085	93.31
383.31	82.31
383.535	83.31
383.761	87.31
383.986	83.31
384.211	76.31
384.436	82.31
384.662	81.31
384.887	81.31
385.112	71.31
385.337	72.31
385.562	89.31
385.787	85.31
386.013	86.31
386.238	85.31
386.463	78.31
386.688	93.31
386.913	94.31
387.138	88.31
387.363	87.31
387.588	88.31
387.813	84.31
388.038	88.31
388.263	88.31
388.488	95.31
388.713	93.31
388.938	84.31
389.163	92.31
389.387	97.31
389.612	83.31
389.837	94.31
390.062	89.31
390.287	89.31
390.512	85.31
390.736	91.31
390.961	89.31
391.186	88.31
391.411	87.31
391.636	85.31
391.86	91.31
392.085	80.31
392.31	83.31
392.534	89.31
392.759	84.31
392.984	87.31
393.208	99.31
393.433	79.31
393.658	96.31
393.882	85.31
394.107	89.31
394.331	94.31
394.556	87.31
394.78	112.31
395.005	87.31
395.229	83.31
395.454	91.31
395.678	89.31
395.903	89.31
396.127	91.31
396.352	77.31
396.576	90.31
396.801	88.31
397.025	79.31
397.249	85.31
397.474	96.31
397.698	87.31
397.922	90.31
398.147	90.31
398.371	85.31
398.595	84.31
398.82	78.31
399.044	86.31
399.268	84.31
399.492	80.31
399.717	88.31
399.941	85.31
400.165	89.31
400.389	95.31
400.613	87.31
400.837	77.31
401.062	90.31
401.286	97.31
401.51	82.31
401.734	86.31
401.958	87.31
402.182	87.31
402.406	88.31
402.63	87.31
402.854	93.31
403.078	92.31
403.302	108.31
403.526	90.31
403.75	99.31
403.974	89.31
404.198	88.31
404.422	98.31
404.645	94.31
404.869	83.31
405.093	77.31
405.317	82.31
405.541	95.31
405.765	96.31
405.988	82.31
406.212	96.31
406.436	79.31
406.66	74.31
406.883	92.31
407.107	85.31
407.331	92.31
407.555	87.31
407.778	89.31
408.002	96.31
408.226	92.31
408.449	96.31
408.673	100.31
408.896	87.31
409.12	97.31
409.344	72.31
409.567	93.31
409.791	91.31
410.014	83.31
410.238	89.31
410.461	83.31
410.685	97.31
410.908	96.31
411.132	88.31
411.355	84.31
411.578	108.31
411.802	91.31
412.025	92.31
412.249	96.31
412.472	95.31
412.695	90.31
412.919	76.31
413.142	83.31
413.365	101.31
413.589	83.31
413.812	82.31
414.035	85.31
414.258	76.31
414.482	81.31
414.705	94.31
414.928	91.31
415.151	88.31
415.374	86.31
415.597	89.31
415.821	82.31
416.044	83.31
416.267	96.31
416.49	89.31
416.713	102.31
416.936	99.31
417.159	86.31
417.382	87.31
417.605	99.31
417.828	107.31
418.051	101.31
418.274	82.31
418.497	95.31
418.72	79.31
418.943	98.31
419.166	95.31
419.389	90.31
419.611	92.31
419.834	85.31
420.057	91.31
420.28	93.31
420.503	101.31
420.726	100.31
420.948	90.31
421.171	96.31
421.394	100.31
421.617	112.31
421.839	98.31
422.062	83.31
422.285	88.31
422.507	95.31
422.73	94.31
422.953	80.31
423.175	73.31
423.398	92.31
423.621	98.31
423.843	92.31
424.066	96.31
424.288	99.31
424.511	75.31
424.733	96.31
424.956	103.31
425.178	78.31
425.401	89.31
425.623	87.31
425.846	96.31
426.068	100.31
426.291	99.31
426.513	91.31
426.735	88.31
426.958	88.31
427.18	99.31
427.402	94.31
427.625	105.31
427.847	98.31
428.069	82.31
428.292	96.31
428.514	98.31
428.736	93.31
428.958	83.31
429.181	87.31
429.403	103.31
429.625	100.31
429.847	95.31
430.069	96.31
430.292	105.31
430.514	86.31
430.736	102.31
430.958	96.31
431.18	85.31
431.402	76.31
431.624	78.31
431.846	84.31
432.068	84.31
432.29	92.31
432.512	84.31
432.734	71.31
432.956	93.31
433.178	86.31
433.4	99.31
433.622	115.31
433.844	94.31
434.066	91.31
434.287	104.31
434.509	99.31
434.731	81.31
434.953	92.31
435.175	106.31
435.397	96.31
435.618	90.31
435.84	89.31
436.062	86.31
436.284	95.31
436.505	109.31
436.727	97.31
436.949	89.31
437.17	89.31
437.392	88.31
437.614	96.31
437.835	96.31
438.057	94.31
438.278	91.31
438.5	80.31
438.721	97.31
438.943	95.31
439.165	92.31
439.386	90.31
439.608	86.31
439.829	97.31
440.05	90.31
440.272	96.31
440.493	91.31
440.715	97.31
440.936	90.31
441.158	85.31
441.379	110.31
441.6	99.31
441.822	79.31
442.043	90.31
442.264	95.31
442.486	91.31
442.707	87.31
442.928	104.31
443.149	101.31
443.371	99.31
443.592	92.31
443.813	98.31
444.034	91.31
444.255	95.31
444.476	97.31
444.698	104.31
444.919	99.31
445.14	206.31
445.361	133.31
445.582	97.31
445.803	97.31
446.024	105.31
446.245	83.31
446.466	95.31
446.687	106.31
446.908	101.31
447.129	97.31
447.35	96.31
447.571	98.31
447.792	101.31
448.013	95.31
448.234	79.31
448.455	91.31
448.675	101.31
448.896	93.31
449.117	107.31
449.338	84.31
449.559	100.31
449.779	97.31
450	103.31
450.221	96.31
450.442	104.31
450.662	103.31
450.883	104.31
451.104	88.31
451.324	101.31
451.545	107.31
451.766	77.31
451.986	98.31
452.207	97.31
452.428	105.31
452.648	88.31
452.869	84.31
453.089	102.31
453.31	84.31
453.53	99.31
453.751	78.31
453.971	97.31
454.192	89.31
454.412	91.31
454.633	83.31
454.853	102.31
455.073	95.31
455.294	87.31
455.514	87.31
455.734	88.31
455.955	87.31
456.175	102.31
456.395	88.31
456.616	95.31
456.836	106.31
457.056	91.31
457.276	91.31
457.497	82.31
457.717	84.31
457.937	93.31
458.157	91.31
458.377	80.31
458.598	85.31
458.818	79.31
459.038	75.31
459.258	76.31
459.478	77.31
459.698	91.31
459.918	75.31
460.138	85.31
460.358	89.31
460.578	83.31
460.798	79.31
461.018	88.31
461.238	79.31
461.458	84.31
461.678	86.31
461.898	96.31
462.118	85.31
462.338	104.31
462.558	98.31
462.777	85.31
462.997	103.31
463.217	96.31
463.437	88.31
463.657	97.31
463.876	95.31
464.096	99.31
464.316	98.31
464.536	95.31
464.755	94.31
464.975	92.31
465.195	95.31
465.414	87.31
465.634	99.31
465.854	99.31
466.073	90.31
466.293	88.31
466.512	89.31
466.732	98.31
466.951	82.31
467.171	92.31
467.391	92.31
467.61	90.31
467.829	81.31
468.049	85.31
468.268	85.31
468.488	100.31
468.707	90.31
468.927	101.31
469.146	103.31
469.365	108.31
469.585	110.31
469.804	70.31
470.023	82.31
470.243	88.31
470.462	104.31
470.681	113.31
470.901	111.31
471.12	96.31
471.339	101.31
471.558	95.31
471.777	80.31
471.997	107.31
472.216	90.31
472.435	113.31
472.654	95.31
472.873	92.31
473.092	102.31
473.311	91.31
473.53	95.31
473.749	91.31
473.968	104.31
474.187	77.31
474.406	100.31
474.625	91.31
474.844	98.31
475.063	98.31
475.282	85.31
475.501	84.31
475.72	93.31
475.939	98.31
476.158	81.31
476.377	100.31
476.596	85.31
476.814	89.31
477.033	97.31
477.252	87.31
477.471	91.31
477.69	99.31
477.908	89.31
478.127	82.31
478.346	104.31
478.564	93.31
478.783	92.31
479.002	96.31
479.22	98.31
479.439	96.31
479.658	95.31
479.876	101.31
480.095	88.31
480.313	94.31
480.532	95.31
480.751	87.31
480.969	81.31
481.188	81.31
481.406	91.31
481.624	95.31
481.843	73.31
482.061	84.31
482.28	81.31
482.498	102.31
482.717	89.31
482.935	85.31
483.153	104.31
483.372	110.31
483.59	100.31
483.808	98.31
484.027	100.31
484.245	102.31
484.463	108.31
484.681	109.31
484.9	91.31
485.118	102.31
485.336	91.31
485.554	74.31
485.772	85.31
485.99	90.31
486.209	86.31
486.427	99.31
486.645	97.31
486.863	92.31
487.081	88.31
487.299	85.31
487.517	98.31
487.735	106.31
487.953	112.31
488.171	119.31
488.389	97.31
488.607	87.31
488.825	106.31
489.043	101.31
489.261	98.31
489.479	106.31
489.696	97.31
489.914	95.31
490.132	107.31
490.35	105.31
490.568	106.31
490.786	103.31
491.003	108.31
491.221	114.31
491.439	102.31
491.657	92.31
491.874	111.31
492.092	122.31
492.31	127.31
492.527	123.31
492.745	124.31
492.963	104.31
493.18	114.31
493.398	104.31
493.615	106.31
493.833	100.31
494.05	102.31
494.268	112.31
494.485	96.31
494.703	102.31
494.92	116.31
495.138	103.31
495.355	99.31
495.573	115.31
495.79	90.31
496.008	114.31
496.225	121.31
496.442	116.31
496.66	114.31
496.877	121.31
497.094	106.31
497.312	104.31
497.529	92.31
497.746	96.31
497.963	90.31
498.181	86.31
498.398	80.31
498.615	83.31
498.832	84.31
499.049	93.31
499.267	92.31
499.484	102.31
499.701	101.31
499.918	84.31
500.135	93.31
500.352	98.31
500.569	95.31
500.786	96.31
501.003	102.31
501.22	99.31
501.437	108.31
501.654	95.31
501.871	92.31
502.088	88.31
502.305	104.31
502.522	99.31
502.739	98.31
502.956	94.31
503.172	84.31
503.389	77.31
503.606	96.31
503.823	103.31
504.04	96.31
504.256	101.31
504.473	88.31
504.69	91.31
504.907	98.31
505.123	102.31
505.34	97.31
505.557	103.31
505.773	105.31
505.99	101.31
506.207	98.31
506.423	100.31
506.64	88.31
506.856	112.31
507.073	92.31
507.289	89.31
507.506	91.31
507.722	88.31
507.939	91.31
508.155	96.31
508.372	87.31
508.588	87.31
508.805	95.31
509.021	90.31
509.238	92.31
509.454	85.31
509.67	77.31
509.887	87.31
510.103	112.31
510.319	91.31
510.536	92.31
510.752	93.31
510.968	87.31
511.184	67.31
511.401	87.31
511.617	83.31
511.833	93.31
512.049	79.31
512.265	95.31
512.481	89.31
512.698	81.31
512.914	84.31
513.13	95.31
513.346	78.31
513.562	82.31
513.778	90.31
513.994	80.31
514.21	96.31
514.426	89.31
514.642	80.31
514.858	97.31
515.074	90.31
515.29	89.31
515.506	87.31
515.721	91.31
515.937	78.31
516.153	88.31
516.369	97.31
516.585	77.31
516.801	77.31
517.016	91.31
517.232	77.31
517.448	91.31
517.664	81.31
