Data from Location5.07152019.Energy5.Lamp.07192019.3%Agarose_HRD10591_15-39-08-390.txt Node
Date: Fri Jul 19 15:39:08 EDT 2019
User: cochatt
Spectrometer: HR+D1059
Trigger mode: 1
Integration Time (sec): 1.000000E-1
Scans to average: 1
Electric dark correction enabled: true
Nonlinearity correction enabled: false
Boxcar width: 0
XAxis mode: Wavelengths
Number of Pixels in Spectrum: 2048
>>>>>Begin Spectral Data<<<<<
223.165	-15.69
223.4	-15.69
223.635	-15.69
223.869	-17.69
224.104	3.31
224.338	-11.69
224.573	-14.69
224.808	-3.69
225.042	-20.69
225.277	-6.69
225.511	-13.69
225.746	-12.69
225.98	5.31
226.215	23.31
226.449	8.31
226.683	22.31
226.918	19.31
227.152	35.31
227.387	21.31
227.621	22.31
227.856	54.31
228.09	40.31
228.324	46.31
228.559	29.31
228.793	53.31
229.027	65.31
229.262	65.31
229.496	71.31
229.73	55.31
229.964	64.31
230.199	82.31
230.433	64.31
230.667	64.31
230.901	77.31
231.136	80.31
231.37	72.31
231.604	76.31
231.838	92.31
232.072	79.31
232.306	80.31
232.541	81.31
232.775	80.31
233.009	83.31
233.243	77.31
233.477	82.31
233.711	94.31
233.945	77.31
234.179	80.31
234.413	78.31
234.647	72.31
234.881	74.31
235.115	77.31
235.349	90.31
235.583	90.31
235.817	85.31
236.051	77.31
236.285	70.31
236.519	60.31
236.753	78.31
236.987	84.31
237.221	69.31
237.455	67.31
237.689	89.31
237.922	80.31
238.156	69.31
238.39	72.31
238.624	70.31
238.858	76.31
239.091	69.31
239.325	77.31
239.559	79.31
239.793	85.31
240.027	84.31
240.26	77.31
240.494	73.31
240.728	83.31
240.961	82.31
241.195	74.31
241.429	81.31
241.662	75.31
241.896	73.31
242.13	71.31
242.363	86.31
242.597	57.31
242.83	64.31
243.064	78.31
243.298	76.31
243.531	66.31
243.765	72.31
243.998	68.31
244.232	76.31
244.465	78.31
244.699	86.31
244.932	80.31
245.166	75.31
245.399	78.31
245.633	78.31
245.866	53.31
246.099	67.31
246.333	78.31
246.566	70.31
246.8	73.31
247.033	77.31
247.266	80.31
247.5	87.31
247.733	92.31
247.966	79.31
248.2	75.31
248.433	78.31
248.666	83.31
248.899	69.31
249.133	71.31
249.366	80.31
249.599	81.31
249.832	82.31
250.066	77.31
250.299	90.31
250.532	73.31
250.765	68.31
250.998	71.31
251.231	68.31
251.465	72.31
251.698	79.31
251.931	70.31
252.164	81.31
252.397	74.31
252.63	67.31
252.863	63.31
253.096	65.31
253.329	69.31
253.562	74.31
253.795	79.31
254.028	93.31
254.261	82.31
254.494	75.31
254.727	80.31
254.96	74.31
255.193	74.31
255.426	72.31
255.659	78.31
255.892	84.31
256.124	79.31
256.357	67.31
256.59	75.31
256.823	75.31
257.056	86.31
257.289	70.31
257.521	74.31
257.754	64.31
257.987	77.31
258.22	82.31
258.452	81.31
258.685	64.31
258.918	74.31
259.151	73.31
259.383	91.31
259.616	85.31
259.849	92.31
260.081	85.31
260.314	76.31
260.547	71.31
260.779	80.31
261.012	88.31
261.244	74.31
261.477	91.31
261.71	82.31
261.942	90.31
262.175	95.31
262.407	69.31
262.64	81.31
262.872	68.31
263.105	85.31
263.337	70.31
263.57	95.31
263.802	81.31
264.035	63.31
264.267	72.31
264.499	86.31
264.732	81.31
264.964	73.31
265.197	86.31
265.429	70.31
265.661	75.31
265.894	89.31
266.126	90.31
266.358	86.31
266.591	73.31
266.823	88.31
267.055	72.31
267.287	78.31
267.52	79.31
267.752	87.31
267.984	66.31
268.216	84.31
268.448	92.31
268.681	70.31
268.913	83.31
269.145	85.31
269.377	75.31
269.609	80.31
269.841	85.31
270.073	84.31
270.306	69.31
270.538	87.31
270.77	78.31
271.002	84.31
271.234	85.31
271.466	81.31
271.698	73.31
271.93	81.31
272.162	88.31
272.394	85.31
272.626	72.31
272.858	79.31
273.09	97.31
273.322	70.31
273.553	73.31
273.785	92.31
274.017	74.31
274.249	84.31
274.481	90.31
274.713	91.31
274.945	82.31
275.176	78.31
275.408	87.31
275.64	95.31
275.872	86.31
276.104	80.31
276.335	82.31
276.567	81.31
276.799	88.31
277.031	66.31
277.262	80.31
277.494	89.31
277.726	70.31
277.957	88.31
278.189	81.31
278.421	95.31
278.652	72.31
278.884	77.31
279.115	84.31
279.347	82.31
279.579	95.31
279.81	85.31
280.042	79.31
280.273	88.31
280.505	88.31
280.736	77.31
280.968	80.31
281.199	68.31
281.431	83.31
281.662	70.31
281.894	87.31
282.125	86.31
282.356	93.31
282.588	82.31
282.819	86.31
283.051	95.31
283.282	63.31
283.513	83.31
283.745	68.31
283.976	84.31
284.207	82.31
284.439	88.31
284.67	86.31
284.901	77.31
285.132	79.31
285.364	69.31
285.595	82.31
285.826	66.31
286.057	69.31
286.288	88.31
286.52	86.31
286.751	71.31
286.982	92.31
287.213	74.31
287.444	87.31
287.675	80.31
287.906	71.31
288.138	68.31
288.369	87.31
288.6	96.31
288.831	88.31
289.062	85.31
289.293	80.31
289.524	68.31
289.755	80.31
289.986	72.31
290.217	94.31
290.448	84.31
290.679	76.31
290.91	90.31
291.141	69.31
291.371	59.31
291.602	78.31
291.833	73.31
292.064	86.31
292.295	88.31
292.526	77.31
292.757	87.31
292.987	97.31
293.218	91.31
293.449	88.31
293.68	83.31
293.91	87.31
294.141	74.31
294.372	87.31
294.603	73.31
294.833	95.31
295.064	85.31
295.295	90.31
295.525	84.31
295.756	88.31
295.987	80.31
296.217	75.31
296.448	86.31
296.679	72.31
296.909	90.31
297.14	81.31
297.37	80.31
297.601	81.31
297.831	85.31
298.062	85.31
298.292	82.31
298.523	78.31
298.753	73.31
298.984	90.31
299.214	80.31
299.445	94.31
299.675	85.31
299.905	75.31
300.136	78.31
300.366	89.31
300.597	81.31
300.827	93.31
301.057	89.31
301.288	92.31
301.518	84.31
301.748	77.31
301.979	75.31
302.209	90.31
302.439	87.31
302.669	81.31
302.9	83.31
303.13	89.31
303.36	66.31
303.59	58.31
303.82	85.31
304.051	84.31
304.281	96.31
304.511	93.31
304.741	95.31
304.971	73.31
305.201	82.31
305.431	86.31
305.661	80.31
305.891	83.31
306.121	77.31
306.352	79.31
306.582	79.31
306.812	83.31
307.042	74.31
307.272	81.31
307.502	90.31
307.731	86.31
307.961	88.31
308.191	80.31
308.421	78.31
308.651	79.31
308.881	94.31
309.111	93.31
309.341	81.31
309.571	88.31
309.8	65.31
310.03	86.31
310.26	97.31
310.49	89.31
310.72	85.31
310.949	74.31
311.179	88.31
311.409	80.31
311.639	90.31
311.868	81.31
312.098	85.31
312.328	91.31
312.557	88.31
312.787	80.31
313.017	69.31
313.246	107.31
313.476	82.31
313.706	95.31
313.935	87.31
314.165	88.31
314.394	72.31
314.624	69.31
314.853	94.31
315.083	88.31
315.312	74.31
315.542	84.31
315.771	77.31
316.001	74.31
316.23	76.31
316.46	93.31
316.689	74.31
316.919	93.31
317.148	77.31
317.377	84.31
317.607	80.31
317.836	91.31
318.065	71.31
318.295	93.31
318.524	64.31
318.753	84.31
318.983	84.31
319.212	79.31
319.441	67.31
319.67	72.31
319.9	86.31
320.129	78.31
320.358	102.31
320.587	89.31
320.816	87.31
321.046	81.31
321.275	88.31
321.504	77.31
321.733	80.31
321.962	81.31
322.191	84.31
322.42	78.31
322.649	79.31
322.878	96.31
323.108	93.31
323.337	78.31
323.566	74.31
323.795	68.31
324.024	79.31
324.253	78.31
324.482	73.31
324.71	84.31
324.939	76.31
325.168	63.31
325.397	89.31
325.626	84.31
325.855	88.31
326.084	89.31
326.313	85.31
326.542	67.31
326.77	74.31
326.999	87.31
327.228	80.31
327.457	84.31
327.686	84.31
327.914	80.31
328.143	78.31
328.372	82.31
328.6	82.31
328.829	79.31
329.058	87.31
329.287	77.31
329.515	89.31
329.744	67.31
329.972	64.31
330.201	96.31
330.43	90.31
330.658	78.31
330.887	79.31
331.115	81.31
331.344	76.31
331.572	80.31
331.801	82.31
332.03	91.31
332.258	72.31
332.486	85.31
332.715	71.31
332.943	88.31
333.172	80.31
333.4	84.31
333.629	81.31
333.857	82.31
334.085	79.31
334.314	89.31
334.542	83.31
334.771	86.31
334.999	94.31
335.227	86.31
335.455	77.31
335.684	72.31
335.912	81.31
336.14	73.31
336.369	87.31
336.597	74.31
336.825	83.31
337.053	90.31
337.281	88.31
337.51	71.31
337.738	72.31
337.966	90.31
338.194	91.31
338.422	86.31
338.65	82.31
338.878	94.31
339.106	82.31
339.334	80.31
339.562	87.31
339.79	81.31
340.018	82.31
340.246	85.31
340.474	86.31
340.702	77.31
340.93	82.31
341.158	78.31
341.386	91.31
341.614	76.31
341.842	81.31
342.07	75.31
342.298	81.31
342.526	75.31
342.754	81.31
342.981	88.31
343.209	75.31
343.437	72.31
343.665	81.31
343.893	103.31
344.12	83.31
344.348	93.31
344.576	82.31
344.804	87.31
345.031	89.31
345.259	74.31
345.487	84.31
345.714	82.31
345.942	79.31
346.17	93.31
346.397	78.31
346.625	84.31
346.853	82.31
347.08	82.31
347.308	85.31
347.535	81.31
347.763	73.31
347.99	86.31
348.218	87.31
348.445	75.31
348.673	72.31
348.9	83.31
349.128	80.31
349.355	86.31
349.583	92.31
349.81	93.31
350.037	89.31
350.265	100.31
350.492	88.31
350.72	80.31
350.947	86.31
351.174	56.31
351.402	78.31
351.629	64.31
351.856	91.31
352.083	84.31
352.311	69.31
352.538	82.31
352.765	83.31
352.992	82.31
353.22	85.31
353.447	88.31
353.674	83.31
353.901	81.31
354.128	92.31
354.355	81.31
354.583	85.31
354.81	90.31
355.037	79.31
355.264	82.31
355.491	82.31
355.718	76.31
355.945	77.31
356.172	80.31
356.399	87.31
356.626	85.31
356.853	76.31
357.08	93.31
357.307	76.31
357.534	84.31
357.761	75.31
357.988	86.31
358.215	80.31
358.441	80.31
358.668	85.31
358.895	78.31
359.122	81.31
359.349	78.31
359.576	88.31
359.802	81.31
360.029	76.31
360.256	73.31
360.483	78.31
360.709	86.31
360.936	100.31
361.163	81.31
361.39	66.31
361.616	83.31
361.843	80.31
362.07	68.31
362.296	95.31
362.523	85.31
362.749	89.31
362.976	85.31
363.203	94.31
363.429	81.31
363.656	94.31
363.882	79.31
364.109	92.31
364.335	85.31
364.562	68.31
364.788	83.31
365.015	83.31
365.241	72.31
365.468	86.31
365.694	73.31
365.92	85.31
366.147	79.31
366.373	67.31
366.599	87.31
366.826	83.31
367.052	88.31
367.278	81.31
367.505	77.31
367.731	87.31
367.957	72.31
368.184	86.31
368.41	75.31
368.636	95.31
368.862	79.31
369.089	73.31
369.315	83.31
369.541	69.31
369.767	76.31
369.993	85.31
370.219	87.31
370.445	74.31
370.672	88.31
370.898	73.31
371.124	85.31
371.35	78.31
371.576	89.31
371.802	82.31
372.028	78.31
372.254	79.31
372.48	79.31
372.706	74.31
372.932	88.31
373.158	63.31
373.384	72.31
373.61	71.31
373.835	69.31
374.061	80.31
374.287	80.31
374.513	83.31
374.739	79.31
374.965	77.31
375.191	79.31
375.416	82.31
375.642	87.31
375.868	71.31
376.094	68.31
376.319	77.31
376.545	80.31
376.771	84.31
376.997	78.31
377.222	77.31
377.448	83.31
377.674	64.31
377.899	70.31
378.125	83.31
378.35	94.31
378.576	84.31
378.802	69.31
379.027	82.31
379.253	85.31
379.478	81.31
379.704	71.31
379.929	79.31
380.155	79.31
380.38	74.31
380.606	87.31
380.831	88.31
381.057	89.31
381.282	91.31
381.507	92.31
381.733	83.31
381.958	84.31
382.184	88.31
382.409	89.31
382.634	86.31
382.86	84.31
383.085	89.31
383.31	97.31
383.535	93.31
383.761	85.31
383.986	89.31
384.211	84.31
384.436	67.31
384.662	74.31
384.887	89.31
385.112	69.31
385.337	75.31
385.562	63.31
385.787	72.31
386.013	87.31
386.238	79.31
386.463	80.31
386.688	93.31
386.913	96.31
387.138	72.31
387.363	86.31
387.588	87.31
387.813	84.31
388.038	80.31
388.263	87.31
388.488	87.31
388.713	79.31
388.938	82.31
389.163	74.31
389.387	73.31
389.612	80.31
389.837	77.31
390.062	84.31
390.287	78.31
390.512	85.31
390.736	92.31
390.961	81.31
391.186	97.31
391.411	68.31
391.636	93.31
391.86	85.31
392.085	75.31
392.31	93.31
392.534	91.31
392.759	69.31
392.984	74.31
393.208	83.31
393.433	81.31
393.658	75.31
393.882	74.31
394.107	70.31
394.331	86.31
394.556	85.31
394.78	89.31
395.005	89.31
395.229	78.31
395.454	72.31
395.678	76.31
395.903	84.31
396.127	80.31
396.352	90.31
396.576	90.31
396.801	80.31
397.025	81.31
397.249	85.31
397.474	87.31
397.698	101.31
397.922	77.31
398.147	76.31
398.371	70.31
398.595	87.31
398.82	89.31
399.044	86.31
399.268	88.31
399.492	87.31
399.717	96.31
399.941	87.31
400.165	98.31
400.389	71.31
400.613	75.31
400.837	81.31
401.062	88.31
401.286	79.31
401.51	85.31
401.734	86.31
401.958	62.31
402.182	76.31
402.406	99.31
402.63	84.31
402.854	93.31
403.078	97.31
403.302	87.31
403.526	88.31
403.75	96.31
403.974	90.31
404.198	85.31
404.422	79.31
404.645	85.31
404.869	84.31
405.093	71.31
405.317	84.31
405.541	83.31
405.765	101.31
405.988	95.31
406.212	93.31
406.436	99.31
406.66	92.31
406.883	95.31
407.107	94.31
407.331	89.31
407.555	89.31
407.778	84.31
408.002	101.31
408.226	90.31
408.449	79.31
408.673	89.31
408.896	94.31
409.12	85.31
409.344	91.31
409.567	86.31
409.791	74.31
410.014	73.31
410.238	92.31
410.461	76.31
410.685	86.31
410.908	99.31
411.132	95.31
411.355	75.31
411.578	85.31
411.802	96.31
412.025	85.31
412.249	91.31
412.472	71.31
412.695	98.31
412.919	84.31
413.142	93.31
413.365	87.31
413.589	88.31
413.812	94.31
414.035	77.31
414.258	80.31
414.482	85.31
414.705	94.31
414.928	88.31
415.151	79.31
415.374	87.31
415.597	100.31
415.821	83.31
416.044	86.31
416.267	85.31
416.49	91.31
416.713	102.31
416.936	103.31
417.159	87.31
417.382	72.31
417.605	84.31
417.828	81.31
418.051	90.31
418.274	106.31
418.497	102.31
418.72	95.31
418.943	73.31
419.166	94.31
419.389	85.31
419.611	84.31
419.834	102.31
420.057	106.31
420.28	92.31
420.503	82.31
420.726	86.31
420.948	82.31
421.171	84.31
421.394	82.31
421.617	101.31
421.839	89.31
422.062	101.31
422.285	88.31
422.507	87.31
422.73	87.31
422.953	92.31
423.175	84.31
423.398	98.31
423.621	88.31
423.843	88.31
424.066	90.31
424.288	87.31
424.511	103.31
424.733	88.31
424.956	92.31
425.178	96.31
425.401	95.31
425.623	102.31
425.846	94.31
426.068	94.31
426.291	93.31
426.513	95.31
426.735	89.31
426.958	86.31
427.18	96.31
427.402	88.31
427.625	102.31
427.847	99.31
428.069	81.31
428.292	97.31
428.514	90.31
428.736	92.31
428.958	87.31
429.181	89.31
429.403	92.31
429.625	99.31
429.847	91.31
430.069	94.31
430.292	84.31
430.514	82.31
430.736	92.31
430.958	89.31
431.18	90.31
431.402	85.31
431.624	89.31
431.846	77.31
432.068	82.31
432.29	92.31
432.512	81.31
432.734	81.31
432.956	85.31
433.178	81.31
433.4	103.31
433.622	84.31
433.844	108.31
434.066	79.31
434.287	77.31
434.509	79.31
434.731	96.31
434.953	89.31
435.175	76.31
435.397	91.31
435.618	88.31
435.84	80.31
436.062	90.31
436.284	87.31
436.505	79.31
436.727	87.31
436.949	94.31
437.17	100.31
437.392	98.31
437.614	82.31
437.835	94.31
438.057	80.31
438.278	89.31
438.5	100.31
438.721	92.31
438.943	88.31
439.165	81.31
439.386	96.31
439.608	105.31
439.829	83.31
440.05	93.31
440.272	94.31
440.493	77.31
440.715	74.31
440.936	106.31
441.158	99.31
441.379	98.31
441.6	91.31
441.822	98.31
442.043	94.31
442.264	81.31
442.486	93.31
442.707	89.31
442.928	84.31
443.149	96.31
443.371	88.31
443.592	71.31
443.813	97.31
444.034	79.31
444.255	87.31
444.476	84.31
444.698	94.31
444.919	94.31
445.14	201.31
445.361	142.31
445.582	101.31
445.803	102.31
446.024	95.31
446.245	104.31
446.466	87.31
446.687	109.31
446.908	95.31
447.129	88.31
447.35	89.31
447.571	98.31
447.792	94.31
448.013	90.31
448.234	104.31
448.455	99.31
448.675	91.31
448.896	93.31
449.117	102.31
449.338	99.31
449.559	81.31
449.779	74.31
450	93.31
450.221	84.31
450.442	94.31
450.662	69.31
450.883	95.31
451.104	96.31
451.324	99.31
451.545	92.31
451.766	106.31
451.986	97.31
452.207	104.31
452.428	107.31
452.648	94.31
452.869	84.31
453.089	92.31
453.31	83.31
453.53	91.31
453.751	89.31
453.971	87.31
454.192	81.31
454.412	86.31
454.633	94.31
454.853	87.31
455.073	92.31
455.294	90.31
455.514	81.31
455.734	82.31
455.955	97.31
456.175	86.31
456.395	82.31
456.616	84.31
456.836	97.31
457.056	102.31
457.276	76.31
457.497	98.31
457.717	90.31
457.937	93.31
458.157	85.31
458.377	82.31
458.598	83.31
458.818	82.31
459.038	69.31
459.258	85.31
459.478	90.31
459.698	86.31
459.918	74.31
460.138	72.31
460.358	87.31
460.578	85.31
460.798	92.31
461.018	104.31
461.238	90.31
461.458	85.31
461.678	77.31
461.898	91.31
462.118	83.31
462.338	87.31
462.558	72.31
462.777	86.31
462.997	81.31
463.217	88.31
463.437	85.31
463.657	85.31
463.876	101.31
464.096	89.31
464.316	86.31
464.536	83.31
464.755	97.31
464.975	92.31
465.195	95.31
465.414	78.31
465.634	75.31
465.854	89.31
466.073	85.31
466.293	96.31
466.512	78.31
466.732	92.31
466.951	95.31
467.171	97.31
467.391	83.31
467.61	95.31
467.829	89.31
468.049	87.31
468.268	96.31
468.488	97.31
468.707	89.31
468.927	88.31
469.146	92.31
469.365	88.31
469.585	91.31
469.804	95.31
470.023	82.31
470.243	97.31
470.462	82.31
470.681	95.31
470.901	99.31
471.12	87.31
471.339	104.31
471.558	89.31
471.777	102.31
471.997	91.31
472.216	93.31
472.435	82.31
472.654	91.31
472.873	78.31
473.092	93.31
473.311	96.31
473.53	95.31
473.749	79.31
473.968	95.31
474.187	91.31
474.406	87.31
474.625	90.31
474.844	80.31
475.063	92.31
475.282	98.31
475.501	91.31
475.72	95.31
475.939	83.31
476.158	87.31
476.377	96.31
476.596	90.31
476.814	83.31
477.033	75.31
477.252	82.31
477.471	88.31
477.69	94.31
477.908	92.31
478.127	97.31
478.346	108.31
478.564	103.31
478.783	98.31
479.002	93.31
479.22	112.31
479.439	86.31
479.658	89.31
479.876	73.31
480.095	84.31
480.313	85.31
480.532	94.31
480.751	96.31
480.969	73.31
481.188	89.31
481.406	82.31
481.624	100.31
481.843	81.31
482.061	80.31
482.28	98.31
482.498	90.31
482.717	97.31
482.935	87.31
483.153	102.31
483.372	88.31
483.59	89.31
483.808	82.31
484.027	85.31
484.245	89.31
484.463	92.31
484.681	104.31
484.9	98.31
485.118	89.31
485.336	89.31
485.554	74.31
485.772	73.31
485.99	76.31
486.209	89.31
486.427	85.31
486.645	87.31
486.863	77.31
487.081	97.31
487.299	94.31
487.517	108.31
487.735	101.31
487.953	101.31
488.171	95.31
488.389	96.31
488.607	92.31
488.825	88.31
489.043	92.31
489.261	84.31
489.479	97.31
489.696	95.31
489.914	81.31
490.132	95.31
490.35	99.31
490.568	94.31
490.786	103.31
491.003	98.31
491.221	96.31
491.439	105.31
491.657	120.31
491.874	118.31
492.092	103.31
492.31	109.31
492.527	126.31
492.745	119.31
492.963	104.31
493.18	95.31
493.398	108.31
493.615	108.31
493.833	104.31
494.05	103.31
494.268	93.31
494.485	96.31
494.703	106.31
494.92	109.31
495.138	113.31
495.355	114.31
495.573	111.31
495.79	104.31
496.008	98.31
496.225	102.31
496.442	106.31
496.66	96.31
496.877	97.31
497.094	106.31
497.312	96.31
497.529	90.31
497.746	97.31
497.963	93.31
498.181	84.31
498.398	87.31
498.615	81.31
498.832	86.31
499.049	90.31
499.267	80.31
499.484	89.31
499.701	107.31
499.918	93.31
500.135	97.31
500.352	110.31
500.569	80.31
500.786	101.31
501.003	88.31
501.22	87.31
501.437	86.31
501.654	108.31
501.871	101.31
502.088	108.31
502.305	110.31
502.522	104.31
502.739	91.31
502.956	93.31
503.172	96.31
503.389	85.31
503.606	87.31
503.823	99.31
504.04	85.31
504.256	84.31
504.473	83.31
504.69	95.31
504.907	86.31
505.123	97.31
505.34	97.31
505.557	82.31
505.773	106.31
505.99	95.31
506.207	80.31
506.423	78.31
506.64	78.31
506.856	86.31
507.073	94.31
507.289	90.31
507.506	84.31
507.722	90.31
507.939	93.31
508.155	90.31
508.372	82.31
508.588	93.31
508.805	88.31
509.021	85.31
509.238	97.31
509.454	83.31
509.67	92.31
509.887	95.31
510.103	71.31
510.319	98.31
510.536	82.31
510.752	85.31
510.968	74.31
511.184	82.31
511.401	96.31
511.617	79.31
511.833	89.31
512.049	97.31
512.265	90.31
512.481	96.31
512.698	87.31
512.914	88.31
513.13	81.31
513.346	83.31
513.562	88.31
513.778	95.31
513.994	72.31
514.21	86.31
514.426	85.31
514.642	89.31
514.858	86.31
515.074	79.31
515.29	80.31
515.506	84.31
515.721	72.31
515.937	74.31
516.153	76.31
516.369	81.31
516.585	80.31
516.801	81.31
517.016	74.31
517.232	86.31
517.448	81.31
517.664	88.31
517.879	79.31
518.095	89.31
518.311	74.31
