Data from Location5.07152019.Energy5.Lamp.07192019.3%Agarose_HRD10591_15-37-11-388.txt Node
Date: Fri Jul 19 15:37:11 EDT 2019
User: cochatt
Spectrometer: HR+D1059
Trigger mode: 1
Integration Time (sec): 1.000000E-1
Scans to average: 1
Electric dark correction enabled: true
Nonlinearity correction enabled: false
Boxcar width: 0
XAxis mode: Wavelengths
Number of Pixels in Spectrum: 2048
>>>>>Begin Spectral Data<<<<<
223.165	-3.81
223.4	-3.81
223.635	-3.81
223.869	-16.81
224.104	-8.81
224.338	-12.81
224.573	-8.81
224.808	-21.81
225.042	-8.81
225.277	-9.81
225.511	-22.81
225.746	6.19
225.98	8.19
226.215	5.19
226.449	12.19
226.683	25.19
226.918	24.19
227.152	33.19
227.387	18.19
227.621	27.19
227.856	43.19
228.09	55.19
228.324	52.19
228.559	57.19
228.793	58.19
229.027	68.19
229.262	68.19
229.496	85.19
229.73	67.19
229.964	66.19
230.199	68.19
230.433	75.19
230.667	80.19
230.901	106.19
231.136	71.19
231.37	86.19
231.604	80.19
231.838	65.19
232.072	81.19
232.306	85.19
232.541	67.19
232.775	92.19
233.009	89.19
233.243	92.19
233.477	95.19
233.711	88.19
233.945	82.19
234.179	80.19
234.413	111.19
234.647	79.19
234.881	72.19
235.115	65.19
235.349	81.19
235.583	74.19
235.817	80.19
236.051	70.19
236.285	78.19
236.519	70.19
236.753	85.19
236.987	73.19
237.221	75.19
237.455	83.19
237.689	72.19
237.922	71.19
238.156	70.19
238.39	79.19
238.624	71.19
238.858	73.19
239.091	80.19
239.325	72.19
239.559	72.19
239.793	74.19
240.027	75.19
240.26	89.19
240.494	64.19
240.728	79.19
240.961	84.19
241.195	70.19
241.429	60.19
241.662	71.19
241.896	88.19
242.13	77.19
242.363	75.19
242.597	78.19
242.83	77.19
243.064	74.19
243.298	60.19
243.531	75.19
243.765	80.19
243.998	77.19
244.232	78.19
244.465	73.19
244.699	79.19
244.932	87.19
245.166	71.19
245.399	95.19
245.633	71.19
245.866	71.19
246.099	73.19
246.333	86.19
246.566	73.19
246.8	77.19
247.033	81.19
247.266	67.19
247.5	68.19
247.733	74.19
247.966	76.19
248.2	81.19
248.433	84.19
248.666	72.19
248.899	74.19
249.133	83.19
249.366	87.19
249.599	83.19
249.832	73.19
250.066	80.19
250.299	95.19
250.532	79.19
250.765	68.19
250.998	75.19
251.231	88.19
251.465	80.19
251.698	80.19
251.931	70.19
252.164	85.19
252.397	80.19
252.63	97.19
252.863	84.19
253.096	84.19
253.329	79.19
253.562	82.19
253.795	87.19
254.028	88.19
254.261	80.19
254.494	80.19
254.727	96.19
254.96	79.19
255.193	85.19
255.426	84.19
255.659	71.19
255.892	73.19
256.124	83.19
256.357	88.19
256.59	91.19
256.823	86.19
257.056	91.19
257.289	84.19
257.521	71.19
257.754	75.19
257.987	85.19
258.22	81.19
258.452	89.19
258.685	77.19
258.918	90.19
259.151	74.19
259.383	77.19
259.616	71.19
259.849	81.19
260.081	83.19
260.314	72.19
260.547	92.19
260.779	75.19
261.012	84.19
261.244	78.19
261.477	95.19
261.71	77.19
261.942	74.19
262.175	94.19
262.407	72.19
262.64	85.19
262.872	72.19
263.105	81.19
263.337	73.19
263.57	75.19
263.802	68.19
264.035	72.19
264.267	83.19
264.499	76.19
264.732	65.19
264.964	81.19
265.197	74.19
265.429	79.19
265.661	90.19
265.894	93.19
266.126	92.19
266.358	90.19
266.591	75.19
266.823	80.19
267.055	81.19
267.287	83.19
267.52	74.19
267.752	91.19
267.984	78.19
268.216	80.19
268.448	94.19
268.681	73.19
268.913	77.19
269.145	82.19
269.377	91.19
269.609	84.19
269.841	73.19
270.073	80.19
270.306	90.19
270.538	89.19
270.77	87.19
271.002	83.19
271.234	92.19
271.466	90.19
271.698	67.19
271.93	77.19
272.162	77.19
272.394	76.19
272.626	80.19
272.858	90.19
273.09	76.19
273.322	72.19
273.553	88.19
273.785	86.19
274.017	78.19
274.249	75.19
274.481	82.19
274.713	82.19
274.945	81.19
275.176	82.19
275.408	87.19
275.64	82.19
275.872	76.19
276.104	104.19
276.335	95.19
276.567	93.19
276.799	75.19
277.031	85.19
277.262	88.19
277.494	92.19
277.726	84.19
277.957	90.19
278.189	95.19
278.421	86.19
278.652	91.19
278.884	83.19
279.115	78.19
279.347	94.19
279.579	79.19
279.81	76.19
280.042	102.19
280.273	83.19
280.505	90.19
280.736	83.19
280.968	88.19
281.199	87.19
281.431	100.19
281.662	82.19
281.894	85.19
282.125	88.19
282.356	75.19
282.588	92.19
282.819	79.19
283.051	95.19
283.282	80.19
283.513	89.19
283.745	80.19
283.976	85.19
284.207	84.19
284.439	89.19
284.67	76.19
284.901	86.19
285.132	69.19
285.364	81.19
285.595	88.19
285.826	95.19
286.057	83.19
286.288	83.19
286.52	82.19
286.751	91.19
286.982	86.19
287.213	86.19
287.444	86.19
287.675	80.19
287.906	92.19
288.138	87.19
288.369	97.19
288.6	87.19
288.831	78.19
289.062	84.19
289.293	90.19
289.524	83.19
289.755	98.19
289.986	84.19
290.217	84.19
290.448	88.19
290.679	95.19
290.91	90.19
291.141	105.19
291.371	96.19
291.602	82.19
291.833	87.19
292.064	81.19
292.295	79.19
292.526	79.19
292.757	95.19
292.987	70.19
293.218	82.19
293.449	70.19
293.68	92.19
293.91	82.19
294.141	77.19
294.372	82.19
294.603	88.19
294.833	87.19
295.064	85.19
295.295	82.19
295.525	83.19
295.756	82.19
295.987	86.19
296.217	86.19
296.448	110.19
296.679	81.19
296.909	75.19
297.14	70.19
297.37	81.19
297.601	90.19
297.831	83.19
298.062	72.19
298.292	86.19
298.523	94.19
298.753	74.19
298.984	103.19
299.214	90.19
299.445	88.19
299.675	91.19
299.905	86.19
300.136	80.19
300.366	88.19
300.597	70.19
300.827	81.19
301.057	90.19
301.288	87.19
301.518	83.19
301.748	90.19
301.979	83.19
302.209	93.19
302.439	98.19
302.669	91.19
302.9	87.19
303.13	79.19
303.36	94.19
303.59	91.19
303.82	79.19
304.051	71.19
304.281	85.19
304.511	88.19
304.741	76.19
304.971	98.19
305.201	89.19
305.431	88.19
305.661	96.19
305.891	71.19
306.121	78.19
306.352	74.19
306.582	72.19
306.812	74.19
307.042	86.19
307.272	75.19
307.502	94.19
307.731	94.19
307.961	96.19
308.191	82.19
308.421	83.19
308.651	78.19
308.881	87.19
309.111	94.19
309.341	83.19
309.571	84.19
309.8	87.19
310.03	91.19
310.26	80.19
310.49	74.19
310.72	76.19
310.949	82.19
311.179	93.19
311.409	91.19
311.639	86.19
311.868	104.19
312.098	80.19
312.328	83.19
312.557	81.19
312.787	87.19
313.017	80.19
313.246	89.19
313.476	79.19
313.706	72.19
313.935	82.19
314.165	86.19
314.394	81.19
314.624	87.19
314.853	82.19
315.083	73.19
315.312	77.19
315.542	78.19
315.771	89.19
316.001	77.19
316.23	99.19
316.46	69.19
316.689	78.19
316.919	86.19
317.148	79.19
317.377	101.19
317.607	81.19
317.836	78.19
318.065	92.19
318.295	96.19
318.524	69.19
318.753	88.19
318.983	99.19
319.212	94.19
319.441	76.19
319.67	84.19
319.9	94.19
320.129	88.19
320.358	94.19
320.587	84.19
320.816	92.19
321.046	89.19
321.275	97.19
321.504	83.19
321.733	84.19
321.962	89.19
322.191	77.19
322.42	89.19
322.649	85.19
322.878	99.19
323.108	87.19
323.337	81.19
323.566	98.19
323.795	89.19
324.024	92.19
324.253	88.19
324.482	90.19
324.71	99.19
324.939	88.19
325.168	92.19
325.397	82.19
325.626	84.19
325.855	101.19
326.084	85.19
326.313	90.19
326.542	70.19
326.77	87.19
326.999	94.19
327.228	78.19
327.457	97.19
327.686	81.19
327.914	98.19
328.143	82.19
328.372	96.19
328.6	89.19
328.829	77.19
329.058	75.19
329.287	97.19
329.515	74.19
329.744	87.19
329.972	68.19
330.201	86.19
330.43	81.19
330.658	83.19
330.887	82.19
331.115	74.19
331.344	87.19
331.572	98.19
331.801	98.19
332.03	92.19
332.258	94.19
332.486	85.19
332.715	73.19
332.943	89.19
333.172	90.19
333.4	89.19
333.629	97.19
333.857	87.19
334.085	91.19
334.314	86.19
334.542	93.19
334.771	87.19
334.999	75.19
335.227	89.19
335.455	82.19
335.684	94.19
335.912	82.19
336.14	99.19
336.369	88.19
336.597	87.19
336.825	92.19
337.053	96.19
337.281	76.19
337.51	90.19
337.738	91.19
337.966	78.19
338.194	80.19
338.422	89.19
338.65	90.19
338.878	78.19
339.106	83.19
339.334	84.19
339.562	75.19
339.79	89.19
340.018	77.19
340.246	87.19
340.474	81.19
340.702	82.19
340.93	85.19
341.158	74.19
341.386	78.19
341.614	89.19
341.842	93.19
342.07	85.19
342.298	77.19
342.526	72.19
342.754	88.19
342.981	82.19
343.209	76.19
343.437	86.19
343.665	84.19
343.893	79.19
344.12	96.19
344.348	72.19
344.576	80.19
344.804	87.19
345.031	74.19
345.259	73.19
345.487	79.19
345.714	75.19
345.942	83.19
346.17	87.19
346.397	84.19
346.625	71.19
346.853	87.19
347.08	66.19
347.308	92.19
347.535	83.19
347.763	93.19
347.99	82.19
348.218	84.19
348.445	77.19
348.673	77.19
348.9	82.19
349.128	74.19
349.355	81.19
349.583	75.19
349.81	91.19
350.037	92.19
350.265	97.19
350.492	89.19
350.72	80.19
350.947	81.19
351.174	83.19
351.402	91.19
351.629	96.19
351.856	92.19
352.083	98.19
352.311	81.19
352.538	99.19
352.765	72.19
352.992	85.19
353.22	77.19
353.447	89.19
353.674	84.19
353.901	87.19
354.128	91.19
354.355	88.19
354.583	99.19
354.81	90.19
355.037	88.19
355.264	84.19
355.491	94.19
355.718	87.19
355.945	77.19
356.172	77.19
356.399	90.19
356.626	82.19
356.853	91.19
357.08	77.19
357.307	84.19
357.534	91.19
357.761	83.19
357.988	83.19
358.215	71.19
358.441	71.19
358.668	81.19
358.895	77.19
359.122	88.19
359.349	85.19
359.576	84.19
359.802	87.19
360.029	79.19
360.256	76.19
360.483	84.19
360.709	93.19
360.936	82.19
361.163	79.19
361.39	87.19
361.616	85.19
361.843	82.19
362.07	94.19
362.296	75.19
362.523	65.19
362.749	86.19
362.976	85.19
363.203	92.19
363.429	80.19
363.656	85.19
363.882	98.19
364.109	94.19
364.335	79.19
364.562	83.19
364.788	60.19
365.015	75.19
365.241	78.19
365.468	86.19
365.694	83.19
365.92	94.19
366.147	81.19
366.373	88.19
366.599	85.19
366.826	73.19
367.052	87.19
367.278	103.19
367.505	98.19
367.731	81.19
367.957	85.19
368.184	90.19
368.41	83.19
368.636	71.19
368.862	76.19
369.089	92.19
369.315	73.19
369.541	82.19
369.767	90.19
369.993	82.19
370.219	91.19
370.445	91.19
370.672	75.19
370.898	87.19
371.124	83.19
371.35	83.19
371.576	87.19
371.802	81.19
372.028	95.19
372.254	94.19
372.48	78.19
372.706	83.19
372.932	89.19
373.158	96.19
373.384	93.19
373.61	92.19
373.835	80.19
374.061	81.19
374.287	99.19
374.513	103.19
374.739	91.19
374.965	82.19
375.191	81.19
375.416	82.19
375.642	83.19
375.868	85.19
376.094	81.19
376.319	81.19
376.545	74.19
376.771	75.19
376.997	92.19
377.222	83.19
377.448	78.19
377.674	74.19
377.899	75.19
378.125	82.19
378.35	79.19
378.576	77.19
378.802	73.19
379.027	82.19
379.253	85.19
379.478	82.19
379.704	89.19
379.929	84.19
380.155	91.19
380.38	64.19
380.606	77.19
380.831	84.19
381.057	94.19
381.282	92.19
381.507	86.19
381.733	92.19
381.958	87.19
382.184	75.19
382.409	85.19
382.634	94.19
382.86	91.19
383.085	76.19
383.31	83.19
383.535	99.19
383.761	93.19
383.986	89.19
384.211	83.19
384.436	81.19
384.662	74.19
384.887	80.19
385.112	97.19
385.337	86.19
385.562	92.19
385.787	82.19
386.013	95.19
386.238	89.19
386.463	80.19
386.688	70.19
386.913	68.19
387.138	97.19
387.363	86.19
387.588	86.19
387.813	89.19
388.038	87.19
388.263	81.19
388.488	77.19
388.713	72.19
388.938	84.19
389.163	75.19
389.387	94.19
389.612	86.19
389.837	85.19
390.062	99.19
390.287	102.19
390.512	89.19
390.736	95.19
390.961	83.19
391.186	91.19
391.411	85.19
391.636	79.19
391.86	87.19
392.085	77.19
392.31	83.19
392.534	81.19
392.759	82.19
392.984	87.19
393.208	87.19
393.433	85.19
393.658	81.19
393.882	86.19
394.107	77.19
394.331	79.19
394.556	87.19
394.78	88.19
395.005	102.19
395.229	88.19
395.454	92.19
395.678	73.19
395.903	91.19
396.127	79.19
396.352	78.19
396.576	87.19
396.801	70.19
397.025	83.19
397.249	87.19
397.474	78.19
397.698	92.19
397.922	95.19
398.147	88.19
398.371	82.19
398.595	78.19
398.82	88.19
399.044	93.19
399.268	100.19
399.492	88.19
399.717	88.19
399.941	90.19
400.165	83.19
400.389	84.19
400.613	91.19
400.837	85.19
401.062	90.19
401.286	76.19
401.51	76.19
401.734	95.19
401.958	91.19
402.182	79.19
402.406	71.19
402.63	86.19
402.854	79.19
403.078	87.19
403.302	97.19
403.526	98.19
403.75	95.19
403.974	103.19
404.198	99.19
404.422	85.19
404.645	99.19
404.869	84.19
405.093	78.19
405.317	96.19
405.541	100.19
405.765	101.19
405.988	98.19
406.212	84.19
406.436	84.19
406.66	92.19
406.883	78.19
407.107	86.19
407.331	90.19
407.555	79.19
407.778	79.19
408.002	92.19
408.226	68.19
408.449	95.19
408.673	84.19
408.896	81.19
409.12	97.19
409.344	86.19
409.567	85.19
409.791	84.19
410.014	88.19
410.238	93.19
410.461	97.19
410.685	82.19
410.908	87.19
411.132	95.19
411.355	83.19
411.578	85.19
411.802	95.19
412.025	93.19
412.249	87.19
412.472	85.19
412.695	87.19
412.919	83.19
413.142	101.19
413.365	82.19
413.589	87.19
413.812	84.19
414.035	87.19
414.258	85.19
414.482	94.19
414.705	96.19
414.928	91.19
415.151	99.19
415.374	86.19
415.597	76.19
415.821	88.19
416.044	88.19
416.267	76.19
416.49	82.19
416.713	81.19
416.936	94.19
417.159	98.19
417.382	100.19
417.605	89.19
417.828	83.19
418.051	91.19
418.274	90.19
418.497	79.19
418.72	98.19
418.943	102.19
419.166	88.19
419.389	109.19
419.611	98.19
419.834	89.19
420.057	86.19
420.28	90.19
420.503	94.19
420.726	112.19
420.948	106.19
421.171	98.19
421.394	110.19
421.617	98.19
421.839	102.19
422.062	84.19
422.285	89.19
422.507	100.19
422.73	84.19
422.953	99.19
423.175	87.19
423.398	97.19
423.621	100.19
423.843	88.19
424.066	92.19
424.288	92.19
424.511	99.19
424.733	105.19
424.956	92.19
425.178	89.19
425.401	86.19
425.623	82.19
425.846	85.19
426.068	88.19
426.291	87.19
426.513	96.19
426.735	96.19
426.958	92.19
427.18	96.19
427.402	84.19
427.625	91.19
427.847	92.19
428.069	99.19
428.292	90.19
428.514	84.19
428.736	97.19
428.958	92.19
429.181	91.19
429.403	94.19
429.625	91.19
429.847	104.19
430.069	92.19
430.292	96.19
430.514	82.19
430.736	86.19
430.958	86.19
431.18	86.19
431.402	84.19
431.624	91.19
431.846	90.19
432.068	84.19
432.29	82.19
432.512	96.19
432.734	99.19
432.956	105.19
433.178	103.19
433.4	89.19
433.622	94.19
433.844	81.19
434.066	92.19
434.287	84.19
434.509	81.19
434.731	88.19
434.953	93.19
435.175	90.19
435.397	96.19
435.618	90.19
435.84	95.19
436.062	101.19
436.284	91.19
436.505	96.19
436.727	101.19
436.949	92.19
437.17	91.19
437.392	91.19
437.614	89.19
437.835	85.19
438.057	90.19
438.278	92.19
438.5	103.19
438.721	102.19
438.943	103.19
439.165	116.19
439.386	96.19
439.608	82.19
439.829	94.19
440.05	86.19
440.272	94.19
440.493	98.19
440.715	87.19
440.936	92.19
441.158	98.19
441.379	82.19
441.6	107.19
441.822	101.19
442.043	98.19
442.264	87.19
442.486	82.19
442.707	92.19
442.928	91.19
443.149	87.19
443.371	106.19
443.592	94.19
443.813	91.19
444.034	90.19
444.255	104.19
444.476	92.19
444.698	90.19
444.919	97.19
445.14	201.19
445.361	142.19
445.582	115.19
445.803	94.19
446.024	99.19
446.245	90.19
446.466	91.19
446.687	100.19
446.908	92.19
447.129	105.19
447.35	90.19
447.571	100.19
447.792	87.19
448.013	86.19
448.234	91.19
448.455	93.19
448.675	103.19
448.896	93.19
449.117	94.19
449.338	91.19
449.559	97.19
449.779	89.19
450	90.19
450.221	98.19
450.442	89.19
450.662	96.19
450.883	82.19
451.104	92.19
451.324	96.19
451.545	100.19
451.766	86.19
451.986	81.19
452.207	84.19
452.428	99.19
452.648	99.19
452.869	96.19
453.089	95.19
453.31	92.19
453.53	85.19
453.751	91.19
453.971	98.19
454.192	87.19
454.412	92.19
454.633	83.19
454.853	92.19
455.073	94.19
455.294	90.19
455.514	75.19
455.734	82.19
455.955	99.19
456.175	78.19
456.395	90.19
456.616	99.19
456.836	98.19
457.056	77.19
457.276	98.19
457.497	91.19
457.717	87.19
457.937	93.19
458.157	80.19
458.377	88.19
458.598	76.19
458.818	91.19
459.038	82.19
459.258	79.19
459.478	86.19
459.698	84.19
459.918	75.19
460.138	75.19
460.358	83.19
460.578	88.19
460.798	100.19
461.018	91.19
461.238	92.19
461.458	84.19
461.678	88.19
461.898	79.19
462.118	81.19
462.338	103.19
462.558	107.19
462.777	89.19
462.997	87.19
463.217	96.19
463.437	85.19
463.657	80.19
463.876	89.19
464.096	86.19
464.316	94.19
464.536	80.19
464.755	89.19
464.975	80.19
465.195	92.19
465.414	89.19
465.634	84.19
465.854	82.19
466.073	90.19
466.293	98.19
466.512	102.19
466.732	84.19
466.951	94.19
467.171	94.19
467.391	93.19
467.61	94.19
467.829	95.19
468.049	104.19
468.268	116.19
468.488	92.19
468.707	86.19
468.927	82.19
469.146	87.19
469.365	99.19
469.585	94.19
469.804	89.19
470.023	98.19
470.243	94.19
470.462	92.19
470.681	96.19
470.901	101.19
471.12	92.19
471.339	92.19
471.558	96.19
471.777	98.19
471.997	94.19
472.216	88.19
472.435	83.19
472.654	85.19
472.873	94.19
473.092	79.19
473.311	91.19
473.53	83.19
473.749	94.19
473.968	93.19
474.187	84.19
474.406	99.19
474.625	83.19
474.844	90.19
475.063	94.19
475.282	106.19
475.501	117.19
475.72	95.19
475.939	99.19
476.158	94.19
476.377	90.19
476.596	83.19
476.814	95.19
477.033	94.19
477.252	96.19
477.471	108.19
477.69	91.19
477.908	86.19
478.127	92.19
478.346	87.19
478.564	91.19
478.783	91.19
479.002	90.19
479.22	98.19
479.439	97.19
479.658	94.19
479.876	89.19
480.095	95.19
480.313	91.19
480.532	97.19
480.751	91.19
480.969	79.19
481.188	74.19
481.406	100.19
481.624	96.19
481.843	87.19
482.061	96.19
482.28	88.19
482.498	92.19
482.717	83.19
482.935	91.19
483.153	97.19
483.372	103.19
483.59	93.19
483.808	96.19
484.027	106.19
484.245	89.19
484.463	75.19
484.681	91.19
484.9	86.19
485.118	83.19
485.336	89.19
485.554	97.19
485.772	80.19
485.99	83.19
486.209	71.19
486.427	80.19
486.645	96.19
486.863	97.19
487.081	99.19
487.299	106.19
487.517	95.19
487.735	103.19
487.953	103.19
488.171	107.19
488.389	111.19
488.607	107.19
488.825	95.19
489.043	91.19
489.261	98.19
489.479	87.19
489.696	90.19
489.914	99.19
490.132	88.19
490.35	104.19
490.568	98.19
490.786	114.19
491.003	105.19
491.221	106.19
491.439	103.19
491.657	103.19
491.874	116.19
492.092	123.19
492.31	131.19
492.527	121.19
492.745	113.19
492.963	112.19
493.18	122.19
493.398	82.19
493.615	116.19
493.833	95.19
494.05	108.19
494.268	103.19
494.485	127.19
494.703	107.19
494.92	108.19
495.138	104.19
495.355	113.19
495.573	119.19
495.79	108.19
496.008	126.19
496.225	116.19
496.442	112.19
496.66	102.19
496.877	107.19
497.094	122.19
497.312	109.19
497.529	118.19
497.746	110.19
497.963	89.19
498.181	85.19
498.398	83.19
498.615	89.19
498.832	99.19
499.049	94.19
499.267	105.19
499.484	101.19
499.701	95.19
499.918	86.19
500.135	83.19
500.352	99.19
500.569	88.19
500.786	108.19
501.003	84.19
501.22	108.19
501.437	96.19
501.654	104.19
501.871	96.19
502.088	81.19
502.305	91.19
502.522	99.19
502.739	107.19
502.956	106.19
503.172	102.19
503.389	91.19
503.606	94.19
503.823	99.19
504.04	91.19
504.256	91.19
504.473	96.19
504.69	102.19
504.907	103.19
505.123	94.19
505.34	90.19
505.557	91.19
505.773	101.19
505.99	89.19
506.207	92.19
506.423	79.19
506.64	101.19
506.856	84.19
507.073	95.19
507.289	92.19
507.506	92.19
507.722	94.19
507.939	95.19
508.155	97.19
508.372	94.19
508.588	87.19
508.805	98.19
509.021	78.19
509.238	100.19
509.454	94.19
509.67	94.19
509.887	97.19
510.103	91.19
510.319	80.19
510.536	97.19
510.752	82.19
510.968	83.19
511.184	83.19
511.401	71.19
511.617	98.19
511.833	85.19
512.049	91.19
512.265	92.19
512.481	83.19
512.698	82.19
512.914	95.19
513.13	86.19
513.346	90.19
513.562	87.19
513.778	82.19
513.994	87.19
514.21	82.19
514.426	90.19
514.642	95.19
514.858	78.19
515.074	80.19
515.29	79.19
515.506	77.19
515.721	74.19
515.937	83.19
516.153	74.19
516.369	84.19
516.585	89.19
516.801	81.19
517.016	92.19
517.232	89.19
517.448	78.19
517.664	91.19
517.879	77.19
