Data from Location5.07152019.Energy5.Lamp.07192019.3%Agarose_HRD10591_15-39-36-390.txt Node
Date: Fri Jul 19 15:39:36 EDT 2019
User: cochatt
Spectrometer: HR+D1059
Trigger mode: 1
Integration Time (sec): 1.000000E-1
Scans to average: 1
Electric dark correction enabled: true
Nonlinearity correction enabled: false
Boxcar width: 0
XAxis mode: Wavelengths
Number of Pixels in Spectrum: 2048
>>>>>Begin Spectral Data<<<<<
223.165	-16.19
223.4	-16.19
223.635	-16.19
223.869	2.81
224.104	-21.19
224.338	-19.19
224.573	-19.19
224.808	-13.19
225.042	-11.19
225.277	-9.19
225.511	3.81
225.746	0.81
225.98	7.81
226.215	30.81
226.449	11.81
226.683	9.81
226.918	16.81
227.152	24.81
227.387	34.81
227.621	39.81
227.856	40.81
228.09	42.81
228.324	40.81
228.559	52.81
228.793	44.81
229.027	59.81
229.262	64.81
229.496	75.81
229.73	65.81
229.964	73.81
230.199	77.81
230.433	73.81
230.667	72.81
230.901	72.81
231.136	82.81
231.37	84.81
231.604	68.81
231.838	86.81
232.072	79.81
232.306	85.81
232.541	75.81
232.775	91.81
233.009	74.81
233.243	89.81
233.477	85.81
233.711	85.81
233.945	77.81
234.179	76.81
234.413	79.81
234.647	66.81
234.881	73.81
235.115	79.81
235.349	85.81
235.583	89.81
235.817	72.81
236.051	68.81
236.285	69.81
236.519	72.81
236.753	69.81
236.987	86.81
237.221	66.81
237.455	73.81
237.689	75.81
237.922	76.81
238.156	86.81
238.39	73.81
238.624	70.81
238.858	77.81
239.091	79.81
239.325	71.81
239.559	87.81
239.793	83.81
240.027	89.81
240.26	66.81
240.494	79.81
240.728	73.81
240.961	73.81
241.195	79.81
241.429	82.81
241.662	70.81
241.896	77.81
242.13	66.81
242.363	88.81
242.597	72.81
242.83	68.81
243.064	75.81
243.298	75.81
243.531	54.81
243.765	73.81
243.998	72.81
244.232	65.81
244.465	75.81
244.699	69.81
244.932	69.81
245.166	77.81
245.399	77.81
245.633	67.81
245.866	74.81
246.099	83.81
246.333	65.81
246.566	75.81
246.8	67.81
247.033	70.81
247.266	62.81
247.5	80.81
247.733	64.81
247.966	66.81
248.2	103.81
248.433	81.81
248.666	66.81
248.899	80.81
249.133	74.81
249.366	84.81
249.599	74.81
249.832	74.81
250.066	86.81
250.299	86.81
250.532	70.81
250.765	68.81
250.998	80.81
251.231	76.81
251.465	87.81
251.698	69.81
251.931	81.81
252.164	76.81
252.397	87.81
252.63	74.81
252.863	86.81
253.096	77.81
253.329	86.81
253.562	75.81
253.795	83.81
254.028	83.81
254.261	70.81
254.494	79.81
254.727	67.81
254.96	70.81
255.193	89.81
255.426	71.81
255.659	72.81
255.892	95.81
256.124	78.81
256.357	66.81
256.59	84.81
256.823	90.81
257.056	93.81
257.289	82.81
257.521	76.81
257.754	69.81
257.987	77.81
258.22	77.81
258.452	71.81
258.685	80.81
258.918	81.81
259.151	79.81
259.383	77.81
259.616	64.81
259.849	86.81
260.081	83.81
260.314	81.81
260.547	77.81
260.779	64.81
261.012	81.81
261.244	85.81
261.477	75.81
261.71	84.81
261.942	85.81
262.175	75.81
262.407	74.81
262.64	80.81
262.872	78.81
263.105	86.81
263.337	79.81
263.57	86.81
263.802	84.81
264.035	72.81
264.267	61.81
264.499	75.81
264.732	67.81
264.964	84.81
265.197	76.81
265.429	73.81
265.661	87.81
265.894	84.81
266.126	83.81
266.358	80.81
266.591	74.81
266.823	87.81
267.055	77.81
267.287	78.81
267.52	71.81
267.752	84.81
267.984	86.81
268.216	77.81
268.448	95.81
268.681	84.81
268.913	71.81
269.145	93.81
269.377	80.81
269.609	76.81
269.841	66.81
270.073	69.81
270.306	73.81
270.538	72.81
270.77	76.81
271.002	69.81
271.234	84.81
271.466	85.81
271.698	84.81
271.93	83.81
272.162	74.81
272.394	89.81
272.626	80.81
272.858	76.81
273.09	67.81
273.322	85.81
273.553	81.81
273.785	73.81
274.017	73.81
274.249	83.81
274.481	82.81
274.713	83.81
274.945	72.81
275.176	76.81
275.408	103.81
275.64	79.81
275.872	80.81
276.104	74.81
276.335	78.81
276.567	56.81
276.799	81.81
277.031	78.81
277.262	78.81
277.494	86.81
277.726	78.81
277.957	82.81
278.189	77.81
278.421	84.81
278.652	93.81
278.884	75.81
279.115	70.81
279.347	85.81
279.579	73.81
279.81	81.81
280.042	89.81
280.273	95.81
280.505	93.81
280.736	76.81
280.968	82.81
281.199	82.81
281.431	79.81
281.662	83.81
281.894	105.81
282.125	96.81
282.356	79.81
282.588	87.81
282.819	68.81
283.051	72.81
283.282	84.81
283.513	93.81
283.745	86.81
283.976	69.81
284.207	81.81
284.439	85.81
284.67	91.81
284.901	73.81
285.132	88.81
285.364	95.81
285.595	90.81
285.826	83.81
286.057	97.81
286.288	99.81
286.52	91.81
286.751	95.81
286.982	76.81
287.213	86.81
287.444	86.81
287.675	86.81
287.906	73.81
288.138	77.81
288.369	87.81
288.6	86.81
288.831	71.81
289.062	92.81
289.293	90.81
289.524	86.81
289.755	84.81
289.986	70.81
290.217	97.81
290.448	95.81
290.679	86.81
290.91	88.81
291.141	81.81
291.371	79.81
291.602	96.81
291.833	80.81
292.064	79.81
292.295	70.81
292.526	80.81
292.757	83.81
292.987	81.81
293.218	77.81
293.449	93.81
293.68	92.81
293.91	85.81
294.141	84.81
294.372	87.81
294.603	85.81
294.833	82.81
295.064	79.81
295.295	82.81
295.525	81.81
295.756	68.81
295.987	76.81
296.217	72.81
296.448	89.81
296.679	77.81
296.909	85.81
297.14	97.81
297.37	91.81
297.601	89.81
297.831	69.81
298.062	93.81
298.292	79.81
298.523	93.81
298.753	77.81
298.984	77.81
299.214	94.81
299.445	81.81
299.675	78.81
299.905	94.81
300.136	92.81
300.366	75.81
300.597	80.81
300.827	90.81
301.057	70.81
301.288	74.81
301.518	74.81
301.748	84.81
301.979	70.81
302.209	72.81
302.439	83.81
302.669	85.81
302.9	77.81
303.13	81.81
303.36	82.81
303.59	76.81
303.82	85.81
304.051	88.81
304.281	85.81
304.511	71.81
304.741	87.81
304.971	71.81
305.201	75.81
305.431	87.81
305.661	81.81
305.891	95.81
306.121	79.81
306.352	74.81
306.582	73.81
306.812	74.81
307.042	78.81
307.272	87.81
307.502	85.81
307.731	72.81
307.961	83.81
308.191	85.81
308.421	89.81
308.651	81.81
308.881	89.81
309.111	90.81
309.341	82.81
309.571	76.81
309.8	90.81
310.03	90.81
310.26	78.81
310.49	80.81
310.72	84.81
310.949	96.81
311.179	87.81
311.409	77.81
311.639	90.81
311.868	82.81
312.098	80.81
312.328	95.81
312.557	80.81
312.787	76.81
313.017	83.81
313.246	81.81
313.476	80.81
313.706	95.81
313.935	79.81
314.165	88.81
314.394	89.81
314.624	80.81
314.853	89.81
315.083	77.81
315.312	81.81
315.542	88.81
315.771	89.81
316.001	93.81
316.23	76.81
316.46	83.81
316.689	100.81
316.919	97.81
317.148	82.81
317.377	84.81
317.607	90.81
317.836	79.81
318.065	90.81
318.295	88.81
318.524	81.81
318.753	69.81
318.983	77.81
319.212	74.81
319.441	91.81
319.67	102.81
319.9	89.81
320.129	72.81
320.358	85.81
320.587	81.81
320.816	83.81
321.046	87.81
321.275	83.81
321.504	88.81
321.733	73.81
321.962	79.81
322.191	76.81
322.42	72.81
322.649	79.81
322.878	89.81
323.108	80.81
323.337	92.81
323.566	82.81
323.795	86.81
324.024	88.81
324.253	96.81
324.482	72.81
324.71	73.81
324.939	79.81
325.168	80.81
325.397	91.81
325.626	88.81
325.855	76.81
326.084	86.81
326.313	88.81
326.542	72.81
326.77	76.81
326.999	77.81
327.228	76.81
327.457	70.81
327.686	73.81
327.914	64.81
328.143	76.81
328.372	73.81
328.6	96.81
328.829	95.81
329.058	90.81
329.287	81.81
329.515	86.81
329.744	68.81
329.972	85.81
330.201	80.81
330.43	79.81
330.658	85.81
330.887	96.81
331.115	82.81
331.344	81.81
331.572	93.81
331.801	75.81
332.03	85.81
332.258	76.81
332.486	85.81
332.715	90.81
332.943	85.81
333.172	94.81
333.4	93.81
333.629	93.81
333.857	88.81
334.085	82.81
334.314	71.81
334.542	85.81
334.771	74.81
334.999	71.81
335.227	84.81
335.455	78.81
335.684	74.81
335.912	85.81
336.14	85.81
336.369	85.81
336.597	78.81
336.825	85.81
337.053	88.81
337.281	77.81
337.51	52.81
337.738	81.81
337.966	67.81
338.194	75.81
338.422	88.81
338.65	78.81
338.878	80.81
339.106	89.81
339.334	84.81
339.562	74.81
339.79	100.81
340.018	74.81
340.246	65.81
340.474	82.81
340.702	87.81
340.93	87.81
341.158	78.81
341.386	89.81
341.614	77.81
341.842	80.81
342.07	87.81
342.298	81.81
342.526	67.81
342.754	86.81
342.981	86.81
343.209	80.81
343.437	92.81
343.665	84.81
343.893	77.81
344.12	96.81
344.348	94.81
344.576	84.81
344.804	75.81
345.031	69.81
345.259	81.81
345.487	78.81
345.714	76.81
345.942	77.81
346.17	79.81
346.397	77.81
346.625	84.81
346.853	79.81
347.08	69.81
347.308	71.81
347.535	90.81
347.763	94.81
347.99	73.81
348.218	89.81
348.445	72.81
348.673	83.81
348.9	101.81
349.128	90.81
349.355	74.81
349.583	81.81
349.81	77.81
350.037	93.81
350.265	64.81
350.492	95.81
350.72	90.81
350.947	88.81
351.174	83.81
351.402	74.81
351.629	75.81
351.856	73.81
352.083	77.81
352.311	70.81
352.538	82.81
352.765	70.81
352.992	88.81
353.22	82.81
353.447	88.81
353.674	81.81
353.901	87.81
354.128	77.81
354.355	84.81
354.583	90.81
354.81	74.81
355.037	95.81
355.264	87.81
355.491	82.81
355.718	83.81
355.945	93.81
356.172	74.81
356.399	73.81
356.626	70.81
356.853	88.81
357.08	68.81
357.307	78.81
357.534	75.81
357.761	90.81
357.988	65.81
358.215	88.81
358.441	82.81
358.668	81.81
358.895	81.81
359.122	95.81
359.349	92.81
359.576	67.81
359.802	93.81
360.029	73.81
360.256	81.81
360.483	90.81
360.709	78.81
360.936	84.81
361.163	86.81
361.39	89.81
361.616	90.81
361.843	94.81
362.07	75.81
362.296	77.81
362.523	98.81
362.749	76.81
362.976	69.81
363.203	81.81
363.429	77.81
363.656	80.81
363.882	73.81
364.109	74.81
364.335	80.81
364.562	66.81
364.788	72.81
365.015	73.81
365.241	81.81
365.468	74.81
365.694	88.81
365.92	78.81
366.147	77.81
366.373	82.81
366.599	104.81
366.826	80.81
367.052	75.81
367.278	83.81
367.505	89.81
367.731	95.81
367.957	92.81
368.184	89.81
368.41	72.81
368.636	64.81
368.862	87.81
369.089	65.81
369.315	77.81
369.541	93.81
369.767	89.81
369.993	83.81
370.219	82.81
370.445	82.81
370.672	74.81
370.898	84.81
371.124	79.81
371.35	78.81
371.576	86.81
371.802	73.81
372.028	67.81
372.254	76.81
372.48	76.81
372.706	71.81
372.932	78.81
373.158	74.81
373.384	82.81
373.61	87.81
373.835	81.81
374.061	91.81
374.287	96.81
374.513	97.81
374.739	76.81
374.965	89.81
375.191	89.81
375.416	71.81
375.642	76.81
375.868	88.81
376.094	88.81
376.319	79.81
376.545	82.81
376.771	80.81
376.997	82.81
377.222	70.81
377.448	90.81
377.674	76.81
377.899	84.81
378.125	77.81
378.35	86.81
378.576	74.81
378.802	67.81
379.027	77.81
379.253	75.81
379.478	87.81
379.704	86.81
379.929	77.81
380.155	77.81
380.38	76.81
380.606	87.81
380.831	80.81
381.057	90.81
381.282	72.81
381.507	93.81
381.733	92.81
381.958	82.81
382.184	85.81
382.409	86.81
382.634	82.81
382.86	87.81
383.085	91.81
383.31	93.81
383.535	77.81
383.761	83.81
383.986	86.81
384.211	78.81
384.436	95.81
384.662	95.81
384.887	103.81
385.112	75.81
385.337	88.81
385.562	81.81
385.787	87.81
386.013	87.81
386.238	95.81
386.463	93.81
386.688	82.81
386.913	67.81
387.138	76.81
387.363	92.81
387.588	97.81
387.813	80.81
388.038	78.81
388.263	80.81
388.488	86.81
388.713	82.81
388.938	80.81
389.163	81.81
389.387	89.81
389.612	86.81
389.837	87.81
390.062	88.81
390.287	96.81
390.512	75.81
390.736	84.81
390.961	92.81
391.186	81.81
391.411	73.81
391.636	95.81
391.86	63.81
392.085	88.81
392.31	89.81
392.534	97.81
392.759	88.81
392.984	69.81
393.208	84.81
393.433	82.81
393.658	86.81
393.882	85.81
394.107	73.81
394.331	74.81
394.556	86.81
394.78	79.81
395.005	69.81
395.229	75.81
395.454	88.81
395.678	87.81
395.903	68.81
396.127	82.81
396.352	81.81
396.576	88.81
396.801	83.81
397.025	82.81
397.249	91.81
397.474	87.81
397.698	81.81
397.922	89.81
398.147	73.81
398.371	80.81
398.595	72.81
398.82	82.81
399.044	78.81
399.268	90.81
399.492	73.81
399.717	86.81
399.941	88.81
400.165	97.81
400.389	90.81
400.613	78.81
400.837	94.81
401.062	82.81
401.286	79.81
401.51	72.81
401.734	91.81
401.958	94.81
402.182	87.81
402.406	85.81
402.63	74.81
402.854	85.81
403.078	80.81
403.302	83.81
403.526	85.81
403.75	93.81
403.974	81.81
404.198	81.81
404.422	92.81
404.645	86.81
404.869	70.81
405.093	94.81
405.317	95.81
405.541	85.81
405.765	83.81
405.988	90.81
406.212	81.81
406.436	89.81
406.66	88.81
406.883	89.81
407.107	79.81
407.331	95.81
407.555	90.81
407.778	85.81
408.002	78.81
408.226	88.81
408.449	79.81
408.673	88.81
408.896	89.81
409.12	100.81
409.344	80.81
409.567	87.81
409.791	79.81
410.014	86.81
410.238	89.81
410.461	89.81
410.685	97.81
410.908	94.81
411.132	80.81
411.355	99.81
411.578	93.81
411.802	88.81
412.025	84.81
412.249	104.81
412.472	82.81
412.695	89.81
412.919	88.81
413.142	88.81
413.365	90.81
413.589	77.81
413.812	79.81
414.035	104.81
414.258	88.81
414.482	95.81
414.705	75.81
414.928	76.81
415.151	80.81
415.374	97.81
415.597	110.81
415.821	76.81
416.044	87.81
416.267	82.81
416.49	82.81
416.713	107.81
416.936	86.81
417.159	84.81
417.382	77.81
417.605	75.81
417.828	89.81
418.051	83.81
418.274	89.81
418.497	99.81
418.72	72.81
418.943	94.81
419.166	85.81
419.389	80.81
419.611	88.81
419.834	84.81
420.057	73.81
420.28	103.81
420.503	79.81
420.726	85.81
420.948	81.81
421.171	78.81
421.394	88.81
421.617	90.81
421.839	81.81
422.062	99.81
422.285	93.81
422.507	86.81
422.73	104.81
422.953	82.81
423.175	99.81
423.398	93.81
423.621	83.81
423.843	84.81
424.066	88.81
424.288	100.81
424.511	88.81
424.733	95.81
424.956	85.81
425.178	88.81
425.401	96.81
425.623	94.81
425.846	88.81
426.068	77.81
426.291	90.81
426.513	76.81
426.735	79.81
426.958	100.81
427.18	96.81
427.402	97.81
427.625	89.81
427.847	81.81
428.069	97.81
428.292	91.81
428.514	87.81
428.736	74.81
428.958	81.81
429.181	92.81
429.403	94.81
429.625	93.81
429.847	83.81
430.069	96.81
430.292	94.81
430.514	105.81
430.736	85.81
430.958	90.81
431.18	81.81
431.402	92.81
431.624	84.81
431.846	87.81
432.068	81.81
432.29	79.81
432.512	97.81
432.734	89.81
432.956	80.81
433.178	85.81
433.4	89.81
433.622	87.81
433.844	87.81
434.066	93.81
434.287	89.81
434.509	89.81
434.731	91.81
434.953	71.81
435.175	85.81
435.397	86.81
435.618	82.81
435.84	85.81
436.062	87.81
436.284	85.81
436.505	80.81
436.727	98.81
436.949	88.81
437.17	79.81
437.392	91.81
437.614	98.81
437.835	83.81
438.057	79.81
438.278	94.81
438.5	101.81
438.721	91.81
438.943	85.81
439.165	92.81
439.386	80.81
439.608	93.81
439.829	87.81
440.05	97.81
440.272	96.81
440.493	92.81
440.715	106.81
440.936	109.81
441.158	96.81
441.379	98.81
441.6	88.81
441.822	87.81
442.043	93.81
442.264	86.81
442.486	95.81
442.707	82.81
442.928	95.81
443.149	92.81
443.371	109.81
443.592	86.81
443.813	94.81
444.034	89.81
444.255	96.81
444.476	108.81
444.698	86.81
444.919	85.81
445.14	224.81
445.361	139.81
445.582	85.81
445.803	92.81
446.024	89.81
446.245	81.81
446.466	92.81
446.687	95.81
446.908	88.81
447.129	91.81
447.35	97.81
447.571	85.81
447.792	89.81
448.013	76.81
448.234	92.81
448.455	87.81
448.675	90.81
448.896	89.81
449.117	85.81
449.338	91.81
449.559	97.81
449.779	74.81
450	90.81
450.221	102.81
450.442	96.81
450.662	87.81
450.883	82.81
451.104	101.81
451.324	106.81
451.545	95.81
451.766	95.81
451.986	66.81
452.207	80.81
452.428	84.81
452.648	97.81
452.869	97.81
453.089	90.81
453.31	80.81
453.53	98.81
453.751	85.81
453.971	100.81
454.192	74.81
454.412	92.81
454.633	94.81
454.853	92.81
455.073	70.81
455.294	81.81
455.514	97.81
455.734	77.81
455.955	92.81
456.175	89.81
456.395	94.81
456.616	90.81
456.836	80.81
457.056	93.81
457.276	94.81
457.497	81.81
457.717	85.81
457.937	85.81
458.157	91.81
458.377	76.81
458.598	82.81
458.818	65.81
459.038	67.81
459.258	81.81
459.478	93.81
459.698	88.81
459.918	93.81
460.138	75.81
460.358	102.81
460.578	83.81
460.798	80.81
461.018	77.81
461.238	88.81
461.458	90.81
461.678	75.81
461.898	70.81
462.118	77.81
462.338	84.81
462.558	93.81
462.777	77.81
462.997	96.81
463.217	86.81
463.437	85.81
463.657	78.81
463.876	68.81
464.096	89.81
464.316	73.81
464.536	80.81
464.755	94.81
464.975	100.81
465.195	87.81
465.414	86.81
465.634	74.81
465.854	100.81
466.073	87.81
466.293	94.81
466.512	98.81
466.732	86.81
466.951	92.81
467.171	88.81
467.391	84.81
467.61	88.81
467.829	104.81
468.049	93.81
468.268	102.81
468.488	92.81
468.707	91.81
468.927	99.81
469.146	101.81
469.365	94.81
469.585	100.81
469.804	91.81
470.023	96.81
470.243	93.81
470.462	86.81
470.681	109.81
470.901	109.81
471.12	94.81
471.339	103.81
471.558	93.81
471.777	96.81
471.997	90.81
472.216	93.81
472.435	84.81
472.654	92.81
472.873	81.81
473.092	92.81
473.311	102.81
473.53	87.81
473.749	64.81
473.968	70.81
474.187	94.81
474.406	80.81
474.625	92.81
474.844	96.81
475.063	95.81
475.282	87.81
475.501	74.81
475.72	101.81
475.939	86.81
476.158	103.81
476.377	87.81
476.596	81.81
476.814	81.81
477.033	80.81
477.252	74.81
477.471	86.81
477.69	86.81
477.908	92.81
478.127	75.81
478.346	85.81
478.564	102.81
478.783	82.81
479.002	88.81
479.22	88.81
479.439	102.81
479.658	74.81
479.876	96.81
480.095	88.81
480.313	87.81
480.532	95.81
480.751	79.81
480.969	80.81
481.188	80.81
481.406	78.81
481.624	89.81
481.843	74.81
482.061	82.81
482.28	81.81
482.498	97.81
482.717	91.81
482.935	89.81
483.153	89.81
483.372	94.81
483.59	102.81
483.808	101.81
484.027	85.81
484.245	89.81
484.463	98.81
484.681	98.81
484.9	106.81
485.118	89.81
485.336	79.81
485.554	87.81
485.772	80.81
485.99	85.81
486.209	87.81
486.427	83.81
486.645	79.81
486.863	93.81
487.081	74.81
487.299	87.81
487.517	91.81
487.735	88.81
487.953	109.81
488.171	108.81
488.389	99.81
488.607	96.81
488.825	101.81
489.043	81.81
489.261	95.81
489.479	98.81
489.696	89.81
489.914	88.81
490.132	97.81
490.35	94.81
490.568	108.81
490.786	100.81
491.003	96.81
491.221	104.81
491.439	100.81
491.657	96.81
491.874	97.81
492.092	103.81
492.31	118.81
492.527	134.81
492.745	109.81
492.963	117.81
493.18	108.81
493.398	102.81
493.615	110.81
493.833	102.81
494.05	99.81
494.268	104.81
494.485	94.81
494.703	109.81
494.92	94.81
495.138	108.81
495.355	102.81
495.573	82.81
495.79	98.81
496.008	95.81
496.225	108.81
496.442	115.81
496.66	110.81
496.877	108.81
497.094	88.81
497.312	96.81
497.529	97.81
497.746	91.81
497.963	93.81
498.181	89.81
498.398	89.81
498.615	97.81
498.832	97.81
499.049	86.81
499.267	114.81
499.484	95.81
499.701	95.81
499.918	91.81
500.135	105.81
500.352	102.81
500.569	85.81
500.786	93.81
501.003	84.81
501.22	89.81
501.437	110.81
501.654	83.81
501.871	86.81
502.088	86.81
502.305	80.81
502.522	81.81
502.739	96.81
502.956	80.81
503.172	97.81
503.389	87.81
503.606	88.81
503.823	94.81
504.04	91.81
504.256	87.81
504.473	88.81
504.69	96.81
504.907	84.81
505.123	94.81
505.34	83.81
505.557	90.81
505.773	102.81
505.99	92.81
506.207	100.81
506.423	99.81
506.64	87.81
506.856	91.81
507.073	91.81
507.289	90.81
507.506	84.81
507.722	79.81
507.939	84.81
508.155	83.81
508.372	85.81
508.588	82.81
508.805	93.81
509.021	97.81
509.238	92.81
509.454	92.81
509.67	73.81
509.887	82.81
510.103	78.81
510.319	68.81
510.536	88.81
510.752	75.81
510.968	76.81
511.184	82.81
511.401	71.81
511.617	78.81
511.833	82.81
512.049	82.81
512.265	80.81
512.481	94.81
512.698	87.81
512.914	80.81
513.13	85.81
513.346	100.81
513.562	86.81
513.778	69.81
513.994	79.81
514.21	72.81
514.426	76.81
514.642	89.81
514.858	88.81
515.074	78.81
515.29	82.81
515.506	87.81
515.721	81.81
515.937	85.81
516.153	85.81
516.369	84.81
516.585	79.81
516.801	72.81
517.016	85.81
517.232	93.81
517.448	91.81
517.664	84.81
517.879	80.81
518.095	73.81
518.311	79.81
518.527	88.81
