Data from Location5.07152019.Energy5.Lamp.07192019.3%Agarose_HRD10591_16-03-08-629.txt Node
Date: Fri Jul 19 16:03:08 EDT 2019
User: cochatt
Spectrometer: HR+D1059
Trigger mode: 1
Integration Time (sec): 1.000000E-1
Scans to average: 1
Electric dark correction enabled: true
Nonlinearity correction enabled: false
Boxcar width: 0
XAxis mode: Wavelengths
Number of Pixels in Spectrum: 2048
>>>>>Begin Spectral Data<<<<<
223.165	-10.88
223.4	-10.88
223.635	-10.88
223.869	-11.88
224.104	-15.88
224.338	-18.88
224.573	-26.88
224.808	-1.88
225.042	-8.88
225.277	-6.88
225.511	-8.88
225.746	11.12
225.98	0.12
226.215	12.12
226.449	8.12
226.683	20.12
226.918	31.12
227.152	28.12
227.387	29.12
227.621	33.12
227.856	57.12
228.09	56.12
228.324	50.12
228.559	60.12
228.793	52.12
229.027	73.12
229.262	67.12
229.496	64.12
229.73	65.12
229.964	72.12
230.199	69.12
230.433	84.12
230.667	73.12
230.901	70.12
231.136	81.12
231.37	94.12
231.604	89.12
231.838	89.12
232.072	93.12
232.306	83.12
232.541	82.12
232.775	84.12
233.009	65.12
233.243	82.12
233.477	93.12
233.711	89.12
233.945	74.12
234.179	74.12
234.413	82.12
234.647	84.12
234.881	72.12
235.115	98.12
235.349	79.12
235.583	69.12
235.817	81.12
236.051	86.12
236.285	83.12
236.519	83.12
236.753	71.12
236.987	73.12
237.221	88.12
237.455	80.12
237.689	71.12
237.922	60.12
238.156	73.12
238.39	75.12
238.624	74.12
238.858	73.12
239.091	81.12
239.325	81.12
239.559	79.12
239.793	77.12
240.027	73.12
240.26	70.12
240.494	65.12
240.728	74.12
240.961	83.12
241.195	76.12
241.429	74.12
241.662	47.12
241.896	73.12
242.13	80.12
242.363	77.12
242.597	91.12
242.83	95.12
243.064	85.12
243.298	83.12
243.531	86.12
243.765	91.12
243.998	78.12
244.232	68.12
244.465	71.12
244.699	73.12
244.932	88.12
245.166	84.12
245.399	86.12
245.633	80.12
245.866	73.12
246.099	69.12
246.333	81.12
246.566	82.12
246.8	92.12
247.033	61.12
247.266	82.12
247.5	77.12
247.733	79.12
247.966	82.12
248.2	81.12
248.433	76.12
248.666	67.12
248.899	93.12
249.133	101.12
249.366	94.12
249.599	86.12
249.832	85.12
250.066	67.12
250.299	83.12
250.532	88.12
250.765	87.12
250.998	74.12
251.231	89.12
251.465	81.12
251.698	71.12
251.931	84.12
252.164	75.12
252.397	86.12
252.63	87.12
252.863	69.12
253.096	90.12
253.329	80.12
253.562	84.12
253.795	81.12
254.028	86.12
254.261	81.12
254.494	90.12
254.727	93.12
254.96	77.12
255.193	87.12
255.426	79.12
255.659	64.12
255.892	85.12
256.124	75.12
256.357	91.12
256.59	76.12
256.823	80.12
257.056	81.12
257.289	82.12
257.521	65.12
257.754	77.12
257.987	80.12
258.22	90.12
258.452	81.12
258.685	77.12
258.918	98.12
259.151	75.12
259.383	67.12
259.616	90.12
259.849	89.12
260.081	76.12
260.314	82.12
260.547	77.12
260.779	78.12
261.012	95.12
261.244	95.12
261.477	75.12
261.71	68.12
261.942	81.12
262.175	80.12
262.407	80.12
262.64	82.12
262.872	80.12
263.105	97.12
263.337	98.12
263.57	85.12
263.802	81.12
264.035	91.12
264.267	88.12
264.499	72.12
264.732	87.12
264.964	88.12
265.197	73.12
265.429	77.12
265.661	72.12
265.894	89.12
266.126	87.12
266.358	77.12
266.591	90.12
266.823	81.12
267.055	86.12
267.287	86.12
267.52	93.12
267.752	102.12
267.984	80.12
268.216	84.12
268.448	81.12
268.681	92.12
268.913	86.12
269.145	86.12
269.377	84.12
269.609	102.12
269.841	82.12
270.073	74.12
270.306	66.12
270.538	85.12
270.77	92.12
271.002	81.12
271.234	82.12
271.466	82.12
271.698	93.12
271.93	90.12
272.162	90.12
272.394	84.12
272.626	89.12
272.858	91.12
273.09	92.12
273.322	102.12
273.553	76.12
273.785	84.12
274.017	81.12
274.249	90.12
274.481	91.12
274.713	89.12
274.945	82.12
275.176	82.12
275.408	81.12
275.64	89.12
275.872	80.12
276.104	86.12
276.335	84.12
276.567	83.12
276.799	91.12
277.031	93.12
277.262	90.12
277.494	77.12
277.726	78.12
277.957	89.12
278.189	87.12
278.421	88.12
278.652	89.12
278.884	85.12
279.115	84.12
279.347	81.12
279.579	91.12
279.81	98.12
280.042	84.12
280.273	83.12
280.505	79.12
280.736	94.12
280.968	82.12
281.199	83.12
281.431	93.12
281.662	92.12
281.894	84.12
282.125	82.12
282.356	96.12
282.588	98.12
282.819	92.12
283.051	75.12
283.282	94.12
283.513	82.12
283.745	87.12
283.976	99.12
284.207	89.12
284.439	82.12
284.67	87.12
284.901	95.12
285.132	90.12
285.364	88.12
285.595	88.12
285.826	73.12
286.057	85.12
286.288	105.12
286.52	81.12
286.751	114.12
286.982	92.12
287.213	79.12
287.444	91.12
287.675	77.12
287.906	92.12
288.138	85.12
288.369	90.12
288.6	88.12
288.831	94.12
289.062	92.12
289.293	87.12
289.524	89.12
289.755	82.12
289.986	90.12
290.217	92.12
290.448	86.12
290.679	92.12
290.91	96.12
291.141	80.12
291.371	96.12
291.602	74.12
291.833	96.12
292.064	95.12
292.295	102.12
292.526	73.12
292.757	95.12
292.987	91.12
293.218	71.12
293.449	97.12
293.68	91.12
293.91	91.12
294.141	96.12
294.372	88.12
294.603	88.12
294.833	99.12
295.064	86.12
295.295	92.12
295.525	91.12
295.756	99.12
295.987	110.12
296.217	79.12
296.448	104.12
296.679	89.12
296.909	82.12
297.14	95.12
297.37	91.12
297.601	97.12
297.831	81.12
298.062	98.12
298.292	88.12
298.523	103.12
298.753	83.12
298.984	95.12
299.214	93.12
299.445	94.12
299.675	91.12
299.905	96.12
300.136	89.12
300.366	97.12
300.597	103.12
300.827	105.12
301.057	93.12
301.288	78.12
301.518	96.12
301.748	99.12
301.979	82.12
302.209	85.12
302.439	98.12
302.669	95.12
302.9	80.12
303.13	98.12
303.36	92.12
303.59	91.12
303.82	100.12
304.051	88.12
304.281	89.12
304.511	100.12
304.741	90.12
304.971	85.12
305.201	102.12
305.431	103.12
305.661	105.12
305.891	95.12
306.121	90.12
306.352	94.12
306.582	85.12
306.812	90.12
307.042	82.12
307.272	97.12
307.502	101.12
307.731	104.12
307.961	102.12
308.191	82.12
308.421	87.12
308.651	102.12
308.881	87.12
309.111	88.12
309.341	104.12
309.571	82.12
309.8	87.12
310.03	86.12
310.26	91.12
310.49	84.12
310.72	101.12
310.949	80.12
311.179	95.12
311.409	94.12
311.639	98.12
311.868	100.12
312.098	84.12
312.328	99.12
312.557	90.12
312.787	75.12
313.017	91.12
313.246	104.12
313.476	83.12
313.706	97.12
313.935	79.12
314.165	95.12
314.394	95.12
314.624	78.12
314.853	66.12
315.083	90.12
315.312	98.12
315.542	96.12
315.771	93.12
316.001	73.12
316.23	86.12
316.46	94.12
316.689	96.12
316.919	79.12
317.148	89.12
317.377	95.12
317.607	89.12
317.836	94.12
318.065	94.12
318.295	87.12
318.524	93.12
318.753	83.12
318.983	90.12
319.212	98.12
319.441	90.12
319.67	105.12
319.9	106.12
320.129	97.12
320.358	97.12
320.587	94.12
320.816	88.12
321.046	87.12
321.275	91.12
321.504	69.12
321.733	88.12
321.962	86.12
322.191	88.12
322.42	89.12
322.649	74.12
322.878	94.12
323.108	98.12
323.337	91.12
323.566	106.12
323.795	93.12
324.024	94.12
324.253	87.12
324.482	96.12
324.71	87.12
324.939	101.12
325.168	85.12
325.397	93.12
325.626	91.12
325.855	88.12
326.084	98.12
326.313	100.12
326.542	101.12
326.77	99.12
326.999	99.12
327.228	99.12
327.457	75.12
327.686	97.12
327.914	95.12
328.143	99.12
328.372	90.12
328.6	82.12
328.829	83.12
329.058	87.12
329.287	87.12
329.515	100.12
329.744	98.12
329.972	98.12
330.201	95.12
330.43	81.12
330.658	98.12
330.887	100.12
331.115	102.12
331.344	94.12
331.572	104.12
331.801	92.12
332.03	109.12
332.258	106.12
332.486	103.12
332.715	91.12
332.943	88.12
333.172	92.12
333.4	79.12
333.629	111.12
333.857	101.12
334.085	96.12
334.314	105.12
334.542	99.12
334.771	104.12
334.999	108.12
335.227	96.12
335.455	101.12
335.684	92.12
335.912	89.12
336.14	80.12
336.369	95.12
336.597	95.12
336.825	86.12
337.053	87.12
337.281	104.12
337.51	90.12
337.738	98.12
337.966	106.12
338.194	87.12
338.422	89.12
338.65	93.12
338.878	88.12
339.106	80.12
339.334	78.12
339.562	88.12
339.79	71.12
340.018	98.12
340.246	89.12
340.474	85.12
340.702	96.12
340.93	87.12
341.158	89.12
341.386	91.12
341.614	84.12
341.842	92.12
342.07	82.12
342.298	96.12
342.526	101.12
342.754	81.12
342.981	91.12
343.209	94.12
343.437	96.12
343.665	89.12
343.893	94.12
344.12	100.12
344.348	103.12
344.576	96.12
344.804	83.12
345.031	86.12
345.259	87.12
345.487	82.12
345.714	89.12
345.942	99.12
346.17	95.12
346.397	85.12
346.625	82.12
346.853	95.12
347.08	91.12
347.308	88.12
347.535	105.12
347.763	87.12
347.99	100.12
348.218	96.12
348.445	86.12
348.673	93.12
348.9	76.12
349.128	91.12
349.355	88.12
349.583	93.12
349.81	88.12
350.037	76.12
350.265	100.12
350.492	92.12
350.72	91.12
350.947	85.12
351.174	114.12
351.402	105.12
351.629	101.12
351.856	94.12
352.083	91.12
352.311	98.12
352.538	89.12
352.765	85.12
352.992	92.12
353.22	95.12
353.447	75.12
353.674	93.12
353.901	83.12
354.128	91.12
354.355	83.12
354.583	102.12
354.81	84.12
355.037	100.12
355.264	89.12
355.491	104.12
355.718	80.12
355.945	84.12
356.172	88.12
356.399	84.12
356.626	87.12
356.853	91.12
357.08	98.12
357.307	92.12
357.534	96.12
357.761	88.12
357.988	75.12
358.215	82.12
358.441	91.12
358.668	87.12
358.895	102.12
359.122	89.12
359.349	88.12
359.576	87.12
359.802	82.12
360.029	84.12
360.256	99.12
360.483	89.12
360.709	80.12
360.936	99.12
361.163	75.12
361.39	97.12
361.616	82.12
361.843	83.12
362.07	104.12
362.296	87.12
362.523	89.12
362.749	101.12
362.976	93.12
363.203	97.12
363.429	89.12
363.656	106.12
363.882	80.12
364.109	91.12
364.335	97.12
364.562	94.12
364.788	98.12
365.015	89.12
365.241	101.12
365.468	93.12
365.694	93.12
365.92	92.12
366.147	91.12
366.373	94.12
366.599	97.12
366.826	93.12
367.052	86.12
367.278	93.12
367.505	91.12
367.731	100.12
367.957	92.12
368.184	90.12
368.41	92.12
368.636	92.12
368.862	89.12
369.089	79.12
369.315	95.12
369.541	92.12
369.767	83.12
369.993	81.12
370.219	89.12
370.445	92.12
370.672	87.12
370.898	104.12
371.124	93.12
371.35	89.12
371.576	85.12
371.802	86.12
372.028	106.12
372.254	104.12
372.48	99.12
372.706	94.12
372.932	89.12
373.158	93.12
373.384	95.12
373.61	89.12
373.835	95.12
374.061	103.12
374.287	97.12
374.513	94.12
374.739	102.12
374.965	94.12
375.191	89.12
375.416	87.12
375.642	86.12
375.868	87.12
376.094	89.12
376.319	82.12
376.545	86.12
376.771	89.12
376.997	97.12
377.222	99.12
377.448	91.12
377.674	90.12
377.899	81.12
378.125	98.12
378.35	101.12
378.576	96.12
378.802	89.12
379.027	89.12
379.253	92.12
379.478	86.12
379.704	101.12
379.929	89.12
380.155	84.12
380.38	90.12
380.606	88.12
380.831	97.12
381.057	97.12
381.282	93.12
381.507	87.12
381.733	102.12
381.958	103.12
382.184	89.12
382.409	79.12
382.634	91.12
382.86	76.12
383.085	83.12
383.31	97.12
383.535	92.12
383.761	85.12
383.986	97.12
384.211	105.12
384.436	112.12
384.662	96.12
384.887	94.12
385.112	99.12
385.337	89.12
385.562	117.12
385.787	95.12
386.013	100.12
386.238	99.12
386.463	85.12
386.688	89.12
386.913	93.12
387.138	86.12
387.363	92.12
387.588	92.12
387.813	92.12
388.038	95.12
388.263	88.12
388.488	90.12
388.713	92.12
388.938	76.12
389.163	92.12
389.387	119.12
389.612	95.12
389.837	95.12
390.062	98.12
390.287	77.12
390.512	86.12
390.736	92.12
390.961	95.12
391.186	92.12
391.411	85.12
391.636	95.12
391.86	104.12
392.085	96.12
392.31	106.12
392.534	102.12
392.759	102.12
392.984	99.12
393.208	99.12
393.433	93.12
393.658	94.12
393.882	88.12
394.107	101.12
394.331	95.12
394.556	95.12
394.78	89.12
395.005	87.12
395.229	88.12
395.454	101.12
395.678	103.12
395.903	111.12
396.127	83.12
396.352	93.12
396.576	87.12
396.801	88.12
397.025	92.12
397.249	87.12
397.474	81.12
397.698	89.12
397.922	112.12
398.147	81.12
398.371	82.12
398.595	99.12
398.82	109.12
399.044	106.12
399.268	106.12
399.492	100.12
399.717	109.12
399.941	106.12
400.165	94.12
400.389	107.12
400.613	98.12
400.837	91.12
401.062	99.12
401.286	101.12
401.51	92.12
401.734	112.12
401.958	91.12
402.182	93.12
402.406	89.12
402.63	104.12
402.854	102.12
403.078	111.12
403.302	109.12
403.526	81.12
403.75	103.12
403.974	92.12
404.198	102.12
404.422	117.12
404.645	91.12
404.869	86.12
405.093	95.12
405.317	110.12
405.541	87.12
405.765	92.12
405.988	93.12
406.212	99.12
406.436	105.12
406.66	82.12
406.883	90.12
407.107	109.12
407.331	97.12
407.555	89.12
407.778	101.12
408.002	105.12
408.226	98.12
408.449	100.12
408.673	104.12
408.896	99.12
409.12	94.12
409.344	108.12
409.567	100.12
409.791	95.12
410.014	113.12
410.238	97.12
410.461	111.12
410.685	105.12
410.908	98.12
411.132	93.12
411.355	93.12
411.578	87.12
411.802	94.12
412.025	97.12
412.249	101.12
412.472	115.12
412.695	98.12
412.919	92.12
413.142	116.12
413.365	80.12
413.589	104.12
413.812	93.12
414.035	108.12
414.258	86.12
414.482	97.12
414.705	104.12
414.928	86.12
415.151	103.12
415.374	98.12
415.597	107.12
415.821	115.12
416.044	97.12
416.267	115.12
416.49	113.12
416.713	99.12
416.936	100.12
417.159	103.12
417.382	93.12
417.605	104.12
417.828	106.12
418.051	103.12
418.274	97.12
418.497	104.12
418.72	103.12
418.943	97.12
419.166	98.12
419.389	111.12
419.611	111.12
419.834	100.12
420.057	85.12
420.28	101.12
420.503	97.12
420.726	100.12
420.948	105.12
421.171	100.12
421.394	108.12
421.617	97.12
421.839	102.12
422.062	96.12
422.285	96.12
422.507	99.12
422.73	98.12
422.953	96.12
423.175	104.12
423.398	111.12
423.621	90.12
423.843	87.12
424.066	103.12
424.288	103.12
424.511	104.12
424.733	101.12
424.956	92.12
425.178	94.12
425.401	99.12
425.623	90.12
425.846	98.12
426.068	98.12
426.291	91.12
426.513	88.12
426.735	98.12
426.958	96.12
427.18	76.12
427.402	101.12
427.625	94.12
427.847	99.12
428.069	101.12
428.292	101.12
428.514	99.12
428.736	97.12
428.958	85.12
429.181	88.12
429.403	88.12
429.625	92.12
429.847	92.12
430.069	99.12
430.292	100.12
430.514	96.12
430.736	93.12
430.958	99.12
431.18	92.12
431.402	100.12
431.624	90.12
431.846	91.12
432.068	95.12
432.29	93.12
432.512	109.12
432.734	107.12
432.956	110.12
433.178	103.12
433.4	91.12
433.622	96.12
433.844	91.12
434.066	92.12
434.287	89.12
434.509	95.12
434.731	99.12
434.953	94.12
435.175	97.12
435.397	106.12
435.618	101.12
435.84	101.12
436.062	95.12
436.284	106.12
436.505	91.12
436.727	86.12
436.949	96.12
437.17	103.12
437.392	96.12
437.614	99.12
437.835	96.12
438.057	102.12
438.278	81.12
438.5	98.12
438.721	87.12
438.943	99.12
439.165	90.12
439.386	87.12
439.608	98.12
439.829	96.12
440.05	104.12
440.272	95.12
440.493	97.12
440.715	103.12
440.936	93.12
441.158	100.12
441.379	96.12
441.6	98.12
441.822	98.12
442.043	88.12
442.264	83.12
442.486	97.12
442.707	99.12
442.928	116.12
443.149	91.12
443.371	102.12
443.592	101.12
443.813	112.12
444.034	97.12
444.255	111.12
444.476	103.12
444.698	108.12
444.919	108.12
445.14	216.12
445.361	151.12
445.582	94.12
445.803	81.12
446.024	100.12
446.245	102.12
446.466	92.12
446.687	86.12
446.908	89.12
447.129	94.12
447.35	92.12
447.571	108.12
447.792	114.12
448.013	100.12
448.234	98.12
448.455	94.12
448.675	114.12
448.896	94.12
449.117	100.12
449.338	89.12
449.559	100.12
449.779	105.12
450	100.12
450.221	81.12
450.442	94.12
450.662	94.12
450.883	99.12
451.104	91.12
451.324	106.12
451.545	111.12
451.766	93.12
451.986	92.12
452.207	92.12
452.428	85.12
452.648	89.12
452.869	87.12
453.089	90.12
453.31	90.12
453.53	88.12
453.751	93.12
453.971	101.12
454.192	93.12
454.412	86.12
454.633	112.12
454.853	82.12
455.073	104.12
455.294	101.12
455.514	91.12
455.734	101.12
455.955	100.12
456.175	102.12
456.395	91.12
456.616	99.12
456.836	96.12
457.056	88.12
457.276	95.12
457.497	85.12
457.717	87.12
457.937	83.12
458.157	85.12
458.377	101.12
458.598	107.12
458.818	105.12
459.038	105.12
459.258	91.12
459.478	88.12
459.698	90.12
459.918	103.12
460.138	93.12
460.358	99.12
460.578	109.12
460.798	93.12
461.018	94.12
461.238	100.12
461.458	103.12
461.678	104.12
461.898	86.12
462.118	96.12
462.338	102.12
462.558	107.12
462.777	102.12
462.997	106.12
463.217	104.12
463.437	111.12
463.657	101.12
463.876	89.12
464.096	105.12
464.316	109.12
464.536	101.12
464.755	117.12
464.975	101.12
465.195	106.12
465.414	124.12
465.634	93.12
465.854	101.12
466.073	99.12
466.293	95.12
466.512	96.12
466.732	94.12
466.951	103.12
467.171	100.12
467.391	103.12
467.61	92.12
467.829	97.12
468.049	106.12
468.268	84.12
468.488	95.12
468.707	96.12
468.927	91.12
469.146	93.12
469.365	102.12
469.585	98.12
469.804	108.12
470.023	105.12
470.243	109.12
470.462	105.12
470.681	107.12
470.901	101.12
471.12	102.12
471.339	99.12
471.558	91.12
471.777	102.12
471.997	100.12
472.216	89.12
472.435	88.12
472.654	102.12
472.873	112.12
473.092	108.12
473.311	111.12
473.53	86.12
473.749	106.12
473.968	92.12
474.187	89.12
474.406	89.12
474.625	105.12
474.844	90.12
475.063	77.12
475.282	102.12
475.501	109.12
475.72	91.12
475.939	115.12
476.158	98.12
476.377	108.12
476.596	91.12
476.814	101.12
477.033	77.12
477.252	91.12
477.471	101.12
477.69	89.12
477.908	97.12
478.127	106.12
478.346	113.12
478.564	113.12
478.783	107.12
479.002	114.12
479.22	106.12
479.439	103.12
479.658	104.12
479.876	98.12
480.095	98.12
480.313	99.12
480.532	114.12
480.751	113.12
480.969	99.12
481.188	111.12
481.406	99.12
481.624	88.12
481.843	95.12
482.061	107.12
482.28	105.12
482.498	97.12
482.717	99.12
482.935	109.12
483.153	119.12
483.372	111.12
483.59	101.12
483.808	97.12
484.027	96.12
484.245	96.12
484.463	94.12
484.681	117.12
484.9	113.12
485.118	109.12
485.336	111.12
485.554	97.12
485.772	118.12
485.99	89.12
486.209	108.12
486.427	104.12
486.645	103.12
486.863	86.12
487.081	86.12
487.299	119.12
487.517	115.12
487.735	113.12
487.953	111.12
488.171	110.12
488.389	107.12
488.607	118.12
488.825	105.12
489.043	99.12
489.261	106.12
489.479	100.12
489.696	98.12
489.914	108.12
490.132	108.12
490.35	108.12
490.568	98.12
490.786	114.12
491.003	104.12
491.221	117.12
491.439	114.12
491.657	109.12
491.874	108.12
492.092	112.12
492.31	115.12
492.527	119.12
492.745	122.12
492.963	114.12
493.18	122.12
493.398	107.12
493.615	112.12
493.833	119.12
494.05	105.12
494.268	124.12
494.485	100.12
494.703	107.12
494.92	103.12
495.138	108.12
495.355	115.12
495.573	109.12
495.79	111.12
496.008	107.12
496.225	111.12
496.442	103.12
496.66	121.12
496.877	114.12
497.094	127.12
497.312	126.12
497.529	123.12
497.746	117.12
497.963	128.12
498.181	112.12
498.398	104.12
498.615	132.12
498.832	117.12
499.049	116.12
499.267	130.12
499.484	121.12
499.701	145.12
499.918	133.12
500.135	157.12
500.352	152.12
500.569	155.12
500.786	170.12
501.003	151.12
501.22	145.12
501.437	153.12
501.654	139.12
501.871	125.12
502.088	121.12
502.305	122.12
502.522	116.12
502.739	123.12
502.956	111.12
503.172	112.12
503.389	107.12
503.606	108.12
503.823	125.12
504.04	121.12
504.256	102.12
504.473	109.12
504.69	111.12
504.907	127.12
505.123	98.12
505.34	113.12
505.557	99.12
505.773	114.12
505.99	106.12
506.207	103.12
506.423	91.12
506.64	123.12
506.856	120.12
507.073	118.12
507.289	105.12
507.506	107.12
507.722	109.12
507.939	94.12
508.155	108.12
508.372	98.12
508.588	104.12
508.805	103.12
509.021	97.12
509.238	106.12
509.454	98.12
509.67	83.12
509.887	99.12
510.103	85.12
510.319	110.12
510.536	111.12
510.752	107.12
510.968	104.12
511.184	93.12
511.401	104.12
511.617	108.12
511.833	98.12
512.049	111.12
512.265	104.12
512.481	90.12
512.698	102.12
512.914	112.12
513.13	93.12
513.346	95.12
513.562	106.12
513.778	101.12
513.994	109.12
514.21	102.12
