Data from Location5.07152019.Energy5.Lamp.07192019.3%Agarose_HRD10591_15-38-35-388.txt Node
Date: Fri Jul 19 15:38:35 EDT 2019
User: cochatt
Spectrometer: HR+D1059
Trigger mode: 1
Integration Time (sec): 1.000000E-1
Scans to average: 1
Electric dark correction enabled: true
Nonlinearity correction enabled: false
Boxcar width: 0
XAxis mode: Wavelengths
Number of Pixels in Spectrum: 2048
>>>>>Begin Spectral Data<<<<<
223.165	-17.06
223.4	-17.06
223.635	-17.06
223.869	-13.06
224.104	-13.06
224.338	-17.06
224.573	-23.06
224.808	-18.06
225.042	-6.06
225.277	-13.06
225.511	2.94
225.746	6.94
225.98	17.94
226.215	14.94
226.449	12.94
226.683	10.94
226.918	42.94
227.152	10.94
227.387	43.94
227.621	34.94
227.856	47.94
228.09	43.94
228.324	48.94
228.559	75.94
228.793	73.94
229.027	67.94
229.262	53.94
229.496	72.94
229.73	70.94
229.964	60.94
230.199	83.94
230.433	82.94
230.667	82.94
230.901	76.94
231.136	72.94
231.37	90.94
231.604	86.94
231.838	72.94
232.072	93.94
232.306	83.94
232.541	84.94
232.775	85.94
233.009	82.94
233.243	102.94
233.477	99.94
233.711	84.94
233.945	79.94
234.179	87.94
234.413	75.94
234.647	103.94
234.881	91.94
235.115	81.94
235.349	100.94
235.583	92.94
235.817	83.94
236.051	93.94
236.285	90.94
236.519	73.94
236.753	74.94
236.987	66.94
237.221	92.94
237.455	86.94
237.689	80.94
237.922	81.94
238.156	97.94
238.39	98.94
238.624	76.94
238.858	85.94
239.091	66.94
239.325	87.94
239.559	85.94
239.793	93.94
240.027	72.94
240.26	68.94
240.494	76.94
240.728	70.94
240.961	88.94
241.195	87.94
241.429	71.94
241.662	83.94
241.896	59.94
242.13	86.94
242.363	77.94
242.597	79.94
242.83	85.94
243.064	76.94
243.298	73.94
243.531	74.94
243.765	85.94
243.998	92.94
244.232	82.94
244.465	72.94
244.699	83.94
244.932	89.94
245.166	85.94
245.399	78.94
245.633	82.94
245.866	78.94
246.099	77.94
246.333	76.94
246.566	75.94
246.8	95.94
247.033	81.94
247.266	78.94
247.5	83.94
247.733	80.94
247.966	73.94
248.2	82.94
248.433	91.94
248.666	95.94
248.899	86.94
249.133	80.94
249.366	81.94
249.599	85.94
249.832	81.94
250.066	94.94
250.299	86.94
250.532	78.94
250.765	90.94
250.998	74.94
251.231	74.94
251.465	73.94
251.698	84.94
251.931	82.94
252.164	65.94
252.397	77.94
252.63	80.94
252.863	82.94
253.096	94.94
253.329	75.94
253.562	75.94
253.795	71.94
254.028	90.94
254.261	91.94
254.494	83.94
254.727	78.94
254.96	81.94
255.193	88.94
255.426	70.94
255.659	71.94
255.892	95.94
256.124	93.94
256.357	84.94
256.59	79.94
256.823	77.94
257.056	73.94
257.289	98.94
257.521	94.94
257.754	78.94
257.987	78.94
258.22	82.94
258.452	80.94
258.685	76.94
258.918	77.94
259.151	77.94
259.383	82.94
259.616	89.94
259.849	74.94
260.081	82.94
260.314	81.94
260.547	87.94
260.779	85.94
261.012	78.94
261.244	85.94
261.477	92.94
261.71	72.94
261.942	97.94
262.175	80.94
262.407	73.94
262.64	90.94
262.872	89.94
263.105	97.94
263.337	79.94
263.57	82.94
263.802	77.94
264.035	81.94
264.267	94.94
264.499	82.94
264.732	93.94
264.964	88.94
265.197	80.94
265.429	100.94
265.661	87.94
265.894	97.94
266.126	90.94
266.358	71.94
266.591	97.94
266.823	80.94
267.055	86.94
267.287	90.94
267.52	87.94
267.752	91.94
267.984	98.94
268.216	90.94
268.448	99.94
268.681	77.94
268.913	79.94
269.145	79.94
269.377	79.94
269.609	81.94
269.841	78.94
270.073	89.94
270.306	98.94
270.538	82.94
270.77	82.94
271.002	75.94
271.234	82.94
271.466	82.94
271.698	80.94
271.93	73.94
272.162	88.94
272.394	92.94
272.626	77.94
272.858	87.94
273.09	83.94
273.322	82.94
273.553	90.94
273.785	103.94
274.017	70.94
274.249	68.94
274.481	79.94
274.713	83.94
274.945	83.94
275.176	87.94
275.408	75.94
275.64	70.94
275.872	72.94
276.104	84.94
276.335	85.94
276.567	82.94
276.799	94.94
277.031	91.94
277.262	77.94
277.494	94.94
277.726	78.94
277.957	95.94
278.189	93.94
278.421	82.94
278.652	77.94
278.884	91.94
279.115	90.94
279.347	91.94
279.579	88.94
279.81	80.94
280.042	84.94
280.273	69.94
280.505	103.94
280.736	88.94
280.968	98.94
281.199	80.94
281.431	86.94
281.662	90.94
281.894	74.94
282.125	97.94
282.356	88.94
282.588	81.94
282.819	81.94
283.051	82.94
283.282	90.94
283.513	74.94
283.745	67.94
283.976	81.94
284.207	82.94
284.439	87.94
284.67	72.94
284.901	83.94
285.132	85.94
285.364	92.94
285.595	89.94
285.826	97.94
286.057	77.94
286.288	72.94
286.52	84.94
286.751	76.94
286.982	101.94
287.213	92.94
287.444	95.94
287.675	83.94
287.906	85.94
288.138	86.94
288.369	76.94
288.6	73.94
288.831	85.94
289.062	100.94
289.293	99.94
289.524	94.94
289.755	105.94
289.986	83.94
290.217	84.94
290.448	91.94
290.679	95.94
290.91	97.94
291.141	84.94
291.371	84.94
291.602	78.94
291.833	96.94
292.064	92.94
292.295	78.94
292.526	92.94
292.757	81.94
292.987	75.94
293.218	84.94
293.449	94.94
293.68	96.94
293.91	74.94
294.141	99.94
294.372	99.94
294.603	84.94
294.833	93.94
295.064	98.94
295.295	81.94
295.525	76.94
295.756	81.94
295.987	71.94
296.217	86.94
296.448	101.94
296.679	74.94
296.909	98.94
297.14	94.94
297.37	82.94
297.601	92.94
297.831	95.94
298.062	84.94
298.292	97.94
298.523	87.94
298.753	92.94
298.984	93.94
299.214	85.94
299.445	93.94
299.675	90.94
299.905	101.94
300.136	105.94
300.366	93.94
300.597	74.94
300.827	86.94
301.057	66.94
301.288	83.94
301.518	87.94
301.748	87.94
301.979	93.94
302.209	91.94
302.439	86.94
302.669	91.94
302.9	95.94
303.13	80.94
303.36	84.94
303.59	84.94
303.82	84.94
304.051	84.94
304.281	89.94
304.511	87.94
304.741	97.94
304.971	73.94
305.201	85.94
305.431	75.94
305.661	81.94
305.891	87.94
306.121	81.94
306.352	80.94
306.582	94.94
306.812	90.94
307.042	94.94
307.272	86.94
307.502	98.94
307.731	91.94
307.961	88.94
308.191	86.94
308.421	88.94
308.651	94.94
308.881	98.94
309.111	91.94
309.341	72.94
309.571	79.94
309.8	79.94
310.03	73.94
310.26	87.94
310.49	80.94
310.72	93.94
310.949	85.94
311.179	81.94
311.409	73.94
311.639	94.94
311.868	80.94
312.098	73.94
312.328	77.94
312.557	82.94
312.787	89.94
313.017	88.94
313.246	84.94
313.476	86.94
313.706	76.94
313.935	82.94
314.165	77.94
314.394	91.94
314.624	94.94
314.853	101.94
315.083	92.94
315.312	80.94
315.542	91.94
315.771	86.94
316.001	87.94
316.23	92.94
316.46	79.94
316.689	84.94
316.919	88.94
317.148	91.94
317.377	88.94
317.607	84.94
317.836	80.94
318.065	80.94
318.295	87.94
318.524	79.94
318.753	98.94
318.983	87.94
319.212	101.94
319.441	82.94
319.67	83.94
319.9	78.94
320.129	77.94
320.358	70.94
320.587	83.94
320.816	97.94
321.046	79.94
321.275	99.94
321.504	84.94
321.733	101.94
321.962	91.94
322.191	90.94
322.42	82.94
322.649	67.94
322.878	76.94
323.108	76.94
323.337	90.94
323.566	93.94
323.795	86.94
324.024	83.94
324.253	86.94
324.482	78.94
324.71	78.94
324.939	98.94
325.168	91.94
325.397	88.94
325.626	81.94
325.855	78.94
326.084	87.94
326.313	96.94
326.542	71.94
326.77	85.94
326.999	73.94
327.228	78.94
327.457	96.94
327.686	74.94
327.914	84.94
328.143	98.94
328.372	89.94
328.6	100.94
328.829	96.94
329.058	80.94
329.287	84.94
329.515	96.94
329.744	98.94
329.972	77.94
330.201	83.94
330.43	85.94
330.658	79.94
330.887	79.94
331.115	98.94
331.344	85.94
331.572	89.94
331.801	73.94
332.03	93.94
332.258	76.94
332.486	88.94
332.715	95.94
332.943	83.94
333.172	90.94
333.4	89.94
333.629	80.94
333.857	85.94
334.085	89.94
334.314	81.94
334.542	84.94
334.771	103.94
334.999	91.94
335.227	87.94
335.455	92.94
335.684	101.94
335.912	94.94
336.14	90.94
336.369	96.94
336.597	87.94
336.825	79.94
337.053	85.94
337.281	84.94
337.51	84.94
337.738	101.94
337.966	86.94
338.194	78.94
338.422	75.94
338.65	79.94
338.878	79.94
339.106	93.94
339.334	91.94
339.562	92.94
339.79	86.94
340.018	87.94
340.246	73.94
340.474	89.94
340.702	83.94
340.93	78.94
341.158	81.94
341.386	92.94
341.614	81.94
341.842	85.94
342.07	98.94
342.298	92.94
342.526	84.94
342.754	76.94
342.981	81.94
343.209	78.94
343.437	82.94
343.665	84.94
343.893	97.94
344.12	78.94
344.348	73.94
344.576	92.94
344.804	74.94
345.031	89.94
345.259	86.94
345.487	73.94
345.714	85.94
345.942	85.94
346.17	93.94
346.397	85.94
346.625	99.94
346.853	75.94
347.08	84.94
347.308	89.94
347.535	72.94
347.763	91.94
347.99	92.94
348.218	80.94
348.445	86.94
348.673	95.94
348.9	84.94
349.128	83.94
349.355	79.94
349.583	93.94
349.81	79.94
350.037	76.94
350.265	99.94
350.492	76.94
350.72	75.94
350.947	90.94
351.174	84.94
351.402	81.94
351.629	86.94
351.856	78.94
352.083	92.94
352.311	85.94
352.538	90.94
352.765	80.94
352.992	77.94
353.22	99.94
353.447	85.94
353.674	88.94
353.901	93.94
354.128	71.94
354.355	92.94
354.583	85.94
354.81	89.94
355.037	84.94
355.264	82.94
355.491	86.94
355.718	85.94
355.945	66.94
356.172	69.94
356.399	70.94
356.626	96.94
356.853	79.94
357.08	67.94
357.307	81.94
357.534	74.94
357.761	91.94
357.988	90.94
358.215	84.94
358.441	77.94
358.668	75.94
358.895	79.94
359.122	78.94
359.349	77.94
359.576	79.94
359.802	91.94
360.029	88.94
360.256	82.94
360.483	87.94
360.709	87.94
360.936	93.94
361.163	80.94
361.39	83.94
361.616	79.94
361.843	92.94
362.07	93.94
362.296	78.94
362.523	81.94
362.749	79.94
362.976	102.94
363.203	86.94
363.429	76.94
363.656	88.94
363.882	78.94
364.109	84.94
364.335	85.94
364.562	84.94
364.788	83.94
365.015	75.94
365.241	91.94
365.468	92.94
365.694	79.94
365.92	93.94
366.147	81.94
366.373	94.94
366.599	86.94
366.826	69.94
367.052	87.94
367.278	86.94
367.505	91.94
367.731	93.94
367.957	72.94
368.184	66.94
368.41	87.94
368.636	88.94
368.862	73.94
369.089	94.94
369.315	83.94
369.541	88.94
369.767	83.94
369.993	76.94
370.219	82.94
370.445	93.94
370.672	78.94
370.898	95.94
371.124	88.94
371.35	86.94
371.576	79.94
371.802	81.94
372.028	85.94
372.254	81.94
372.48	88.94
372.706	74.94
372.932	86.94
373.158	91.94
373.384	106.94
373.61	95.94
373.835	90.94
374.061	77.94
374.287	86.94
374.513	91.94
374.739	91.94
374.965	77.94
375.191	82.94
375.416	94.94
375.642	86.94
375.868	79.94
376.094	80.94
376.319	78.94
376.545	104.94
376.771	90.94
376.997	87.94
377.222	77.94
377.448	88.94
377.674	98.94
377.899	94.94
378.125	78.94
378.35	77.94
378.576	86.94
378.802	91.94
379.027	92.94
379.253	78.94
379.478	91.94
379.704	95.94
379.929	86.94
380.155	89.94
380.38	86.94
380.606	87.94
380.831	98.94
381.057	93.94
381.282	87.94
381.507	84.94
381.733	75.94
381.958	87.94
382.184	79.94
382.409	87.94
382.634	81.94
382.86	88.94
383.085	92.94
383.31	86.94
383.535	79.94
383.761	96.94
383.986	65.94
384.211	85.94
384.436	87.94
384.662	78.94
384.887	94.94
385.112	83.94
385.337	88.94
385.562	89.94
385.787	68.94
386.013	101.94
386.238	92.94
386.463	81.94
386.688	92.94
386.913	77.94
387.138	81.94
387.363	84.94
387.588	93.94
387.813	100.94
388.038	91.94
388.263	107.94
388.488	86.94
388.713	94.94
388.938	90.94
389.163	92.94
389.387	85.94
389.612	74.94
389.837	86.94
390.062	91.94
390.287	92.94
390.512	72.94
390.736	83.94
390.961	86.94
391.186	85.94
391.411	82.94
391.636	86.94
391.86	91.94
392.085	83.94
392.31	97.94
392.534	95.94
392.759	98.94
392.984	97.94
393.208	68.94
393.433	95.94
393.658	95.94
393.882	68.94
394.107	94.94
394.331	90.94
394.556	84.94
394.78	74.94
395.005	89.94
395.229	90.94
395.454	94.94
395.678	89.94
395.903	79.94
396.127	84.94
396.352	85.94
396.576	71.94
396.801	86.94
397.025	81.94
397.249	81.94
397.474	94.94
397.698	86.94
397.922	82.94
398.147	74.94
398.371	96.94
398.595	89.94
398.82	90.94
399.044	77.94
399.268	86.94
399.492	91.94
399.717	97.94
399.941	95.94
400.165	73.94
400.389	90.94
400.613	79.94
400.837	104.94
401.062	80.94
401.286	84.94
401.51	82.94
401.734	90.94
401.958	78.94
402.182	89.94
402.406	79.94
402.63	91.94
402.854	93.94
403.078	91.94
403.302	91.94
403.526	111.94
403.75	92.94
403.974	92.94
404.198	86.94
404.422	99.94
404.645	86.94
404.869	90.94
405.093	99.94
405.317	89.94
405.541	96.94
405.765	93.94
405.988	87.94
406.212	86.94
406.436	94.94
406.66	95.94
406.883	85.94
407.107	105.94
407.331	81.94
407.555	91.94
407.778	83.94
408.002	81.94
408.226	74.94
408.449	99.94
408.673	95.94
408.896	92.94
409.12	92.94
409.344	91.94
409.567	88.94
409.791	105.94
410.014	99.94
410.238	91.94
410.461	93.94
410.685	90.94
410.908	77.94
411.132	79.94
411.355	95.94
411.578	90.94
411.802	99.94
412.025	101.94
412.249	104.94
412.472	94.94
412.695	85.94
412.919	90.94
413.142	84.94
413.365	79.94
413.589	97.94
413.812	91.94
414.035	99.94
414.258	94.94
414.482	88.94
414.705	97.94
414.928	99.94
415.151	90.94
415.374	77.94
415.597	81.94
415.821	91.94
416.044	94.94
416.267	113.94
416.49	85.94
416.713	94.94
416.936	88.94
417.159	85.94
417.382	90.94
417.605	93.94
417.828	84.94
418.051	101.94
418.274	91.94
418.497	79.94
418.72	93.94
418.943	103.94
419.166	92.94
419.389	79.94
419.611	89.94
419.834	88.94
420.057	95.94
420.28	100.94
420.503	91.94
420.726	101.94
420.948	92.94
421.171	81.94
421.394	74.94
421.617	85.94
421.839	93.94
422.062	103.94
422.285	94.94
422.507	84.94
422.73	96.94
422.953	90.94
423.175	97.94
423.398	86.94
423.621	85.94
423.843	87.94
424.066	107.94
424.288	82.94
424.511	94.94
424.733	107.94
424.956	102.94
425.178	94.94
425.401	100.94
425.623	88.94
425.846	88.94
426.068	93.94
426.291	98.94
426.513	88.94
426.735	102.94
426.958	94.94
427.18	90.94
427.402	99.94
427.625	84.94
427.847	91.94
428.069	76.94
428.292	105.94
428.514	90.94
428.736	87.94
428.958	86.94
429.181	93.94
429.403	93.94
429.625	85.94
429.847	100.94
430.069	90.94
430.292	114.94
430.514	102.94
430.736	94.94
430.958	87.94
431.18	88.94
431.402	87.94
431.624	93.94
431.846	95.94
432.068	77.94
432.29	97.94
432.512	78.94
432.734	87.94
432.956	98.94
433.178	100.94
433.4	90.94
433.622	93.94
433.844	105.94
434.066	105.94
434.287	90.94
434.509	92.94
434.731	100.94
434.953	86.94
435.175	102.94
435.397	95.94
435.618	85.94
435.84	85.94
436.062	95.94
436.284	88.94
436.505	94.94
436.727	86.94
436.949	101.94
437.17	93.94
437.392	73.94
437.614	96.94
437.835	92.94
438.057	101.94
438.278	93.94
438.5	90.94
438.721	107.94
438.943	106.94
439.165	95.94
439.386	105.94
439.608	95.94
439.829	89.94
440.05	102.94
440.272	97.94
440.493	112.94
440.715	94.94
440.936	93.94
441.158	96.94
441.379	90.94
441.6	103.94
441.822	83.94
442.043	92.94
442.264	89.94
442.486	92.94
442.707	107.94
442.928	94.94
443.149	89.94
443.371	86.94
443.592	104.94
443.813	92.94
444.034	107.94
444.255	112.94
444.476	101.94
444.698	82.94
444.919	96.94
445.14	211.94
445.361	138.94
445.582	103.94
445.803	81.94
446.024	94.94
446.245	101.94
446.466	97.94
446.687	111.94
446.908	106.94
447.129	90.94
447.35	113.94
447.571	93.94
447.792	100.94
448.013	98.94
448.234	89.94
448.455	87.94
448.675	97.94
448.896	106.94
449.117	91.94
449.338	91.94
449.559	94.94
449.779	88.94
450	94.94
450.221	103.94
450.442	93.94
450.662	89.94
450.883	80.94
451.104	82.94
451.324	98.94
451.545	87.94
451.766	103.94
451.986	90.94
452.207	92.94
452.428	95.94
452.648	92.94
452.869	93.94
453.089	89.94
453.31	86.94
453.53	85.94
453.751	71.94
453.971	88.94
454.192	69.94
454.412	83.94
454.633	85.94
454.853	83.94
455.073	85.94
455.294	89.94
455.514	93.94
455.734	90.94
455.955	84.94
456.175	109.94
456.395	78.94
456.616	79.94
456.836	86.94
457.056	103.94
457.276	81.94
457.497	94.94
457.717	88.94
457.937	80.94
458.157	96.94
458.377	88.94
458.598	77.94
458.818	70.94
459.038	77.94
459.258	82.94
459.478	79.94
459.698	94.94
459.918	85.94
460.138	89.94
460.358	83.94
460.578	106.94
460.798	83.94
461.018	87.94
461.238	102.94
461.458	99.94
461.678	95.94
461.898	83.94
462.118	92.94
462.338	84.94
462.558	107.94
462.777	100.94
462.997	79.94
463.217	83.94
463.437	101.94
463.657	91.94
463.876	89.94
464.096	93.94
464.316	86.94
464.536	88.94
464.755	90.94
464.975	93.94
465.195	88.94
465.414	87.94
465.634	92.94
465.854	87.94
466.073	93.94
466.293	91.94
466.512	86.94
466.732	96.94
466.951	97.94
467.171	84.94
467.391	83.94
467.61	79.94
467.829	92.94
468.049	91.94
468.268	110.94
468.488	98.94
468.707	104.94
468.927	86.94
469.146	97.94
469.365	106.94
469.585	101.94
469.804	114.94
470.023	104.94
470.243	95.94
470.462	84.94
470.681	94.94
470.901	93.94
471.12	92.94
471.339	102.94
471.558	87.94
471.777	97.94
471.997	99.94
472.216	107.94
472.435	100.94
472.654	91.94
472.873	91.94
473.092	92.94
473.311	102.94
473.53	89.94
473.749	94.94
473.968	92.94
474.187	95.94
474.406	88.94
474.625	94.94
474.844	87.94
475.063	91.94
475.282	107.94
475.501	93.94
475.72	101.94
475.939	94.94
476.158	82.94
476.377	83.94
476.596	94.94
476.814	86.94
477.033	86.94
477.252	88.94
477.471	95.94
477.69	106.94
477.908	108.94
478.127	110.94
478.346	109.94
478.564	106.94
478.783	105.94
479.002	85.94
479.22	97.94
479.439	92.94
479.658	94.94
479.876	84.94
480.095	90.94
480.313	78.94
480.532	80.94
480.751	94.94
480.969	99.94
481.188	93.94
481.406	83.94
481.624	96.94
481.843	94.94
482.061	100.94
482.28	97.94
482.498	92.94
482.717	89.94
482.935	93.94
483.153	110.94
483.372	90.94
483.59	101.94
483.808	97.94
484.027	93.94
484.245	95.94
484.463	94.94
484.681	105.94
484.9	95.94
485.118	86.94
485.336	91.94
485.554	83.94
485.772	97.94
485.99	87.94
486.209	89.94
486.427	92.94
486.645	101.94
486.863	88.94
487.081	90.94
487.299	94.94
487.517	99.94
487.735	121.94
487.953	118.94
488.171	108.94
488.389	108.94
488.607	98.94
488.825	94.94
489.043	97.94
489.261	108.94
489.479	104.94
489.696	100.94
489.914	100.94
490.132	96.94
490.35	105.94
490.568	108.94
490.786	117.94
491.003	100.94
491.221	110.94
491.439	118.94
491.657	123.94
491.874	116.94
492.092	116.94
492.31	130.94
492.527	118.94
492.745	107.94
492.963	118.94
493.18	97.94
493.398	107.94
493.615	102.94
493.833	110.94
494.05	110.94
494.268	114.94
494.485	106.94
494.703	124.94
494.92	109.94
495.138	110.94
495.355	100.94
495.573	82.94
495.79	98.94
496.008	126.94
496.225	111.94
496.442	109.94
496.66	119.94
496.877	111.94
497.094	115.94
497.312	118.94
497.529	110.94
497.746	102.94
497.963	92.94
498.181	102.94
498.398	95.94
498.615	89.94
498.832	99.94
499.049	91.94
499.267	86.94
499.484	87.94
499.701	96.94
499.918	104.94
500.135	102.94
500.352	97.94
500.569	103.94
500.786	112.94
501.003	99.94
501.22	107.94
501.437	101.94
501.654	102.94
501.871	100.94
502.088	100.94
502.305	81.94
502.522	85.94
502.739	87.94
502.956	106.94
503.172	78.94
503.389	86.94
503.606	80.94
503.823	106.94
504.04	99.94
504.256	95.94
504.473	96.94
504.69	86.94
504.907	104.94
505.123	91.94
505.34	100.94
505.557	98.94
505.773	87.94
505.99	82.94
506.207	91.94
506.423	88.94
506.64	101.94
506.856	107.94
507.073	90.94
507.289	92.94
507.506	83.94
507.722	98.94
507.939	94.94
508.155	90.94
508.372	82.94
508.588	85.94
508.805	92.94
509.021	97.94
509.238	92.94
509.454	85.94
509.67	90.94
509.887	72.94
510.103	86.94
510.319	109.94
510.536	84.94
510.752	86.94
510.968	96.94
511.184	85.94
511.401	92.94
511.617	103.94
511.833	106.94
512.049	81.94
512.265	76.94
512.481	93.94
512.698	91.94
512.914	85.94
513.13	93.94
513.346	74.94
513.562	86.94
513.778	107.94
513.994	96.94
514.21	74.94
514.426	89.94
514.642	88.94
514.858	78.94
515.074	101.94
515.29	85.94
515.506	76.94
515.721	73.94
515.937	84.94
516.153	82.94
516.369	98.94
516.585	89.94
516.801	84.94
517.016	99.94
517.232	74.94
