Data from Location5.07152019.Energy5.Lamp.07192019.3%Agarose_HRD10591_15-36-20-386.txt Node
Date: Fri Jul 19 15:36:20 EDT 2019
User: cochatt
Spectrometer: HR+D1059
Trigger mode: 1
Integration Time (sec): 1.000000E-1
Scans to average: 1
Electric dark correction enabled: true
Nonlinearity correction enabled: false
Boxcar width: 0
XAxis mode: Wavelengths
Number of Pixels in Spectrum: 2048
>>>>>Begin Spectral Data<<<<<
223.165	-4.31
223.4	-4.31
223.635	-4.31
223.869	-13.31
224.104	-9.31
224.338	-15.31
224.573	-20.31
224.808	-27.31
225.042	-15.31
225.277	1.69
225.511	0.69
225.746	-10.31
225.98	5.69
226.215	6.69
226.449	23.69
226.683	20.69
226.918	25.69
227.152	30.69
227.387	43.69
227.621	40.69
227.856	44.69
228.09	50.69
228.324	57.69
228.559	52.69
228.793	56.69
229.027	69.69
229.262	63.69
229.496	76.69
229.73	63.69
229.964	59.69
230.199	80.69
230.433	75.69
230.667	80.69
230.901	87.69
231.136	79.69
231.37	68.69
231.604	97.69
231.838	69.69
232.072	84.69
232.306	92.69
232.541	89.69
232.775	73.69
233.009	98.69
233.243	94.69
233.477	78.69
233.711	81.69
233.945	74.69
234.179	75.69
234.413	86.69
234.647	88.69
234.881	85.69
235.115	76.69
235.349	81.69
235.583	84.69
235.817	78.69
236.051	82.69
236.285	83.69
236.519	77.69
236.753	75.69
236.987	86.69
237.221	85.69
237.455	83.69
237.689	86.69
237.922	83.69
238.156	94.69
238.39	89.69
238.624	78.69
238.858	75.69
239.091	80.69
239.325	80.69
239.559	78.69
239.793	90.69
240.027	85.69
240.26	92.69
240.494	93.69
240.728	85.69
240.961	78.69
241.195	82.69
241.429	87.69
241.662	74.69
241.896	87.69
242.13	75.69
242.363	73.69
242.597	82.69
242.83	99.69
243.064	104.69
243.298	84.69
243.531	68.69
243.765	78.69
243.998	91.69
244.232	85.69
244.465	72.69
244.699	83.69
244.932	77.69
245.166	89.69
245.399	90.69
245.633	85.69
245.866	86.69
246.099	95.69
246.333	81.69
246.566	75.69
246.8	78.69
247.033	80.69
247.266	81.69
247.5	84.69
247.733	89.69
247.966	80.69
248.2	78.69
248.433	91.69
248.666	81.69
248.899	82.69
249.133	77.69
249.366	89.69
249.599	70.69
249.832	83.69
250.066	91.69
250.299	82.69
250.532	71.69
250.765	81.69
250.998	75.69
251.231	84.69
251.465	85.69
251.698	87.69
251.931	82.69
252.164	81.69
252.397	82.69
252.63	87.69
252.863	83.69
253.096	73.69
253.329	98.69
253.562	90.69
253.795	89.69
254.028	102.69
254.261	81.69
254.494	77.69
254.727	96.69
254.96	78.69
255.193	95.69
255.426	89.69
255.659	76.69
255.892	77.69
256.124	72.69
256.357	77.69
256.59	76.69
256.823	88.69
257.056	70.69
257.289	82.69
257.521	98.69
257.754	75.69
257.987	74.69
258.22	92.69
258.452	91.69
258.685	86.69
258.918	79.69
259.151	78.69
259.383	88.69
259.616	79.69
259.849	86.69
260.081	91.69
260.314	85.69
260.547	85.69
260.779	78.69
261.012	92.69
261.244	83.69
261.477	97.69
261.71	85.69
261.942	72.69
262.175	92.69
262.407	98.69
262.64	82.69
262.872	80.69
263.105	88.69
263.337	82.69
263.57	74.69
263.802	76.69
264.035	92.69
264.267	88.69
264.499	86.69
264.732	86.69
264.964	79.69
265.197	69.69
265.429	94.69
265.661	78.69
265.894	91.69
266.126	86.69
266.358	96.69
266.591	90.69
266.823	90.69
267.055	84.69
267.287	94.69
267.52	91.69
267.752	96.69
267.984	87.69
268.216	90.69
268.448	83.69
268.681	81.69
268.913	93.69
269.145	87.69
269.377	78.69
269.609	90.69
269.841	90.69
270.073	88.69
270.306	91.69
270.538	94.69
270.77	99.69
271.002	75.69
271.234	87.69
271.466	78.69
271.698	84.69
271.93	90.69
272.162	94.69
272.394	99.69
272.626	78.69
272.858	86.69
273.09	77.69
273.322	77.69
273.553	78.69
273.785	83.69
274.017	78.69
274.249	82.69
274.481	98.69
274.713	93.69
274.945	97.69
275.176	82.69
275.408	87.69
275.64	87.69
275.872	101.69
276.104	92.69
276.335	87.69
276.567	93.69
276.799	84.69
277.031	93.69
277.262	95.69
277.494	106.69
277.726	98.69
277.957	87.69
278.189	75.69
278.421	78.69
278.652	83.69
278.884	81.69
279.115	91.69
279.347	92.69
279.579	81.69
279.81	83.69
280.042	73.69
280.273	91.69
280.505	83.69
280.736	77.69
280.968	83.69
281.199	87.69
281.431	98.69
281.662	82.69
281.894	98.69
282.125	86.69
282.356	93.69
282.588	91.69
282.819	86.69
283.051	73.69
283.282	83.69
283.513	106.69
283.745	78.69
283.976	88.69
284.207	86.69
284.439	88.69
284.67	82.69
284.901	78.69
285.132	84.69
285.364	74.69
285.595	85.69
285.826	87.69
286.057	88.69
286.288	77.69
286.52	87.69
286.751	74.69
286.982	91.69
287.213	94.69
287.444	76.69
287.675	89.69
287.906	91.69
288.138	83.69
288.369	86.69
288.6	91.69
288.831	75.69
289.062	82.69
289.293	85.69
289.524	89.69
289.755	86.69
289.986	83.69
290.217	98.69
290.448	103.69
290.679	95.69
290.91	89.69
291.141	87.69
291.371	91.69
291.602	79.69
291.833	82.69
292.064	68.69
292.295	97.69
292.526	95.69
292.757	89.69
292.987	96.69
293.218	83.69
293.449	82.69
293.68	82.69
293.91	86.69
294.141	82.69
294.372	83.69
294.603	83.69
294.833	90.69
295.064	90.69
295.295	98.69
295.525	80.69
295.756	85.69
295.987	82.69
296.217	81.69
296.448	88.69
296.679	91.69
296.909	78.69
297.14	93.69
297.37	95.69
297.601	85.69
297.831	89.69
298.062	84.69
298.292	88.69
298.523	89.69
298.753	86.69
298.984	90.69
299.214	90.69
299.445	90.69
299.675	105.69
299.905	85.69
300.136	82.69
300.366	101.69
300.597	94.69
300.827	84.69
301.057	91.69
301.288	92.69
301.518	85.69
301.748	111.69
301.979	85.69
302.209	105.69
302.439	101.69
302.669	91.69
302.9	90.69
303.13	95.69
303.36	94.69
303.59	91.69
303.82	90.69
304.051	82.69
304.281	76.69
304.511	95.69
304.741	78.69
304.971	81.69
305.201	71.69
305.431	85.69
305.661	90.69
305.891	85.69
306.121	84.69
306.352	79.69
306.582	96.69
306.812	67.69
307.042	94.69
307.272	77.69
307.502	77.69
307.731	95.69
307.961	87.69
308.191	84.69
308.421	83.69
308.651	74.69
308.881	94.69
309.111	91.69
309.341	79.69
309.571	82.69
309.8	96.69
310.03	91.69
310.26	84.69
310.49	80.69
310.72	94.69
310.949	100.69
311.179	88.69
311.409	79.69
311.639	87.69
311.868	105.69
312.098	104.69
312.328	84.69
312.557	87.69
312.787	71.69
313.017	87.69
313.246	98.69
313.476	98.69
313.706	97.69
313.935	93.69
314.165	91.69
314.394	84.69
314.624	82.69
314.853	83.69
315.083	88.69
315.312	86.69
315.542	94.69
315.771	102.69
316.001	78.69
316.23	86.69
316.46	82.69
316.689	85.69
316.919	100.69
317.148	86.69
317.377	83.69
317.607	91.69
317.836	78.69
318.065	86.69
318.295	84.69
318.524	70.69
318.753	87.69
318.983	89.69
319.212	93.69
319.441	89.69
319.67	86.69
319.9	96.69
320.129	89.69
320.358	84.69
320.587	79.69
320.816	80.69
321.046	89.69
321.275	74.69
321.504	81.69
321.733	106.69
321.962	88.69
322.191	107.69
322.42	82.69
322.649	86.69
322.878	89.69
323.108	93.69
323.337	80.69
323.566	70.69
323.795	90.69
324.024	97.69
324.253	108.69
324.482	75.69
324.71	86.69
324.939	99.69
325.168	98.69
325.397	95.69
325.626	83.69
325.855	92.69
326.084	79.69
326.313	96.69
326.542	99.69
326.77	99.69
326.999	90.69
327.228	94.69
327.457	88.69
327.686	89.69
327.914	80.69
328.143	100.69
328.372	90.69
328.6	85.69
328.829	85.69
329.058	74.69
329.287	95.69
329.515	87.69
329.744	76.69
329.972	98.69
330.201	87.69
330.43	89.69
330.658	86.69
330.887	91.69
331.115	78.69
331.344	77.69
331.572	83.69
331.801	83.69
332.03	90.69
332.258	93.69
332.486	95.69
332.715	87.69
332.943	101.69
333.172	86.69
333.4	84.69
333.629	92.69
333.857	86.69
334.085	81.69
334.314	83.69
334.542	99.69
334.771	90.69
334.999	93.69
335.227	88.69
335.455	94.69
335.684	81.69
335.912	94.69
336.14	93.69
336.369	78.69
336.597	78.69
336.825	79.69
337.053	87.69
337.281	86.69
337.51	84.69
337.738	89.69
337.966	82.69
338.194	72.69
338.422	91.69
338.65	93.69
338.878	91.69
339.106	74.69
339.334	86.69
339.562	89.69
339.79	79.69
340.018	98.69
340.246	88.69
340.474	81.69
340.702	79.69
340.93	100.69
341.158	73.69
341.386	87.69
341.614	92.69
341.842	91.69
342.07	92.69
342.298	78.69
342.526	88.69
342.754	77.69
342.981	81.69
343.209	83.69
343.437	92.69
343.665	79.69
343.893	93.69
344.12	83.69
344.348	86.69
344.576	84.69
344.804	76.69
345.031	87.69
345.259	74.69
345.487	83.69
345.714	93.69
345.942	100.69
346.17	93.69
346.397	82.69
346.625	82.69
346.853	80.69
347.08	87.69
347.308	101.69
347.535	85.69
347.763	92.69
347.99	95.69
348.218	95.69
348.445	88.69
348.673	98.69
348.9	76.69
349.128	89.69
349.355	87.69
349.583	89.69
349.81	93.69
350.037	82.69
350.265	81.69
350.492	90.69
350.72	102.69
350.947	86.69
351.174	94.69
351.402	82.69
351.629	79.69
351.856	82.69
352.083	63.69
352.311	81.69
352.538	87.69
352.765	93.69
352.992	77.69
353.22	90.69
353.447	79.69
353.674	86.69
353.901	77.69
354.128	97.69
354.355	83.69
354.583	98.69
354.81	78.69
355.037	79.69
355.264	84.69
355.491	89.69
355.718	81.69
355.945	85.69
356.172	97.69
356.399	81.69
356.626	83.69
356.853	84.69
357.08	80.69
357.307	87.69
357.534	84.69
357.761	83.69
357.988	75.69
358.215	85.69
358.441	89.69
358.668	82.69
358.895	83.69
359.122	84.69
359.349	90.69
359.576	93.69
359.802	78.69
360.029	82.69
360.256	92.69
360.483	97.69
360.709	89.69
360.936	84.69
361.163	81.69
361.39	88.69
361.616	79.69
361.843	66.69
362.07	87.69
362.296	87.69
362.523	83.69
362.749	81.69
362.976	89.69
363.203	81.69
363.429	74.69
363.656	87.69
363.882	67.69
364.109	89.69
364.335	94.69
364.562	92.69
364.788	87.69
365.015	76.69
365.241	94.69
365.468	78.69
365.694	69.69
365.92	98.69
366.147	93.69
366.373	85.69
366.599	76.69
366.826	85.69
367.052	100.69
367.278	97.69
367.505	88.69
367.731	92.69
367.957	89.69
368.184	100.69
368.41	78.69
368.636	77.69
368.862	95.69
369.089	86.69
369.315	87.69
369.541	78.69
369.767	90.69
369.993	97.69
370.219	79.69
370.445	78.69
370.672	94.69
370.898	78.69
371.124	90.69
371.35	98.69
371.576	92.69
371.802	89.69
372.028	100.69
372.254	102.69
372.48	88.69
372.706	81.69
372.932	106.69
373.158	97.69
373.384	93.69
373.61	93.69
373.835	86.69
374.061	92.69
374.287	91.69
374.513	74.69
374.739	94.69
374.965	85.69
375.191	98.69
375.416	77.69
375.642	79.69
375.868	78.69
376.094	81.69
376.319	84.69
376.545	83.69
376.771	95.69
376.997	86.69
377.222	74.69
377.448	89.69
377.674	69.69
377.899	93.69
378.125	84.69
378.35	105.69
378.576	78.69
378.802	73.69
379.027	97.69
379.253	92.69
379.478	82.69
379.704	94.69
379.929	93.69
380.155	95.69
380.38	99.69
380.606	89.69
380.831	89.69
381.057	99.69
381.282	85.69
381.507	102.69
381.733	92.69
381.958	83.69
382.184	72.69
382.409	90.69
382.634	96.69
382.86	86.69
383.085	86.69
383.31	85.69
383.535	76.69
383.761	87.69
383.986	93.69
384.211	95.69
384.436	80.69
384.662	85.69
384.887	94.69
385.112	75.69
385.337	83.69
385.562	83.69
385.787	78.69
386.013	101.69
386.238	81.69
386.463	83.69
386.688	85.69
386.913	85.69
387.138	70.69
387.363	99.69
387.588	86.69
387.813	82.69
388.038	87.69
388.263	88.69
388.488	85.69
388.713	89.69
388.938	109.69
389.163	87.69
389.387	93.69
389.612	89.69
389.837	73.69
390.062	94.69
390.287	77.69
390.512	74.69
390.736	83.69
390.961	98.69
391.186	73.69
391.411	87.69
391.636	90.69
391.86	90.69
392.085	91.69
392.31	77.69
392.534	73.69
392.759	87.69
392.984	86.69
393.208	81.69
393.433	94.69
393.658	90.69
393.882	82.69
394.107	88.69
394.331	85.69
394.556	88.69
394.78	92.69
395.005	83.69
395.229	89.69
395.454	87.69
395.678	97.69
395.903	106.69
396.127	89.69
396.352	97.69
396.576	80.69
396.801	84.69
397.025	100.69
397.249	88.69
397.474	90.69
397.698	84.69
397.922	87.69
398.147	98.69
398.371	78.69
398.595	86.69
398.82	98.69
399.044	97.69
399.268	84.69
399.492	90.69
399.717	94.69
399.941	87.69
400.165	96.69
400.389	86.69
400.613	98.69
400.837	85.69
401.062	99.69
401.286	93.69
401.51	83.69
401.734	83.69
401.958	101.69
402.182	93.69
402.406	82.69
402.63	83.69
402.854	99.69
403.078	94.69
403.302	88.69
403.526	84.69
403.75	102.69
403.974	95.69
404.198	103.69
404.422	101.69
404.645	89.69
404.869	81.69
405.093	87.69
405.317	82.69
405.541	85.69
405.765	98.69
405.988	83.69
406.212	107.69
406.436	82.69
406.66	97.69
406.883	81.69
407.107	92.69
407.331	86.69
407.555	76.69
407.778	83.69
408.002	103.69
408.226	98.69
408.449	88.69
408.673	78.69
408.896	99.69
409.12	93.69
409.344	85.69
409.567	91.69
409.791	84.69
410.014	92.69
410.238	99.69
410.461	80.69
410.685	100.69
410.908	91.69
411.132	91.69
411.355	94.69
411.578	89.69
411.802	87.69
412.025	90.69
412.249	90.69
412.472	84.69
412.695	83.69
412.919	86.69
413.142	107.69
413.365	95.69
413.589	94.69
413.812	85.69
414.035	90.69
414.258	75.69
414.482	79.69
414.705	97.69
414.928	92.69
415.151	92.69
415.374	91.69
415.597	97.69
415.821	103.69
416.044	98.69
416.267	90.69
416.49	97.69
416.713	91.69
416.936	87.69
417.159	85.69
417.382	84.69
417.605	103.69
417.828	104.69
418.051	86.69
418.274	92.69
418.497	92.69
418.72	89.69
418.943	99.69
419.166	80.69
419.389	101.69
419.611	102.69
419.834	97.69
420.057	89.69
420.28	98.69
420.503	106.69
420.726	97.69
420.948	86.69
421.171	94.69
421.394	91.69
421.617	77.69
421.839	84.69
422.062	87.69
422.285	92.69
422.507	81.69
422.73	90.69
422.953	109.69
423.175	71.69
423.398	100.69
423.621	100.69
423.843	91.69
424.066	103.69
424.288	95.69
424.511	94.69
424.733	94.69
424.956	98.69
425.178	93.69
425.401	110.69
425.623	99.69
425.846	96.69
426.068	90.69
426.291	92.69
426.513	103.69
426.735	106.69
426.958	93.69
427.18	98.69
427.402	106.69
427.625	89.69
427.847	89.69
428.069	90.69
428.292	92.69
428.514	90.69
428.736	95.69
428.958	90.69
429.181	90.69
429.403	82.69
429.625	98.69
429.847	91.69
430.069	91.69
430.292	94.69
430.514	103.69
430.736	97.69
430.958	87.69
431.18	112.69
431.402	88.69
431.624	90.69
431.846	83.69
432.068	86.69
432.29	83.69
432.512	94.69
432.734	85.69
432.956	95.69
433.178	97.69
433.4	99.69
433.622	100.69
433.844	107.69
434.066	102.69
434.287	99.69
434.509	93.69
434.731	81.69
434.953	88.69
435.175	95.69
435.397	91.69
435.618	108.69
435.84	94.69
436.062	93.69
436.284	97.69
436.505	92.69
436.727	88.69
436.949	85.69
437.17	90.69
437.392	102.69
437.614	94.69
437.835	100.69
438.057	89.69
438.278	82.69
438.5	73.69
438.721	83.69
438.943	100.69
439.165	109.69
439.386	79.69
439.608	108.69
439.829	85.69
440.05	95.69
440.272	96.69
440.493	80.69
440.715	106.69
440.936	104.69
441.158	122.69
441.379	96.69
441.6	105.69
441.822	92.69
442.043	94.69
442.264	91.69
442.486	93.69
442.707	105.69
442.928	97.69
443.149	97.69
443.371	88.69
443.592	103.69
443.813	110.69
444.034	88.69
444.255	107.69
444.476	109.69
444.698	86.69
444.919	98.69
445.14	209.69
445.361	157.69
445.582	106.69
445.803	115.69
446.024	95.69
446.245	90.69
446.466	100.69
446.687	92.69
446.908	104.69
447.129	100.69
447.35	101.69
447.571	92.69
447.792	96.69
448.013	101.69
448.234	95.69
448.455	90.69
448.675	101.69
448.896	105.69
449.117	104.69
449.338	95.69
449.559	95.69
449.779	93.69
450	91.69
450.221	107.69
450.442	93.69
450.662	88.69
450.883	90.69
451.104	90.69
451.324	95.69
451.545	79.69
451.766	84.69
451.986	89.69
452.207	85.69
452.428	93.69
452.648	104.69
452.869	91.69
453.089	96.69
453.31	105.69
453.53	78.69
453.751	72.69
453.971	88.69
454.192	73.69
454.412	86.69
454.633	95.69
454.853	82.69
455.073	79.69
455.294	84.69
455.514	85.69
455.734	93.69
455.955	97.69
456.175	95.69
456.395	80.69
456.616	66.69
456.836	90.69
457.056	83.69
457.276	82.69
457.497	92.69
457.717	92.69
457.937	87.69
458.157	100.69
458.377	86.69
458.598	91.69
458.818	75.69
459.038	88.69
459.258	79.69
459.478	83.69
459.698	91.69
459.918	87.69
460.138	79.69
460.358	78.69
460.578	86.69
460.798	83.69
461.018	99.69
461.238	92.69
461.458	89.69
461.678	102.69
461.898	95.69
462.118	89.69
462.338	85.69
462.558	92.69
462.777	90.69
462.997	82.69
463.217	79.69
463.437	76.69
463.657	91.69
463.876	88.69
464.096	84.69
464.316	87.69
464.536	87.69
464.755	97.69
464.975	82.69
465.195	86.69
465.414	98.69
465.634	97.69
465.854	90.69
466.073	99.69
466.293	98.69
466.512	86.69
466.732	116.69
466.951	96.69
467.171	100.69
467.391	92.69
467.61	97.69
467.829	96.69
468.049	104.69
468.268	90.69
468.488	84.69
468.707	99.69
468.927	95.69
469.146	94.69
469.365	100.69
469.585	97.69
469.804	88.69
470.023	92.69
470.243	106.69
470.462	105.69
470.681	86.69
470.901	90.69
471.12	90.69
471.339	93.69
471.558	80.69
471.777	98.69
471.997	106.69
472.216	107.69
472.435	95.69
472.654	83.69
472.873	85.69
473.092	104.69
473.311	93.69
473.53	99.69
473.749	105.69
473.968	96.69
474.187	92.69
474.406	86.69
474.625	89.69
474.844	92.69
475.063	92.69
475.282	93.69
475.501	88.69
475.72	81.69
475.939	109.69
476.158	93.69
476.377	100.69
476.596	93.69
476.814	108.69
477.033	75.69
477.252	99.69
477.471	88.69
477.69	106.69
477.908	106.69
478.127	96.69
478.346	103.69
478.564	106.69
478.783	102.69
479.002	77.69
479.22	106.69
479.439	104.69
479.658	91.69
479.876	89.69
480.095	83.69
480.313	93.69
480.532	97.69
480.751	87.69
480.969	88.69
481.188	91.69
481.406	106.69
481.624	104.69
481.843	83.69
482.061	83.69
482.28	96.69
482.498	96.69
482.717	84.69
482.935	101.69
483.153	98.69
483.372	90.69
483.59	98.69
483.808	101.69
484.027	101.69
484.245	84.69
484.463	93.69
484.681	103.69
484.9	98.69
485.118	94.69
485.336	89.69
485.554	97.69
485.772	94.69
485.99	89.69
486.209	95.69
486.427	92.69
486.645	87.69
486.863	98.69
487.081	108.69
487.299	102.69
487.517	118.69
487.735	110.69
487.953	108.69
488.171	118.69
488.389	102.69
488.607	108.69
488.825	111.69
489.043	92.69
489.261	101.69
489.479	90.69
489.696	104.69
489.914	96.69
490.132	121.69
490.35	118.69
490.568	97.69
490.786	104.69
491.003	106.69
491.221	104.69
491.439	101.69
491.657	117.69
491.874	127.69
492.092	128.69
492.31	127.69
492.527	110.69
492.745	115.69
492.963	116.69
493.18	110.69
493.398	101.69
493.615	104.69
493.833	119.69
494.05	101.69
494.268	89.69
494.485	109.69
494.703	110.69
494.92	111.69
495.138	106.69
495.355	104.69
495.573	114.69
495.79	117.69
496.008	113.69
496.225	107.69
496.442	103.69
496.66	101.69
496.877	100.69
497.094	116.69
497.312	104.69
497.529	109.69
497.746	119.69
497.963	97.69
498.181	104.69
498.398	98.69
498.615	91.69
498.832	98.69
499.049	88.69
499.267	109.69
499.484	90.69
499.701	103.69
499.918	114.69
500.135	106.69
500.352	102.69
500.569	100.69
500.786	106.69
501.003	110.69
501.22	88.69
501.437	96.69
501.654	84.69
501.871	91.69
502.088	107.69
502.305	89.69
502.522	94.69
502.739	97.69
502.956	87.69
503.172	102.69
503.389	94.69
503.606	94.69
503.823	98.69
504.04	95.69
504.256	105.69
504.473	91.69
504.69	107.69
504.907	88.69
505.123	86.69
505.34	98.69
505.557	102.69
505.773	92.69
505.99	97.69
506.207	95.69
506.423	93.69
506.64	98.69
506.856	97.69
507.073	113.69
507.289	96.69
507.506	114.69
507.722	99.69
507.939	92.69
508.155	98.69
508.372	89.69
508.588	98.69
508.805	92.69
509.021	88.69
509.238	95.69
509.454	88.69
509.67	81.69
509.887	74.69
510.103	84.69
510.319	91.69
510.536	98.69
510.752	88.69
510.968	90.69
511.184	90.69
511.401	79.69
511.617	97.69
511.833	84.69
512.049	85.69
512.265	89.69
512.481	78.69
512.698	99.69
512.914	86.69
513.13	87.69
513.346	86.69
513.562	76.69
513.778	79.69
513.994	73.69
514.21	101.69
514.426	83.69
514.642	85.69
514.858	86.69
515.074	94.69
515.29	88.69
515.506	90.69
515.721	94.69
515.937	89.69
516.153	73.69
516.369	95.69
516.585	77.69
516.801	87.69
517.016	86.69
