Data from Location5.07152019.Energy5.Lamp.07192019.3%Agarose_HRD10591_15-37-40-388.txt Node
Date: Fri Jul 19 15:37:40 EDT 2019
User: cochatt
Spectrometer: HR+D1059
Trigger mode: 1
Integration Time (sec): 1.000000E-1
Scans to average: 1
Electric dark correction enabled: true
Nonlinearity correction enabled: false
Boxcar width: 0
XAxis mode: Wavelengths
Number of Pixels in Spectrum: 2048
>>>>>Begin Spectral Data<<<<<
223.165	-19.5
223.4	-19.5
223.635	-19.5
223.869	-9.5
224.104	-21.5
224.338	-14.5
224.573	-0.5
224.808	-19.5
225.042	-16.5
225.277	-14.5
225.511	1.5
225.746	10.5
225.98	-8.5
226.215	10.5
226.449	22.5
226.683	26.5
226.918	26.5
227.152	26.5
227.387	28.5
227.621	44.5
227.856	31.5
228.09	53.5
228.324	56.5
228.559	57.5
228.793	55.5
229.027	68.5
229.262	65.5
229.496	63.5
229.73	72.5
229.964	56.5
230.199	67.5
230.433	67.5
230.667	80.5
230.901	73.5
231.136	86.5
231.37	73.5
231.604	72.5
231.838	85.5
232.072	71.5
232.306	82.5
232.541	64.5
232.775	85.5
233.009	90.5
233.243	91.5
233.477	80.5
233.711	86.5
233.945	77.5
234.179	91.5
234.413	75.5
234.647	81.5
234.881	69.5
235.115	89.5
235.349	67.5
235.583	67.5
235.817	85.5
236.051	80.5
236.285	82.5
236.519	79.5
236.753	69.5
236.987	86.5
237.221	84.5
237.455	76.5
237.689	79.5
237.922	79.5
238.156	82.5
238.39	90.5
238.624	90.5
238.858	71.5
239.091	70.5
239.325	79.5
239.559	90.5
239.793	76.5
240.027	76.5
240.26	82.5
240.494	81.5
240.728	68.5
240.961	70.5
241.195	78.5
241.429	63.5
241.662	76.5
241.896	77.5
242.13	93.5
242.363	79.5
242.597	83.5
242.83	77.5
243.064	83.5
243.298	68.5
243.531	85.5
243.765	80.5
243.998	73.5
244.232	78.5
244.465	73.5
244.699	75.5
244.932	77.5
245.166	85.5
245.399	91.5
245.633	71.5
245.866	73.5
246.099	68.5
246.333	70.5
246.566	82.5
246.8	81.5
247.033	80.5
247.266	74.5
247.5	83.5
247.733	70.5
247.966	80.5
248.2	64.5
248.433	83.5
248.666	87.5
248.899	83.5
249.133	88.5
249.366	78.5
249.599	72.5
249.832	69.5
250.066	78.5
250.299	83.5
250.532	89.5
250.765	76.5
250.998	79.5
251.231	99.5
251.465	75.5
251.698	79.5
251.931	76.5
252.164	77.5
252.397	74.5
252.63	73.5
252.863	89.5
253.096	79.5
253.329	83.5
253.562	76.5
253.795	81.5
254.028	76.5
254.261	90.5
254.494	88.5
254.727	73.5
254.96	83.5
255.193	82.5
255.426	65.5
255.659	74.5
255.892	74.5
256.124	87.5
256.357	73.5
256.59	80.5
256.823	76.5
257.056	89.5
257.289	77.5
257.521	69.5
257.754	86.5
257.987	69.5
258.22	75.5
258.452	79.5
258.685	81.5
258.918	91.5
259.151	80.5
259.383	75.5
259.616	82.5
259.849	85.5
260.081	81.5
260.314	99.5
260.547	96.5
260.779	81.5
261.012	75.5
261.244	78.5
261.477	82.5
261.71	86.5
261.942	96.5
262.175	69.5
262.407	76.5
262.64	74.5
262.872	74.5
263.105	88.5
263.337	93.5
263.57	70.5
263.802	70.5
264.035	78.5
264.267	67.5
264.499	67.5
264.732	64.5
264.964	78.5
265.197	94.5
265.429	86.5
265.661	81.5
265.894	93.5
266.126	77.5
266.358	79.5
266.591	90.5
266.823	67.5
267.055	72.5
267.287	77.5
267.52	83.5
267.752	70.5
267.984	87.5
268.216	88.5
268.448	89.5
268.681	80.5
268.913	84.5
269.145	88.5
269.377	78.5
269.609	84.5
269.841	81.5
270.073	90.5
270.306	92.5
270.538	82.5
270.77	76.5
271.002	84.5
271.234	94.5
271.466	85.5
271.698	81.5
271.93	89.5
272.162	84.5
272.394	90.5
272.626	77.5
272.858	81.5
273.09	78.5
273.322	90.5
273.553	69.5
273.785	75.5
274.017	82.5
274.249	89.5
274.481	95.5
274.713	90.5
274.945	70.5
275.176	84.5
275.408	87.5
275.64	83.5
275.872	98.5
276.104	83.5
276.335	81.5
276.567	82.5
276.799	83.5
277.031	74.5
277.262	79.5
277.494	92.5
277.726	91.5
277.957	96.5
278.189	81.5
278.421	93.5
278.652	78.5
278.884	83.5
279.115	91.5
279.347	89.5
279.579	73.5
279.81	83.5
280.042	74.5
280.273	86.5
280.505	82.5
280.736	80.5
280.968	66.5
281.199	81.5
281.431	83.5
281.662	65.5
281.894	84.5
282.125	90.5
282.356	103.5
282.588	84.5
282.819	79.5
283.051	77.5
283.282	82.5
283.513	81.5
283.745	83.5
283.976	84.5
284.207	81.5
284.439	86.5
284.67	103.5
284.901	75.5
285.132	77.5
285.364	81.5
285.595	75.5
285.826	79.5
286.057	83.5
286.288	76.5
286.52	71.5
286.751	70.5
286.982	74.5
287.213	85.5
287.444	81.5
287.675	86.5
287.906	87.5
288.138	83.5
288.369	85.5
288.6	91.5
288.831	84.5
289.062	83.5
289.293	83.5
289.524	77.5
289.755	76.5
289.986	74.5
290.217	85.5
290.448	81.5
290.679	94.5
290.91	76.5
291.141	77.5
291.371	85.5
291.602	84.5
291.833	87.5
292.064	83.5
292.295	83.5
292.526	75.5
292.757	87.5
292.987	91.5
293.218	90.5
293.449	82.5
293.68	89.5
293.91	77.5
294.141	78.5
294.372	82.5
294.603	87.5
294.833	93.5
295.064	69.5
295.295	84.5
295.525	91.5
295.756	66.5
295.987	69.5
296.217	78.5
296.448	76.5
296.679	97.5
296.909	91.5
297.14	90.5
297.37	82.5
297.601	87.5
297.831	80.5
298.062	83.5
298.292	77.5
298.523	76.5
298.753	84.5
298.984	71.5
299.214	82.5
299.445	76.5
299.675	74.5
299.905	79.5
300.136	75.5
300.366	85.5
300.597	87.5
300.827	78.5
301.057	79.5
301.288	82.5
301.518	97.5
301.748	77.5
301.979	93.5
302.209	88.5
302.439	77.5
302.669	73.5
302.9	76.5
303.13	93.5
303.36	81.5
303.59	84.5
303.82	80.5
304.051	76.5
304.281	90.5
304.511	92.5
304.741	82.5
304.971	83.5
305.201	80.5
305.431	86.5
305.661	101.5
305.891	75.5
306.121	94.5
306.352	83.5
306.582	71.5
306.812	84.5
307.042	75.5
307.272	83.5
307.502	76.5
307.731	91.5
307.961	86.5
308.191	84.5
308.421	82.5
308.651	76.5
308.881	90.5
309.111	76.5
309.341	85.5
309.571	78.5
309.8	92.5
310.03	74.5
310.26	81.5
310.49	79.5
310.72	83.5
310.949	79.5
311.179	80.5
311.409	70.5
311.639	84.5
311.868	84.5
312.098	83.5
312.328	91.5
312.557	89.5
312.787	74.5
313.017	85.5
313.246	95.5
313.476	83.5
313.706	85.5
313.935	73.5
314.165	85.5
314.394	73.5
314.624	69.5
314.853	76.5
315.083	80.5
315.312	77.5
315.542	81.5
315.771	76.5
316.001	90.5
316.23	88.5
316.46	95.5
316.689	86.5
316.919	83.5
317.148	83.5
317.377	97.5
317.607	64.5
317.836	77.5
318.065	93.5
318.295	77.5
318.524	82.5
318.753	84.5
318.983	80.5
319.212	87.5
319.441	81.5
319.67	91.5
319.9	92.5
320.129	65.5
320.358	96.5
320.587	98.5
320.816	81.5
321.046	100.5
321.275	85.5
321.504	88.5
321.733	90.5
321.962	87.5
322.191	81.5
322.42	81.5
322.649	80.5
322.878	69.5
323.108	94.5
323.337	92.5
323.566	90.5
323.795	90.5
324.024	92.5
324.253	81.5
324.482	83.5
324.71	83.5
324.939	94.5
325.168	91.5
325.397	90.5
325.626	88.5
325.855	74.5
326.084	79.5
326.313	93.5
326.542	84.5
326.77	96.5
326.999	91.5
327.228	92.5
327.457	89.5
327.686	84.5
327.914	75.5
328.143	78.5
328.372	76.5
328.6	87.5
328.829	94.5
329.058	79.5
329.287	74.5
329.515	81.5
329.744	89.5
329.972	90.5
330.201	82.5
330.43	80.5
330.658	86.5
330.887	87.5
331.115	102.5
331.344	82.5
331.572	91.5
331.801	81.5
332.03	72.5
332.258	73.5
332.486	77.5
332.715	93.5
332.943	77.5
333.172	75.5
333.4	92.5
333.629	87.5
333.857	87.5
334.085	88.5
334.314	88.5
334.542	75.5
334.771	75.5
334.999	71.5
335.227	80.5
335.455	80.5
335.684	71.5
335.912	78.5
336.14	88.5
336.369	79.5
336.597	86.5
336.825	89.5
337.053	85.5
337.281	92.5
337.51	85.5
337.738	91.5
337.966	91.5
338.194	89.5
338.422	84.5
338.65	87.5
338.878	97.5
339.106	83.5
339.334	85.5
339.562	81.5
339.79	96.5
340.018	81.5
340.246	87.5
340.474	86.5
340.702	78.5
340.93	81.5
341.158	88.5
341.386	85.5
341.614	92.5
341.842	91.5
342.07	83.5
342.298	81.5
342.526	93.5
342.754	90.5
342.981	98.5
343.209	76.5
343.437	85.5
343.665	63.5
343.893	80.5
344.12	76.5
344.348	66.5
344.576	89.5
344.804	87.5
345.031	74.5
345.259	75.5
345.487	88.5
345.714	74.5
345.942	89.5
346.17	83.5
346.397	87.5
346.625	87.5
346.853	87.5
347.08	84.5
347.308	88.5
347.535	71.5
347.763	75.5
347.99	74.5
348.218	81.5
348.445	89.5
348.673	75.5
348.9	78.5
349.128	89.5
349.355	75.5
349.583	66.5
349.81	73.5
350.037	83.5
350.265	81.5
350.492	75.5
350.72	85.5
350.947	82.5
351.174	96.5
351.402	75.5
351.629	87.5
351.856	96.5
352.083	91.5
352.311	88.5
352.538	97.5
352.765	80.5
352.992	87.5
353.22	84.5
353.447	87.5
353.674	81.5
353.901	97.5
354.128	78.5
354.355	82.5
354.583	80.5
354.81	77.5
355.037	92.5
355.264	72.5
355.491	82.5
355.718	76.5
355.945	76.5
356.172	84.5
356.399	80.5
356.626	88.5
356.853	85.5
357.08	83.5
357.307	75.5
357.534	80.5
357.761	72.5
357.988	81.5
358.215	93.5
358.441	80.5
358.668	87.5
358.895	99.5
359.122	77.5
359.349	88.5
359.576	83.5
359.802	82.5
360.029	76.5
360.256	89.5
360.483	80.5
360.709	80.5
360.936	78.5
361.163	76.5
361.39	87.5
361.616	86.5
361.843	72.5
362.07	92.5
362.296	89.5
362.523	87.5
362.749	63.5
362.976	93.5
363.203	72.5
363.429	73.5
363.656	94.5
363.882	83.5
364.109	84.5
364.335	82.5
364.562	86.5
364.788	79.5
365.015	88.5
365.241	85.5
365.468	74.5
365.694	84.5
365.92	83.5
366.147	98.5
366.373	90.5
366.599	83.5
366.826	83.5
367.052	75.5
367.278	73.5
367.505	87.5
367.731	85.5
367.957	73.5
368.184	80.5
368.41	84.5
368.636	76.5
368.862	103.5
369.089	96.5
369.315	93.5
369.541	91.5
369.767	104.5
369.993	91.5
370.219	87.5
370.445	83.5
370.672	71.5
370.898	76.5
371.124	60.5
371.35	93.5
371.576	88.5
371.802	95.5
372.028	82.5
372.254	85.5
372.48	86.5
372.706	73.5
372.932	78.5
373.158	71.5
373.384	76.5
373.61	86.5
373.835	90.5
374.061	71.5
374.287	80.5
374.513	88.5
374.739	92.5
374.965	82.5
375.191	100.5
375.416	74.5
375.642	96.5
375.868	88.5
376.094	82.5
376.319	81.5
376.545	77.5
376.771	88.5
376.997	75.5
377.222	72.5
377.448	72.5
377.674	80.5
377.899	89.5
378.125	86.5
378.35	84.5
378.576	86.5
378.802	80.5
379.027	89.5
379.253	98.5
379.478	89.5
379.704	100.5
379.929	96.5
380.155	83.5
380.38	77.5
380.606	78.5
380.831	89.5
381.057	91.5
381.282	82.5
381.507	90.5
381.733	91.5
381.958	77.5
382.184	90.5
382.409	89.5
382.634	95.5
382.86	74.5
383.085	89.5
383.31	88.5
383.535	85.5
383.761	93.5
383.986	68.5
384.211	75.5
384.436	73.5
384.662	80.5
384.887	72.5
385.112	79.5
385.337	92.5
385.562	94.5
385.787	91.5
386.013	86.5
386.238	88.5
386.463	94.5
386.688	81.5
386.913	82.5
387.138	84.5
387.363	92.5
387.588	85.5
387.813	77.5
388.038	91.5
388.263	83.5
388.488	83.5
388.713	87.5
388.938	80.5
389.163	100.5
389.387	93.5
389.612	87.5
389.837	85.5
390.062	92.5
390.287	66.5
390.512	90.5
390.736	92.5
390.961	91.5
391.186	84.5
391.411	94.5
391.636	87.5
391.86	82.5
392.085	86.5
392.31	80.5
392.534	93.5
392.759	95.5
392.984	76.5
393.208	96.5
393.433	93.5
393.658	87.5
393.882	84.5
394.107	91.5
394.331	86.5
394.556	97.5
394.78	93.5
395.005	84.5
395.229	84.5
395.454	86.5
395.678	73.5
395.903	88.5
396.127	93.5
396.352	85.5
396.576	82.5
396.801	85.5
397.025	90.5
397.249	85.5
397.474	98.5
397.698	95.5
397.922	82.5
398.147	74.5
398.371	85.5
398.595	90.5
398.82	91.5
399.044	91.5
399.268	95.5
399.492	80.5
399.717	88.5
399.941	85.5
400.165	92.5
400.389	97.5
400.613	97.5
400.837	105.5
401.062	95.5
401.286	95.5
401.51	82.5
401.734	89.5
401.958	72.5
402.182	90.5
402.406	89.5
402.63	80.5
402.854	90.5
403.078	99.5
403.302	83.5
403.526	89.5
403.75	91.5
403.974	92.5
404.198	85.5
404.422	96.5
404.645	90.5
404.869	90.5
405.093	93.5
405.317	102.5
405.541	95.5
405.765	94.5
405.988	91.5
406.212	80.5
406.436	81.5
406.66	96.5
406.883	98.5
407.107	79.5
407.331	99.5
407.555	94.5
407.778	86.5
408.002	108.5
408.226	105.5
408.449	75.5
408.673	93.5
408.896	84.5
409.12	90.5
409.344	101.5
409.567	81.5
409.791	89.5
410.014	91.5
410.238	81.5
410.461	95.5
410.685	101.5
410.908	86.5
411.132	82.5
411.355	80.5
411.578	91.5
411.802	92.5
412.025	91.5
412.249	91.5
412.472	101.5
412.695	79.5
412.919	84.5
413.142	110.5
413.365	85.5
413.589	89.5
413.812	88.5
414.035	91.5
414.258	84.5
414.482	88.5
414.705	86.5
414.928	93.5
415.151	79.5
415.374	87.5
415.597	93.5
415.821	86.5
416.044	91.5
416.267	90.5
416.49	91.5
416.713	83.5
416.936	80.5
417.159	88.5
417.382	85.5
417.605	83.5
417.828	95.5
418.051	83.5
418.274	88.5
418.497	101.5
418.72	92.5
418.943	91.5
419.166	101.5
419.389	84.5
419.611	93.5
419.834	105.5
420.057	101.5
420.28	95.5
420.503	104.5
420.726	85.5
420.948	91.5
421.171	96.5
421.394	92.5
421.617	91.5
421.839	85.5
422.062	98.5
422.285	78.5
422.507	103.5
422.73	94.5
422.953	87.5
423.175	89.5
423.398	95.5
423.621	80.5
423.843	72.5
424.066	109.5
424.288	105.5
424.511	97.5
424.733	103.5
424.956	95.5
425.178	89.5
425.401	83.5
425.623	84.5
425.846	113.5
426.068	87.5
426.291	97.5
426.513	102.5
426.735	92.5
426.958	94.5
427.18	103.5
427.402	107.5
427.625	89.5
427.847	102.5
428.069	80.5
428.292	94.5
428.514	90.5
428.736	93.5
428.958	87.5
429.181	87.5
429.403	90.5
429.625	103.5
429.847	100.5
430.069	90.5
430.292	88.5
430.514	101.5
430.736	103.5
430.958	85.5
431.18	108.5
431.402	93.5
431.624	89.5
431.846	81.5
432.068	85.5
432.29	102.5
432.512	97.5
432.734	84.5
432.956	80.5
433.178	94.5
433.4	94.5
433.622	100.5
433.844	95.5
434.066	99.5
434.287	103.5
434.509	85.5
434.731	80.5
434.953	87.5
435.175	94.5
435.397	101.5
435.618	78.5
435.84	101.5
436.062	92.5
436.284	89.5
436.505	95.5
436.727	80.5
436.949	99.5
437.17	92.5
437.392	82.5
437.614	82.5
437.835	101.5
438.057	71.5
438.278	86.5
438.5	95.5
438.721	105.5
438.943	97.5
439.165	90.5
439.386	92.5
439.608	95.5
439.829	99.5
440.05	102.5
440.272	90.5
440.493	94.5
440.715	100.5
440.936	114.5
441.158	98.5
441.379	105.5
441.6	98.5
441.822	95.5
442.043	106.5
442.264	97.5
442.486	96.5
442.707	106.5
442.928	83.5
443.149	112.5
443.371	101.5
443.592	104.5
443.813	83.5
444.034	86.5
444.255	95.5
444.476	115.5
444.698	99.5
444.919	117.5
445.14	237.5
445.361	161.5
445.582	100.5
445.803	92.5
446.024	96.5
446.245	93.5
446.466	85.5
446.687	96.5
446.908	80.5
447.129	111.5
447.35	89.5
447.571	94.5
447.792	97.5
448.013	75.5
448.234	97.5
448.455	101.5
448.675	94.5
448.896	89.5
449.117	98.5
449.338	93.5
449.559	104.5
449.779	99.5
450	93.5
450.221	85.5
450.442	102.5
450.662	80.5
450.883	87.5
451.104	93.5
451.324	84.5
451.545	100.5
451.766	105.5
451.986	97.5
452.207	90.5
452.428	73.5
452.648	99.5
452.869	100.5
453.089	83.5
453.31	89.5
453.53	104.5
453.751	105.5
453.971	100.5
454.192	82.5
454.412	80.5
454.633	79.5
454.853	102.5
455.073	87.5
455.294	86.5
455.514	103.5
455.734	92.5
455.955	87.5
456.175	101.5
456.395	76.5
456.616	88.5
456.836	85.5
457.056	90.5
457.276	83.5
457.497	84.5
457.717	91.5
457.937	82.5
458.157	77.5
458.377	85.5
458.598	80.5
458.818	85.5
459.038	79.5
459.258	77.5
459.478	95.5
459.698	98.5
459.918	89.5
460.138	90.5
460.358	85.5
460.578	91.5
460.798	92.5
461.018	77.5
461.238	81.5
461.458	86.5
461.678	97.5
461.898	92.5
462.118	100.5
462.338	98.5
462.558	92.5
462.777	85.5
462.997	95.5
463.217	82.5
463.437	89.5
463.657	91.5
463.876	100.5
464.096	81.5
464.316	81.5
464.536	99.5
464.755	88.5
464.975	88.5
465.195	99.5
465.414	86.5
465.634	92.5
465.854	93.5
466.073	87.5
466.293	93.5
466.512	98.5
466.732	97.5
466.951	97.5
467.171	94.5
467.391	97.5
467.61	104.5
467.829	92.5
468.049	90.5
468.268	99.5
468.488	92.5
468.707	91.5
468.927	95.5
469.146	117.5
469.365	91.5
469.585	91.5
469.804	95.5
470.023	88.5
470.243	103.5
470.462	99.5
470.681	96.5
470.901	95.5
471.12	120.5
471.339	98.5
471.558	97.5
471.777	94.5
471.997	105.5
472.216	96.5
472.435	84.5
472.654	82.5
472.873	91.5
473.092	90.5
473.311	83.5
473.53	105.5
473.749	89.5
473.968	101.5
474.187	99.5
474.406	112.5
474.625	92.5
474.844	98.5
475.063	83.5
475.282	89.5
475.501	88.5
475.72	93.5
475.939	72.5
476.158	105.5
476.377	99.5
476.596	86.5
476.814	84.5
477.033	96.5
477.252	89.5
477.471	98.5
477.69	85.5
477.908	83.5
478.127	93.5
478.346	97.5
478.564	105.5
478.783	103.5
479.002	110.5
479.22	101.5
479.439	105.5
479.658	91.5
479.876	92.5
480.095	89.5
480.313	89.5
480.532	80.5
480.751	95.5
480.969	99.5
481.188	94.5
481.406	87.5
481.624	93.5
481.843	88.5
482.061	72.5
482.28	91.5
482.498	88.5
482.717	77.5
482.935	89.5
483.153	93.5
483.372	101.5
483.59	102.5
483.808	95.5
484.027	99.5
484.245	95.5
484.463	100.5
484.681	104.5
484.9	108.5
485.118	84.5
485.336	95.5
485.554	96.5
485.772	101.5
485.99	92.5
486.209	102.5
486.427	93.5
486.645	100.5
486.863	104.5
487.081	94.5
487.299	89.5
487.517	83.5
487.735	109.5
487.953	115.5
488.171	117.5
488.389	107.5
488.607	87.5
488.825	96.5
489.043	94.5
489.261	102.5
489.479	80.5
489.696	96.5
489.914	99.5
490.132	92.5
490.35	96.5
490.568	104.5
490.786	114.5
491.003	95.5
491.221	107.5
491.439	110.5
491.657	119.5
491.874	115.5
492.092	124.5
492.31	116.5
492.527	125.5
492.745	121.5
492.963	117.5
493.18	109.5
493.398	112.5
493.615	123.5
493.833	113.5
494.05	112.5
494.268	125.5
494.485	112.5
494.703	111.5
494.92	100.5
495.138	95.5
495.355	120.5
495.573	119.5
495.79	89.5
496.008	102.5
496.225	112.5
496.442	102.5
496.66	121.5
496.877	110.5
497.094	98.5
497.312	90.5
497.529	98.5
497.746	87.5
497.963	103.5
498.181	99.5
498.398	81.5
498.615	97.5
498.832	100.5
499.049	100.5
499.267	115.5
499.484	102.5
499.701	87.5
499.918	90.5
500.135	103.5
500.352	101.5
500.569	100.5
500.786	107.5
501.003	103.5
501.22	96.5
501.437	100.5
501.654	107.5
501.871	91.5
502.088	83.5
502.305	109.5
502.522	111.5
502.739	101.5
502.956	105.5
503.172	96.5
503.389	79.5
503.606	86.5
503.823	90.5
504.04	101.5
504.256	97.5
504.473	98.5
504.69	101.5
504.907	96.5
505.123	95.5
505.34	88.5
505.557	95.5
505.773	85.5
505.99	103.5
506.207	107.5
506.423	108.5
506.64	88.5
506.856	102.5
507.073	78.5
507.289	89.5
507.506	94.5
507.722	84.5
507.939	80.5
508.155	101.5
508.372	87.5
508.588	100.5
508.805	90.5
509.021	93.5
509.238	77.5
509.454	87.5
509.67	92.5
509.887	83.5
510.103	91.5
510.319	85.5
510.536	76.5
510.752	80.5
510.968	72.5
511.184	84.5
511.401	89.5
511.617	86.5
511.833	96.5
512.049	85.5
512.265	87.5
512.481	92.5
512.698	99.5
512.914	91.5
513.13	86.5
513.346	98.5
513.562	83.5
513.778	89.5
513.994	81.5
514.21	81.5
514.426	89.5
514.642	85.5
514.858	96.5
515.074	71.5
515.29	95.5
515.506	95.5
515.721	100.5
515.937	98.5
516.153	98.5
516.369	104.5
516.585	81.5
516.801	74.5
517.016	67.5
517.232	75.5
517.448	87.5
517.664	87.5
517.879	88.5
518.095	83.5
518.311	88.5
518.527	95.5
518.742	84.5
518.958	86.5
519.173	87.5
519.389	77.5
519.605	87.5
519.82	91.5
520.036	98.5
520.251	86.5
520.467	91.5
520.682	85.5
520.898	108.5
521.113	96.5
521.329	79.5
521.544	89.5
521.76	92.5
521.975	103.5
522.19	75.5
522.406	90.5
522.621	83.5
522.836	96.5
523.052	89.5
523.267	92.5
523.482	87.5
523.698	98.5
523.913	101.5
524.128	99.5
524.343	90.5
524.559	99.5
524.774	96.5
524.989	89.5
525.204	95.5
525.419	91.5
525.634	89.5
525.849	80.5
526.064	86.5
526.28	101.5
526.495	89.5
526.71	81.5
526.925	97.5
527.14	91.5
527.355	70.5
527.57	85.5
527.785	84.5
527.999	92.5
528.214	82.5
528.429	91.5
528.644	90.5
528.859	89.5
529.074	93.5
529.289	106.5
529.503	97.5
529.718	101.5
529.933	81.5
530.148	96.5
530.363	98.5
530.577	91.5
530.792	77.5
531.007	91.5
531.221	83.5
531.436	79.5
531.651	87.5
531.865	88.5
532.08	82.5
532.295	76.5
532.509	86.5
532.724	90.5
532.938	77.5
533.153	83.5
533.367	97.5
533.582	97.5
533.796	90.5
534.011	87.5
534.225	74.5
534.44	85.5
534.654	96.5
534.868	77.5
535.083	94.5
535.297	99.5
535.511	84.5
535.726	77.5
535.94	96.5
536.154	83.5
536.369	77.5
536.583	99.5
536.797	93.5
537.011	83.5
537.225	80.5
537.44	87.5
