Data from Location5.07152019.Energy5.Lamp.07192019.3%Agarose_HRD10591_15-37-46-387.txt Node
Date: Fri Jul 19 15:37:46 EDT 2019
User: cochatt
Spectrometer: HR+D1059
Trigger mode: 1
Integration Time (sec): 1.000000E-1
Scans to average: 1
Electric dark correction enabled: true
Nonlinearity correction enabled: false
Boxcar width: 0
XAxis mode: Wavelengths
Number of Pixels in Spectrum: 2048
>>>>>Begin Spectral Data<<<<<
223.165	-18.88
223.4	-18.88
223.635	-18.88
223.869	-2.88
224.104	-22.88
224.338	-12.88
224.573	-16.88
224.808	-22.88
225.042	-3.88
225.277	-17.88
225.511	-3.88
225.746	12.12
225.98	6.12
226.215	10.12
226.449	15.12
226.683	23.12
226.918	34.12
227.152	22.12
227.387	24.12
227.621	39.12
227.856	47.12
228.09	58.12
228.324	55.12
228.559	41.12
228.793	60.12
229.027	61.12
229.262	70.12
229.496	60.12
229.73	58.12
229.964	62.12
230.199	57.12
230.433	72.12
230.667	74.12
230.901	78.12
231.136	84.12
231.37	80.12
231.604	83.12
231.838	82.12
232.072	74.12
232.306	91.12
232.541	74.12
232.775	67.12
233.009	79.12
233.243	72.12
233.477	91.12
233.711	85.12
233.945	70.12
234.179	72.12
234.413	81.12
234.647	65.12
234.881	86.12
235.115	90.12
235.349	59.12
235.583	92.12
235.817	88.12
236.051	70.12
236.285	84.12
236.519	71.12
236.753	95.12
236.987	83.12
237.221	70.12
237.455	55.12
237.689	76.12
237.922	84.12
238.156	71.12
238.39	66.12
238.624	61.12
238.858	85.12
239.091	68.12
239.325	70.12
239.559	63.12
239.793	70.12
240.027	74.12
240.26	75.12
240.494	72.12
240.728	73.12
240.961	76.12
241.195	83.12
241.429	78.12
241.662	76.12
241.896	84.12
242.13	61.12
242.363	69.12
242.597	84.12
242.83	72.12
243.064	82.12
243.298	72.12
243.531	66.12
243.765	88.12
243.998	87.12
244.232	77.12
244.465	84.12
244.699	68.12
244.932	72.12
245.166	76.12
245.399	87.12
245.633	73.12
245.866	83.12
246.099	83.12
246.333	82.12
246.566	74.12
246.8	73.12
247.033	82.12
247.266	87.12
247.5	96.12
247.733	92.12
247.966	85.12
248.2	68.12
248.433	78.12
248.666	69.12
248.899	87.12
249.133	74.12
249.366	92.12
249.599	81.12
249.832	90.12
250.066	70.12
250.299	65.12
250.532	88.12
250.765	62.12
250.998	84.12
251.231	90.12
251.465	75.12
251.698	99.12
251.931	83.12
252.164	80.12
252.397	80.12
252.63	75.12
252.863	78.12
253.096	73.12
253.329	81.12
253.562	74.12
253.795	94.12
254.028	79.12
254.261	81.12
254.494	77.12
254.727	79.12
254.96	74.12
255.193	72.12
255.426	69.12
255.659	78.12
255.892	86.12
256.124	68.12
256.357	76.12
256.59	79.12
256.823	79.12
257.056	83.12
257.289	81.12
257.521	76.12
257.754	75.12
257.987	80.12
258.22	98.12
258.452	78.12
258.685	74.12
258.918	70.12
259.151	86.12
259.383	90.12
259.616	80.12
259.849	88.12
260.081	84.12
260.314	88.12
260.547	80.12
260.779	83.12
261.012	79.12
261.244	88.12
261.477	89.12
261.71	82.12
261.942	89.12
262.175	79.12
262.407	84.12
262.64	84.12
262.872	75.12
263.105	86.12
263.337	91.12
263.57	71.12
263.802	71.12
264.035	82.12
264.267	80.12
264.499	96.12
264.732	95.12
264.964	71.12
265.197	86.12
265.429	87.12
265.661	87.12
265.894	79.12
266.126	88.12
266.358	94.12
266.591	76.12
266.823	79.12
267.055	82.12
267.287	81.12
267.52	78.12
267.752	94.12
267.984	82.12
268.216	74.12
268.448	88.12
268.681	85.12
268.913	91.12
269.145	78.12
269.377	98.12
269.609	83.12
269.841	78.12
270.073	71.12
270.306	76.12
270.538	82.12
270.77	71.12
271.002	94.12
271.234	87.12
271.466	74.12
271.698	91.12
271.93	85.12
272.162	89.12
272.394	90.12
272.626	76.12
272.858	70.12
273.09	82.12
273.322	91.12
273.553	76.12
273.785	76.12
274.017	72.12
274.249	91.12
274.481	82.12
274.713	84.12
274.945	99.12
275.176	83.12
275.408	76.12
275.64	88.12
275.872	80.12
276.104	74.12
276.335	91.12
276.567	90.12
276.799	88.12
277.031	86.12
277.262	84.12
277.494	89.12
277.726	84.12
277.957	81.12
278.189	85.12
278.421	93.12
278.652	90.12
278.884	91.12
279.115	91.12
279.347	83.12
279.579	93.12
279.81	95.12
280.042	97.12
280.273	85.12
280.505	73.12
280.736	80.12
280.968	66.12
281.199	85.12
281.431	85.12
281.662	93.12
281.894	84.12
282.125	80.12
282.356	86.12
282.588	90.12
282.819	63.12
283.051	84.12
283.282	66.12
283.513	88.12
283.745	91.12
283.976	90.12
284.207	92.12
284.439	89.12
284.67	81.12
284.901	80.12
285.132	75.12
285.364	100.12
285.595	85.12
285.826	83.12
286.057	99.12
286.288	81.12
286.52	98.12
286.751	87.12
286.982	90.12
287.213	79.12
287.444	80.12
287.675	92.12
287.906	84.12
288.138	74.12
288.369	92.12
288.6	78.12
288.831	78.12
289.062	86.12
289.293	86.12
289.524	98.12
289.755	91.12
289.986	80.12
290.217	91.12
290.448	87.12
290.679	99.12
290.91	94.12
291.141	88.12
291.371	76.12
291.602	96.12
291.833	94.12
292.064	79.12
292.295	74.12
292.526	79.12
292.757	90.12
292.987	89.12
293.218	82.12
293.449	87.12
293.68	78.12
293.91	85.12
294.141	89.12
294.372	77.12
294.603	83.12
294.833	94.12
295.064	98.12
295.295	72.12
295.525	92.12
295.756	76.12
295.987	92.12
296.217	96.12
296.448	81.12
296.679	81.12
296.909	85.12
297.14	74.12
297.37	72.12
297.601	76.12
297.831	79.12
298.062	95.12
298.292	85.12
298.523	99.12
298.753	87.12
298.984	91.12
299.214	87.12
299.445	91.12
299.675	96.12
299.905	95.12
300.136	85.12
300.366	105.12
300.597	80.12
300.827	66.12
301.057	88.12
301.288	82.12
301.518	73.12
301.748	74.12
301.979	82.12
302.209	83.12
302.439	80.12
302.669	91.12
302.9	84.12
303.13	89.12
303.36	79.12
303.59	68.12
303.82	92.12
304.051	84.12
304.281	90.12
304.511	87.12
304.741	74.12
304.971	84.12
305.201	84.12
305.431	73.12
305.661	101.12
305.891	91.12
306.121	78.12
306.352	84.12
306.582	88.12
306.812	96.12
307.042	77.12
307.272	73.12
307.502	78.12
307.731	81.12
307.961	84.12
308.191	75.12
308.421	86.12
308.651	80.12
308.881	82.12
309.111	83.12
309.341	85.12
309.571	90.12
309.8	95.12
310.03	73.12
310.26	74.12
310.49	93.12
310.72	88.12
310.949	91.12
311.179	103.12
311.409	81.12
311.639	84.12
311.868	105.12
312.098	94.12
312.328	72.12
312.557	60.12
312.787	87.12
313.017	102.12
313.246	82.12
313.476	84.12
313.706	95.12
313.935	89.12
314.165	80.12
314.394	89.12
314.624	85.12
314.853	78.12
315.083	96.12
315.312	91.12
315.542	81.12
315.771	81.12
316.001	81.12
316.23	101.12
316.46	85.12
316.689	70.12
316.919	87.12
317.148	84.12
317.377	97.12
317.607	81.12
317.836	77.12
318.065	90.12
318.295	95.12
318.524	96.12
318.753	85.12
318.983	102.12
319.212	98.12
319.441	96.12
319.67	77.12
319.9	83.12
320.129	90.12
320.358	79.12
320.587	100.12
320.816	80.12
321.046	84.12
321.275	100.12
321.504	92.12
321.733	74.12
321.962	87.12
322.191	98.12
322.42	86.12
322.649	94.12
322.878	75.12
323.108	91.12
323.337	82.12
323.566	95.12
323.795	79.12
324.024	73.12
324.253	83.12
324.482	90.12
324.71	79.12
324.939	78.12
325.168	79.12
325.397	88.12
325.626	81.12
325.855	67.12
326.084	78.12
326.313	96.12
326.542	90.12
326.77	76.12
326.999	85.12
327.228	85.12
327.457	83.12
327.686	82.12
327.914	78.12
328.143	82.12
328.372	88.12
328.6	82.12
328.829	84.12
329.058	74.12
329.287	95.12
329.515	71.12
329.744	79.12
329.972	86.12
330.201	84.12
330.43	72.12
330.658	96.12
330.887	85.12
331.115	100.12
331.344	86.12
331.572	101.12
331.801	96.12
332.03	95.12
332.258	96.12
332.486	84.12
332.715	90.12
332.943	89.12
333.172	81.12
333.4	86.12
333.629	84.12
333.857	97.12
334.085	85.12
334.314	88.12
334.542	84.12
334.771	92.12
334.999	87.12
335.227	90.12
335.455	90.12
335.684	89.12
335.912	87.12
336.14	87.12
336.369	76.12
336.597	87.12
336.825	82.12
337.053	77.12
337.281	75.12
337.51	74.12
337.738	96.12
337.966	77.12
338.194	89.12
338.422	72.12
338.65	76.12
338.878	74.12
339.106	79.12
339.334	94.12
339.562	87.12
339.79	77.12
340.018	89.12
340.246	89.12
340.474	81.12
340.702	91.12
340.93	90.12
341.158	86.12
341.386	78.12
341.614	70.12
341.842	89.12
342.07	82.12
342.298	98.12
342.526	85.12
342.754	87.12
342.981	86.12
343.209	84.12
343.437	83.12
343.665	75.12
343.893	73.12
344.12	79.12
344.348	98.12
344.576	88.12
344.804	83.12
345.031	83.12
345.259	92.12
345.487	82.12
345.714	86.12
345.942	83.12
346.17	63.12
346.397	80.12
346.625	87.12
346.853	89.12
347.08	88.12
347.308	83.12
347.535	74.12
347.763	94.12
347.99	96.12
348.218	93.12
348.445	86.12
348.673	78.12
348.9	81.12
349.128	96.12
349.355	82.12
349.583	99.12
349.81	95.12
350.037	84.12
350.265	74.12
350.492	89.12
350.72	94.12
350.947	85.12
351.174	90.12
351.402	82.12
351.629	89.12
351.856	91.12
352.083	80.12
352.311	73.12
352.538	72.12
352.765	80.12
352.992	77.12
353.22	81.12
353.447	92.12
353.674	95.12
353.901	84.12
354.128	97.12
354.355	85.12
354.583	74.12
354.81	91.12
355.037	88.12
355.264	71.12
355.491	70.12
355.718	80.12
355.945	76.12
356.172	91.12
356.399	79.12
356.626	94.12
356.853	86.12
357.08	79.12
357.307	89.12
357.534	87.12
357.761	84.12
357.988	75.12
358.215	73.12
358.441	88.12
358.668	84.12
358.895	86.12
359.122	81.12
359.349	86.12
359.576	79.12
359.802	83.12
360.029	80.12
360.256	88.12
360.483	97.12
360.709	81.12
360.936	75.12
361.163	91.12
361.39	94.12
361.616	95.12
361.843	75.12
362.07	84.12
362.296	93.12
362.523	74.12
362.749	73.12
362.976	103.12
363.203	83.12
363.429	94.12
363.656	86.12
363.882	81.12
364.109	98.12
364.335	84.12
364.562	95.12
364.788	86.12
365.015	73.12
365.241	84.12
365.468	82.12
365.694	79.12
365.92	97.12
366.147	89.12
366.373	89.12
366.599	83.12
366.826	92.12
367.052	85.12
367.278	88.12
367.505	98.12
367.731	96.12
367.957	70.12
368.184	89.12
368.41	75.12
368.636	83.12
368.862	83.12
369.089	99.12
369.315	78.12
369.541	91.12
369.767	80.12
369.993	94.12
370.219	80.12
370.445	76.12
370.672	72.12
370.898	73.12
371.124	94.12
371.35	82.12
371.576	79.12
371.802	90.12
372.028	72.12
372.254	101.12
372.48	80.12
372.706	74.12
372.932	88.12
373.158	82.12
373.384	97.12
373.61	84.12
373.835	103.12
374.061	77.12
374.287	73.12
374.513	87.12
374.739	90.12
374.965	85.12
375.191	75.12
375.416	88.12
375.642	80.12
375.868	79.12
376.094	84.12
376.319	79.12
376.545	86.12
376.771	78.12
376.997	90.12
377.222	71.12
377.448	91.12
377.674	78.12
377.899	80.12
378.125	79.12
378.35	88.12
378.576	104.12
378.802	89.12
379.027	76.12
379.253	88.12
379.478	78.12
379.704	91.12
379.929	86.12
380.155	84.12
380.38	71.12
380.606	80.12
380.831	79.12
381.057	87.12
381.282	95.12
381.507	83.12
381.733	101.12
381.958	91.12
382.184	90.12
382.409	94.12
382.634	80.12
382.86	78.12
383.085	91.12
383.31	87.12
383.535	76.12
383.761	96.12
383.986	94.12
384.211	81.12
384.436	81.12
384.662	81.12
384.887	84.12
385.112	79.12
385.337	90.12
385.562	80.12
385.787	95.12
386.013	102.12
386.238	90.12
386.463	60.12
386.688	85.12
386.913	73.12
387.138	86.12
387.363	79.12
387.588	82.12
387.813	70.12
388.038	70.12
388.263	67.12
388.488	69.12
388.713	73.12
388.938	68.12
389.163	100.12
389.387	83.12
389.612	85.12
389.837	91.12
390.062	91.12
390.287	89.12
390.512	89.12
390.736	82.12
390.961	87.12
391.186	103.12
391.411	88.12
391.636	84.12
391.86	77.12
392.085	90.12
392.31	93.12
392.534	92.12
392.759	80.12
392.984	82.12
393.208	95.12
393.433	74.12
393.658	86.12
393.882	91.12
394.107	75.12
394.331	79.12
394.556	92.12
394.78	81.12
395.005	89.12
395.229	83.12
395.454	80.12
395.678	87.12
395.903	85.12
396.127	105.12
396.352	91.12
396.576	98.12
396.801	92.12
397.025	84.12
397.249	84.12
397.474	96.12
397.698	84.12
397.922	80.12
398.147	67.12
398.371	92.12
398.595	84.12
398.82	80.12
399.044	84.12
399.268	72.12
399.492	100.12
399.717	98.12
399.941	74.12
400.165	83.12
400.389	91.12
400.613	93.12
400.837	100.12
401.062	94.12
401.286	75.12
401.51	74.12
401.734	85.12
401.958	91.12
402.182	88.12
402.406	92.12
402.63	88.12
402.854	97.12
403.078	80.12
403.302	89.12
403.526	97.12
403.75	85.12
403.974	80.12
404.198	80.12
404.422	97.12
404.645	82.12
404.869	99.12
405.093	89.12
405.317	100.12
405.541	99.12
405.765	89.12
405.988	97.12
406.212	85.12
406.436	93.12
406.66	87.12
406.883	71.12
407.107	85.12
407.331	101.12
407.555	104.12
407.778	89.12
408.002	96.12
408.226	96.12
408.449	89.12
408.673	81.12
408.896	75.12
409.12	90.12
409.344	86.12
409.567	82.12
409.791	102.12
410.014	85.12
410.238	81.12
410.461	83.12
410.685	91.12
410.908	87.12
411.132	90.12
411.355	87.12
411.578	95.12
411.802	85.12
412.025	94.12
412.249	82.12
412.472	93.12
412.695	82.12
412.919	91.12
413.142	81.12
413.365	90.12
413.589	94.12
413.812	95.12
414.035	82.12
414.258	93.12
414.482	87.12
414.705	87.12
414.928	88.12
415.151	106.12
415.374	72.12
415.597	93.12
415.821	83.12
416.044	100.12
416.267	81.12
416.49	91.12
416.713	82.12
416.936	84.12
417.159	89.12
417.382	91.12
417.605	85.12
417.828	86.12
418.051	99.12
418.274	77.12
418.497	83.12
418.72	101.12
418.943	99.12
419.166	78.12
419.389	87.12
419.611	87.12
419.834	84.12
420.057	100.12
420.28	98.12
420.503	102.12
420.726	95.12
420.948	102.12
421.171	84.12
421.394	99.12
421.617	86.12
421.839	102.12
422.062	90.12
422.285	98.12
422.507	100.12
422.73	88.12
422.953	79.12
423.175	89.12
423.398	98.12
423.621	99.12
423.843	91.12
424.066	101.12
424.288	89.12
424.511	92.12
424.733	83.12
424.956	98.12
425.178	102.12
425.401	81.12
425.623	103.12
425.846	103.12
426.068	94.12
426.291	88.12
426.513	75.12
426.735	86.12
426.958	88.12
427.18	84.12
427.402	86.12
427.625	94.12
427.847	106.12
428.069	98.12
428.292	89.12
428.514	82.12
428.736	94.12
428.958	83.12
429.181	90.12
429.403	86.12
429.625	107.12
429.847	93.12
430.069	88.12
430.292	90.12
430.514	104.12
430.736	87.12
430.958	83.12
431.18	95.12
431.402	84.12
431.624	78.12
431.846	86.12
432.068	80.12
432.29	85.12
432.512	88.12
432.734	105.12
432.956	98.12
433.178	95.12
433.4	99.12
433.622	76.12
433.844	105.12
434.066	82.12
434.287	84.12
434.509	83.12
434.731	87.12
434.953	88.12
435.175	94.12
435.397	93.12
435.618	80.12
435.84	83.12
436.062	88.12
436.284	82.12
436.505	88.12
436.727	115.12
436.949	85.12
437.17	93.12
437.392	90.12
437.614	77.12
437.835	88.12
438.057	99.12
438.278	96.12
438.5	96.12
438.721	112.12
438.943	102.12
439.165	98.12
439.386	104.12
439.608	86.12
439.829	85.12
440.05	92.12
440.272	105.12
440.493	100.12
440.715	90.12
440.936	98.12
441.158	100.12
441.379	93.12
441.6	91.12
441.822	86.12
442.043	101.12
442.264	92.12
442.486	99.12
442.707	102.12
442.928	83.12
443.149	88.12
443.371	99.12
443.592	90.12
443.813	100.12
444.034	99.12
444.255	93.12
444.476	101.12
444.698	86.12
444.919	97.12
445.14	227.12
445.361	160.12
445.582	102.12
445.803	89.12
446.024	95.12
446.245	102.12
446.466	92.12
446.687	86.12
446.908	94.12
447.129	104.12
447.35	94.12
447.571	108.12
447.792	98.12
448.013	90.12
448.234	104.12
448.455	91.12
448.675	94.12
448.896	84.12
449.117	83.12
449.338	82.12
449.559	84.12
449.779	96.12
450	102.12
450.221	84.12
450.442	95.12
450.662	89.12
450.883	97.12
451.104	93.12
451.324	87.12
451.545	92.12
451.766	88.12
451.986	94.12
452.207	95.12
452.428	86.12
452.648	92.12
452.869	85.12
453.089	76.12
453.31	82.12
453.53	81.12
453.751	89.12
453.971	98.12
454.192	79.12
454.412	76.12
454.633	77.12
454.853	80.12
455.073	85.12
455.294	86.12
455.514	98.12
455.734	83.12
455.955	87.12
456.175	94.12
456.395	101.12
456.616	79.12
456.836	89.12
457.056	91.12
457.276	86.12
457.497	81.12
457.717	93.12
457.937	92.12
458.157	90.12
458.377	88.12
458.598	79.12
458.818	88.12
459.038	77.12
459.258	68.12
459.478	88.12
459.698	80.12
459.918	75.12
460.138	88.12
460.358	97.12
460.578	103.12
460.798	83.12
461.018	87.12
461.238	90.12
461.458	91.12
461.678	97.12
461.898	91.12
462.118	86.12
462.338	76.12
462.558	77.12
462.777	94.12
462.997	93.12
463.217	91.12
463.437	91.12
463.657	94.12
463.876	95.12
464.096	91.12
464.316	83.12
464.536	95.12
464.755	88.12
464.975	92.12
465.195	72.12
465.414	98.12
465.634	93.12
465.854	96.12
466.073	87.12
466.293	88.12
466.512	73.12
466.732	97.12
466.951	98.12
467.171	95.12
467.391	103.12
467.61	95.12
467.829	92.12
468.049	88.12
468.268	97.12
468.488	100.12
468.707	112.12
468.927	108.12
469.146	110.12
469.365	104.12
469.585	102.12
469.804	85.12
470.023	101.12
470.243	96.12
470.462	86.12
470.681	89.12
470.901	91.12
471.12	91.12
471.339	90.12
471.558	96.12
471.777	102.12
471.997	98.12
472.216	105.12
472.435	75.12
472.654	73.12
472.873	86.12
473.092	107.12
473.311	92.12
473.53	102.12
473.749	83.12
473.968	90.12
474.187	98.12
474.406	91.12
474.625	98.12
474.844	92.12
475.063	83.12
475.282	91.12
475.501	100.12
475.72	88.12
475.939	82.12
476.158	85.12
476.377	97.12
476.596	82.12
476.814	79.12
477.033	99.12
477.252	101.12
477.471	88.12
477.69	84.12
477.908	99.12
478.127	90.12
478.346	87.12
478.564	85.12
478.783	84.12
479.002	81.12
479.22	98.12
479.439	97.12
479.658	90.12
479.876	96.12
480.095	86.12
480.313	84.12
480.532	90.12
480.751	91.12
480.969	90.12
481.188	77.12
481.406	87.12
481.624	94.12
481.843	91.12
482.061	86.12
482.28	82.12
482.498	88.12
482.717	92.12
482.935	90.12
483.153	85.12
483.372	101.12
483.59	108.12
483.808	105.12
484.027	96.12
484.245	98.12
484.463	86.12
484.681	107.12
484.9	106.12
485.118	88.12
485.336	116.12
485.554	83.12
485.772	86.12
485.99	89.12
486.209	81.12
486.427	82.12
486.645	92.12
486.863	94.12
487.081	96.12
487.299	81.12
487.517	78.12
487.735	108.12
487.953	105.12
488.171	107.12
488.389	99.12
488.607	100.12
488.825	101.12
489.043	104.12
489.261	82.12
489.479	94.12
489.696	107.12
489.914	82.12
490.132	98.12
490.35	96.12
490.568	114.12
490.786	101.12
491.003	101.12
491.221	95.12
491.439	108.12
491.657	116.12
491.874	128.12
492.092	120.12
492.31	122.12
492.527	118.12
492.745	103.12
492.963	122.12
493.18	114.12
493.398	99.12
493.615	118.12
493.833	111.12
494.05	91.12
494.268	108.12
494.485	112.12
494.703	105.12
494.92	114.12
495.138	105.12
495.355	99.12
495.573	108.12
495.79	120.12
496.008	110.12
496.225	103.12
496.442	104.12
496.66	116.12
496.877	102.12
497.094	116.12
497.312	106.12
497.529	102.12
497.746	90.12
497.963	94.12
498.181	92.12
498.398	92.12
498.615	98.12
498.832	87.12
499.049	84.12
499.267	92.12
499.484	97.12
499.701	102.12
499.918	111.12
500.135	118.12
500.352	86.12
500.569	89.12
500.786	105.12
501.003	95.12
501.22	94.12
501.437	99.12
501.654	88.12
501.871	101.12
502.088	95.12
502.305	81.12
502.522	85.12
502.739	87.12
502.956	97.12
503.172	100.12
503.389	84.12
503.606	99.12
503.823	92.12
504.04	98.12
504.256	97.12
504.473	93.12
504.69	91.12
504.907	88.12
505.123	75.12
505.34	90.12
505.557	93.12
505.773	104.12
505.99	87.12
506.207	88.12
506.423	105.12
506.64	99.12
506.856	111.12
507.073	103.12
507.289	94.12
507.506	95.12
507.722	77.12
507.939	76.12
508.155	93.12
508.372	79.12
508.588	95.12
508.805	85.12
509.021	87.12
509.238	74.12
509.454	99.12
509.67	103.12
509.887	94.12
510.103	79.12
510.319	96.12
510.536	86.12
510.752	96.12
510.968	78.12
511.184	89.12
511.401	91.12
511.617	80.12
511.833	81.12
512.049	90.12
512.265	97.12
512.481	79.12
512.698	91.12
512.914	104.12
513.13	83.12
513.346	92.12
513.562	86.12
513.778	88.12
513.994	83.12
514.21	97.12
514.426	82.12
514.642	73.12
514.858	78.12
515.074	87.12
515.29	97.12
515.506	100.12
515.721	89.12
515.937	94.12
516.153	83.12
516.369	85.12
516.585	79.12
516.801	76.12
517.016	90.12
517.232	96.12
517.448	86.12
517.664	84.12
