Data from Location5.07152019.Energy5.Lamp.07192019.3%Agarose_HRD10591_16-02-59-629.txt Node
Date: Fri Jul 19 16:02:59 EDT 2019
User: cochatt
Spectrometer: HR+D1059
Trigger mode: 1
Integration Time (sec): 1.000000E-1
Scans to average: 1
Electric dark correction enabled: true
Nonlinearity correction enabled: false
Boxcar width: 0
XAxis mode: Wavelengths
Number of Pixels in Spectrum: 2048
>>>>>Begin Spectral Data<<<<<
223.165	-12.75
223.4	-12.75
223.635	-12.75
223.869	-29.75
224.104	-14.75
224.338	-7.75
224.573	-11.75
224.808	1.25
225.042	-6.75
225.277	-5.75
225.511	-4.75
225.746	3.25
225.98	15.25
226.215	12.25
226.449	11.25
226.683	13.25
226.918	25.25
227.152	12.25
227.387	39.25
227.621	41.25
227.856	40.25
228.09	52.25
228.324	50.25
228.559	52.25
228.793	63.25
229.027	61.25
229.262	64.25
229.496	67.25
229.73	66.25
229.964	64.25
230.199	74.25
230.433	82.25
230.667	75.25
230.901	77.25
231.136	76.25
231.37	72.25
231.604	82.25
231.838	83.25
232.072	80.25
232.306	84.25
232.541	90.25
232.775	99.25
233.009	81.25
233.243	79.25
233.477	92.25
233.711	77.25
233.945	76.25
234.179	84.25
234.413	72.25
234.647	67.25
234.881	63.25
235.115	83.25
235.349	77.25
235.583	85.25
235.817	83.25
236.051	81.25
236.285	78.25
236.519	95.25
236.753	87.25
236.987	82.25
237.221	86.25
237.455	74.25
237.689	74.25
237.922	62.25
238.156	66.25
238.39	78.25
238.624	83.25
238.858	76.25
239.091	96.25
239.325	64.25
239.559	72.25
239.793	79.25
240.027	83.25
240.26	85.25
240.494	82.25
240.728	81.25
240.961	83.25
241.195	88.25
241.429	69.25
241.662	76.25
241.896	86.25
242.13	99.25
242.363	87.25
242.597	67.25
242.83	78.25
243.064	74.25
243.298	82.25
243.531	80.25
243.765	85.25
243.998	81.25
244.232	75.25
244.465	89.25
244.699	69.25
244.932	68.25
245.166	80.25
245.399	75.25
245.633	70.25
245.866	75.25
246.099	82.25
246.333	81.25
246.566	77.25
246.8	76.25
247.033	79.25
247.266	72.25
247.5	82.25
247.733	70.25
247.966	71.25
248.2	65.25
248.433	87.25
248.666	87.25
248.899	82.25
249.133	71.25
249.366	75.25
249.599	79.25
249.832	93.25
250.066	75.25
250.299	92.25
250.532	79.25
250.765	85.25
250.998	86.25
251.231	83.25
251.465	82.25
251.698	71.25
251.931	95.25
252.164	93.25
252.397	88.25
252.63	84.25
252.863	84.25
253.096	73.25
253.329	75.25
253.562	89.25
253.795	78.25
254.028	87.25
254.261	84.25
254.494	79.25
254.727	77.25
254.96	81.25
255.193	89.25
255.426	91.25
255.659	79.25
255.892	93.25
256.124	85.25
256.357	79.25
256.59	76.25
256.823	88.25
257.056	95.25
257.289	73.25
257.521	74.25
257.754	86.25
257.987	85.25
258.22	73.25
258.452	89.25
258.685	80.25
258.918	79.25
259.151	90.25
259.383	79.25
259.616	88.25
259.849	87.25
260.081	95.25
260.314	88.25
260.547	86.25
260.779	83.25
261.012	74.25
261.244	87.25
261.477	74.25
261.71	95.25
261.942	74.25
262.175	94.25
262.407	78.25
262.64	83.25
262.872	83.25
263.105	84.25
263.337	76.25
263.57	76.25
263.802	87.25
264.035	75.25
264.267	87.25
264.499	84.25
264.732	84.25
264.964	94.25
265.197	80.25
265.429	92.25
265.661	83.25
265.894	85.25
266.126	103.25
266.358	89.25
266.591	95.25
266.823	80.25
267.055	96.25
267.287	91.25
267.52	83.25
267.752	71.25
267.984	87.25
268.216	97.25
268.448	80.25
268.681	84.25
268.913	83.25
269.145	79.25
269.377	93.25
269.609	73.25
269.841	107.25
270.073	85.25
270.306	86.25
270.538	88.25
270.77	82.25
271.002	87.25
271.234	89.25
271.466	85.25
271.698	73.25
271.93	90.25
272.162	90.25
272.394	92.25
272.626	85.25
272.858	78.25
273.09	91.25
273.322	90.25
273.553	73.25
273.785	87.25
274.017	82.25
274.249	92.25
274.481	87.25
274.713	74.25
274.945	93.25
275.176	87.25
275.408	90.25
275.64	94.25
275.872	84.25
276.104	77.25
276.335	79.25
276.567	78.25
276.799	85.25
277.031	92.25
277.262	97.25
277.494	76.25
277.726	78.25
277.957	82.25
278.189	76.25
278.421	107.25
278.652	82.25
278.884	90.25
279.115	92.25
279.347	88.25
279.579	84.25
279.81	87.25
280.042	73.25
280.273	91.25
280.505	98.25
280.736	82.25
280.968	78.25
281.199	69.25
281.431	83.25
281.662	87.25
281.894	86.25
282.125	81.25
282.356	97.25
282.588	93.25
282.819	96.25
283.051	96.25
283.282	89.25
283.513	86.25
283.745	81.25
283.976	90.25
284.207	69.25
284.439	72.25
284.67	87.25
284.901	88.25
285.132	93.25
285.364	77.25
285.595	101.25
285.826	96.25
286.057	80.25
286.288	92.25
286.52	81.25
286.751	98.25
286.982	90.25
287.213	78.25
287.444	75.25
287.675	89.25
287.906	89.25
288.138	84.25
288.369	97.25
288.6	86.25
288.831	88.25
289.062	98.25
289.293	92.25
289.524	101.25
289.755	90.25
289.986	83.25
290.217	89.25
290.448	95.25
290.679	75.25
290.91	102.25
291.141	89.25
291.371	86.25
291.602	80.25
291.833	93.25
292.064	90.25
292.295	95.25
292.526	86.25
292.757	99.25
292.987	83.25
293.218	93.25
293.449	77.25
293.68	78.25
293.91	91.25
294.141	98.25
294.372	100.25
294.603	106.25
294.833	90.25
295.064	92.25
295.295	89.25
295.525	69.25
295.756	99.25
295.987	92.25
296.217	79.25
296.448	82.25
296.679	82.25
296.909	95.25
297.14	97.25
297.37	101.25
297.601	84.25
297.831	88.25
298.062	87.25
298.292	99.25
298.523	98.25
298.753	88.25
298.984	83.25
299.214	84.25
299.445	84.25
299.675	85.25
299.905	92.25
300.136	102.25
300.366	95.25
300.597	77.25
300.827	89.25
301.057	90.25
301.288	91.25
301.518	71.25
301.748	92.25
301.979	97.25
302.209	95.25
302.439	100.25
302.669	86.25
302.9	81.25
303.13	78.25
303.36	80.25
303.59	86.25
303.82	92.25
304.051	91.25
304.281	91.25
304.511	96.25
304.741	75.25
304.971	91.25
305.201	84.25
305.431	88.25
305.661	87.25
305.891	83.25
306.121	114.25
306.352	89.25
306.582	91.25
306.812	91.25
307.042	88.25
307.272	88.25
307.502	90.25
307.731	84.25
307.961	73.25
308.191	96.25
308.421	83.25
308.651	95.25
308.881	88.25
309.111	97.25
309.341	77.25
309.571	100.25
309.8	81.25
310.03	107.25
310.26	92.25
310.49	89.25
310.72	93.25
310.949	96.25
311.179	93.25
311.409	98.25
311.639	83.25
311.868	85.25
312.098	98.25
312.328	84.25
312.557	90.25
312.787	98.25
313.017	95.25
313.246	92.25
313.476	92.25
313.706	89.25
313.935	103.25
314.165	91.25
314.394	99.25
314.624	85.25
314.853	87.25
315.083	86.25
315.312	95.25
315.542	95.25
315.771	82.25
316.001	87.25
316.23	85.25
316.46	89.25
316.689	92.25
316.919	106.25
317.148	79.25
317.377	96.25
317.607	89.25
317.836	89.25
318.065	93.25
318.295	99.25
318.524	82.25
318.753	83.25
318.983	89.25
319.212	91.25
319.441	84.25
319.67	86.25
319.9	79.25
320.129	98.25
320.358	93.25
320.587	88.25
320.816	100.25
321.046	89.25
321.275	92.25
321.504	89.25
321.733	89.25
321.962	91.25
322.191	91.25
322.42	76.25
322.649	78.25
322.878	96.25
323.108	99.25
323.337	100.25
323.566	93.25
323.795	92.25
324.024	100.25
324.253	99.25
324.482	92.25
324.71	100.25
324.939	99.25
325.168	95.25
325.397	89.25
325.626	91.25
325.855	73.25
326.084	95.25
326.313	93.25
326.542	91.25
326.77	95.25
326.999	95.25
327.228	94.25
327.457	90.25
327.686	88.25
327.914	92.25
328.143	93.25
328.372	88.25
328.6	95.25
328.829	78.25
329.058	89.25
329.287	87.25
329.515	84.25
329.744	101.25
329.972	107.25
330.201	103.25
330.43	103.25
330.658	87.25
330.887	87.25
331.115	94.25
331.344	114.25
331.572	91.25
331.801	97.25
332.03	90.25
332.258	95.25
332.486	105.25
332.715	106.25
332.943	96.25
333.172	82.25
333.4	90.25
333.629	99.25
333.857	95.25
334.085	86.25
334.314	88.25
334.542	97.25
334.771	97.25
334.999	97.25
335.227	101.25
335.455	102.25
335.684	92.25
335.912	99.25
336.14	92.25
336.369	91.25
336.597	93.25
336.825	91.25
337.053	113.25
337.281	91.25
337.51	102.25
337.738	109.25
337.966	103.25
338.194	100.25
338.422	88.25
338.65	84.25
338.878	103.25
339.106	96.25
339.334	90.25
339.562	112.25
339.79	99.25
340.018	88.25
340.246	106.25
340.474	99.25
340.702	84.25
340.93	98.25
341.158	90.25
341.386	96.25
341.614	83.25
341.842	89.25
342.07	102.25
342.298	88.25
342.526	87.25
342.754	87.25
342.981	91.25
343.209	81.25
343.437	91.25
343.665	103.25
343.893	107.25
344.12	100.25
344.348	101.25
344.576	96.25
344.804	90.25
345.031	95.25
345.259	100.25
345.487	84.25
345.714	91.25
345.942	114.25
346.17	99.25
346.397	74.25
346.625	92.25
346.853	99.25
347.08	97.25
347.308	91.25
347.535	93.25
347.763	92.25
347.99	101.25
348.218	92.25
348.445	96.25
348.673	92.25
348.9	86.25
349.128	94.25
349.355	92.25
349.583	87.25
349.81	104.25
350.037	87.25
350.265	95.25
350.492	82.25
350.72	99.25
350.947	86.25
351.174	97.25
351.402	88.25
351.629	96.25
351.856	95.25
352.083	111.25
352.311	98.25
352.538	94.25
352.765	100.25
352.992	106.25
353.22	108.25
353.447	83.25
353.674	84.25
353.901	105.25
354.128	88.25
354.355	91.25
354.583	95.25
354.81	80.25
355.037	85.25
355.264	93.25
355.491	111.25
355.718	100.25
355.945	87.25
356.172	90.25
356.399	92.25
356.626	91.25
356.853	96.25
357.08	87.25
357.307	121.25
357.534	97.25
357.761	101.25
357.988	93.25
358.215	105.25
358.441	87.25
358.668	92.25
358.895	100.25
359.122	94.25
359.349	93.25
359.576	84.25
359.802	89.25
360.029	107.25
360.256	93.25
360.483	102.25
360.709	91.25
360.936	95.25
361.163	98.25
361.39	87.25
361.616	89.25
361.843	92.25
362.07	100.25
362.296	98.25
362.523	96.25
362.749	90.25
362.976	95.25
363.203	98.25
363.429	92.25
363.656	95.25
363.882	94.25
364.109	96.25
364.335	94.25
364.562	84.25
364.788	85.25
365.015	100.25
365.241	94.25
365.468	90.25
365.694	88.25
365.92	95.25
366.147	85.25
366.373	104.25
366.599	75.25
366.826	91.25
367.052	96.25
367.278	94.25
367.505	106.25
367.731	108.25
367.957	94.25
368.184	92.25
368.41	91.25
368.636	90.25
368.862	84.25
369.089	93.25
369.315	81.25
369.541	110.25
369.767	82.25
369.993	85.25
370.219	84.25
370.445	87.25
370.672	96.25
370.898	100.25
371.124	91.25
371.35	86.25
371.576	88.25
371.802	91.25
372.028	85.25
372.254	100.25
372.48	87.25
372.706	82.25
372.932	94.25
373.158	91.25
373.384	86.25
373.61	87.25
373.835	90.25
374.061	89.25
374.287	95.25
374.513	79.25
374.739	106.25
374.965	115.25
375.191	89.25
375.416	89.25
375.642	98.25
375.868	108.25
376.094	94.25
376.319	89.25
376.545	104.25
376.771	83.25
376.997	111.25
377.222	88.25
377.448	90.25
377.674	96.25
377.899	94.25
378.125	86.25
378.35	106.25
378.576	88.25
378.802	85.25
379.027	97.25
379.253	82.25
379.478	108.25
379.704	109.25
379.929	98.25
380.155	107.25
380.38	86.25
380.606	85.25
380.831	102.25
381.057	92.25
381.282	91.25
381.507	105.25
381.733	92.25
381.958	109.25
382.184	98.25
382.409	81.25
382.634	94.25
382.86	94.25
383.085	95.25
383.31	99.25
383.535	94.25
383.761	74.25
383.986	91.25
384.211	89.25
384.436	99.25
384.662	91.25
384.887	100.25
385.112	89.25
385.337	92.25
385.562	107.25
385.787	104.25
386.013	107.25
386.238	100.25
386.463	88.25
386.688	105.25
386.913	90.25
387.138	94.25
387.363	96.25
387.588	101.25
387.813	94.25
388.038	89.25
388.263	82.25
388.488	103.25
388.713	107.25
388.938	93.25
389.163	107.25
389.387	86.25
389.612	88.25
389.837	102.25
390.062	93.25
390.287	95.25
390.512	92.25
390.736	84.25
390.961	93.25
391.186	96.25
391.411	102.25
391.636	99.25
391.86	120.25
392.085	85.25
392.31	97.25
392.534	96.25
392.759	98.25
392.984	105.25
393.208	94.25
393.433	89.25
393.658	90.25
393.882	95.25
394.107	92.25
394.331	99.25
394.556	92.25
394.78	92.25
395.005	93.25
395.229	92.25
395.454	108.25
395.678	98.25
395.903	102.25
396.127	100.25
396.352	93.25
396.576	97.25
396.801	105.25
397.025	97.25
397.249	93.25
397.474	105.25
397.698	87.25
397.922	91.25
398.147	84.25
398.371	94.25
398.595	97.25
398.82	83.25
399.044	105.25
399.268	117.25
399.492	115.25
399.717	97.25
399.941	105.25
400.165	115.25
400.389	101.25
400.613	100.25
400.837	101.25
401.062	97.25
401.286	101.25
401.51	99.25
401.734	97.25
401.958	83.25
402.182	107.25
402.406	103.25
402.63	103.25
402.854	101.25
403.078	93.25
403.302	94.25
403.526	105.25
403.75	107.25
403.974	98.25
404.198	91.25
404.422	87.25
404.645	104.25
404.869	100.25
405.093	109.25
405.317	119.25
405.541	97.25
405.765	89.25
405.988	104.25
406.212	108.25
406.436	99.25
406.66	103.25
406.883	108.25
407.107	105.25
407.331	95.25
407.555	107.25
407.778	103.25
408.002	88.25
408.226	93.25
408.449	113.25
408.673	99.25
408.896	100.25
409.12	104.25
409.344	100.25
409.567	99.25
409.791	98.25
410.014	107.25
410.238	107.25
410.461	99.25
410.685	96.25
410.908	97.25
411.132	95.25
411.355	105.25
411.578	105.25
411.802	100.25
412.025	84.25
412.249	103.25
412.472	98.25
412.695	100.25
412.919	114.25
413.142	97.25
413.365	103.25
413.589	97.25
413.812	103.25
414.035	105.25
414.258	104.25
414.482	101.25
414.705	104.25
414.928	98.25
415.151	100.25
415.374	100.25
415.597	94.25
415.821	98.25
416.044	103.25
416.267	100.25
416.49	105.25
416.713	103.25
416.936	102.25
417.159	91.25
417.382	116.25
417.605	99.25
417.828	106.25
418.051	103.25
418.274	99.25
418.497	96.25
418.72	104.25
418.943	100.25
419.166	95.25
419.389	111.25
419.611	106.25
419.834	96.25
420.057	121.25
420.28	101.25
420.503	91.25
420.726	107.25
420.948	95.25
421.171	90.25
421.394	72.25
421.617	111.25
421.839	101.25
422.062	105.25
422.285	103.25
422.507	91.25
422.73	100.25
422.953	101.25
423.175	113.25
423.398	103.25
423.621	91.25
423.843	96.25
424.066	108.25
424.288	95.25
424.511	109.25
424.733	91.25
424.956	87.25
425.178	98.25
425.401	100.25
425.623	106.25
425.846	110.25
426.068	98.25
426.291	95.25
426.513	106.25
426.735	93.25
426.958	92.25
427.18	99.25
427.402	102.25
427.625	81.25
427.847	95.25
428.069	102.25
428.292	97.25
428.514	96.25
428.736	91.25
428.958	92.25
429.181	108.25
429.403	101.25
429.625	80.25
429.847	112.25
430.069	98.25
430.292	100.25
430.514	103.25
430.736	88.25
430.958	98.25
431.18	114.25
431.402	111.25
431.624	97.25
431.846	87.25
432.068	105.25
432.29	105.25
432.512	93.25
432.734	99.25
432.956	99.25
433.178	98.25
433.4	100.25
433.622	99.25
433.844	87.25
434.066	98.25
434.287	111.25
434.509	106.25
434.731	90.25
434.953	100.25
435.175	104.25
435.397	89.25
435.618	94.25
435.84	96.25
436.062	88.25
436.284	102.25
436.505	94.25
436.727	92.25
436.949	108.25
437.17	100.25
437.392	106.25
437.614	107.25
437.835	88.25
438.057	103.25
438.278	98.25
438.5	93.25
438.721	98.25
438.943	95.25
439.165	92.25
439.386	104.25
439.608	115.25
439.829	97.25
440.05	98.25
440.272	89.25
440.493	112.25
440.715	101.25
440.936	94.25
441.158	117.25
441.379	100.25
441.6	103.25
441.822	97.25
442.043	101.25
442.264	101.25
442.486	98.25
442.707	91.25
442.928	99.25
443.149	95.25
443.371	95.25
443.592	85.25
443.813	102.25
444.034	108.25
444.255	98.25
444.476	102.25
444.698	98.25
444.919	121.25
445.14	230.25
445.361	163.25
445.582	103.25
445.803	84.25
446.024	100.25
446.245	92.25
446.466	98.25
446.687	99.25
446.908	106.25
447.129	101.25
447.35	89.25
447.571	90.25
447.792	93.25
448.013	98.25
448.234	99.25
448.455	91.25
448.675	98.25
448.896	112.25
449.117	93.25
449.338	95.25
449.559	103.25
449.779	96.25
450	99.25
450.221	92.25
450.442	90.25
450.662	100.25
450.883	72.25
451.104	101.25
451.324	98.25
451.545	89.25
451.766	88.25
451.986	86.25
452.207	72.25
452.428	80.25
452.648	100.25
452.869	83.25
453.089	89.25
453.31	83.25
453.53	102.25
453.751	105.25
453.971	95.25
454.192	99.25
454.412	91.25
454.633	84.25
454.853	97.25
455.073	95.25
455.294	91.25
455.514	85.25
455.734	107.25
455.955	82.25
456.175	105.25
456.395	96.25
456.616	97.25
456.836	98.25
457.056	95.25
457.276	88.25
457.497	99.25
457.717	95.25
457.937	91.25
458.157	82.25
458.377	87.25
458.598	83.25
458.818	104.25
459.038	102.25
459.258	95.25
459.478	95.25
459.698	94.25
459.918	100.25
460.138	114.25
460.358	94.25
460.578	101.25
460.798	107.25
461.018	96.25
461.238	93.25
461.458	114.25
461.678	99.25
461.898	98.25
462.118	104.25
462.338	101.25
462.558	88.25
462.777	92.25
462.997	119.25
463.217	115.25
463.437	89.25
463.657	106.25
463.876	100.25
464.096	108.25
464.316	97.25
464.536	100.25
464.755	115.25
464.975	101.25
465.195	95.25
465.414	100.25
465.634	100.25
465.854	101.25
466.073	102.25
466.293	102.25
466.512	101.25
466.732	84.25
466.951	96.25
467.171	102.25
467.391	81.25
467.61	92.25
467.829	96.25
468.049	96.25
468.268	95.25
468.488	93.25
468.707	96.25
468.927	99.25
469.146	111.25
469.365	96.25
469.585	91.25
469.804	104.25
470.023	103.25
470.243	102.25
470.462	99.25
470.681	103.25
470.901	107.25
471.12	90.25
471.339	101.25
471.558	115.25
471.777	91.25
471.997	91.25
472.216	107.25
472.435	92.25
472.654	102.25
472.873	101.25
473.092	99.25
473.311	97.25
473.53	103.25
473.749	97.25
473.968	96.25
474.187	107.25
474.406	99.25
474.625	92.25
474.844	111.25
475.063	109.25
475.282	93.25
475.501	108.25
475.72	93.25
475.939	91.25
476.158	90.25
476.377	93.25
476.596	95.25
476.814	94.25
477.033	105.25
477.252	97.25
477.471	95.25
477.69	100.25
477.908	95.25
478.127	102.25
478.346	97.25
478.564	96.25
478.783	110.25
479.002	113.25
479.22	107.25
479.439	99.25
479.658	108.25
479.876	119.25
480.095	102.25
480.313	87.25
480.532	90.25
480.751	91.25
480.969	95.25
481.188	108.25
481.406	100.25
481.624	97.25
481.843	103.25
482.061	95.25
482.28	89.25
482.498	109.25
482.717	97.25
482.935	103.25
483.153	106.25
483.372	119.25
483.59	101.25
483.808	121.25
484.027	100.25
484.245	107.25
484.463	113.25
484.681	115.25
484.9	101.25
485.118	98.25
485.336	100.25
485.554	103.25
485.772	124.25
485.99	102.25
486.209	103.25
486.427	102.25
486.645	118.25
486.863	99.25
487.081	105.25
487.299	107.25
487.517	106.25
487.735	99.25
487.953	99.25
488.171	99.25
488.389	115.25
488.607	103.25
488.825	99.25
489.043	100.25
489.261	96.25
489.479	102.25
489.696	98.25
489.914	90.25
490.132	103.25
490.35	116.25
490.568	105.25
490.786	105.25
491.003	102.25
491.221	108.25
491.439	118.25
491.657	116.25
491.874	99.25
492.092	118.25
492.31	123.25
492.527	117.25
492.745	109.25
492.963	120.25
493.18	112.25
493.398	122.25
493.615	106.25
493.833	117.25
494.05	120.25
494.268	119.25
494.485	130.25
494.703	103.25
494.92	106.25
495.138	106.25
495.355	107.25
495.573	119.25
495.79	108.25
496.008	106.25
496.225	121.25
496.442	117.25
496.66	104.25
496.877	90.25
497.094	122.25
497.312	108.25
497.529	95.25
497.746	115.25
497.963	102.25
498.181	106.25
498.398	123.25
498.615	129.25
498.832	121.25
499.049	123.25
499.267	112.25
499.484	127.25
499.701	135.25
499.918	153.25
500.135	155.25
500.352	161.25
500.569	172.25
500.786	161.25
501.003	153.25
501.22	151.25
501.437	146.25
501.654	130.25
501.871	131.25
502.088	122.25
502.305	124.25
502.522	124.25
502.739	103.25
502.956	107.25
503.172	107.25
503.389	122.25
503.606	100.25
503.823	100.25
504.04	98.25
504.256	106.25
504.473	121.25
504.69	119.25
504.907	119.25
505.123	124.25
505.34	120.25
505.557	113.25
505.773	95.25
505.99	102.25
506.207	113.25
506.423	108.25
506.64	97.25
506.856	85.25
507.073	108.25
507.289	107.25
507.506	109.25
507.722	121.25
507.939	106.25
508.155	116.25
508.372	102.25
508.588	93.25
508.805	90.25
509.021	93.25
509.238	100.25
509.454	107.25
509.67	96.25
509.887	97.25
510.103	103.25
510.319	107.25
510.536	88.25
510.752	96.25
510.968	92.25
511.184	99.25
511.401	91.25
511.617	89.25
511.833	95.25
512.049	106.25
512.265	113.25
512.481	103.25
512.698	91.25
512.914	105.25
513.13	100.25
513.346	109.25
513.562	103.25
513.778	97.25
513.994	100.25
