Data from Location5.07152019.Energy5.Lamp.07192019.3%Agarose_HRD10591_15-37-05-389.txt Node
Date: Fri Jul 19 15:37:05 EDT 2019
User: cochatt
Spectrometer: HR+D1059
Trigger mode: 1
Integration Time (sec): 1.000000E-1
Scans to average: 1
Electric dark correction enabled: true
Nonlinearity correction enabled: false
Boxcar width: 0
XAxis mode: Wavelengths
Number of Pixels in Spectrum: 2048
>>>>>Begin Spectral Data<<<<<
223.165	-8.12
223.4	-8.12
223.635	-8.12
223.869	-37.12
224.104	-16.12
224.338	-5.12
224.573	-13.12
224.808	-16.12
225.042	-5.12
225.277	-2.12
225.511	-7.12
225.746	1.88
225.98	7.88
226.215	12.88
226.449	18.88
226.683	17.88
226.918	35.88
227.152	14.88
227.387	44.88
227.621	38.88
227.856	43.88
228.09	51.88
228.324	53.88
228.559	63.88
228.793	61.88
229.027	53.88
229.262	56.88
229.496	69.88
229.73	61.88
229.964	68.88
230.199	85.88
230.433	72.88
230.667	86.88
230.901	84.88
231.136	71.88
231.37	79.88
231.604	76.88
231.838	85.88
232.072	85.88
232.306	97.88
232.541	92.88
232.775	89.88
233.009	88.88
233.243	83.88
233.477	84.88
233.711	82.88
233.945	87.88
234.179	90.88
234.413	71.88
234.647	80.88
234.881	77.88
235.115	69.88
235.349	78.88
235.583	84.88
235.817	85.88
236.051	79.88
236.285	77.88
236.519	70.88
236.753	81.88
236.987	76.88
237.221	87.88
237.455	65.88
237.689	75.88
237.922	65.88
238.156	67.88
238.39	66.88
238.624	88.88
238.858	75.88
239.091	84.88
239.325	81.88
239.559	75.88
239.793	87.88
240.027	81.88
240.26	89.88
240.494	91.88
240.728	76.88
240.961	76.88
241.195	88.88
241.429	75.88
241.662	77.88
241.896	71.88
242.13	76.88
242.363	83.88
242.597	74.88
242.83	75.88
243.064	74.88
243.298	77.88
243.531	82.88
243.765	78.88
243.998	84.88
244.232	71.88
244.465	70.88
244.699	66.88
244.932	76.88
245.166	71.88
245.399	83.88
245.633	72.88
245.866	85.88
246.099	72.88
246.333	68.88
246.566	80.88
246.8	74.88
247.033	71.88
247.266	86.88
247.5	68.88
247.733	84.88
247.966	81.88
248.2	95.88
248.433	79.88
248.666	90.88
248.899	84.88
249.133	83.88
249.366	73.88
249.599	79.88
249.832	61.88
250.066	81.88
250.299	77.88
250.532	75.88
250.765	74.88
250.998	75.88
251.231	82.88
251.465	75.88
251.698	75.88
251.931	66.88
252.164	63.88
252.397	85.88
252.63	75.88
252.863	78.88
253.096	79.88
253.329	81.88
253.562	85.88
253.795	75.88
254.028	76.88
254.261	86.88
254.494	83.88
254.727	80.88
254.96	76.88
255.193	86.88
255.426	83.88
255.659	82.88
255.892	78.88
256.124	81.88
256.357	87.88
256.59	74.88
256.823	69.88
257.056	79.88
257.289	82.88
257.521	84.88
257.754	76.88
257.987	76.88
258.22	83.88
258.452	77.88
258.685	81.88
258.918	71.88
259.151	82.88
259.383	88.88
259.616	83.88
259.849	80.88
260.081	75.88
260.314	75.88
260.547	83.88
260.779	82.88
261.012	87.88
261.244	78.88
261.477	84.88
261.71	65.88
261.942	79.88
262.175	82.88
262.407	90.88
262.64	88.88
262.872	85.88
263.105	91.88
263.337	86.88
263.57	76.88
263.802	73.88
264.035	79.88
264.267	95.88
264.499	84.88
264.732	91.88
264.964	80.88
265.197	81.88
265.429	84.88
265.661	89.88
265.894	76.88
266.126	93.88
266.358	98.88
266.591	82.88
266.823	91.88
267.055	94.88
267.287	98.88
267.52	80.88
267.752	74.88
267.984	77.88
268.216	80.88
268.448	74.88
268.681	83.88
268.913	79.88
269.145	83.88
269.377	86.88
269.609	86.88
269.841	92.88
270.073	67.88
270.306	84.88
270.538	72.88
270.77	73.88
271.002	72.88
271.234	83.88
271.466	86.88
271.698	85.88
271.93	83.88
272.162	79.88
272.394	96.88
272.626	82.88
272.858	83.88
273.09	77.88
273.322	86.88
273.553	69.88
273.785	88.88
274.017	84.88
274.249	85.88
274.481	90.88
274.713	97.88
274.945	78.88
275.176	79.88
275.408	81.88
275.64	88.88
275.872	70.88
276.104	83.88
276.335	71.88
276.567	82.88
276.799	81.88
277.031	82.88
277.262	86.88
277.494	82.88
277.726	82.88
277.957	90.88
278.189	78.88
278.421	76.88
278.652	90.88
278.884	73.88
279.115	82.88
279.347	88.88
279.579	83.88
279.81	81.88
280.042	81.88
280.273	87.88
280.505	91.88
280.736	88.88
280.968	92.88
281.199	96.88
281.431	87.88
281.662	72.88
281.894	95.88
282.125	83.88
282.356	68.88
282.588	94.88
282.819	75.88
283.051	81.88
283.282	90.88
283.513	83.88
283.745	84.88
283.976	77.88
284.207	84.88
284.439	88.88
284.67	83.88
284.901	92.88
285.132	88.88
285.364	84.88
285.595	85.88
285.826	77.88
286.057	83.88
286.288	89.88
286.52	74.88
286.751	82.88
286.982	80.88
287.213	75.88
287.444	88.88
287.675	101.88
287.906	91.88
288.138	87.88
288.369	81.88
288.6	77.88
288.831	77.88
289.062	69.88
289.293	79.88
289.524	74.88
289.755	76.88
289.986	80.88
290.217	83.88
290.448	81.88
290.679	87.88
290.91	85.88
291.141	83.88
291.371	85.88
291.602	93.88
291.833	90.88
292.064	75.88
292.295	99.88
292.526	83.88
292.757	89.88
292.987	80.88
293.218	68.88
293.449	82.88
293.68	73.88
293.91	71.88
294.141	93.88
294.372	86.88
294.603	86.88
294.833	86.88
295.064	81.88
295.295	88.88
295.525	74.88
295.756	81.88
295.987	80.88
296.217	80.88
296.448	97.88
296.679	87.88
296.909	86.88
297.14	84.88
297.37	89.88
297.601	83.88
297.831	76.88
298.062	78.88
298.292	87.88
298.523	88.88
298.753	85.88
298.984	93.88
299.214	83.88
299.445	76.88
299.675	98.88
299.905	89.88
300.136	83.88
300.366	79.88
300.597	88.88
300.827	86.88
301.057	76.88
301.288	89.88
301.518	92.88
301.748	93.88
301.979	75.88
302.209	82.88
302.439	90.88
302.669	82.88
302.9	92.88
303.13	88.88
303.36	88.88
303.59	85.88
303.82	83.88
304.051	80.88
304.281	87.88
304.511	84.88
304.741	81.88
304.971	84.88
305.201	88.88
305.431	85.88
305.661	81.88
305.891	82.88
306.121	91.88
306.352	87.88
306.582	81.88
306.812	90.88
307.042	76.88
307.272	75.88
307.502	74.88
307.731	94.88
307.961	85.88
308.191	83.88
308.421	87.88
308.651	85.88
308.881	88.88
309.111	83.88
309.341	89.88
309.571	83.88
309.8	73.88
310.03	77.88
310.26	83.88
310.49	85.88
310.72	77.88
310.949	78.88
311.179	90.88
311.409	92.88
311.639	91.88
311.868	78.88
312.098	79.88
312.328	79.88
312.557	75.88
312.787	85.88
313.017	94.88
313.246	78.88
313.476	79.88
313.706	83.88
313.935	73.88
314.165	73.88
314.394	85.88
314.624	88.88
314.853	88.88
315.083	77.88
315.312	72.88
315.542	88.88
315.771	85.88
316.001	96.88
316.23	75.88
316.46	75.88
316.689	80.88
316.919	95.88
317.148	80.88
317.377	95.88
317.607	89.88
317.836	99.88
318.065	81.88
318.295	75.88
318.524	77.88
318.753	83.88
318.983	73.88
319.212	84.88
319.441	87.88
319.67	92.88
319.9	90.88
320.129	78.88
320.358	86.88
320.587	80.88
320.816	72.88
321.046	101.88
321.275	91.88
321.504	90.88
321.733	78.88
321.962	97.88
322.191	87.88
322.42	68.88
322.649	96.88
322.878	75.88
323.108	82.88
323.337	88.88
323.566	83.88
323.795	73.88
324.024	91.88
324.253	90.88
324.482	84.88
324.71	77.88
324.939	73.88
325.168	83.88
325.397	89.88
325.626	78.88
325.855	79.88
326.084	95.88
326.313	84.88
326.542	82.88
326.77	85.88
326.999	74.88
327.228	84.88
327.457	89.88
327.686	90.88
327.914	86.88
328.143	89.88
328.372	97.88
328.6	84.88
328.829	93.88
329.058	80.88
329.287	79.88
329.515	81.88
329.744	92.88
329.972	82.88
330.201	82.88
330.43	84.88
330.658	96.88
330.887	100.88
331.115	80.88
331.344	86.88
331.572	86.88
331.801	88.88
332.03	81.88
332.258	87.88
332.486	92.88
332.715	101.88
332.943	82.88
333.172	88.88
333.4	87.88
333.629	89.88
333.857	73.88
334.085	77.88
334.314	81.88
334.542	87.88
334.771	78.88
334.999	80.88
335.227	93.88
335.455	80.88
335.684	71.88
335.912	87.88
336.14	82.88
336.369	78.88
336.597	87.88
336.825	85.88
337.053	88.88
337.281	79.88
337.51	96.88
337.738	87.88
337.966	87.88
338.194	87.88
338.422	68.88
338.65	81.88
338.878	90.88
339.106	79.88
339.334	93.88
339.562	86.88
339.79	86.88
340.018	77.88
340.246	91.88
340.474	85.88
340.702	65.88
340.93	82.88
341.158	87.88
341.386	89.88
341.614	100.88
341.842	85.88
342.07	73.88
342.298	79.88
342.526	82.88
342.754	87.88
342.981	89.88
343.209	72.88
343.437	79.88
343.665	87.88
343.893	82.88
344.12	89.88
344.348	81.88
344.576	83.88
344.804	89.88
345.031	79.88
345.259	82.88
345.487	90.88
345.714	92.88
345.942	81.88
346.17	92.88
346.397	92.88
346.625	78.88
346.853	81.88
347.08	76.88
347.308	81.88
347.535	86.88
347.763	83.88
347.99	91.88
348.218	80.88
348.445	82.88
348.673	75.88
348.9	84.88
349.128	75.88
349.355	72.88
349.583	93.88
349.81	83.88
350.037	70.88
350.265	89.88
350.492	81.88
350.72	85.88
350.947	86.88
351.174	94.88
351.402	76.88
351.629	87.88
351.856	69.88
352.083	76.88
352.311	84.88
352.538	76.88
352.765	83.88
352.992	90.88
353.22	72.88
353.447	80.88
353.674	89.88
353.901	72.88
354.128	93.88
354.355	87.88
354.583	86.88
354.81	90.88
355.037	81.88
355.264	75.88
355.491	78.88
355.718	72.88
355.945	78.88
356.172	88.88
356.399	89.88
356.626	89.88
356.853	96.88
357.08	84.88
357.307	81.88
357.534	78.88
357.761	94.88
357.988	94.88
358.215	95.88
358.441	75.88
358.668	92.88
358.895	87.88
359.122	77.88
359.349	87.88
359.576	75.88
359.802	91.88
360.029	82.88
360.256	88.88
360.483	73.88
360.709	78.88
360.936	93.88
361.163	89.88
361.39	85.88
361.616	74.88
361.843	79.88
362.07	89.88
362.296	75.88
362.523	83.88
362.749	88.88
362.976	84.88
363.203	69.88
363.429	85.88
363.656	91.88
363.882	87.88
364.109	83.88
364.335	80.88
364.562	88.88
364.788	92.88
365.015	83.88
365.241	89.88
365.468	95.88
365.694	83.88
365.92	72.88
366.147	74.88
366.373	83.88
366.599	83.88
366.826	81.88
367.052	82.88
367.278	87.88
367.505	82.88
367.731	95.88
367.957	97.88
368.184	84.88
368.41	90.88
368.636	78.88
368.862	77.88
369.089	89.88
369.315	86.88
369.541	74.88
369.767	77.88
369.993	78.88
370.219	71.88
370.445	77.88
370.672	74.88
370.898	71.88
371.124	85.88
371.35	89.88
371.576	83.88
371.802	85.88
372.028	77.88
372.254	84.88
372.48	89.88
372.706	74.88
372.932	85.88
373.158	89.88
373.384	98.88
373.61	88.88
373.835	83.88
374.061	74.88
374.287	73.88
374.513	87.88
374.739	86.88
374.965	81.88
375.191	81.88
375.416	80.88
375.642	102.88
375.868	82.88
376.094	89.88
376.319	91.88
376.545	73.88
376.771	91.88
376.997	92.88
377.222	85.88
377.448	102.88
377.674	96.88
377.899	94.88
378.125	103.88
378.35	89.88
378.576	95.88
378.802	88.88
379.027	75.88
379.253	96.88
379.478	82.88
379.704	90.88
379.929	83.88
380.155	84.88
380.38	81.88
380.606	84.88
380.831	81.88
381.057	78.88
381.282	76.88
381.507	94.88
381.733	96.88
381.958	77.88
382.184	95.88
382.409	79.88
382.634	75.88
382.86	83.88
383.085	88.88
383.31	90.88
383.535	80.88
383.761	84.88
383.986	86.88
384.211	89.88
384.436	99.88
384.662	92.88
384.887	91.88
385.112	100.88
385.337	88.88
385.562	84.88
385.787	71.88
386.013	93.88
386.238	85.88
386.463	91.88
386.688	91.88
386.913	112.88
387.138	92.88
387.363	84.88
387.588	79.88
387.813	83.88
388.038	70.88
388.263	103.88
388.488	91.88
388.713	76.88
388.938	88.88
389.163	88.88
389.387	76.88
389.612	69.88
389.837	96.88
390.062	78.88
390.287	84.88
390.512	94.88
390.736	83.88
390.961	87.88
391.186	84.88
391.411	82.88
391.636	86.88
391.86	80.88
392.085	87.88
392.31	86.88
392.534	93.88
392.759	93.88
392.984	89.88
393.208	93.88
393.433	93.88
393.658	85.88
393.882	86.88
394.107	79.88
394.331	90.88
394.556	89.88
394.78	76.88
395.005	97.88
395.229	89.88
395.454	85.88
395.678	103.88
395.903	82.88
396.127	91.88
396.352	87.88
396.576	74.88
396.801	86.88
397.025	87.88
397.249	87.88
397.474	97.88
397.698	87.88
397.922	77.88
398.147	89.88
398.371	90.88
398.595	80.88
398.82	92.88
399.044	87.88
399.268	70.88
399.492	73.88
399.717	99.88
399.941	82.88
400.165	92.88
400.389	91.88
400.613	87.88
400.837	84.88
401.062	90.88
401.286	91.88
401.51	91.88
401.734	91.88
401.958	84.88
402.182	95.88
402.406	87.88
402.63	100.88
402.854	98.88
403.078	94.88
403.302	100.88
403.526	96.88
403.75	99.88
403.974	98.88
404.198	87.88
404.422	87.88
404.645	102.88
404.869	96.88
405.093	96.88
405.317	93.88
405.541	84.88
405.765	87.88
405.988	90.88
406.212	80.88
406.436	95.88
406.66	88.88
406.883	92.88
407.107	90.88
407.331	97.88
407.555	80.88
407.778	92.88
408.002	108.88
408.226	73.88
408.449	88.88
408.673	90.88
408.896	102.88
409.12	93.88
409.344	96.88
409.567	88.88
409.791	87.88
410.014	92.88
410.238	89.88
410.461	86.88
410.685	86.88
410.908	80.88
411.132	87.88
411.355	104.88
411.578	86.88
411.802	94.88
412.025	95.88
412.249	81.88
412.472	84.88
412.695	95.88
412.919	85.88
413.142	100.88
413.365	90.88
413.589	89.88
413.812	92.88
414.035	89.88
414.258	97.88
414.482	81.88
414.705	84.88
414.928	89.88
415.151	93.88
415.374	84.88
415.597	96.88
415.821	96.88
416.044	98.88
416.267	87.88
416.49	97.88
416.713	109.88
416.936	98.88
417.159	99.88
417.382	72.88
417.605	92.88
417.828	100.88
418.051	93.88
418.274	86.88
418.497	86.88
418.72	83.88
418.943	89.88
419.166	92.88
419.389	93.88
419.611	85.88
419.834	99.88
420.057	91.88
420.28	96.88
420.503	88.88
420.726	89.88
420.948	105.88
421.171	95.88
421.394	92.88
421.617	91.88
421.839	88.88
422.062	100.88
422.285	95.88
422.507	94.88
422.73	93.88
422.953	98.88
423.175	83.88
423.398	87.88
423.621	93.88
423.843	97.88
424.066	98.88
424.288	101.88
424.511	92.88
424.733	97.88
424.956	97.88
425.178	95.88
425.401	94.88
425.623	84.88
425.846	101.88
426.068	95.88
426.291	100.88
426.513	105.88
426.735	89.88
426.958	96.88
427.18	102.88
427.402	81.88
427.625	79.88
427.847	93.88
428.069	83.88
428.292	93.88
428.514	109.88
428.736	80.88
428.958	93.88
429.181	97.88
429.403	82.88
429.625	85.88
429.847	93.88
430.069	101.88
430.292	101.88
430.514	85.88
430.736	92.88
430.958	99.88
431.18	106.88
431.402	86.88
431.624	101.88
431.846	81.88
432.068	81.88
432.29	83.88
432.512	93.88
432.734	85.88
432.956	95.88
433.178	97.88
433.4	98.88
433.622	89.88
433.844	97.88
434.066	75.88
434.287	82.88
434.509	82.88
434.731	96.88
434.953	87.88
435.175	93.88
435.397	90.88
435.618	93.88
435.84	85.88
436.062	93.88
436.284	88.88
436.505	84.88
436.727	78.88
436.949	97.88
437.17	88.88
437.392	82.88
437.614	89.88
437.835	86.88
438.057	83.88
438.278	98.88
438.5	93.88
438.721	99.88
438.943	119.88
439.165	105.88
439.386	85.88
439.608	108.88
439.829	103.88
440.05	109.88
440.272	90.88
440.493	95.88
440.715	96.88
440.936	100.88
441.158	101.88
441.379	106.88
441.6	93.88
441.822	98.88
442.043	103.88
442.264	93.88
442.486	102.88
442.707	78.88
442.928	97.88
443.149	89.88
443.371	92.88
443.592	96.88
443.813	101.88
444.034	101.88
444.255	93.88
444.476	102.88
444.698	87.88
444.919	92.88
445.14	193.88
445.361	143.88
445.582	100.88
445.803	89.88
446.024	104.88
446.245	106.88
446.466	100.88
446.687	89.88
446.908	94.88
447.129	101.88
447.35	93.88
447.571	107.88
447.792	85.88
448.013	97.88
448.234	98.88
448.455	97.88
448.675	104.88
448.896	89.88
449.117	99.88
449.338	106.88
449.559	100.88
449.779	98.88
450	102.88
450.221	100.88
450.442	89.88
450.662	116.88
450.883	99.88
451.104	94.88
451.324	103.88
451.545	83.88
451.766	93.88
451.986	87.88
452.207	104.88
452.428	85.88
452.648	89.88
452.869	90.88
453.089	91.88
453.31	103.88
453.53	83.88
453.751	97.88
453.971	74.88
454.192	81.88
454.412	81.88
454.633	78.88
454.853	96.88
455.073	95.88
455.294	90.88
455.514	89.88
455.734	94.88
455.955	93.88
456.175	98.88
456.395	83.88
456.616	88.88
456.836	87.88
457.056	96.88
457.276	104.88
457.497	88.88
457.717	94.88
457.937	71.88
458.157	93.88
458.377	91.88
458.598	79.88
458.818	71.88
459.038	82.88
459.258	79.88
459.478	97.88
459.698	86.88
459.918	82.88
460.138	84.88
460.358	77.88
460.578	106.88
460.798	99.88
461.018	83.88
461.238	104.88
461.458	96.88
461.678	100.88
461.898	100.88
462.118	92.88
462.338	92.88
462.558	84.88
462.777	84.88
462.997	82.88
463.217	90.88
463.437	83.88
463.657	105.88
463.876	90.88
464.096	79.88
464.316	96.88
464.536	92.88
464.755	89.88
464.975	94.88
465.195	84.88
465.414	91.88
465.634	93.88
465.854	109.88
466.073	111.88
466.293	98.88
466.512	88.88
466.732	82.88
466.951	107.88
467.171	103.88
467.391	93.88
467.61	95.88
467.829	93.88
468.049	100.88
468.268	108.88
468.488	96.88
468.707	96.88
468.927	90.88
469.146	97.88
469.365	103.88
469.585	83.88
469.804	98.88
470.023	107.88
470.243	108.88
470.462	92.88
470.681	115.88
470.901	105.88
471.12	89.88
471.339	92.88
471.558	93.88
471.777	100.88
471.997	84.88
472.216	104.88
472.435	100.88
472.654	78.88
472.873	97.88
473.092	84.88
473.311	89.88
473.53	81.88
473.749	108.88
473.968	92.88
474.187	89.88
474.406	97.88
474.625	88.88
474.844	95.88
475.063	97.88
475.282	94.88
475.501	104.88
475.72	99.88
475.939	101.88
476.158	92.88
476.377	83.88
476.596	95.88
476.814	91.88
477.033	95.88
477.252	96.88
477.471	95.88
477.69	105.88
477.908	105.88
478.127	99.88
478.346	104.88
478.564	100.88
478.783	97.88
479.002	106.88
479.22	96.88
479.439	75.88
479.658	83.88
479.876	71.88
480.095	74.88
480.313	87.88
480.532	94.88
480.751	88.88
480.969	88.88
481.188	89.88
481.406	69.88
481.624	82.88
481.843	79.88
482.061	87.88
482.28	93.88
482.498	92.88
482.717	90.88
482.935	96.88
483.153	104.88
483.372	100.88
483.59	93.88
483.808	104.88
484.027	103.88
484.245	100.88
484.463	84.88
484.681	103.88
484.9	103.88
485.118	106.88
485.336	90.88
485.554	84.88
485.772	77.88
485.99	86.88
486.209	98.88
486.427	96.88
486.645	85.88
486.863	94.88
487.081	96.88
487.299	101.88
487.517	106.88
487.735	112.88
487.953	105.88
488.171	115.88
488.389	94.88
488.607	111.88
488.825	77.88
489.043	95.88
489.261	97.88
489.479	87.88
489.696	108.88
489.914	92.88
490.132	85.88
490.35	113.88
490.568	116.88
490.786	100.88
491.003	103.88
491.221	102.88
491.439	104.88
491.657	112.88
491.874	112.88
492.092	113.88
492.31	127.88
492.527	103.88
492.745	119.88
492.963	118.88
493.18	105.88
493.398	116.88
493.615	114.88
493.833	118.88
494.05	112.88
494.268	116.88
494.485	104.88
494.703	123.88
494.92	93.88
495.138	122.88
495.355	133.88
495.573	96.88
495.79	95.88
496.008	107.88
496.225	99.88
496.442	90.88
496.66	117.88
496.877	94.88
497.094	111.88
497.312	105.88
497.529	95.88
497.746	104.88
497.963	91.88
498.181	96.88
498.398	96.88
498.615	101.88
498.832	106.88
499.049	95.88
499.267	102.88
499.484	88.88
499.701	102.88
499.918	114.88
500.135	106.88
500.352	107.88
500.569	100.88
500.786	107.88
501.003	103.88
501.22	92.88
501.437	96.88
501.654	99.88
501.871	90.88
502.088	93.88
502.305	97.88
502.522	100.88
502.739	105.88
502.956	91.88
503.172	93.88
503.389	83.88
503.606	84.88
503.823	87.88
504.04	104.88
504.256	87.88
504.473	105.88
504.69	94.88
504.907	96.88
505.123	92.88
505.34	97.88
505.557	103.88
505.773	78.88
505.99	99.88
506.207	87.88
506.423	104.88
506.64	93.88
506.856	94.88
507.073	96.88
507.289	89.88
507.506	93.88
507.722	92.88
507.939	88.88
508.155	89.88
508.372	107.88
508.588	96.88
508.805	99.88
509.021	88.88
509.238	75.88
509.454	86.88
509.67	72.88
509.887	85.88
510.103	93.88
510.319	90.88
510.536	81.88
510.752	82.88
510.968	77.88
511.184	83.88
511.401	66.88
511.617	101.88
511.833	104.88
512.049	81.88
512.265	72.88
512.481	90.88
512.698	92.88
512.914	85.88
513.13	96.88
513.346	77.88
513.562	87.88
513.778	84.88
513.994	78.88
514.21	82.88
514.426	91.88
514.642	84.88
514.858	100.88
515.074	84.88
515.29	85.88
515.506	75.88
515.721	91.88
515.937	82.88
516.153	93.88
516.369	80.88
516.585	87.88
516.801	77.88
517.016	79.88
517.232	75.88
517.448	93.88
