Data from Location5.07152019.Energy5.Lamp.07192019.3%Agarose_HRD10591_15-39-03-388.txt Node
Date: Fri Jul 19 15:39:03 EDT 2019
User: cochatt
Spectrometer: HR+D1059
Trigger mode: 1
Integration Time (sec): 1.000000E-1
Scans to average: 1
Electric dark correction enabled: true
Nonlinearity correction enabled: false
Boxcar width: 0
XAxis mode: Wavelengths
Number of Pixels in Spectrum: 2048
>>>>>Begin Spectral Data<<<<<
223.165	-8.94
223.4	-8.94
223.635	-8.94
223.869	-22.94
224.104	-25.94
224.338	-13.94
224.573	-0.94
224.808	-10.94
225.042	-16.94
225.277	-21.94
225.511	-2.94
225.746	9.06
225.98	-0.94
226.215	18.06
226.449	17.06
226.683	16.06
226.918	30.06
227.152	36.06
227.387	33.06
227.621	39.06
227.856	43.06
228.09	52.06
228.324	55.06
228.559	66.06
228.793	64.06
229.027	58.06
229.262	59.06
229.496	55.06
229.73	83.06
229.964	59.06
230.199	80.06
230.433	65.06
230.667	89.06
230.901	87.06
231.136	70.06
231.37	88.06
231.604	83.06
231.838	92.06
232.072	91.06
232.306	80.06
232.541	88.06
232.775	91.06
233.009	69.06
233.243	85.06
233.477	80.06
233.711	76.06
233.945	91.06
234.179	80.06
234.413	71.06
234.647	76.06
234.881	79.06
235.115	88.06
235.349	95.06
235.583	71.06
235.817	81.06
236.051	87.06
236.285	91.06
236.519	78.06
236.753	82.06
236.987	74.06
237.221	71.06
237.455	81.06
237.689	70.06
237.922	77.06
238.156	67.06
238.39	78.06
238.624	71.06
238.858	86.06
239.091	88.06
239.325	74.06
239.559	78.06
239.793	73.06
240.027	71.06
240.26	80.06
240.494	64.06
240.728	80.06
240.961	66.06
241.195	71.06
241.429	79.06
241.662	94.06
241.896	82.06
242.13	78.06
242.363	79.06
242.597	94.06
242.83	77.06
243.064	79.06
243.298	79.06
243.531	71.06
243.765	75.06
243.998	72.06
244.232	79.06
244.465	87.06
244.699	67.06
244.932	77.06
245.166	84.06
245.399	80.06
245.633	71.06
245.866	82.06
246.099	85.06
246.333	84.06
246.566	68.06
246.8	84.06
247.033	72.06
247.266	77.06
247.5	88.06
247.733	77.06
247.966	76.06
248.2	76.06
248.433	84.06
248.666	78.06
248.899	90.06
249.133	78.06
249.366	90.06
249.599	82.06
249.832	98.06
250.066	84.06
250.299	80.06
250.532	86.06
250.765	79.06
250.998	79.06
251.231	88.06
251.465	83.06
251.698	77.06
251.931	70.06
252.164	76.06
252.397	86.06
252.63	95.06
252.863	78.06
253.096	70.06
253.329	85.06
253.562	89.06
253.795	75.06
254.028	79.06
254.261	85.06
254.494	84.06
254.727	80.06
254.96	90.06
255.193	92.06
255.426	92.06
255.659	92.06
255.892	85.06
256.124	73.06
256.357	81.06
256.59	78.06
256.823	88.06
257.056	90.06
257.289	79.06
257.521	80.06
257.754	89.06
257.987	76.06
258.22	71.06
258.452	81.06
258.685	90.06
258.918	79.06
259.151	89.06
259.383	77.06
259.616	68.06
259.849	92.06
260.081	78.06
260.314	77.06
260.547	88.06
260.779	92.06
261.012	85.06
261.244	70.06
261.477	91.06
261.71	88.06
261.942	89.06
262.175	61.06
262.407	87.06
262.64	86.06
262.872	79.06
263.105	91.06
263.337	85.06
263.57	91.06
263.802	83.06
264.035	85.06
264.267	72.06
264.499	80.06
264.732	88.06
264.964	95.06
265.197	89.06
265.429	89.06
265.661	68.06
265.894	72.06
266.126	79.06
266.358	82.06
266.591	87.06
266.823	74.06
267.055	85.06
267.287	81.06
267.52	70.06
267.752	71.06
267.984	90.06
268.216	92.06
268.448	83.06
268.681	70.06
268.913	88.06
269.145	78.06
269.377	88.06
269.609	95.06
269.841	94.06
270.073	70.06
270.306	80.06
270.538	83.06
270.77	90.06
271.002	86.06
271.234	94.06
271.466	72.06
271.698	82.06
271.93	82.06
272.162	78.06
272.394	85.06
272.626	103.06
272.858	86.06
273.09	80.06
273.322	77.06
273.553	93.06
273.785	95.06
274.017	72.06
274.249	100.06
274.481	90.06
274.713	80.06
274.945	93.06
275.176	84.06
275.408	82.06
275.64	93.06
275.872	94.06
276.104	91.06
276.335	83.06
276.567	89.06
276.799	76.06
277.031	78.06
277.262	70.06
277.494	87.06
277.726	73.06
277.957	85.06
278.189	91.06
278.421	84.06
278.652	87.06
278.884	95.06
279.115	101.06
279.347	79.06
279.579	76.06
279.81	86.06
280.042	73.06
280.273	78.06
280.505	77.06
280.736	85.06
280.968	93.06
281.199	83.06
281.431	70.06
281.662	86.06
281.894	98.06
282.125	81.06
282.356	86.06
282.588	90.06
282.819	88.06
283.051	92.06
283.282	97.06
283.513	78.06
283.745	86.06
283.976	90.06
284.207	66.06
284.439	89.06
284.67	86.06
284.901	82.06
285.132	76.06
285.364	78.06
285.595	91.06
285.826	96.06
286.057	91.06
286.288	72.06
286.52	78.06
286.751	80.06
286.982	88.06
287.213	72.06
287.444	88.06
287.675	76.06
287.906	91.06
288.138	91.06
288.369	92.06
288.6	96.06
288.831	81.06
289.062	95.06
289.293	87.06
289.524	87.06
289.755	88.06
289.986	80.06
290.217	88.06
290.448	80.06
290.679	78.06
290.91	86.06
291.141	78.06
291.371	90.06
291.602	91.06
291.833	97.06
292.064	86.06
292.295	85.06
292.526	94.06
292.757	90.06
292.987	80.06
293.218	86.06
293.449	84.06
293.68	84.06
293.91	90.06
294.141	80.06
294.372	91.06
294.603	78.06
294.833	86.06
295.064	90.06
295.295	72.06
295.525	82.06
295.756	87.06
295.987	80.06
296.217	79.06
296.448	94.06
296.679	86.06
296.909	78.06
297.14	91.06
297.37	86.06
297.601	89.06
297.831	81.06
298.062	76.06
298.292	100.06
298.523	80.06
298.753	90.06
298.984	87.06
299.214	96.06
299.445	93.06
299.675	92.06
299.905	82.06
300.136	84.06
300.366	95.06
300.597	84.06
300.827	101.06
301.057	88.06
301.288	94.06
301.518	98.06
301.748	77.06
301.979	85.06
302.209	85.06
302.439	86.06
302.669	77.06
302.9	90.06
303.13	83.06
303.36	64.06
303.59	77.06
303.82	102.06
304.051	102.06
304.281	91.06
304.511	93.06
304.741	95.06
304.971	96.06
305.201	102.06
305.431	87.06
305.661	79.06
305.891	94.06
306.121	97.06
306.352	85.06
306.582	83.06
306.812	87.06
307.042	79.06
307.272	85.06
307.502	90.06
307.731	83.06
307.961	82.06
308.191	71.06
308.421	73.06
308.651	88.06
308.881	94.06
309.111	80.06
309.341	78.06
309.571	83.06
309.8	102.06
310.03	86.06
310.26	97.06
310.49	85.06
310.72	88.06
310.949	95.06
311.179	92.06
311.409	87.06
311.639	95.06
311.868	119.06
312.098	71.06
312.328	89.06
312.557	77.06
312.787	78.06
313.017	89.06
313.246	83.06
313.476	96.06
313.706	86.06
313.935	87.06
314.165	90.06
314.394	84.06
314.624	88.06
314.853	90.06
315.083	91.06
315.312	99.06
315.542	94.06
315.771	90.06
316.001	88.06
316.23	93.06
316.46	94.06
316.689	86.06
316.919	87.06
317.148	84.06
317.377	87.06
317.607	80.06
317.836	91.06
318.065	101.06
318.295	86.06
318.524	76.06
318.753	92.06
318.983	97.06
319.212	88.06
319.441	87.06
319.67	86.06
319.9	77.06
320.129	97.06
320.358	79.06
320.587	87.06
320.816	82.06
321.046	85.06
321.275	104.06
321.504	82.06
321.733	87.06
321.962	87.06
322.191	85.06
322.42	91.06
322.649	101.06
322.878	76.06
323.108	87.06
323.337	86.06
323.566	97.06
323.795	90.06
324.024	79.06
324.253	80.06
324.482	97.06
324.71	99.06
324.939	77.06
325.168	86.06
325.397	105.06
325.626	81.06
325.855	76.06
326.084	95.06
326.313	78.06
326.542	82.06
326.77	93.06
326.999	86.06
327.228	74.06
327.457	90.06
327.686	86.06
327.914	84.06
328.143	99.06
328.372	92.06
328.6	78.06
328.829	78.06
329.058	86.06
329.287	83.06
329.515	93.06
329.744	82.06
329.972	82.06
330.201	105.06
330.43	88.06
330.658	86.06
330.887	93.06
331.115	89.06
331.344	92.06
331.572	88.06
331.801	79.06
332.03	92.06
332.258	81.06
332.486	82.06
332.715	81.06
332.943	101.06
333.172	92.06
333.4	88.06
333.629	89.06
333.857	72.06
334.085	86.06
334.314	93.06
334.542	62.06
334.771	94.06
334.999	74.06
335.227	84.06
335.455	82.06
335.684	87.06
335.912	92.06
336.14	85.06
336.369	84.06
336.597	81.06
336.825	91.06
337.053	79.06
337.281	76.06
337.51	83.06
337.738	90.06
337.966	81.06
338.194	85.06
338.422	87.06
338.65	84.06
338.878	84.06
339.106	75.06
339.334	89.06
339.562	92.06
339.79	98.06
340.018	87.06
340.246	81.06
340.474	89.06
340.702	94.06
340.93	89.06
341.158	91.06
341.386	84.06
341.614	88.06
341.842	75.06
342.07	87.06
342.298	80.06
342.526	95.06
342.754	85.06
342.981	93.06
343.209	99.06
343.437	101.06
343.665	95.06
343.893	88.06
344.12	71.06
344.348	92.06
344.576	84.06
344.804	80.06
345.031	90.06
345.259	86.06
345.487	90.06
345.714	82.06
345.942	84.06
346.17	93.06
346.397	84.06
346.625	86.06
346.853	92.06
347.08	85.06
347.308	96.06
347.535	93.06
347.763	84.06
347.99	70.06
348.218	88.06
348.445	73.06
348.673	72.06
348.9	99.06
349.128	102.06
349.355	81.06
349.583	92.06
349.81	89.06
350.037	76.06
350.265	82.06
350.492	84.06
350.72	72.06
350.947	83.06
351.174	81.06
351.402	87.06
351.629	92.06
351.856	79.06
352.083	85.06
352.311	85.06
352.538	89.06
352.765	96.06
352.992	89.06
353.22	78.06
353.447	82.06
353.674	89.06
353.901	90.06
354.128	92.06
354.355	87.06
354.583	97.06
354.81	72.06
355.037	87.06
355.264	80.06
355.491	86.06
355.718	89.06
355.945	72.06
356.172	92.06
356.399	87.06
356.626	91.06
356.853	96.06
357.08	88.06
357.307	93.06
357.534	90.06
357.761	95.06
357.988	93.06
358.215	78.06
358.441	87.06
358.668	80.06
358.895	96.06
359.122	103.06
359.349	77.06
359.576	70.06
359.802	83.06
360.029	90.06
360.256	92.06
360.483	78.06
360.709	80.06
360.936	101.06
361.163	78.06
361.39	93.06
361.616	78.06
361.843	93.06
362.07	95.06
362.296	80.06
362.523	68.06
362.749	86.06
362.976	83.06
363.203	101.06
363.429	91.06
363.656	87.06
363.882	84.06
364.109	97.06
364.335	84.06
364.562	91.06
364.788	86.06
365.015	86.06
365.241	88.06
365.468	102.06
365.694	94.06
365.92	93.06
366.147	83.06
366.373	79.06
366.599	75.06
366.826	83.06
367.052	96.06
367.278	75.06
367.505	71.06
367.731	78.06
367.957	84.06
368.184	98.06
368.41	94.06
368.636	86.06
368.862	88.06
369.089	80.06
369.315	88.06
369.541	93.06
369.767	87.06
369.993	100.06
370.219	83.06
370.445	92.06
370.672	82.06
370.898	77.06
371.124	81.06
371.35	86.06
371.576	78.06
371.802	87.06
372.028	89.06
372.254	92.06
372.48	85.06
372.706	87.06
372.932	94.06
373.158	102.06
373.384	86.06
373.61	90.06
373.835	102.06
374.061	76.06
374.287	92.06
374.513	92.06
374.739	90.06
374.965	84.06
375.191	90.06
375.416	79.06
375.642	79.06
375.868	72.06
376.094	90.06
376.319	82.06
376.545	92.06
376.771	81.06
376.997	72.06
377.222	92.06
377.448	82.06
377.674	92.06
377.899	78.06
378.125	90.06
378.35	82.06
378.576	98.06
378.802	84.06
379.027	93.06
379.253	87.06
379.478	94.06
379.704	81.06
379.929	81.06
380.155	80.06
380.38	79.06
380.606	78.06
380.831	79.06
381.057	94.06
381.282	94.06
381.507	74.06
381.733	91.06
381.958	86.06
382.184	80.06
382.409	82.06
382.634	92.06
382.86	83.06
383.085	107.06
383.31	86.06
383.535	93.06
383.761	92.06
383.986	88.06
384.211	76.06
384.436	91.06
384.662	74.06
384.887	91.06
385.112	87.06
385.337	80.06
385.562	87.06
385.787	87.06
386.013	93.06
386.238	84.06
386.463	80.06
386.688	92.06
386.913	82.06
387.138	90.06
387.363	92.06
387.588	93.06
387.813	89.06
388.038	80.06
388.263	93.06
388.488	84.06
388.713	85.06
388.938	93.06
389.163	86.06
389.387	79.06
389.612	81.06
389.837	91.06
390.062	91.06
390.287	77.06
390.512	92.06
390.736	87.06
390.961	86.06
391.186	83.06
391.411	85.06
391.636	87.06
391.86	91.06
392.085	81.06
392.31	100.06
392.534	89.06
392.759	88.06
392.984	77.06
393.208	99.06
393.433	90.06
393.658	87.06
393.882	79.06
394.107	104.06
394.331	100.06
394.556	102.06
394.78	98.06
395.005	90.06
395.229	84.06
395.454	97.06
395.678	81.06
395.903	77.06
396.127	84.06
396.352	91.06
396.576	95.06
396.801	92.06
397.025	87.06
397.249	94.06
397.474	80.06
397.698	84.06
397.922	86.06
398.147	83.06
398.371	91.06
398.595	89.06
398.82	77.06
399.044	93.06
399.268	89.06
399.492	84.06
399.717	96.06
399.941	93.06
400.165	89.06
400.389	81.06
400.613	86.06
400.837	95.06
401.062	90.06
401.286	80.06
401.51	88.06
401.734	100.06
401.958	99.06
402.182	98.06
402.406	76.06
402.63	86.06
402.854	95.06
403.078	90.06
403.302	80.06
403.526	90.06
403.75	99.06
403.974	94.06
404.198	106.06
404.422	84.06
404.645	87.06
404.869	101.06
405.093	90.06
405.317	92.06
405.541	91.06
405.765	93.06
405.988	88.06
406.212	98.06
406.436	77.06
406.66	85.06
406.883	96.06
407.107	90.06
407.331	83.06
407.555	101.06
407.778	92.06
408.002	81.06
408.226	72.06
408.449	105.06
408.673	90.06
408.896	96.06
409.12	84.06
409.344	87.06
409.567	100.06
409.791	96.06
410.014	93.06
410.238	89.06
410.461	73.06
410.685	96.06
410.908	80.06
411.132	96.06
411.355	88.06
411.578	88.06
411.802	95.06
412.025	94.06
412.249	86.06
412.472	96.06
412.695	91.06
412.919	78.06
413.142	92.06
413.365	84.06
413.589	94.06
413.812	89.06
414.035	88.06
414.258	94.06
414.482	79.06
414.705	84.06
414.928	89.06
415.151	79.06
415.374	87.06
415.597	101.06
415.821	80.06
416.044	87.06
416.267	88.06
416.49	94.06
416.713	102.06
416.936	105.06
417.159	86.06
417.382	95.06
417.605	83.06
417.828	98.06
418.051	89.06
418.274	88.06
418.497	98.06
418.72	122.06
418.943	99.06
419.166	92.06
419.389	101.06
419.611	94.06
419.834	107.06
420.057	98.06
420.28	101.06
420.503	96.06
420.726	88.06
420.948	83.06
421.171	86.06
421.394	85.06
421.617	91.06
421.839	87.06
422.062	82.06
422.285	90.06
422.507	90.06
422.73	96.06
422.953	106.06
423.175	74.06
423.398	95.06
423.621	86.06
423.843	80.06
424.066	103.06
424.288	87.06
424.511	107.06
424.733	98.06
424.956	93.06
425.178	83.06
425.401	93.06
425.623	88.06
425.846	86.06
426.068	99.06
426.291	100.06
426.513	114.06
426.735	101.06
426.958	78.06
427.18	107.06
427.402	83.06
427.625	100.06
427.847	94.06
428.069	96.06
428.292	87.06
428.514	99.06
428.736	85.06
428.958	77.06
429.181	92.06
429.403	90.06
429.625	105.06
429.847	93.06
430.069	87.06
430.292	94.06
430.514	95.06
430.736	84.06
430.958	84.06
431.18	77.06
431.402	98.06
431.624	107.06
431.846	90.06
432.068	75.06
432.29	85.06
432.512	84.06
432.734	103.06
432.956	107.06
433.178	97.06
433.4	80.06
433.622	98.06
433.844	103.06
434.066	95.06
434.287	84.06
434.509	85.06
434.731	98.06
434.953	84.06
435.175	84.06
435.397	95.06
435.618	96.06
435.84	79.06
436.062	85.06
436.284	94.06
436.505	81.06
436.727	96.06
436.949	108.06
437.17	102.06
437.392	96.06
437.614	91.06
437.835	76.06
438.057	85.06
438.278	89.06
438.5	83.06
438.721	104.06
438.943	108.06
439.165	100.06
439.386	94.06
439.608	94.06
439.829	86.06
440.05	91.06
440.272	93.06
440.493	93.06
440.715	100.06
440.936	92.06
441.158	96.06
441.379	107.06
441.6	88.06
441.822	115.06
442.043	94.06
442.264	99.06
442.486	99.06
442.707	100.06
442.928	90.06
443.149	94.06
443.371	95.06
443.592	99.06
443.813	87.06
444.034	102.06
444.255	90.06
444.476	96.06
444.698	98.06
444.919	99.06
445.14	217.06
445.361	143.06
445.582	107.06
445.803	100.06
446.024	95.06
446.245	103.06
446.466	101.06
446.687	89.06
446.908	88.06
447.129	100.06
447.35	83.06
447.571	100.06
447.792	94.06
448.013	94.06
448.234	99.06
448.455	102.06
448.675	104.06
448.896	89.06
449.117	99.06
449.338	97.06
449.559	100.06
449.779	100.06
450	88.06
450.221	90.06
450.442	80.06
450.662	107.06
450.883	105.06
451.104	103.06
451.324	88.06
451.545	96.06
451.766	94.06
451.986	103.06
452.207	91.06
452.428	96.06
452.648	95.06
452.869	94.06
453.089	95.06
453.31	93.06
453.53	81.06
453.751	90.06
453.971	91.06
454.192	92.06
454.412	80.06
454.633	93.06
454.853	77.06
455.073	79.06
455.294	85.06
455.514	77.06
455.734	83.06
455.955	99.06
456.175	84.06
456.395	91.06
456.616	95.06
456.836	87.06
457.056	91.06
457.276	82.06
457.497	75.06
457.717	92.06
457.937	80.06
458.157	92.06
458.377	84.06
458.598	77.06
458.818	94.06
459.038	87.06
459.258	77.06
459.478	92.06
459.698	88.06
459.918	77.06
460.138	79.06
460.358	91.06
460.578	95.06
460.798	100.06
461.018	79.06
461.238	98.06
461.458	86.06
461.678	90.06
461.898	76.06
462.118	90.06
462.338	89.06
462.558	94.06
462.777	86.06
462.997	96.06
463.217	76.06
463.437	78.06
463.657	84.06
463.876	94.06
464.096	92.06
464.316	90.06
464.536	96.06
464.755	96.06
464.975	86.06
465.195	93.06
465.414	85.06
465.634	94.06
465.854	89.06
466.073	102.06
466.293	94.06
466.512	116.06
466.732	90.06
466.951	100.06
467.171	101.06
467.391	106.06
467.61	84.06
467.829	97.06
468.049	99.06
468.268	98.06
468.488	102.06
468.707	92.06
468.927	100.06
469.146	98.06
469.365	106.06
469.585	97.06
469.804	99.06
470.023	79.06
470.243	84.06
470.462	101.06
470.681	93.06
470.901	104.06
471.12	100.06
471.339	107.06
471.558	95.06
471.777	92.06
471.997	102.06
472.216	94.06
472.435	91.06
472.654	91.06
472.873	95.06
473.092	91.06
473.311	94.06
473.53	79.06
473.749	81.06
473.968	108.06
474.187	95.06
474.406	86.06
474.625	100.06
474.844	96.06
475.063	82.06
475.282	87.06
475.501	88.06
475.72	79.06
475.939	85.06
476.158	109.06
476.377	100.06
476.596	102.06
476.814	84.06
477.033	84.06
477.252	83.06
477.471	86.06
477.69	95.06
477.908	102.06
478.127	94.06
478.346	90.06
478.564	91.06
478.783	110.06
479.002	96.06
479.22	88.06
479.439	95.06
479.658	96.06
479.876	85.06
480.095	91.06
480.313	94.06
480.532	97.06
480.751	89.06
480.969	86.06
481.188	80.06
481.406	77.06
481.624	91.06
481.843	98.06
482.061	93.06
482.28	105.06
482.498	88.06
482.717	83.06
482.935	93.06
483.153	119.06
483.372	98.06
483.59	93.06
483.808	109.06
484.027	85.06
484.245	97.06
484.463	104.06
484.681	106.06
484.9	102.06
485.118	74.06
485.336	102.06
485.554	87.06
485.772	86.06
485.99	90.06
486.209	90.06
486.427	91.06
486.645	99.06
486.863	95.06
487.081	108.06
487.299	100.06
487.517	111.06
487.735	97.06
487.953	114.06
488.171	122.06
488.389	111.06
488.607	107.06
488.825	99.06
489.043	83.06
489.261	103.06
489.479	103.06
489.696	99.06
489.914	96.06
490.132	109.06
490.35	116.06
490.568	108.06
490.786	104.06
491.003	108.06
491.221	105.06
491.439	98.06
491.657	100.06
491.874	95.06
492.092	125.06
492.31	133.06
492.527	128.06
492.745	114.06
492.963	122.06
493.18	121.06
493.398	111.06
493.615	110.06
493.833	115.06
494.05	112.06
494.268	105.06
494.485	106.06
494.703	93.06
494.92	107.06
495.138	99.06
495.355	107.06
495.573	106.06
495.79	98.06
496.008	96.06
496.225	118.06
496.442	120.06
496.66	104.06
496.877	120.06
497.094	103.06
497.312	106.06
497.529	104.06
497.746	84.06
497.963	100.06
498.181	110.06
498.398	98.06
498.615	87.06
498.832	89.06
499.049	89.06
499.267	88.06
499.484	80.06
499.701	89.06
499.918	104.06
500.135	76.06
500.352	94.06
500.569	91.06
500.786	98.06
501.003	107.06
501.22	107.06
501.437	94.06
501.654	98.06
501.871	103.06
502.088	88.06
502.305	86.06
502.522	97.06
502.739	93.06
502.956	110.06
503.172	90.06
503.389	103.06
503.606	87.06
503.823	89.06
504.04	102.06
504.256	113.06
504.473	93.06
504.69	90.06
504.907	94.06
505.123	105.06
505.34	93.06
505.557	107.06
505.773	109.06
505.99	101.06
506.207	105.06
506.423	85.06
506.64	94.06
506.856	93.06
507.073	90.06
507.289	95.06
507.506	103.06
507.722	91.06
507.939	94.06
508.155	123.06
508.372	87.06
508.588	81.06
508.805	91.06
509.021	97.06
509.238	104.06
509.454	96.06
509.67	83.06
509.887	87.06
510.103	75.06
510.319	86.06
510.536	94.06
510.752	100.06
510.968	75.06
511.184	68.06
511.401	84.06
511.617	91.06
511.833	93.06
512.049	85.06
512.265	104.06
512.481	101.06
512.698	86.06
512.914	94.06
513.13	85.06
513.346	87.06
513.562	91.06
513.778	83.06
513.994	82.06
514.21	83.06
514.426	103.06
514.642	95.06
514.858	96.06
515.074	78.06
515.29	103.06
515.506	99.06
515.721	77.06
515.937	86.06
516.153	86.06
516.369	76.06
516.585	88.06
516.801	103.06
517.016	83.06
