Data from Location5.07152019.Energy5.Lamp.07192019.3%Agarose_HRD10591_16-03-15-628.txt Node
Date: Fri Jul 19 16:03:15 EDT 2019
User: cochatt
Spectrometer: HR+D1059
Trigger mode: 1
Integration Time (sec): 1.000000E-1
Scans to average: 1
Electric dark correction enabled: true
Nonlinearity correction enabled: false
Boxcar width: 0
XAxis mode: Wavelengths
Number of Pixels in Spectrum: 2048
>>>>>Begin Spectral Data<<<<<
223.165	-6.81
223.4	-6.81
223.635	-6.81
223.869	-14.81
224.104	-19.81
224.338	-4.81
224.573	-13.81
224.808	-10.81
225.042	-9.81
225.277	-3.81
225.511	4.19
225.746	-3.81
225.98	5.19
226.215	17.19
226.449	17.19
226.683	4.19
226.918	19.19
227.152	21.19
227.387	35.19
227.621	30.19
227.856	34.19
228.09	45.19
228.324	59.19
228.559	48.19
228.793	63.19
229.027	74.19
229.262	59.19
229.496	57.19
229.73	57.19
229.964	59.19
230.199	67.19
230.433	65.19
230.667	82.19
230.901	82.19
231.136	79.19
231.37	72.19
231.604	80.19
231.838	75.19
232.072	100.19
232.306	84.19
232.541	82.19
232.775	78.19
233.009	95.19
233.243	88.19
233.477	92.19
233.711	75.19
233.945	97.19
234.179	93.19
234.413	92.19
234.647	88.19
234.881	88.19
235.115	73.19
235.349	81.19
235.583	83.19
235.817	87.19
236.051	77.19
236.285	82.19
236.519	72.19
236.753	65.19
236.987	74.19
237.221	80.19
237.455	72.19
237.689	67.19
237.922	71.19
238.156	57.19
238.39	79.19
238.624	77.19
238.858	84.19
239.091	78.19
239.325	73.19
239.559	87.19
239.793	85.19
240.027	96.19
240.26	76.19
240.494	72.19
240.728	72.19
240.961	87.19
241.195	69.19
241.429	92.19
241.662	73.19
241.896	82.19
242.13	67.19
242.363	85.19
242.597	69.19
242.83	90.19
243.064	70.19
243.298	78.19
243.531	72.19
243.765	89.19
243.998	70.19
244.232	92.19
244.465	84.19
244.699	76.19
244.932	71.19
245.166	56.19
245.399	82.19
245.633	75.19
245.866	79.19
246.099	77.19
246.333	91.19
246.566	83.19
246.8	82.19
247.033	86.19
247.266	95.19
247.5	76.19
247.733	76.19
247.966	77.19
248.2	78.19
248.433	91.19
248.666	92.19
248.899	90.19
249.133	73.19
249.366	87.19
249.599	88.19
249.832	75.19
250.066	81.19
250.299	85.19
250.532	80.19
250.765	76.19
250.998	70.19
251.231	72.19
251.465	86.19
251.698	85.19
251.931	86.19
252.164	78.19
252.397	76.19
252.63	90.19
252.863	85.19
253.096	80.19
253.329	70.19
253.562	78.19
253.795	80.19
254.028	86.19
254.261	78.19
254.494	71.19
254.727	75.19
254.96	88.19
255.193	79.19
255.426	77.19
255.659	68.19
255.892	73.19
256.124	87.19
256.357	76.19
256.59	81.19
256.823	87.19
257.056	82.19
257.289	98.19
257.521	84.19
257.754	80.19
257.987	74.19
258.22	80.19
258.452	90.19
258.685	77.19
258.918	85.19
259.151	79.19
259.383	76.19
259.616	80.19
259.849	80.19
260.081	89.19
260.314	83.19
260.547	75.19
260.779	83.19
261.012	87.19
261.244	76.19
261.477	88.19
261.71	94.19
261.942	85.19
262.175	91.19
262.407	77.19
262.64	83.19
262.872	99.19
263.105	87.19
263.337	80.19
263.57	84.19
263.802	80.19
264.035	75.19
264.267	82.19
264.499	96.19
264.732	91.19
264.964	78.19
265.197	92.19
265.429	90.19
265.661	80.19
265.894	89.19
266.126	76.19
266.358	87.19
266.591	96.19
266.823	86.19
267.055	96.19
267.287	79.19
267.52	81.19
267.752	86.19
267.984	97.19
268.216	89.19
268.448	82.19
268.681	94.19
268.913	78.19
269.145	85.19
269.377	88.19
269.609	77.19
269.841	92.19
270.073	69.19
270.306	83.19
270.538	100.19
270.77	89.19
271.002	94.19
271.234	75.19
271.466	68.19
271.698	94.19
271.93	76.19
272.162	95.19
272.394	86.19
272.626	87.19
272.858	84.19
273.09	93.19
273.322	98.19
273.553	84.19
273.785	89.19
274.017	80.19
274.249	93.19
274.481	95.19
274.713	97.19
274.945	89.19
275.176	83.19
275.408	86.19
275.64	80.19
275.872	88.19
276.104	93.19
276.335	89.19
276.567	92.19
276.799	96.19
277.031	93.19
277.262	106.19
277.494	90.19
277.726	84.19
277.957	95.19
278.189	82.19
278.421	88.19
278.652	104.19
278.884	84.19
279.115	96.19
279.347	103.19
279.579	111.19
279.81	81.19
280.042	88.19
280.273	99.19
280.505	93.19
280.736	89.19
280.968	85.19
281.199	98.19
281.431	85.19
281.662	99.19
281.894	93.19
282.125	99.19
282.356	104.19
282.588	89.19
282.819	111.19
283.051	102.19
283.282	89.19
283.513	72.19
283.745	91.19
283.976	108.19
284.207	81.19
284.439	93.19
284.67	79.19
284.901	88.19
285.132	84.19
285.364	96.19
285.595	92.19
285.826	92.19
286.057	96.19
286.288	86.19
286.52	88.19
286.751	92.19
286.982	96.19
287.213	96.19
287.444	96.19
287.675	93.19
287.906	103.19
288.138	93.19
288.369	83.19
288.6	94.19
288.831	93.19
289.062	85.19
289.293	88.19
289.524	96.19
289.755	100.19
289.986	73.19
290.217	85.19
290.448	93.19
290.679	92.19
290.91	95.19
291.141	95.19
291.371	100.19
291.602	91.19
291.833	95.19
292.064	88.19
292.295	92.19
292.526	103.19
292.757	84.19
292.987	85.19
293.218	92.19
293.449	97.19
293.68	102.19
293.91	73.19
294.141	76.19
294.372	91.19
294.603	98.19
294.833	94.19
295.064	92.19
295.295	86.19
295.525	84.19
295.756	83.19
295.987	96.19
296.217	95.19
296.448	89.19
296.679	87.19
296.909	95.19
297.14	88.19
297.37	85.19
297.601	85.19
297.831	98.19
298.062	94.19
298.292	93.19
298.523	91.19
298.753	96.19
298.984	92.19
299.214	109.19
299.445	93.19
299.675	103.19
299.905	102.19
300.136	101.19
300.366	92.19
300.597	92.19
300.827	91.19
301.057	100.19
301.288	92.19
301.518	101.19
301.748	91.19
301.979	97.19
302.209	90.19
302.439	105.19
302.669	96.19
302.9	98.19
303.13	86.19
303.36	105.19
303.59	91.19
303.82	88.19
304.051	95.19
304.281	108.19
304.511	99.19
304.741	83.19
304.971	91.19
305.201	93.19
305.431	97.19
305.661	95.19
305.891	95.19
306.121	84.19
306.352	91.19
306.582	95.19
306.812	85.19
307.042	81.19
307.272	94.19
307.502	101.19
307.731	104.19
307.961	90.19
308.191	91.19
308.421	98.19
308.651	85.19
308.881	94.19
309.111	102.19
309.341	99.19
309.571	96.19
309.8	97.19
310.03	75.19
310.26	89.19
310.49	83.19
310.72	108.19
310.949	96.19
311.179	90.19
311.409	88.19
311.639	103.19
311.868	93.19
312.098	106.19
312.328	86.19
312.557	87.19
312.787	95.19
313.017	100.19
313.246	91.19
313.476	109.19
313.706	96.19
313.935	83.19
314.165	98.19
314.394	94.19
314.624	92.19
314.853	95.19
315.083	104.19
315.312	90.19
315.542	83.19
315.771	83.19
316.001	100.19
316.23	78.19
316.46	102.19
316.689	88.19
316.919	97.19
317.148	92.19
317.377	89.19
317.607	91.19
317.836	108.19
318.065	93.19
318.295	98.19
318.524	84.19
318.753	105.19
318.983	95.19
319.212	101.19
319.441	88.19
319.67	87.19
319.9	95.19
320.129	103.19
320.358	98.19
320.587	85.19
320.816	88.19
321.046	97.19
321.275	102.19
321.504	94.19
321.733	104.19
321.962	90.19
322.191	99.19
322.42	95.19
322.649	102.19
322.878	86.19
323.108	101.19
323.337	93.19
323.566	90.19
323.795	101.19
324.024	98.19
324.253	91.19
324.482	107.19
324.71	101.19
324.939	95.19
325.168	107.19
325.397	103.19
325.626	100.19
325.855	85.19
326.084	95.19
326.313	85.19
326.542	100.19
326.77	79.19
326.999	89.19
327.228	87.19
327.457	91.19
327.686	105.19
327.914	105.19
328.143	95.19
328.372	91.19
328.6	86.19
328.829	93.19
329.058	87.19
329.287	89.19
329.515	93.19
329.744	86.19
329.972	94.19
330.201	91.19
330.43	106.19
330.658	109.19
330.887	92.19
331.115	91.19
331.344	90.19
331.572	90.19
331.801	88.19
332.03	95.19
332.258	108.19
332.486	94.19
332.715	89.19
332.943	100.19
333.172	115.19
333.4	105.19
333.629	105.19
333.857	95.19
334.085	102.19
334.314	106.19
334.542	90.19
334.771	113.19
334.999	95.19
335.227	82.19
335.455	99.19
335.684	104.19
335.912	100.19
336.14	101.19
336.369	79.19
336.597	97.19
336.825	103.19
337.053	97.19
337.281	89.19
337.51	92.19
337.738	99.19
337.966	98.19
338.194	105.19
338.422	97.19
338.65	104.19
338.878	88.19
339.106	98.19
339.334	102.19
339.562	94.19
339.79	100.19
340.018	95.19
340.246	95.19
340.474	87.19
340.702	94.19
340.93	93.19
341.158	83.19
341.386	76.19
341.614	85.19
341.842	93.19
342.07	103.19
342.298	101.19
342.526	88.19
342.754	89.19
342.981	87.19
343.209	92.19
343.437	92.19
343.665	100.19
343.893	100.19
344.12	96.19
344.348	105.19
344.576	92.19
344.804	92.19
345.031	101.19
345.259	87.19
345.487	85.19
345.714	86.19
345.942	87.19
346.17	105.19
346.397	82.19
346.625	100.19
346.853	92.19
347.08	96.19
347.308	84.19
347.535	92.19
347.763	101.19
347.99	96.19
348.218	96.19
348.445	97.19
348.673	103.19
348.9	111.19
349.128	105.19
349.355	90.19
349.583	85.19
349.81	85.19
350.037	94.19
350.265	98.19
350.492	84.19
350.72	93.19
350.947	99.19
351.174	85.19
351.402	96.19
351.629	84.19
351.856	98.19
352.083	99.19
352.311	93.19
352.538	99.19
352.765	98.19
352.992	105.19
353.22	90.19
353.447	97.19
353.674	114.19
353.901	91.19
354.128	89.19
354.355	100.19
354.583	89.19
354.81	91.19
355.037	101.19
355.264	95.19
355.491	98.19
355.718	95.19
355.945	113.19
356.172	87.19
356.399	76.19
356.626	82.19
356.853	109.19
357.08	83.19
357.307	87.19
357.534	92.19
357.761	96.19
357.988	98.19
358.215	103.19
358.441	85.19
358.668	105.19
358.895	98.19
359.122	111.19
359.349	100.19
359.576	100.19
359.802	95.19
360.029	93.19
360.256	95.19
360.483	96.19
360.709	114.19
360.936	106.19
361.163	96.19
361.39	99.19
361.616	82.19
361.843	85.19
362.07	85.19
362.296	92.19
362.523	81.19
362.749	94.19
362.976	100.19
363.203	94.19
363.429	81.19
363.656	96.19
363.882	96.19
364.109	96.19
364.335	93.19
364.562	94.19
364.788	89.19
365.015	87.19
365.241	87.19
365.468	106.19
365.694	95.19
365.92	95.19
366.147	105.19
366.373	81.19
366.599	81.19
366.826	99.19
367.052	104.19
367.278	95.19
367.505	101.19
367.731	95.19
367.957	95.19
368.184	84.19
368.41	82.19
368.636	104.19
368.862	92.19
369.089	98.19
369.315	80.19
369.541	99.19
369.767	91.19
369.993	92.19
370.219	90.19
370.445	97.19
370.672	100.19
370.898	106.19
371.124	87.19
371.35	93.19
371.576	88.19
371.802	95.19
372.028	101.19
372.254	91.19
372.48	105.19
372.706	93.19
372.932	102.19
373.158	93.19
373.384	104.19
373.61	92.19
373.835	87.19
374.061	91.19
374.287	103.19
374.513	91.19
374.739	86.19
374.965	95.19
375.191	104.19
375.416	97.19
375.642	88.19
375.868	92.19
376.094	92.19
376.319	93.19
376.545	91.19
376.771	85.19
376.997	105.19
377.222	96.19
377.448	92.19
377.674	91.19
377.899	82.19
378.125	89.19
378.35	108.19
378.576	82.19
378.802	86.19
379.027	90.19
379.253	73.19
379.478	92.19
379.704	94.19
379.929	82.19
380.155	83.19
380.38	97.19
380.606	92.19
380.831	99.19
381.057	98.19
381.282	88.19
381.507	89.19
381.733	99.19
381.958	87.19
382.184	88.19
382.409	76.19
382.634	99.19
382.86	88.19
383.085	91.19
383.31	88.19
383.535	88.19
383.761	102.19
383.986	89.19
384.211	98.19
384.436	119.19
384.662	96.19
384.887	91.19
385.112	105.19
385.337	113.19
385.562	88.19
385.787	71.19
386.013	98.19
386.238	89.19
386.463	90.19
386.688	82.19
386.913	97.19
387.138	93.19
387.363	93.19
387.588	98.19
387.813	85.19
388.038	86.19
388.263	94.19
388.488	89.19
388.713	98.19
388.938	94.19
389.163	103.19
389.387	100.19
389.612	87.19
389.837	96.19
390.062	89.19
390.287	100.19
390.512	97.19
390.736	94.19
390.961	100.19
391.186	96.19
391.411	112.19
391.636	93.19
391.86	105.19
392.085	100.19
392.31	111.19
392.534	103.19
392.759	100.19
392.984	95.19
393.208	101.19
393.433	92.19
393.658	98.19
393.882	105.19
394.107	94.19
394.331	85.19
394.556	98.19
394.78	84.19
395.005	85.19
395.229	90.19
395.454	98.19
395.678	93.19
395.903	100.19
396.127	106.19
396.352	91.19
396.576	103.19
396.801	94.19
397.025	101.19
397.249	92.19
397.474	113.19
397.698	111.19
397.922	113.19
398.147	100.19
398.371	103.19
398.595	112.19
398.82	98.19
399.044	97.19
399.268	105.19
399.492	105.19
399.717	128.19
399.941	113.19
400.165	98.19
400.389	121.19
400.613	111.19
400.837	99.19
401.062	83.19
401.286	87.19
401.51	90.19
401.734	89.19
401.958	107.19
402.182	97.19
402.406	104.19
402.63	98.19
402.854	100.19
403.078	106.19
403.302	83.19
403.526	87.19
403.75	113.19
403.974	94.19
404.198	103.19
404.422	108.19
404.645	108.19
404.869	97.19
405.093	97.19
405.317	102.19
405.541	100.19
405.765	97.19
405.988	97.19
406.212	107.19
406.436	98.19
406.66	128.19
406.883	101.19
407.107	101.19
407.331	105.19
407.555	109.19
407.778	109.19
408.002	100.19
408.226	88.19
408.449	92.19
408.673	106.19
408.896	89.19
409.12	104.19
409.344	93.19
409.567	117.19
409.791	99.19
410.014	97.19
410.238	107.19
410.461	104.19
410.685	86.19
410.908	89.19
411.132	99.19
411.355	98.19
411.578	104.19
411.802	92.19
412.025	107.19
412.249	98.19
412.472	95.19
412.695	105.19
412.919	98.19
413.142	101.19
413.365	101.19
413.589	92.19
413.812	98.19
414.035	94.19
414.258	90.19
414.482	91.19
414.705	89.19
414.928	88.19
415.151	95.19
415.374	94.19
415.597	105.19
415.821	119.19
416.044	114.19
416.267	95.19
416.49	92.19
416.713	96.19
416.936	95.19
417.159	88.19
417.382	97.19
417.605	98.19
417.828	107.19
418.051	101.19
418.274	107.19
418.497	95.19
418.72	97.19
418.943	95.19
419.166	105.19
419.389	102.19
419.611	88.19
419.834	91.19
420.057	98.19
420.28	103.19
420.503	109.19
420.726	97.19
420.948	102.19
421.171	95.19
421.394	98.19
421.617	100.19
421.839	90.19
422.062	101.19
422.285	104.19
422.507	101.19
422.73	102.19
422.953	102.19
423.175	99.19
423.398	103.19
423.621	96.19
423.843	105.19
424.066	104.19
424.288	114.19
424.511	99.19
424.733	104.19
424.956	111.19
425.178	96.19
425.401	100.19
425.623	87.19
425.846	97.19
426.068	93.19
426.291	95.19
426.513	85.19
426.735	92.19
426.958	106.19
427.18	106.19
427.402	116.19
427.625	105.19
427.847	100.19
428.069	97.19
428.292	85.19
428.514	90.19
428.736	98.19
428.958	99.19
429.181	101.19
429.403	88.19
429.625	94.19
429.847	82.19
430.069	101.19
430.292	105.19
430.514	116.19
430.736	103.19
430.958	101.19
431.18	87.19
431.402	91.19
431.624	95.19
431.846	93.19
432.068	93.19
432.29	97.19
432.512	90.19
432.734	100.19
432.956	101.19
433.178	103.19
433.4	109.19
433.622	96.19
433.844	100.19
434.066	104.19
434.287	106.19
434.509	92.19
434.731	115.19
434.953	89.19
435.175	88.19
435.397	96.19
435.618	97.19
435.84	93.19
436.062	95.19
436.284	92.19
436.505	92.19
436.727	99.19
436.949	97.19
437.17	97.19
437.392	89.19
437.614	96.19
437.835	105.19
438.057	86.19
438.278	89.19
438.5	96.19
438.721	91.19
438.943	93.19
439.165	93.19
439.386	91.19
439.608	94.19
439.829	105.19
440.05	101.19
440.272	101.19
440.493	106.19
440.715	105.19
440.936	82.19
441.158	98.19
441.379	97.19
441.6	100.19
441.822	101.19
442.043	96.19
442.264	86.19
442.486	106.19
442.707	103.19
442.928	100.19
443.149	100.19
443.371	86.19
443.592	95.19
443.813	104.19
444.034	98.19
444.255	95.19
444.476	99.19
444.698	108.19
444.919	109.19
445.14	216.19
445.361	154.19
445.582	105.19
445.803	97.19
446.024	86.19
446.245	95.19
446.466	97.19
446.687	89.19
446.908	87.19
447.129	98.19
447.35	107.19
447.571	94.19
447.792	83.19
448.013	93.19
448.234	92.19
448.455	99.19
448.675	91.19
448.896	81.19
449.117	105.19
449.338	95.19
449.559	104.19
449.779	85.19
450	96.19
450.221	98.19
450.442	99.19
450.662	100.19
450.883	106.19
451.104	97.19
451.324	96.19
451.545	92.19
451.766	96.19
451.986	77.19
452.207	90.19
452.428	108.19
452.648	103.19
452.869	99.19
453.089	93.19
453.31	88.19
453.53	96.19
453.751	98.19
453.971	91.19
454.192	88.19
454.412	97.19
454.633	93.19
454.853	111.19
455.073	83.19
455.294	87.19
455.514	95.19
455.734	104.19
455.955	84.19
456.175	100.19
456.395	105.19
456.616	105.19
456.836	87.19
457.056	86.19
457.276	103.19
457.497	95.19
457.717	90.19
457.937	89.19
458.157	76.19
458.377	82.19
458.598	81.19
458.818	92.19
459.038	95.19
459.258	90.19
459.478	93.19
459.698	98.19
459.918	102.19
460.138	91.19
460.358	113.19
460.578	105.19
460.798	98.19
461.018	119.19
461.238	107.19
461.458	104.19
461.678	91.19
461.898	116.19
462.118	91.19
462.338	98.19
462.558	89.19
462.777	105.19
462.997	103.19
463.217	108.19
463.437	115.19
463.657	93.19
463.876	120.19
464.096	111.19
464.316	100.19
464.536	100.19
464.755	106.19
464.975	77.19
465.195	125.19
465.414	91.19
465.634	84.19
465.854	102.19
466.073	95.19
466.293	92.19
466.512	129.19
466.732	84.19
466.951	91.19
467.171	111.19
467.391	98.19
467.61	97.19
467.829	101.19
468.049	83.19
468.268	113.19
468.488	103.19
468.707	89.19
468.927	111.19
469.146	99.19
469.365	95.19
469.585	102.19
469.804	100.19
470.023	92.19
470.243	103.19
470.462	100.19
470.681	108.19
470.901	112.19
471.12	97.19
471.339	108.19
471.558	91.19
471.777	112.19
471.997	109.19
472.216	89.19
472.435	94.19
472.654	101.19
472.873	101.19
473.092	94.19
473.311	103.19
473.53	105.19
473.749	96.19
473.968	90.19
474.187	95.19
474.406	109.19
474.625	91.19
474.844	97.19
475.063	98.19
475.282	84.19
475.501	92.19
475.72	104.19
475.939	99.19
476.158	106.19
476.377	99.19
476.596	109.19
476.814	98.19
477.033	83.19
477.252	103.19
477.471	97.19
477.69	95.19
477.908	106.19
478.127	104.19
478.346	99.19
478.564	95.19
478.783	100.19
479.002	113.19
479.22	96.19
479.439	101.19
479.658	108.19
479.876	99.19
480.095	108.19
480.313	91.19
480.532	101.19
480.751	102.19
480.969	127.19
481.188	104.19
481.406	107.19
481.624	104.19
481.843	95.19
482.061	101.19
482.28	92.19
482.498	90.19
482.717	85.19
482.935	84.19
483.153	100.19
483.372	100.19
483.59	102.19
483.808	98.19
484.027	105.19
484.245	100.19
484.463	99.19
484.681	91.19
484.9	109.19
485.118	101.19
485.336	101.19
485.554	100.19
485.772	113.19
485.99	105.19
486.209	97.19
486.427	99.19
486.645	104.19
486.863	111.19
487.081	111.19
487.299	98.19
487.517	107.19
487.735	115.19
487.953	105.19
488.171	100.19
488.389	113.19
488.607	104.19
488.825	100.19
489.043	103.19
489.261	106.19
489.479	101.19
489.696	115.19
489.914	105.19
490.132	99.19
490.35	107.19
490.568	110.19
490.786	97.19
491.003	115.19
491.221	112.19
491.439	120.19
491.657	128.19
491.874	127.19
492.092	112.19
492.31	122.19
492.527	117.19
492.745	108.19
492.963	123.19
493.18	105.19
493.398	105.19
493.615	117.19
493.833	116.19
494.05	118.19
494.268	107.19
494.485	115.19
494.703	109.19
494.92	118.19
495.138	121.19
495.355	118.19
495.573	113.19
495.79	112.19
496.008	108.19
496.225	108.19
496.442	97.19
496.66	123.19
496.877	115.19
497.094	113.19
497.312	120.19
497.529	108.19
497.746	118.19
497.963	118.19
498.181	104.19
498.398	111.19
498.615	114.19
498.832	115.19
499.049	124.19
499.267	135.19
499.484	129.19
499.701	130.19
499.918	155.19
500.135	136.19
500.352	156.19
500.569	166.19
500.786	169.19
501.003	170.19
501.22	152.19
501.437	128.19
501.654	134.19
501.871	125.19
502.088	120.19
502.305	125.19
502.522	115.19
502.739	106.19
502.956	126.19
503.172	113.19
503.389	105.19
503.606	103.19
503.823	114.19
504.04	101.19
504.256	106.19
504.473	103.19
504.69	119.19
504.907	118.19
505.123	98.19
505.34	110.19
505.557	111.19
505.773	106.19
505.99	106.19
506.207	104.19
506.423	91.19
506.64	112.19
506.856	117.19
507.073	103.19
507.289	116.19
507.506	117.19
507.722	106.19
507.939	101.19
508.155	101.19
508.372	103.19
508.588	98.19
508.805	113.19
509.021	111.19
509.238	103.19
509.454	113.19
509.67	99.19
509.887	102.19
510.103	90.19
510.319	98.19
510.536	114.19
510.752	102.19
510.968	101.19
511.184	106.19
511.401	94.19
511.617	106.19
511.833	100.19
512.049	108.19
512.265	100.19
512.481	96.19
512.698	102.19
512.914	107.19
513.13	97.19
513.346	98.19
513.562	109.19
