Data from Location5.07152019.Energy5.Lamp.07192019.3%Agarose_HRD10591_15-36-32-386.txt Node
Date: Fri Jul 19 15:36:32 EDT 2019
User: cochatt
Spectrometer: HR+D1059
Trigger mode: 1
Integration Time (sec): 1.000000E-1
Scans to average: 1
Electric dark correction enabled: true
Nonlinearity correction enabled: false
Boxcar width: 0
XAxis mode: Wavelengths
Number of Pixels in Spectrum: 2048
>>>>>Begin Spectral Data<<<<<
223.165	-12.69
223.4	-12.69
223.635	-12.69
223.869	-14.69
224.104	-10.69
224.338	-16.69
224.573	-4.69
224.808	-22.69
225.042	-14.69
225.277	-17.69
225.511	-4.69
225.746	1.31
225.98	12.31
226.215	5.31
226.449	23.31
226.683	12.31
226.918	25.31
227.152	39.31
227.387	32.31
227.621	40.31
227.856	37.31
228.09	29.31
228.324	56.31
228.559	54.31
228.793	48.31
229.027	69.31
229.262	68.31
229.496	70.31
229.73	65.31
229.964	71.31
230.199	76.31
230.433	80.31
230.667	73.31
230.901	72.31
231.136	79.31
231.37	80.31
231.604	85.31
231.838	70.31
232.072	82.31
232.306	84.31
232.541	71.31
232.775	73.31
233.009	72.31
233.243	83.31
233.477	77.31
233.711	74.31
233.945	85.31
234.179	78.31
234.413	86.31
234.647	85.31
234.881	74.31
235.115	75.31
235.349	80.31
235.583	63.31
235.817	83.31
236.051	90.31
236.285	75.31
236.519	84.31
236.753	86.31
236.987	76.31
237.221	76.31
237.455	76.31
237.689	76.31
237.922	72.31
238.156	81.31
238.39	67.31
238.624	82.31
238.858	83.31
239.091	66.31
239.325	65.31
239.559	78.31
239.793	78.31
240.027	71.31
240.26	72.31
240.494	88.31
240.728	84.31
240.961	86.31
241.195	75.31
241.429	90.31
241.662	69.31
241.896	64.31
242.13	74.31
242.363	67.31
242.597	83.31
242.83	65.31
243.064	79.31
243.298	79.31
243.531	56.31
243.765	81.31
243.998	76.31
244.232	75.31
244.465	80.31
244.699	63.31
244.932	76.31
245.166	85.31
245.399	81.31
245.633	77.31
245.866	71.31
246.099	78.31
246.333	77.31
246.566	72.31
246.8	75.31
247.033	95.31
247.266	77.31
247.5	79.31
247.733	71.31
247.966	79.31
248.2	73.31
248.433	80.31
248.666	75.31
248.899	80.31
249.133	73.31
249.366	84.31
249.599	77.31
249.832	86.31
250.066	83.31
250.299	77.31
250.532	90.31
250.765	83.31
250.998	82.31
251.231	73.31
251.465	89.31
251.698	80.31
251.931	76.31
252.164	67.31
252.397	77.31
252.63	77.31
252.863	69.31
253.096	75.31
253.329	84.31
253.562	85.31
253.795	83.31
254.028	75.31
254.261	71.31
254.494	85.31
254.727	86.31
254.96	82.31
255.193	67.31
255.426	80.31
255.659	71.31
255.892	77.31
256.124	86.31
256.357	93.31
256.59	89.31
256.823	95.31
257.056	80.31
257.289	74.31
257.521	70.31
257.754	84.31
257.987	81.31
258.22	72.31
258.452	65.31
258.685	92.31
258.918	78.31
259.151	82.31
259.383	79.31
259.616	83.31
259.849	86.31
260.081	78.31
260.314	93.31
260.547	79.31
260.779	70.31
261.012	76.31
261.244	74.31
261.477	70.31
261.71	91.31
261.942	70.31
262.175	79.31
262.407	90.31
262.64	92.31
262.872	73.31
263.105	73.31
263.337	85.31
263.57	79.31
263.802	86.31
264.035	80.31
264.267	78.31
264.499	83.31
264.732	71.31
264.964	81.31
265.197	80.31
265.429	83.31
265.661	78.31
265.894	88.31
266.126	83.31
266.358	78.31
266.591	90.31
266.823	77.31
267.055	91.31
267.287	71.31
267.52	90.31
267.752	85.31
267.984	90.31
268.216	86.31
268.448	58.31
268.681	86.31
268.913	85.31
269.145	90.31
269.377	88.31
269.609	77.31
269.841	79.31
270.073	89.31
270.306	85.31
270.538	82.31
270.77	77.31
271.002	89.31
271.234	71.31
271.466	81.31
271.698	71.31
271.93	83.31
272.162	85.31
272.394	78.31
272.626	86.31
272.858	76.31
273.09	84.31
273.322	84.31
273.553	88.31
273.785	81.31
274.017	73.31
274.249	90.31
274.481	71.31
274.713	84.31
274.945	75.31
275.176	78.31
275.408	83.31
275.64	76.31
275.872	87.31
276.104	74.31
276.335	76.31
276.567	75.31
276.799	85.31
277.031	88.31
277.262	91.31
277.494	90.31
277.726	72.31
277.957	89.31
278.189	98.31
278.421	81.31
278.652	74.31
278.884	71.31
279.115	82.31
279.347	78.31
279.579	80.31
279.81	68.31
280.042	83.31
280.273	84.31
280.505	74.31
280.736	76.31
280.968	78.31
281.199	94.31
281.431	97.31
281.662	91.31
281.894	84.31
282.125	85.31
282.356	86.31
282.588	86.31
282.819	73.31
283.051	79.31
283.282	82.31
283.513	100.31
283.745	96.31
283.976	76.31
284.207	91.31
284.439	87.31
284.67	78.31
284.901	99.31
285.132	83.31
285.364	86.31
285.595	79.31
285.826	78.31
286.057	83.31
286.288	92.31
286.52	93.31
286.751	86.31
286.982	86.31
287.213	99.31
287.444	92.31
287.675	84.31
287.906	97.31
288.138	75.31
288.369	90.31
288.6	79.31
288.831	79.31
289.062	82.31
289.293	98.31
289.524	91.31
289.755	80.31
289.986	97.31
290.217	81.31
290.448	82.31
290.679	71.31
290.91	78.31
291.141	90.31
291.371	89.31
291.602	79.31
291.833	86.31
292.064	90.31
292.295	82.31
292.526	87.31
292.757	82.31
292.987	84.31
293.218	99.31
293.449	72.31
293.68	78.31
293.91	79.31
294.141	74.31
294.372	77.31
294.603	89.31
294.833	89.31
295.064	77.31
295.295	80.31
295.525	82.31
295.756	62.31
295.987	80.31
296.217	86.31
296.448	85.31
296.679	68.31
296.909	80.31
297.14	90.31
297.37	79.31
297.601	78.31
297.831	81.31
298.062	82.31
298.292	87.31
298.523	77.31
298.753	70.31
298.984	63.31
299.214	93.31
299.445	85.31
299.675	65.31
299.905	93.31
300.136	80.31
300.366	81.31
300.597	85.31
300.827	86.31
301.057	87.31
301.288	84.31
301.518	71.31
301.748	88.31
301.979	73.31
302.209	97.31
302.439	85.31
302.669	73.31
302.9	103.31
303.13	81.31
303.36	76.31
303.59	70.31
303.82	70.31
304.051	83.31
304.281	81.31
304.511	83.31
304.741	65.31
304.971	84.31
305.201	89.31
305.431	90.31
305.661	83.31
305.891	78.31
306.121	81.31
306.352	92.31
306.582	81.31
306.812	92.31
307.042	76.31
307.272	95.31
307.502	83.31
307.731	85.31
307.961	79.31
308.191	93.31
308.421	83.31
308.651	68.31
308.881	87.31
309.111	90.31
309.341	86.31
309.571	77.31
309.8	74.31
310.03	86.31
310.26	81.31
310.49	95.31
310.72	85.31
310.949	84.31
311.179	90.31
311.409	86.31
311.639	82.31
311.868	85.31
312.098	83.31
312.328	84.31
312.557	86.31
312.787	63.31
313.017	80.31
313.246	88.31
313.476	95.31
313.706	95.31
313.935	82.31
314.165	86.31
314.394	85.31
314.624	78.31
314.853	79.31
315.083	80.31
315.312	85.31
315.542	75.31
315.771	88.31
316.001	86.31
316.23	70.31
316.46	76.31
316.689	72.31
316.919	79.31
317.148	93.31
317.377	81.31
317.607	80.31
317.836	77.31
318.065	88.31
318.295	86.31
318.524	89.31
318.753	75.31
318.983	79.31
319.212	81.31
319.441	89.31
319.67	81.31
319.9	87.31
320.129	77.31
320.358	78.31
320.587	85.31
320.816	88.31
321.046	88.31
321.275	97.31
321.504	81.31
321.733	83.31
321.962	77.31
322.191	87.31
322.42	84.31
322.649	90.31
322.878	98.31
323.108	82.31
323.337	72.31
323.566	75.31
323.795	73.31
324.024	73.31
324.253	74.31
324.482	88.31
324.71	84.31
324.939	76.31
325.168	87.31
325.397	86.31
325.626	88.31
325.855	86.31
326.084	82.31
326.313	80.31
326.542	89.31
326.77	75.31
326.999	91.31
327.228	78.31
327.457	89.31
327.686	76.31
327.914	79.31
328.143	81.31
328.372	88.31
328.6	82.31
328.829	76.31
329.058	90.31
329.287	82.31
329.515	88.31
329.744	83.31
329.972	74.31
330.201	77.31
330.43	74.31
330.658	85.31
330.887	88.31
331.115	76.31
331.344	68.31
331.572	95.31
331.801	75.31
332.03	90.31
332.258	89.31
332.486	81.31
332.715	83.31
332.943	91.31
333.172	78.31
333.4	82.31
333.629	82.31
333.857	89.31
334.085	95.31
334.314	82.31
334.542	94.31
334.771	77.31
334.999	99.31
335.227	74.31
335.455	85.31
335.684	86.31
335.912	87.31
336.14	80.31
336.369	79.31
336.597	75.31
336.825	77.31
337.053	64.31
337.281	81.31
337.51	71.31
337.738	75.31
337.966	87.31
338.194	83.31
338.422	83.31
338.65	95.31
338.878	89.31
339.106	73.31
339.334	89.31
339.562	72.31
339.79	85.31
340.018	79.31
340.246	71.31
340.474	85.31
340.702	80.31
340.93	85.31
341.158	75.31
341.386	92.31
341.614	81.31
341.842	78.31
342.07	89.31
342.298	73.31
342.526	79.31
342.754	75.31
342.981	82.31
343.209	87.31
343.437	66.31
343.665	90.31
343.893	95.31
344.12	80.31
344.348	77.31
344.576	73.31
344.804	86.31
345.031	85.31
345.259	82.31
345.487	90.31
345.714	86.31
345.942	83.31
346.17	91.31
346.397	80.31
346.625	78.31
346.853	84.31
347.08	91.31
347.308	88.31
347.535	79.31
347.763	75.31
347.99	84.31
348.218	86.31
348.445	90.31
348.673	73.31
348.9	80.31
349.128	82.31
349.355	94.31
349.583	77.31
349.81	93.31
350.037	90.31
350.265	94.31
350.492	83.31
350.72	82.31
350.947	76.31
351.174	93.31
351.402	73.31
351.629	75.31
351.856	89.31
352.083	86.31
352.311	85.31
352.538	80.31
352.765	93.31
352.992	93.31
353.22	77.31
353.447	61.31
353.674	81.31
353.901	85.31
354.128	78.31
354.355	70.31
354.583	77.31
354.81	69.31
355.037	94.31
355.264	77.31
355.491	73.31
355.718	81.31
355.945	79.31
356.172	87.31
356.399	101.31
356.626	82.31
356.853	70.31
357.08	94.31
357.307	75.31
357.534	82.31
357.761	85.31
357.988	90.31
358.215	87.31
358.441	78.31
358.668	98.31
358.895	82.31
359.122	86.31
359.349	89.31
359.576	82.31
359.802	94.31
360.029	85.31
360.256	85.31
360.483	84.31
360.709	87.31
360.936	79.31
361.163	85.31
361.39	83.31
361.616	93.31
361.843	87.31
362.07	86.31
362.296	77.31
362.523	86.31
362.749	78.31
362.976	89.31
363.203	85.31
363.429	81.31
363.656	89.31
363.882	86.31
364.109	80.31
364.335	83.31
364.562	81.31
364.788	87.31
365.015	89.31
365.241	78.31
365.468	76.31
365.694	76.31
365.92	90.31
366.147	90.31
366.373	84.31
366.599	86.31
366.826	93.31
367.052	83.31
367.278	84.31
367.505	81.31
367.731	69.31
367.957	72.31
368.184	85.31
368.41	79.31
368.636	82.31
368.862	82.31
369.089	70.31
369.315	96.31
369.541	89.31
369.767	80.31
369.993	86.31
370.219	77.31
370.445	76.31
370.672	80.31
370.898	87.31
371.124	87.31
371.35	87.31
371.576	90.31
371.802	89.31
372.028	89.31
372.254	72.31
372.48	93.31
372.706	83.31
372.932	85.31
373.158	92.31
373.384	85.31
373.61	75.31
373.835	99.31
374.061	87.31
374.287	95.31
374.513	99.31
374.739	81.31
374.965	89.31
375.191	93.31
375.416	78.31
375.642	78.31
375.868	79.31
376.094	75.31
376.319	85.31
376.545	79.31
376.771	85.31
376.997	79.31
377.222	96.31
377.448	81.31
377.674	83.31
377.899	85.31
378.125	86.31
378.35	80.31
378.576	75.31
378.802	67.31
379.027	96.31
379.253	85.31
379.478	85.31
379.704	84.31
379.929	94.31
380.155	76.31
380.38	86.31
380.606	76.31
380.831	91.31
381.057	105.31
381.282	89.31
381.507	81.31
381.733	79.31
381.958	84.31
382.184	79.31
382.409	81.31
382.634	83.31
382.86	72.31
383.085	86.31
383.31	80.31
383.535	74.31
383.761	82.31
383.986	87.31
384.211	81.31
384.436	87.31
384.662	65.31
384.887	75.31
385.112	75.31
385.337	85.31
385.562	90.31
385.787	74.31
386.013	103.31
386.238	91.31
386.463	91.31
386.688	79.31
386.913	82.31
387.138	86.31
387.363	82.31
387.588	77.31
387.813	85.31
388.038	84.31
388.263	80.31
388.488	83.31
388.713	85.31
388.938	88.31
389.163	75.31
389.387	86.31
389.612	78.31
389.837	87.31
390.062	89.31
390.287	88.31
390.512	79.31
390.736	94.31
390.961	92.31
391.186	84.31
391.411	97.31
391.636	77.31
391.86	88.31
392.085	87.31
392.31	87.31
392.534	80.31
392.759	90.31
392.984	92.31
393.208	97.31
393.433	89.31
393.658	89.31
393.882	91.31
394.107	83.31
394.331	69.31
394.556	75.31
394.78	75.31
395.005	75.31
395.229	90.31
395.454	77.31
395.678	92.31
395.903	83.31
396.127	82.31
396.352	91.31
396.576	99.31
396.801	81.31
397.025	81.31
397.249	90.31
397.474	83.31
397.698	77.31
397.922	87.31
398.147	82.31
398.371	75.31
398.595	80.31
398.82	77.31
399.044	83.31
399.268	71.31
399.492	81.31
399.717	82.31
399.941	83.31
400.165	83.31
400.389	90.31
400.613	70.31
400.837	86.31
401.062	82.31
401.286	78.31
401.51	90.31
401.734	75.31
401.958	83.31
402.182	90.31
402.406	102.31
402.63	91.31
402.854	94.31
403.078	83.31
403.302	78.31
403.526	71.31
403.75	78.31
403.974	71.31
404.198	74.31
404.422	82.31
404.645	87.31
404.869	83.31
405.093	83.31
405.317	69.31
405.541	81.31
405.765	85.31
405.988	87.31
406.212	67.31
406.436	75.31
406.66	81.31
406.883	81.31
407.107	91.31
407.331	96.31
407.555	83.31
407.778	76.31
408.002	95.31
408.226	95.31
408.449	84.31
408.673	95.31
408.896	78.31
409.12	90.31
409.344	86.31
409.567	78.31
409.791	87.31
410.014	90.31
410.238	94.31
410.461	79.31
410.685	94.31
410.908	84.31
411.132	83.31
411.355	89.31
411.578	94.31
411.802	73.31
412.025	78.31
412.249	91.31
412.472	81.31
412.695	87.31
412.919	85.31
413.142	90.31
413.365	90.31
413.589	90.31
413.812	93.31
414.035	101.31
414.258	73.31
414.482	90.31
414.705	91.31
414.928	96.31
415.151	94.31
415.374	93.31
415.597	82.31
415.821	93.31
416.044	85.31
416.267	89.31
416.49	76.31
416.713	76.31
416.936	97.31
417.159	98.31
417.382	85.31
417.605	78.31
417.828	101.31
418.051	74.31
418.274	89.31
418.497	90.31
418.72	85.31
418.943	92.31
419.166	81.31
419.389	82.31
419.611	70.31
419.834	94.31
420.057	91.31
420.28	94.31
420.503	94.31
420.726	96.31
420.948	92.31
421.171	91.31
421.394	91.31
421.617	98.31
421.839	96.31
422.062	86.31
422.285	91.31
422.507	82.31
422.73	82.31
422.953	97.31
423.175	87.31
423.398	94.31
423.621	96.31
423.843	99.31
424.066	87.31
424.288	87.31
424.511	82.31
424.733	96.31
424.956	85.31
425.178	98.31
425.401	95.31
425.623	78.31
425.846	88.31
426.068	96.31
426.291	98.31
426.513	86.31
426.735	113.31
426.958	101.31
427.18	99.31
427.402	89.31
427.625	88.31
427.847	82.31
428.069	79.31
428.292	75.31
428.514	89.31
428.736	74.31
428.958	88.31
429.181	82.31
429.403	79.31
429.625	89.31
429.847	88.31
430.069	83.31
430.292	95.31
430.514	79.31
430.736	82.31
430.958	84.31
431.18	77.31
431.402	91.31
431.624	71.31
431.846	85.31
432.068	81.31
432.29	73.31
432.512	83.31
432.734	88.31
432.956	94.31
433.178	102.31
433.4	91.31
433.622	103.31
433.844	103.31
434.066	89.31
434.287	81.31
434.509	79.31
434.731	91.31
434.953	78.31
435.175	96.31
435.397	93.31
435.618	91.31
435.84	86.31
436.062	93.31
436.284	87.31
436.505	81.31
436.727	89.31
436.949	100.31
437.17	92.31
437.392	103.31
437.614	101.31
437.835	88.31
438.057	87.31
438.278	92.31
438.5	99.31
438.721	84.31
438.943	107.31
439.165	102.31
439.386	90.31
439.608	78.31
439.829	85.31
440.05	99.31
440.272	81.31
440.493	86.31
440.715	94.31
440.936	91.31
441.158	79.31
441.379	102.31
441.6	102.31
441.822	87.31
442.043	95.31
442.264	101.31
442.486	90.31
442.707	98.31
442.928	94.31
443.149	81.31
443.371	111.31
443.592	90.31
443.813	106.31
444.034	100.31
444.255	105.31
444.476	106.31
444.698	86.31
444.919	99.31
445.14	217.31
445.361	153.31
445.582	120.31
445.803	96.31
446.024	88.31
446.245	93.31
446.466	94.31
446.687	81.31
446.908	87.31
447.129	102.31
447.35	93.31
447.571	89.31
447.792	95.31
448.013	102.31
448.234	87.31
448.455	93.31
448.675	92.31
448.896	102.31
449.117	92.31
449.338	85.31
449.559	105.31
449.779	94.31
450	108.31
450.221	89.31
450.442	93.31
450.662	90.31
450.883	91.31
451.104	76.31
451.324	84.31
451.545	99.31
451.766	89.31
451.986	84.31
452.207	84.31
452.428	90.31
452.648	88.31
452.869	80.31
453.089	99.31
453.31	81.31
453.53	93.31
453.751	83.31
453.971	92.31
454.192	95.31
454.412	89.31
454.633	82.31
454.853	91.31
455.073	82.31
455.294	80.31
455.514	88.31
455.734	93.31
455.955	113.31
456.175	62.31
456.395	91.31
456.616	97.31
456.836	67.31
457.056	86.31
457.276	101.31
457.497	98.31
457.717	71.31
457.937	88.31
458.157	89.31
458.377	82.31
458.598	90.31
458.818	75.31
459.038	85.31
459.258	74.31
459.478	70.31
459.698	75.31
459.918	75.31
460.138	81.31
460.358	77.31
460.578	86.31
460.798	89.31
461.018	85.31
461.238	70.31
461.458	93.31
461.678	88.31
461.898	96.31
462.118	93.31
462.338	93.31
462.558	86.31
462.777	79.31
462.997	84.31
463.217	100.31
463.437	90.31
463.657	87.31
463.876	74.31
464.096	82.31
464.316	82.31
464.536	93.31
464.755	95.31
464.975	98.31
465.195	96.31
465.414	92.31
465.634	81.31
465.854	88.31
466.073	87.31
466.293	94.31
466.512	83.31
466.732	98.31
466.951	92.31
467.171	82.31
467.391	97.31
467.61	100.31
467.829	97.31
468.049	85.31
468.268	97.31
468.488	86.31
468.707	104.31
468.927	105.31
469.146	87.31
469.365	99.31
469.585	106.31
469.804	110.31
470.023	94.31
470.243	104.31
470.462	86.31
470.681	96.31
470.901	97.31
471.12	94.31
471.339	85.31
471.558	96.31
471.777	106.31
471.997	93.31
472.216	93.31
472.435	90.31
472.654	98.31
472.873	80.31
473.092	75.31
473.311	112.31
473.53	91.31
473.749	97.31
473.968	85.31
474.187	86.31
474.406	96.31
474.625	80.31
474.844	75.31
475.063	83.31
475.282	89.31
475.501	91.31
475.72	95.31
475.939	94.31
476.158	104.31
476.377	95.31
476.596	91.31
476.814	72.31
477.033	85.31
477.252	86.31
477.471	96.31
477.69	90.31
477.908	98.31
478.127	102.31
478.346	107.31
478.564	103.31
478.783	98.31
479.002	85.31
479.22	101.31
479.439	79.31
479.658	84.31
479.876	104.31
480.095	99.31
480.313	82.31
480.532	101.31
480.751	92.31
480.969	95.31
481.188	90.31
481.406	77.31
481.624	93.31
481.843	87.31
482.061	75.31
482.28	93.31
482.498	93.31
482.717	85.31
482.935	87.31
483.153	99.31
483.372	91.31
483.59	99.31
483.808	98.31
484.027	103.31
484.245	98.31
484.463	106.31
484.681	100.31
484.9	104.31
485.118	97.31
485.336	91.31
485.554	83.31
485.772	82.31
485.99	77.31
486.209	87.31
486.427	84.31
486.645	86.31
486.863	89.31
487.081	82.31
487.299	103.31
487.517	96.31
487.735	102.31
487.953	120.31
488.171	113.31
488.389	100.31
488.607	103.31
488.825	90.31
489.043	97.31
489.261	101.31
489.479	106.31
489.696	89.31
489.914	102.31
490.132	103.31
490.35	93.31
490.568	106.31
490.786	113.31
491.003	103.31
491.221	106.31
491.439	120.31
491.657	103.31
491.874	97.31
492.092	119.31
492.31	121.31
492.527	124.31
492.745	117.31
492.963	113.31
493.18	120.31
493.398	95.31
493.615	104.31
493.833	122.31
494.05	98.31
494.268	103.31
494.485	109.31
494.703	94.31
494.92	102.31
495.138	110.31
495.355	114.31
495.573	97.31
495.79	105.31
496.008	101.31
496.225	102.31
496.442	101.31
496.66	109.31
496.877	109.31
497.094	93.31
497.312	94.31
497.529	91.31
497.746	78.31
497.963	96.31
498.181	94.31
498.398	79.31
498.615	85.31
498.832	90.31
499.049	96.31
499.267	81.31
499.484	72.31
499.701	98.31
499.918	103.31
500.135	98.31
500.352	91.31
500.569	97.31
500.786	83.31
501.003	81.31
501.22	84.31
501.437	97.31
501.654	110.31
501.871	93.31
502.088	102.31
502.305	106.31
502.522	98.31
502.739	98.31
502.956	95.31
503.172	99.31
503.389	95.31
503.606	91.31
503.823	96.31
504.04	83.31
504.256	99.31
504.473	106.31
504.69	96.31
504.907	93.31
505.123	76.31
505.34	89.31
505.557	105.31
505.773	82.31
505.99	106.31
506.207	94.31
506.423	88.31
506.64	85.31
506.856	94.31
507.073	78.31
507.289	88.31
507.506	83.31
507.722	89.31
507.939	79.31
508.155	94.31
508.372	87.31
508.588	98.31
508.805	81.31
509.021	99.31
509.238	79.31
509.454	87.31
509.67	83.31
509.887	78.31
510.103	79.31
510.319	92.31
510.536	93.31
510.752	81.31
510.968	83.31
511.184	80.31
511.401	76.31
511.617	78.31
511.833	84.31
512.049	102.31
512.265	89.31
512.481	85.31
512.698	100.31
512.914	99.31
513.13	80.31
513.346	79.31
513.562	93.31
513.778	87.31
513.994	85.31
514.21	94.31
514.426	95.31
514.642	86.31
514.858	89.31
515.074	69.31
515.29	85.31
515.506	76.31
515.721	80.31
515.937	82.31
516.153	87.31
516.369	74.31
516.585	84.31
516.801	87.31
517.016	85.31
517.232	90.31
517.448	70.31
517.664	71.31
517.879	85.31
518.095	92.31
