Data from Location5.07152019.Energy5.Lamp.07192019.3%Agarose_HRD10591_16-05-36-629.txt Node
Date: Fri Jul 19 16:05:36 EDT 2019
User: cochatt
Spectrometer: HR+D1059
Trigger mode: 1
Integration Time (sec): 1.000000E-1
Scans to average: 1
Electric dark correction enabled: true
Nonlinearity correction enabled: false
Boxcar width: 0
XAxis mode: Wavelengths
Number of Pixels in Spectrum: 2048
>>>>>Begin Spectral Data<<<<<
223.165	-10.56
223.4	-10.56
223.635	-10.56
223.869	-21.56
224.104	-20.56
224.338	-12.56
224.573	0.44
224.808	-7.56
225.042	-14.56
225.277	-9.56
225.511	-17.56
225.746	1.44
225.98	21.44
226.215	23.44
226.449	14.44
226.683	5.44
226.918	20.44
227.152	27.44
227.387	45.44
227.621	41.44
227.856	44.44
228.09	37.44
228.324	58.44
228.559	60.44
228.793	57.44
229.027	67.44
229.262	77.44
229.496	57.44
229.73	61.44
229.964	73.44
230.199	69.44
230.433	70.44
230.667	84.44
230.901	68.44
231.136	77.44
231.37	88.44
231.604	77.44
231.838	86.44
232.072	87.44
232.306	84.44
232.541	84.44
232.775	83.44
233.009	92.44
233.243	84.44
233.477	73.44
233.711	80.44
233.945	92.44
234.179	94.44
234.413	89.44
234.647	93.44
234.881	83.44
235.115	87.44
235.349	99.44
235.583	104.44
235.817	78.44
236.051	92.44
236.285	94.44
236.519	89.44
236.753	76.44
236.987	88.44
237.221	102.44
237.455	83.44
237.689	89.44
237.922	80.44
238.156	85.44
238.39	68.44
238.624	76.44
238.858	72.44
239.091	79.44
239.325	73.44
239.559	76.44
239.793	91.44
240.027	82.44
240.26	83.44
240.494	71.44
240.728	68.44
240.961	76.44
241.195	69.44
241.429	89.44
241.662	78.44
241.896	70.44
242.13	81.44
242.363	73.44
242.597	78.44
242.83	81.44
243.064	72.44
243.298	79.44
243.531	74.44
243.765	85.44
243.998	82.44
244.232	88.44
244.465	87.44
244.699	68.44
244.932	92.44
245.166	79.44
245.399	86.44
245.633	91.44
245.866	62.44
246.099	68.44
246.333	80.44
246.566	85.44
246.8	77.44
247.033	84.44
247.266	73.44
247.5	78.44
247.733	86.44
247.966	81.44
248.2	69.44
248.433	74.44
248.666	82.44
248.899	79.44
249.133	78.44
249.366	85.44
249.599	76.44
249.832	82.44
250.066	112.44
250.299	82.44
250.532	89.44
250.765	85.44
250.998	73.44
251.231	84.44
251.465	69.44
251.698	95.44
251.931	87.44
252.164	84.44
252.397	88.44
252.63	73.44
252.863	88.44
253.096	91.44
253.329	89.44
253.562	78.44
253.795	83.44
254.028	91.44
254.261	78.44
254.494	92.44
254.727	102.44
254.96	91.44
255.193	63.44
255.426	89.44
255.659	81.44
255.892	88.44
256.124	90.44
256.357	93.44
256.59	89.44
256.823	77.44
257.056	72.44
257.289	85.44
257.521	90.44
257.754	70.44
257.987	102.44
258.22	90.44
258.452	75.44
258.685	98.44
258.918	93.44
259.151	84.44
259.383	102.44
259.616	109.44
259.849	90.44
260.081	82.44
260.314	92.44
260.547	77.44
260.779	89.44
261.012	82.44
261.244	80.44
261.477	80.44
261.71	83.44
261.942	88.44
262.175	92.44
262.407	86.44
262.64	90.44
262.872	91.44
263.105	86.44
263.337	92.44
263.57	88.44
263.802	81.44
264.035	96.44
264.267	78.44
264.499	83.44
264.732	80.44
264.964	69.44
265.197	89.44
265.429	84.44
265.661	82.44
265.894	80.44
266.126	92.44
266.358	85.44
266.591	97.44
266.823	91.44
267.055	89.44
267.287	84.44
267.52	92.44
267.752	85.44
267.984	74.44
268.216	84.44
268.448	84.44
268.681	81.44
268.913	106.44
269.145	80.44
269.377	91.44
269.609	98.44
269.841	104.44
270.073	100.44
270.306	98.44
270.538	87.44
270.77	84.44
271.002	83.44
271.234	76.44
271.466	79.44
271.698	97.44
271.93	79.44
272.162	93.44
272.394	80.44
272.626	79.44
272.858	100.44
273.09	91.44
273.322	81.44
273.553	66.44
273.785	87.44
274.017	93.44
274.249	87.44
274.481	92.44
274.713	85.44
274.945	87.44
275.176	68.44
275.408	90.44
275.64	78.44
275.872	91.44
276.104	87.44
276.335	81.44
276.567	97.44
276.799	86.44
277.031	79.44
277.262	99.44
277.494	95.44
277.726	85.44
277.957	107.44
278.189	83.44
278.421	86.44
278.652	106.44
278.884	91.44
279.115	91.44
279.347	95.44
279.579	83.44
279.81	88.44
280.042	103.44
280.273	89.44
280.505	85.44
280.736	107.44
280.968	87.44
281.199	88.44
281.431	92.44
281.662	99.44
281.894	89.44
282.125	110.44
282.356	98.44
282.588	89.44
282.819	91.44
283.051	81.44
283.282	74.44
283.513	86.44
283.745	98.44
283.976	94.44
284.207	82.44
284.439	85.44
284.67	98.44
284.901	101.44
285.132	93.44
285.364	99.44
285.595	89.44
285.826	87.44
286.057	99.44
286.288	93.44
286.52	92.44
286.751	102.44
286.982	94.44
287.213	82.44
287.444	93.44
287.675	95.44
287.906	112.44
288.138	98.44
288.369	106.44
288.6	98.44
288.831	94.44
289.062	84.44
289.293	93.44
289.524	82.44
289.755	92.44
289.986	95.44
290.217	97.44
290.448	101.44
290.679	90.44
290.91	97.44
291.141	86.44
291.371	93.44
291.602	86.44
291.833	91.44
292.064	102.44
292.295	84.44
292.526	86.44
292.757	96.44
292.987	101.44
293.218	97.44
293.449	88.44
293.68	77.44
293.91	82.44
294.141	96.44
294.372	98.44
294.603	92.44
294.833	83.44
295.064	93.44
295.295	102.44
295.525	106.44
295.756	88.44
295.987	90.44
296.217	98.44
296.448	97.44
296.679	83.44
296.909	89.44
297.14	91.44
297.37	98.44
297.601	92.44
297.831	92.44
298.062	97.44
298.292	100.44
298.523	98.44
298.753	96.44
298.984	76.44
299.214	88.44
299.445	86.44
299.675	88.44
299.905	96.44
300.136	94.44
300.366	97.44
300.597	85.44
300.827	88.44
301.057	79.44
301.288	98.44
301.518	108.44
301.748	99.44
301.979	96.44
302.209	105.44
302.439	96.44
302.669	103.44
302.9	87.44
303.13	95.44
303.36	93.44
303.59	87.44
303.82	95.44
304.051	87.44
304.281	94.44
304.511	95.44
304.741	101.44
304.971	91.44
305.201	92.44
305.431	87.44
305.661	113.44
305.891	80.44
306.121	86.44
306.352	101.44
306.582	95.44
306.812	88.44
307.042	93.44
307.272	116.44
307.502	73.44
307.731	109.44
307.961	96.44
308.191	89.44
308.421	89.44
308.651	100.44
308.881	102.44
309.111	91.44
309.341	89.44
309.571	93.44
309.8	99.44
310.03	88.44
310.26	86.44
310.49	108.44
310.72	91.44
310.949	85.44
311.179	78.44
311.409	86.44
311.639	94.44
311.868	92.44
312.098	97.44
312.328	101.44
312.557	98.44
312.787	96.44
313.017	100.44
313.246	107.44
313.476	93.44
313.706	86.44
313.935	92.44
314.165	104.44
314.394	102.44
314.624	92.44
314.853	88.44
315.083	82.44
315.312	91.44
315.542	89.44
315.771	103.44
316.001	87.44
316.23	101.44
316.46	91.44
316.689	91.44
316.919	87.44
317.148	101.44
317.377	98.44
317.607	103.44
317.836	96.44
318.065	91.44
318.295	87.44
318.524	95.44
318.753	94.44
318.983	102.44
319.212	97.44
319.441	92.44
319.67	94.44
319.9	93.44
320.129	87.44
320.358	81.44
320.587	101.44
320.816	105.44
321.046	96.44
321.275	91.44
321.504	95.44
321.733	90.44
321.962	99.44
322.191	92.44
322.42	97.44
322.649	100.44
322.878	82.44
323.108	99.44
323.337	91.44
323.566	100.44
323.795	109.44
324.024	89.44
324.253	98.44
324.482	105.44
324.71	78.44
324.939	80.44
325.168	108.44
325.397	96.44
325.626	94.44
325.855	85.44
326.084	96.44
326.313	96.44
326.542	82.44
326.77	91.44
326.999	82.44
327.228	96.44
327.457	97.44
327.686	92.44
327.914	102.44
328.143	89.44
328.372	94.44
328.6	87.44
328.829	98.44
329.058	99.44
329.287	102.44
329.515	76.44
329.744	94.44
329.972	106.44
330.201	102.44
330.43	101.44
330.658	93.44
330.887	104.44
331.115	106.44
331.344	105.44
331.572	96.44
331.801	89.44
332.03	88.44
332.258	86.44
332.486	95.44
332.715	84.44
332.943	86.44
333.172	91.44
333.4	97.44
333.629	86.44
333.857	97.44
334.085	100.44
334.314	102.44
334.542	99.44
334.771	91.44
334.999	82.44
335.227	94.44
335.455	98.44
335.684	98.44
335.912	92.44
336.14	101.44
336.369	95.44
336.597	86.44
336.825	85.44
337.053	99.44
337.281	100.44
337.51	99.44
337.738	107.44
337.966	100.44
338.194	91.44
338.422	92.44
338.65	88.44
338.878	105.44
339.106	96.44
339.334	96.44
339.562	96.44
339.79	87.44
340.018	93.44
340.246	92.44
340.474	93.44
340.702	98.44
340.93	99.44
341.158	93.44
341.386	92.44
341.614	100.44
341.842	94.44
342.07	96.44
342.298	97.44
342.526	90.44
342.754	93.44
342.981	100.44
343.209	85.44
343.437	106.44
343.665	97.44
343.893	100.44
344.12	104.44
344.348	96.44
344.576	98.44
344.804	89.44
345.031	112.44
345.259	96.44
345.487	96.44
345.714	76.44
345.942	100.44
346.17	89.44
346.397	92.44
346.625	100.44
346.853	93.44
347.08	99.44
347.308	96.44
347.535	86.44
347.763	94.44
347.99	75.44
348.218	84.44
348.445	87.44
348.673	95.44
348.9	104.44
349.128	97.44
349.355	103.44
349.583	105.44
349.81	104.44
350.037	85.44
350.265	95.44
350.492	107.44
350.72	88.44
350.947	89.44
351.174	90.44
351.402	91.44
351.629	99.44
351.856	92.44
352.083	94.44
352.311	89.44
352.538	104.44
352.765	88.44
352.992	96.44
353.22	90.44
353.447	80.44
353.674	98.44
353.901	117.44
354.128	89.44
354.355	92.44
354.583	104.44
354.81	91.44
355.037	92.44
355.264	94.44
355.491	90.44
355.718	105.44
355.945	88.44
356.172	105.44
356.399	97.44
356.626	97.44
356.853	82.44
357.08	92.44
357.307	88.44
357.534	89.44
357.761	87.44
357.988	89.44
358.215	83.44
358.441	91.44
358.668	104.44
358.895	106.44
359.122	102.44
359.349	101.44
359.576	92.44
359.802	90.44
360.029	97.44
360.256	91.44
360.483	93.44
360.709	78.44
360.936	101.44
361.163	99.44
361.39	87.44
361.616	104.44
361.843	99.44
362.07	101.44
362.296	92.44
362.523	94.44
362.749	94.44
362.976	98.44
363.203	98.44
363.429	86.44
363.656	102.44
363.882	93.44
364.109	81.44
364.335	88.44
364.562	93.44
364.788	94.44
365.015	110.44
365.241	101.44
365.468	89.44
365.694	92.44
365.92	87.44
366.147	89.44
366.373	105.44
366.599	92.44
366.826	90.44
367.052	85.44
367.278	86.44
367.505	101.44
367.731	100.44
367.957	90.44
368.184	93.44
368.41	93.44
368.636	101.44
368.862	94.44
369.089	87.44
369.315	85.44
369.541	90.44
369.767	89.44
369.993	99.44
370.219	91.44
370.445	99.44
370.672	77.44
370.898	85.44
371.124	87.44
371.35	87.44
371.576	75.44
371.802	93.44
372.028	82.44
372.254	102.44
372.48	87.44
372.706	102.44
372.932	84.44
373.158	91.44
373.384	108.44
373.61	90.44
373.835	86.44
374.061	99.44
374.287	94.44
374.513	98.44
374.739	94.44
374.965	86.44
375.191	88.44
375.416	93.44
375.642	88.44
375.868	92.44
376.094	82.44
376.319	98.44
376.545	90.44
376.771	89.44
376.997	78.44
377.222	104.44
377.448	103.44
377.674	103.44
377.899	85.44
378.125	94.44
378.35	85.44
378.576	84.44
378.802	92.44
379.027	77.44
379.253	89.44
379.478	95.44
379.704	90.44
379.929	100.44
380.155	92.44
380.38	86.44
380.606	82.44
380.831	72.44
381.057	98.44
381.282	94.44
381.507	98.44
381.733	104.44
381.958	92.44
382.184	96.44
382.409	92.44
382.634	99.44
382.86	103.44
383.085	103.44
383.31	90.44
383.535	103.44
383.761	88.44
383.986	79.44
384.211	86.44
384.436	103.44
384.662	84.44
384.887	107.44
385.112	96.44
385.337	86.44
385.562	107.44
385.787	94.44
386.013	98.44
386.238	103.44
386.463	84.44
386.688	100.44
386.913	97.44
387.138	94.44
387.363	112.44
387.588	102.44
387.813	101.44
388.038	87.44
388.263	84.44
388.488	95.44
388.713	92.44
388.938	95.44
389.163	93.44
389.387	82.44
389.612	94.44
389.837	91.44
390.062	94.44
390.287	91.44
390.512	98.44
390.736	96.44
390.961	91.44
391.186	96.44
391.411	89.44
391.636	89.44
391.86	95.44
392.085	105.44
392.31	86.44
392.534	93.44
392.759	97.44
392.984	83.44
393.208	78.44
393.433	86.44
393.658	89.44
393.882	105.44
394.107	113.44
394.331	85.44
394.556	73.44
394.78	94.44
395.005	97.44
395.229	81.44
395.454	90.44
395.678	101.44
395.903	116.44
396.127	108.44
396.352	108.44
396.576	97.44
396.801	102.44
397.025	90.44
397.249	110.44
397.474	98.44
397.698	109.44
397.922	94.44
398.147	112.44
398.371	90.44
398.595	101.44
398.82	100.44
399.044	97.44
399.268	91.44
399.492	93.44
399.717	100.44
399.941	97.44
400.165	100.44
400.389	87.44
400.613	95.44
400.837	102.44
401.062	96.44
401.286	94.44
401.51	112.44
401.734	87.44
401.958	86.44
402.182	88.44
402.406	92.44
402.63	98.44
402.854	97.44
403.078	79.44
403.302	103.44
403.526	94.44
403.75	112.44
403.974	99.44
404.198	85.44
404.422	90.44
404.645	91.44
404.869	99.44
405.093	102.44
405.317	94.44
405.541	108.44
405.765	95.44
405.988	107.44
406.212	92.44
406.436	92.44
406.66	101.44
406.883	104.44
407.107	96.44
407.331	89.44
407.555	100.44
407.778	86.44
408.002	98.44
408.226	97.44
408.449	98.44
408.673	97.44
408.896	93.44
409.12	84.44
409.344	99.44
409.567	104.44
409.791	102.44
410.014	93.44
410.238	107.44
410.461	110.44
410.685	97.44
410.908	102.44
411.132	90.44
411.355	94.44
411.578	104.44
411.802	93.44
412.025	98.44
412.249	77.44
412.472	93.44
412.695	92.44
412.919	92.44
413.142	85.44
413.365	109.44
413.589	92.44
413.812	94.44
414.035	102.44
414.258	97.44
414.482	101.44
414.705	115.44
414.928	90.44
415.151	101.44
415.374	91.44
415.597	93.44
415.821	95.44
416.044	100.44
416.267	103.44
416.49	89.44
416.713	93.44
416.936	93.44
417.159	101.44
417.382	90.44
417.605	83.44
417.828	88.44
418.051	96.44
418.274	94.44
418.497	93.44
418.72	84.44
418.943	106.44
419.166	97.44
419.389	101.44
419.611	93.44
419.834	86.44
420.057	87.44
420.28	92.44
420.503	89.44
420.726	100.44
420.948	113.44
421.171	89.44
421.394	107.44
421.617	78.44
421.839	102.44
422.062	104.44
422.285	98.44
422.507	96.44
422.73	81.44
422.953	79.44
423.175	96.44
423.398	101.44
423.621	96.44
423.843	93.44
424.066	94.44
424.288	89.44
424.511	101.44
424.733	95.44
424.956	93.44
425.178	91.44
425.401	102.44
425.623	104.44
425.846	85.44
426.068	91.44
426.291	101.44
426.513	75.44
426.735	99.44
426.958	96.44
427.18	86.44
427.402	96.44
427.625	100.44
427.847	82.44
428.069	89.44
428.292	105.44
428.514	109.44
428.736	93.44
428.958	92.44
429.181	106.44
429.403	101.44
429.625	98.44
429.847	84.44
430.069	86.44
430.292	88.44
430.514	83.44
430.736	94.44
430.958	91.44
431.18	88.44
431.402	83.44
431.624	92.44
431.846	94.44
432.068	86.44
432.29	104.44
432.512	95.44
432.734	88.44
432.956	89.44
433.178	94.44
433.4	89.44
433.622	107.44
433.844	86.44
434.066	87.44
434.287	91.44
434.509	93.44
434.731	81.44
434.953	92.44
435.175	77.44
435.397	98.44
435.618	105.44
435.84	98.44
436.062	96.44
436.284	87.44
436.505	103.44
436.727	79.44
436.949	73.44
437.17	107.44
437.392	104.44
437.614	99.44
437.835	88.44
438.057	92.44
438.278	86.44
438.5	85.44
438.721	86.44
438.943	87.44
439.165	82.44
439.386	96.44
439.608	93.44
439.829	95.44
440.05	95.44
440.272	98.44
440.493	116.44
440.715	104.44
440.936	96.44
441.158	81.44
441.379	90.44
441.6	85.44
441.822	83.44
442.043	93.44
442.264	86.44
442.486	86.44
442.707	91.44
442.928	95.44
443.149	88.44
443.371	98.44
443.592	89.44
443.813	89.44
444.034	101.44
444.255	90.44
444.476	98.44
444.698	102.44
444.919	98.44
445.14	235.44
445.361	153.44
445.582	99.44
445.803	99.44
446.024	95.44
446.245	93.44
446.466	96.44
446.687	96.44
446.908	118.44
447.129	95.44
447.35	101.44
447.571	105.44
447.792	89.44
448.013	86.44
448.234	96.44
448.455	98.44
448.675	84.44
448.896	88.44
449.117	105.44
449.338	98.44
449.559	96.44
449.779	82.44
450	99.44
450.221	98.44
450.442	97.44
450.662	83.44
450.883	98.44
451.104	91.44
451.324	84.44
451.545	92.44
451.766	93.44
451.986	86.44
452.207	99.44
452.428	82.44
452.648	87.44
452.869	86.44
453.089	94.44
453.31	88.44
453.53	96.44
453.751	84.44
453.971	92.44
454.192	80.44
454.412	81.44
454.633	90.44
454.853	83.44
455.073	93.44
455.294	93.44
455.514	99.44
455.734	100.44
455.955	86.44
456.175	105.44
456.395	96.44
456.616	83.44
456.836	84.44
457.056	81.44
457.276	95.44
457.497	83.44
457.717	92.44
457.937	97.44
458.157	90.44
458.377	80.44
458.598	91.44
458.818	102.44
459.038	103.44
459.258	89.44
459.478	102.44
459.698	99.44
459.918	94.44
460.138	92.44
460.358	92.44
460.578	92.44
460.798	90.44
461.018	84.44
461.238	98.44
461.458	94.44
461.678	91.44
461.898	105.44
462.118	87.44
462.338	103.44
462.558	96.44
462.777	96.44
462.997	97.44
463.217	90.44
463.437	102.44
463.657	102.44
463.876	88.44
464.096	100.44
464.316	92.44
464.536	92.44
464.755	109.44
464.975	89.44
465.195	91.44
465.414	107.44
465.634	101.44
465.854	90.44
466.073	87.44
466.293	93.44
466.512	91.44
466.732	103.44
466.951	107.44
467.171	105.44
467.391	114.44
467.61	100.44
467.829	94.44
468.049	94.44
468.268	96.44
468.488	108.44
468.707	93.44
468.927	99.44
469.146	85.44
469.365	98.44
469.585	95.44
469.804	92.44
470.023	94.44
470.243	113.44
470.462	100.44
470.681	99.44
470.901	106.44
471.12	112.44
471.339	93.44
471.558	106.44
471.777	99.44
471.997	91.44
472.216	96.44
472.435	103.44
472.654	95.44
472.873	101.44
473.092	98.44
473.311	96.44
473.53	93.44
473.749	97.44
473.968	89.44
474.187	88.44
474.406	95.44
474.625	86.44
474.844	96.44
475.063	96.44
475.282	99.44
475.501	98.44
475.72	84.44
475.939	93.44
476.158	94.44
476.377	87.44
476.596	90.44
476.814	99.44
477.033	106.44
477.252	116.44
477.471	105.44
477.69	89.44
477.908	94.44
478.127	104.44
478.346	98.44
478.564	101.44
478.783	92.44
479.002	102.44
479.22	97.44
479.439	87.44
479.658	94.44
479.876	97.44
480.095	100.44
480.313	93.44
480.532	98.44
480.751	106.44
480.969	99.44
481.188	109.44
481.406	100.44
481.624	87.44
481.843	93.44
482.061	114.44
482.28	105.44
482.498	101.44
482.717	94.44
482.935	99.44
483.153	93.44
483.372	104.44
483.59	101.44
483.808	97.44
484.027	98.44
484.245	83.44
484.463	101.44
484.681	114.44
484.9	92.44
485.118	106.44
485.336	88.44
485.554	103.44
485.772	101.44
485.99	99.44
486.209	96.44
486.427	91.44
486.645	90.44
486.863	100.44
487.081	87.44
487.299	105.44
487.517	106.44
487.735	102.44
487.953	105.44
488.171	104.44
488.389	100.44
488.607	89.44
488.825	110.44
489.043	95.44
489.261	106.44
489.479	94.44
489.696	106.44
489.914	113.44
490.132	96.44
490.35	110.44
490.568	106.44
490.786	117.44
491.003	101.44
491.221	112.44
491.439	114.44
491.657	120.44
491.874	107.44
492.092	120.44
492.31	119.44
492.527	96.44
492.745	106.44
492.963	114.44
493.18	122.44
493.398	104.44
493.615	114.44
493.833	105.44
494.05	109.44
494.268	94.44
494.485	116.44
494.703	116.44
494.92	117.44
495.138	109.44
495.355	116.44
495.573	114.44
495.79	102.44
496.008	109.44
496.225	115.44
496.442	115.44
496.66	121.44
496.877	113.44
497.094	101.44
497.312	113.44
497.529	108.44
497.746	112.44
497.963	116.44
498.181	93.44
498.398	111.44
498.615	116.44
498.832	100.44
499.049	122.44
499.267	114.44
499.484	136.44
499.701	115.44
499.918	142.44
500.135	136.44
500.352	140.44
500.569	131.44
500.786	154.44
501.003	137.44
501.22	124.44
501.437	119.44
501.654	113.44
501.871	119.44
502.088	109.44
502.305	120.44
502.522	118.44
502.739	117.44
502.956	109.44
503.172	119.44
503.389	107.44
503.606	101.44
503.823	97.44
504.04	97.44
504.256	119.44
504.473	120.44
504.69	102.44
504.907	116.44
505.123	100.44
505.34	90.44
505.557	103.44
505.773	105.44
505.99	107.44
506.207	120.44
506.423	103.44
506.64	108.44
506.856	105.44
507.073	104.44
507.289	97.44
507.506	98.44
507.722	94.44
507.939	112.44
508.155	100.44
508.372	110.44
508.588	101.44
508.805	103.44
509.021	99.44
509.238	96.44
509.454	105.44
509.67	89.44
509.887	107.44
510.103	99.44
510.319	101.44
510.536	103.44
510.752	98.44
510.968	100.44
511.184	99.44
511.401	99.44
511.617	108.44
511.833	98.44
512.049	95.44
512.265	101.44
512.481	105.44
512.698	105.44
512.914	101.44
513.13	86.44
513.346	96.44
513.562	100.44
513.778	107.44
513.994	105.44
514.21	107.44
514.426	109.44
514.642	102.44
