Data from Location5.07152019.Energy5.Lamp.07192019.3%Agarose_HRD10591_15-38-17-388.txt Node
Date: Fri Jul 19 15:38:17 EDT 2019
User: cochatt
Spectrometer: HR+D1059
Trigger mode: 1
Integration Time (sec): 1.000000E-1
Scans to average: 1
Electric dark correction enabled: true
Nonlinearity correction enabled: false
Boxcar width: 0
XAxis mode: Wavelengths
Number of Pixels in Spectrum: 2048
>>>>>Begin Spectral Data<<<<<
223.165	0.62
223.4	0.62
223.635	0.62
223.869	-28.38
224.104	-14.38
224.338	1.62
224.573	-20.38
224.808	-1.38
225.042	-4.38
225.277	0.62
225.511	-1.38
225.746	3.62
225.98	0.62
226.215	2.62
226.449	6.62
226.683	11.62
226.918	11.62
227.152	30.62
227.387	41.62
227.621	28.62
227.856	49.62
228.09	32.62
228.324	30.62
228.559	60.62
228.793	70.62
229.027	63.62
229.262	52.62
229.496	79.62
229.73	69.62
229.964	82.62
230.199	78.62
230.433	63.62
230.667	68.62
230.901	91.62
231.136	81.62
231.37	76.62
231.604	80.62
231.838	84.62
232.072	76.62
232.306	89.62
232.541	81.62
232.775	80.62
233.009	76.62
233.243	69.62
233.477	91.62
233.711	82.62
233.945	87.62
234.179	84.62
234.413	89.62
234.647	79.62
234.881	86.62
235.115	72.62
235.349	80.62
235.583	83.62
235.817	91.62
236.051	79.62
236.285	77.62
236.519	77.62
236.753	76.62
236.987	90.62
237.221	69.62
237.455	86.62
237.689	83.62
237.922	76.62
238.156	50.62
238.39	79.62
238.624	73.62
238.858	70.62
239.091	75.62
239.325	70.62
239.559	78.62
239.793	72.62
240.027	71.62
240.26	64.62
240.494	86.62
240.728	57.62
240.961	52.62
241.195	74.62
241.429	72.62
241.662	79.62
241.896	78.62
242.13	65.62
242.363	85.62
242.597	82.62
242.83	74.62
243.064	70.62
243.298	58.62
243.531	74.62
243.765	73.62
243.998	79.62
244.232	69.62
244.465	73.62
244.699	87.62
244.932	79.62
245.166	70.62
245.399	70.62
245.633	81.62
245.866	60.62
246.099	85.62
246.333	76.62
246.566	98.62
246.8	75.62
247.033	80.62
247.266	71.62
247.5	75.62
247.733	74.62
247.966	83.62
248.2	86.62
248.433	71.62
248.666	82.62
248.899	80.62
249.133	79.62
249.366	87.62
249.599	80.62
249.832	88.62
250.066	74.62
250.299	75.62
250.532	81.62
250.765	70.62
250.998	89.62
251.231	83.62
251.465	79.62
251.698	90.62
251.931	82.62
252.164	85.62
252.397	72.62
252.63	81.62
252.863	89.62
253.096	63.62
253.329	84.62
253.562	76.62
253.795	80.62
254.028	82.62
254.261	74.62
254.494	74.62
254.727	80.62
254.96	85.62
255.193	81.62
255.426	77.62
255.659	85.62
255.892	74.62
256.124	82.62
256.357	68.62
256.59	83.62
256.823	78.62
257.056	77.62
257.289	81.62
257.521	81.62
257.754	83.62
257.987	77.62
258.22	94.62
258.452	78.62
258.685	82.62
258.918	77.62
259.151	87.62
259.383	88.62
259.616	89.62
259.849	86.62
260.081	83.62
260.314	88.62
260.547	82.62
260.779	77.62
261.012	78.62
261.244	86.62
261.477	77.62
261.71	86.62
261.942	82.62
262.175	82.62
262.407	84.62
262.64	68.62
262.872	88.62
263.105	84.62
263.337	88.62
263.57	76.62
263.802	74.62
264.035	87.62
264.267	88.62
264.499	76.62
264.732	71.62
264.964	76.62
265.197	81.62
265.429	84.62
265.661	91.62
265.894	86.62
266.126	74.62
266.358	86.62
266.591	83.62
266.823	90.62
267.055	81.62
267.287	97.62
267.52	75.62
267.752	83.62
267.984	76.62
268.216	86.62
268.448	86.62
268.681	71.62
268.913	82.62
269.145	87.62
269.377	88.62
269.609	83.62
269.841	82.62
270.073	66.62
270.306	76.62
270.538	78.62
270.77	76.62
271.002	85.62
271.234	85.62
271.466	92.62
271.698	74.62
271.93	71.62
272.162	91.62
272.394	86.62
272.626	75.62
272.858	75.62
273.09	82.62
273.322	84.62
273.553	80.62
273.785	103.62
274.017	82.62
274.249	100.62
274.481	83.62
274.713	84.62
274.945	75.62
275.176	85.62
275.408	74.62
275.64	70.62
275.872	91.62
276.104	75.62
276.335	84.62
276.567	86.62
276.799	87.62
277.031	66.62
277.262	74.62
277.494	75.62
277.726	87.62
277.957	89.62
278.189	91.62
278.421	86.62
278.652	74.62
278.884	85.62
279.115	85.62
279.347	80.62
279.579	75.62
279.81	70.62
280.042	75.62
280.273	81.62
280.505	80.62
280.736	82.62
280.968	74.62
281.199	87.62
281.431	80.62
281.662	78.62
281.894	87.62
282.125	80.62
282.356	82.62
282.588	85.62
282.819	71.62
283.051	80.62
283.282	91.62
283.513	89.62
283.745	97.62
283.976	102.62
284.207	90.62
284.439	84.62
284.67	86.62
284.901	90.62
285.132	83.62
285.364	89.62
285.595	76.62
285.826	71.62
286.057	67.62
286.288	87.62
286.52	84.62
286.751	85.62
286.982	84.62
287.213	83.62
287.444	88.62
287.675	87.62
287.906	90.62
288.138	103.62
288.369	72.62
288.6	88.62
288.831	82.62
289.062	85.62
289.293	81.62
289.524	78.62
289.755	87.62
289.986	88.62
290.217	91.62
290.448	86.62
290.679	81.62
290.91	82.62
291.141	85.62
291.371	89.62
291.602	90.62
291.833	89.62
292.064	72.62
292.295	89.62
292.526	93.62
292.757	84.62
292.987	74.62
293.218	73.62
293.449	78.62
293.68	98.62
293.91	94.62
294.141	96.62
294.372	89.62
294.603	74.62
294.833	89.62
295.064	100.62
295.295	100.62
295.525	91.62
295.756	97.62
295.987	75.62
296.217	69.62
296.448	98.62
296.679	90.62
296.909	76.62
297.14	73.62
297.37	79.62
297.601	92.62
297.831	81.62
298.062	90.62
298.292	86.62
298.523	77.62
298.753	75.62
298.984	83.62
299.214	84.62
299.445	77.62
299.675	84.62
299.905	79.62
300.136	87.62
300.366	85.62
300.597	77.62
300.827	97.62
301.057	79.62
301.288	75.62
301.518	80.62
301.748	90.62
301.979	88.62
302.209	82.62
302.439	82.62
302.669	70.62
302.9	78.62
303.13	79.62
303.36	81.62
303.59	86.62
303.82	79.62
304.051	73.62
304.281	93.62
304.511	89.62
304.741	89.62
304.971	78.62
305.201	82.62
305.431	88.62
305.661	76.62
305.891	79.62
306.121	87.62
306.352	85.62
306.582	88.62
306.812	76.62
307.042	80.62
307.272	76.62
307.502	99.62
307.731	64.62
307.961	79.62
308.191	89.62
308.421	90.62
308.651	70.62
308.881	84.62
309.111	69.62
309.341	90.62
309.571	83.62
309.8	86.62
310.03	97.62
310.26	84.62
310.49	92.62
310.72	84.62
310.949	91.62
311.179	63.62
311.409	87.62
311.639	92.62
311.868	73.62
312.098	82.62
312.328	87.62
312.557	86.62
312.787	99.62
313.017	88.62
313.246	83.62
313.476	91.62
313.706	80.62
313.935	82.62
314.165	78.62
314.394	82.62
314.624	82.62
314.853	81.62
315.083	85.62
315.312	89.62
315.542	80.62
315.771	65.62
316.001	85.62
316.23	100.62
316.46	92.62
316.689	66.62
316.919	91.62
317.148	90.62
317.377	78.62
317.607	97.62
317.836	95.62
318.065	80.62
318.295	82.62
318.524	61.62
318.753	74.62
318.983	87.62
319.212	94.62
319.441	80.62
319.67	100.62
319.9	92.62
320.129	86.62
320.358	88.62
320.587	85.62
320.816	82.62
321.046	92.62
321.275	77.62
321.504	78.62
321.733	85.62
321.962	81.62
322.191	81.62
322.42	74.62
322.649	79.62
322.878	103.62
323.108	80.62
323.337	90.62
323.566	84.62
323.795	90.62
324.024	97.62
324.253	84.62
324.482	74.62
324.71	93.62
324.939	68.62
325.168	69.62
325.397	91.62
325.626	73.62
325.855	82.62
326.084	79.62
326.313	89.62
326.542	74.62
326.77	86.62
326.999	93.62
327.228	92.62
327.457	92.62
327.686	82.62
327.914	87.62
328.143	88.62
328.372	105.62
328.6	73.62
328.829	76.62
329.058	90.62
329.287	99.62
329.515	80.62
329.744	89.62
329.972	77.62
330.201	76.62
330.43	76.62
330.658	83.62
330.887	84.62
331.115	92.62
331.344	82.62
331.572	90.62
331.801	79.62
332.03	73.62
332.258	78.62
332.486	79.62
332.715	81.62
332.943	80.62
333.172	104.62
333.4	109.62
333.629	86.62
333.857	87.62
334.085	97.62
334.314	75.62
334.542	89.62
334.771	94.62
334.999	70.62
335.227	75.62
335.455	80.62
335.684	97.62
335.912	95.62
336.14	86.62
336.369	71.62
336.597	92.62
336.825	82.62
337.053	88.62
337.281	89.62
337.51	75.62
337.738	94.62
337.966	92.62
338.194	87.62
338.422	96.62
338.65	93.62
338.878	76.62
339.106	86.62
339.334	89.62
339.562	81.62
339.79	85.62
340.018	85.62
340.246	91.62
340.474	98.62
340.702	91.62
340.93	80.62
341.158	85.62
341.386	85.62
341.614	63.62
341.842	94.62
342.07	75.62
342.298	74.62
342.526	81.62
342.754	68.62
342.981	82.62
343.209	88.62
343.437	84.62
343.665	85.62
343.893	81.62
344.12	84.62
344.348	74.62
344.576	82.62
344.804	83.62
345.031	90.62
345.259	91.62
345.487	90.62
345.714	82.62
345.942	76.62
346.17	81.62
346.397	78.62
346.625	90.62
346.853	83.62
347.08	83.62
347.308	80.62
347.535	92.62
347.763	88.62
347.99	89.62
348.218	98.62
348.445	85.62
348.673	73.62
348.9	93.62
349.128	95.62
349.355	84.62
349.583	80.62
349.81	92.62
350.037	87.62
350.265	74.62
350.492	82.62
350.72	82.62
350.947	89.62
351.174	76.62
351.402	94.62
351.629	81.62
351.856	87.62
352.083	92.62
352.311	78.62
352.538	71.62
352.765	74.62
352.992	75.62
353.22	95.62
353.447	97.62
353.674	81.62
353.901	90.62
354.128	88.62
354.355	107.62
354.583	95.62
354.81	83.62
355.037	73.62
355.264	80.62
355.491	84.62
355.718	92.62
355.945	84.62
356.172	81.62
356.399	73.62
356.626	89.62
356.853	82.62
357.08	82.62
357.307	80.62
357.534	81.62
357.761	73.62
357.988	71.62
358.215	92.62
358.441	82.62
358.668	84.62
358.895	89.62
359.122	98.62
359.349	81.62
359.576	88.62
359.802	91.62
360.029	90.62
360.256	76.62
360.483	83.62
360.709	90.62
360.936	95.62
361.163	85.62
361.39	81.62
361.616	64.62
361.843	91.62
362.07	95.62
362.296	82.62
362.523	94.62
362.749	80.62
362.976	98.62
363.203	85.62
363.429	83.62
363.656	83.62
363.882	91.62
364.109	99.62
364.335	101.62
364.562	93.62
364.788	81.62
365.015	85.62
365.241	85.62
365.468	82.62
365.694	84.62
365.92	87.62
366.147	72.62
366.373	80.62
366.599	99.62
366.826	80.62
367.052	82.62
367.278	78.62
367.505	76.62
367.731	72.62
367.957	87.62
368.184	71.62
368.41	77.62
368.636	86.62
368.862	89.62
369.089	90.62
369.315	92.62
369.541	85.62
369.767	87.62
369.993	82.62
370.219	74.62
370.445	90.62
370.672	83.62
370.898	104.62
371.124	75.62
371.35	82.62
371.576	84.62
371.802	93.62
372.028	87.62
372.254	73.62
372.48	97.62
372.706	75.62
372.932	88.62
373.158	87.62
373.384	89.62
373.61	93.62
373.835	103.62
374.061	84.62
374.287	95.62
374.513	89.62
374.739	92.62
374.965	84.62
375.191	66.62
375.416	86.62
375.642	88.62
375.868	73.62
376.094	74.62
376.319	92.62
376.545	96.62
376.771	87.62
376.997	85.62
377.222	89.62
377.448	83.62
377.674	88.62
377.899	78.62
378.125	92.62
378.35	90.62
378.576	81.62
378.802	83.62
379.027	99.62
379.253	83.62
379.478	83.62
379.704	84.62
379.929	87.62
380.155	90.62
380.38	82.62
380.606	92.62
380.831	96.62
381.057	103.62
381.282	84.62
381.507	87.62
381.733	92.62
381.958	91.62
382.184	80.62
382.409	78.62
382.634	87.62
382.86	87.62
383.085	83.62
383.31	89.62
383.535	84.62
383.761	87.62
383.986	93.62
384.211	82.62
384.436	91.62
384.662	84.62
384.887	73.62
385.112	70.62
385.337	93.62
385.562	89.62
385.787	82.62
386.013	86.62
386.238	89.62
386.463	90.62
386.688	74.62
386.913	77.62
387.138	95.62
387.363	87.62
387.588	93.62
387.813	65.62
388.038	91.62
388.263	81.62
388.488	87.62
388.713	87.62
388.938	87.62
389.163	88.62
389.387	86.62
389.612	73.62
389.837	85.62
390.062	88.62
390.287	87.62
390.512	74.62
390.736	88.62
390.961	88.62
391.186	77.62
391.411	83.62
391.636	77.62
391.86	94.62
392.085	87.62
392.31	100.62
392.534	94.62
392.759	61.62
392.984	72.62
393.208	82.62
393.433	104.62
393.658	83.62
393.882	88.62
394.107	87.62
394.331	98.62
394.556	82.62
394.78	77.62
395.005	86.62
395.229	84.62
395.454	82.62
395.678	84.62
395.903	97.62
396.127	99.62
396.352	90.62
396.576	89.62
396.801	101.62
397.025	96.62
397.249	87.62
397.474	87.62
397.698	107.62
397.922	98.62
398.147	89.62
398.371	86.62
398.595	76.62
398.82	97.62
399.044	78.62
399.268	85.62
399.492	101.62
399.717	82.62
399.941	92.62
400.165	91.62
400.389	76.62
400.613	80.62
400.837	90.62
401.062	98.62
401.286	78.62
401.51	80.62
401.734	75.62
401.958	104.62
402.182	95.62
402.406	84.62
402.63	90.62
402.854	84.62
403.078	79.62
403.302	87.62
403.526	95.62
403.75	87.62
403.974	95.62
404.198	110.62
404.422	95.62
404.645	91.62
404.869	96.62
405.093	93.62
405.317	82.62
405.541	106.62
405.765	96.62
405.988	91.62
406.212	87.62
406.436	80.62
406.66	82.62
406.883	85.62
407.107	95.62
407.331	89.62
407.555	98.62
407.778	86.62
408.002	91.62
408.226	83.62
408.449	94.62
408.673	79.62
408.896	89.62
409.12	100.62
409.344	81.62
409.567	95.62
409.791	81.62
410.014	96.62
410.238	83.62
410.461	90.62
410.685	84.62
410.908	84.62
411.132	77.62
411.355	102.62
411.578	89.62
411.802	95.62
412.025	90.62
412.249	103.62
412.472	73.62
412.695	96.62
412.919	97.62
413.142	91.62
413.365	77.62
413.589	88.62
413.812	97.62
414.035	94.62
414.258	86.62
414.482	94.62
414.705	83.62
414.928	103.62
415.151	99.62
415.374	91.62
415.597	99.62
415.821	91.62
416.044	86.62
416.267	91.62
416.49	82.62
416.713	86.62
416.936	91.62
417.159	86.62
417.382	102.62
417.605	80.62
417.828	85.62
418.051	104.62
418.274	96.62
418.497	88.62
418.72	90.62
418.943	93.62
419.166	94.62
419.389	96.62
419.611	80.62
419.834	97.62
420.057	107.62
420.28	94.62
420.503	93.62
420.726	90.62
420.948	96.62
421.171	80.62
421.394	90.62
421.617	96.62
421.839	102.62
422.062	107.62
422.285	87.62
422.507	106.62
422.73	89.62
422.953	89.62
423.175	81.62
423.398	103.62
423.621	95.62
423.843	97.62
424.066	96.62
424.288	100.62
424.511	88.62
424.733	97.62
424.956	92.62
425.178	94.62
425.401	98.62
425.623	106.62
425.846	97.62
426.068	80.62
426.291	84.62
426.513	86.62
426.735	85.62
426.958	112.62
427.18	83.62
427.402	104.62
427.625	100.62
427.847	87.62
428.069	90.62
428.292	92.62
428.514	96.62
428.736	78.62
428.958	90.62
429.181	82.62
429.403	91.62
429.625	90.62
429.847	93.62
430.069	93.62
430.292	95.62
430.514	102.62
430.736	91.62
430.958	85.62
431.18	102.62
431.402	95.62
431.624	90.62
431.846	97.62
432.068	74.62
432.29	79.62
432.512	87.62
432.734	90.62
432.956	85.62
433.178	87.62
433.4	100.62
433.622	104.62
433.844	89.62
434.066	88.62
434.287	80.62
434.509	85.62
434.731	99.62
434.953	74.62
435.175	88.62
435.397	91.62
435.618	96.62
435.84	93.62
436.062	91.62
436.284	83.62
436.505	89.62
436.727	85.62
436.949	95.62
437.17	88.62
437.392	98.62
437.614	97.62
437.835	104.62
438.057	77.62
438.278	101.62
438.5	87.62
438.721	102.62
438.943	93.62
439.165	90.62
439.386	82.62
439.608	97.62
439.829	109.62
440.05	113.62
440.272	93.62
440.493	92.62
440.715	92.62
440.936	98.62
441.158	86.62
441.379	100.62
441.6	94.62
441.822	100.62
442.043	104.62
442.264	101.62
442.486	93.62
442.707	97.62
442.928	105.62
443.149	102.62
443.371	99.62
443.592	114.62
443.813	105.62
444.034	94.62
444.255	98.62
444.476	91.62
444.698	96.62
444.919	103.62
445.14	234.62
445.361	155.62
445.582	108.62
445.803	81.62
446.024	114.62
446.245	92.62
446.466	98.62
446.687	89.62
446.908	98.62
447.129	101.62
447.35	95.62
447.571	93.62
447.792	88.62
448.013	98.62
448.234	83.62
448.455	99.62
448.675	86.62
448.896	87.62
449.117	101.62
449.338	93.62
449.559	105.62
449.779	103.62
450	105.62
450.221	97.62
450.442	88.62
450.662	83.62
450.883	109.62
451.104	99.62
451.324	98.62
451.545	85.62
451.766	85.62
451.986	97.62
452.207	83.62
452.428	93.62
452.648	84.62
452.869	91.62
453.089	83.62
453.31	94.62
453.53	103.62
453.751	88.62
453.971	87.62
454.192	95.62
454.412	75.62
454.633	100.62
454.853	99.62
455.073	93.62
455.294	93.62
455.514	95.62
455.734	102.62
455.955	95.62
456.175	82.62
456.395	78.62
456.616	79.62
456.836	99.62
457.056	78.62
457.276	82.62
457.497	88.62
457.717	87.62
457.937	91.62
458.157	88.62
458.377	99.62
458.598	80.62
458.818	90.62
459.038	87.62
459.258	88.62
459.478	84.62
459.698	84.62
459.918	91.62
460.138	82.62
460.358	74.62
460.578	89.62
460.798	88.62
461.018	90.62
461.238	107.62
461.458	93.62
461.678	88.62
461.898	86.62
462.118	94.62
462.338	94.62
462.558	83.62
462.777	92.62
462.997	82.62
463.217	86.62
463.437	78.62
463.657	84.62
463.876	94.62
464.096	92.62
464.316	84.62
464.536	101.62
464.755	82.62
464.975	87.62
465.195	85.62
465.414	83.62
465.634	90.62
465.854	95.62
466.073	98.62
466.293	99.62
466.512	94.62
466.732	97.62
466.951	87.62
467.171	110.62
467.391	90.62
467.61	81.62
467.829	98.62
468.049	96.62
468.268	98.62
468.488	101.62
468.707	81.62
468.927	98.62
469.146	85.62
469.365	97.62
469.585	90.62
469.804	95.62
470.023	95.62
470.243	99.62
470.462	115.62
470.681	97.62
470.901	101.62
471.12	79.62
471.339	86.62
471.558	94.62
471.777	82.62
471.997	94.62
472.216	100.62
472.435	91.62
472.654	83.62
472.873	90.62
473.092	94.62
473.311	98.62
473.53	97.62
473.749	90.62
473.968	91.62
474.187	93.62
474.406	96.62
474.625	103.62
474.844	107.62
475.063	87.62
475.282	88.62
475.501	90.62
475.72	93.62
475.939	97.62
476.158	95.62
476.377	91.62
476.596	88.62
476.814	88.62
477.033	81.62
477.252	87.62
477.471	94.62
477.69	108.62
477.908	84.62
478.127	96.62
478.346	95.62
478.564	87.62
478.783	92.62
479.002	106.62
479.22	114.62
479.439	91.62
479.658	89.62
479.876	82.62
480.095	76.62
480.313	97.62
480.532	91.62
480.751	86.62
480.969	84.62
481.188	93.62
481.406	96.62
481.624	92.62
481.843	82.62
482.061	87.62
482.28	90.62
482.498	90.62
482.717	85.62
482.935	80.62
483.153	114.62
483.372	105.62
483.59	99.62
483.808	100.62
484.027	107.62
484.245	88.62
484.463	95.62
484.681	106.62
484.9	93.62
485.118	86.62
485.336	80.62
485.554	112.62
485.772	95.62
485.99	80.62
486.209	81.62
486.427	90.62
486.645	83.62
486.863	93.62
487.081	98.62
487.299	111.62
487.517	94.62
487.735	107.62
487.953	96.62
488.171	102.62
488.389	116.62
488.607	101.62
488.825	102.62
489.043	100.62
489.261	87.62
489.479	99.62
489.696	95.62
489.914	122.62
490.132	99.62
490.35	111.62
490.568	98.62
490.786	104.62
491.003	107.62
491.221	101.62
491.439	119.62
491.657	109.62
491.874	118.62
492.092	127.62
492.31	126.62
492.527	121.62
492.745	107.62
492.963	114.62
493.18	123.62
493.398	112.62
493.615	109.62
493.833	105.62
494.05	107.62
494.268	102.62
494.485	104.62
494.703	112.62
494.92	115.62
495.138	102.62
495.355	107.62
495.573	97.62
495.79	92.62
496.008	110.62
496.225	110.62
496.442	104.62
496.66	126.62
496.877	114.62
497.094	103.62
497.312	106.62
497.529	93.62
497.746	102.62
497.963	101.62
498.181	100.62
498.398	105.62
498.615	87.62
498.832	94.62
499.049	88.62
499.267	96.62
499.484	71.62
499.701	97.62
499.918	92.62
500.135	80.62
500.352	103.62
500.569	87.62
500.786	95.62
501.003	89.62
501.22	90.62
501.437	89.62
501.654	91.62
501.871	78.62
502.088	89.62
502.305	91.62
502.522	98.62
502.739	97.62
502.956	101.62
503.172	83.62
503.389	94.62
503.606	94.62
503.823	93.62
504.04	96.62
504.256	85.62
504.473	86.62
504.69	94.62
504.907	95.62
505.123	99.62
505.34	97.62
505.557	100.62
505.773	91.62
505.99	79.62
506.207	82.62
506.423	88.62
506.64	83.62
506.856	85.62
507.073	88.62
507.289	95.62
507.506	95.62
507.722	84.62
507.939	92.62
508.155	90.62
508.372	75.62
508.588	103.62
508.805	105.62
509.021	99.62
509.238	98.62
509.454	89.62
509.67	100.62
509.887	87.62
510.103	66.62
510.319	85.62
510.536	76.62
510.752	80.62
510.968	80.62
511.184	83.62
511.401	68.62
511.617	98.62
511.833	83.62
512.049	96.62
512.265	78.62
512.481	77.62
512.698	95.62
512.914	84.62
513.13	77.62
513.346	88.62
513.562	102.62
513.778	74.62
513.994	88.62
514.21	96.62
514.426	92.62
514.642	97.62
514.858	87.62
515.074	82.62
515.29	90.62
515.506	82.62
515.721	71.62
515.937	87.62
516.153	88.62
516.369	83.62
516.585	75.62
516.801	86.62
517.016	73.62
517.232	87.62
517.448	87.62
517.664	85.62
