Data from Location5.07152019.Energy5.Lamp.07192019.3%Agarose_HRD10591_15-38-39-389.txt Node
Date: Fri Jul 19 15:38:39 EDT 2019
User: cochatt
Spectrometer: HR+D1059
Trigger mode: 1
Integration Time (sec): 1.000000E-1
Scans to average: 1
Electric dark correction enabled: true
Nonlinearity correction enabled: false
Boxcar width: 0
XAxis mode: Wavelengths
Number of Pixels in Spectrum: 2048
>>>>>Begin Spectral Data<<<<<
223.165	-2.75
223.4	-2.75
223.635	-2.75
223.869	-9.75
224.104	-18.75
224.338	-3.75
224.573	-6.75
224.808	-15.75
225.042	-8.75
225.277	-10.75
225.511	-3.75
225.746	-2.75
225.98	-7.75
226.215	-2.75
226.449	16.25
226.683	31.25
226.918	32.25
227.152	14.25
227.387	34.25
227.621	40.25
227.856	42.25
228.09	57.25
228.324	61.25
228.559	60.25
228.793	58.25
229.027	63.25
229.262	73.25
229.496	66.25
229.73	65.25
229.964	75.25
230.199	73.25
230.433	89.25
230.667	77.25
230.901	86.25
231.136	81.25
231.37	82.25
231.604	74.25
231.838	71.25
232.072	91.25
232.306	83.25
232.541	101.25
232.775	71.25
233.009	82.25
233.243	86.25
233.477	97.25
233.711	85.25
233.945	84.25
234.179	94.25
234.413	85.25
234.647	77.25
234.881	106.25
235.115	75.25
235.349	85.25
235.583	87.25
235.817	92.25
236.051	75.25
236.285	74.25
236.519	88.25
236.753	76.25
236.987	83.25
237.221	90.25
237.455	77.25
237.689	83.25
237.922	78.25
238.156	76.25
238.39	68.25
238.624	85.25
238.858	91.25
239.091	81.25
239.325	63.25
239.559	85.25
239.793	83.25
240.027	78.25
240.26	83.25
240.494	93.25
240.728	73.25
240.961	80.25
241.195	82.25
241.429	72.25
241.662	74.25
241.896	60.25
242.13	77.25
242.363	69.25
242.597	88.25
242.83	88.25
243.064	78.25
243.298	78.25
243.531	90.25
243.765	96.25
243.998	79.25
244.232	98.25
244.465	83.25
244.699	72.25
244.932	93.25
245.166	93.25
245.399	74.25
245.633	79.25
245.866	88.25
246.099	87.25
246.333	82.25
246.566	81.25
246.8	70.25
247.033	66.25
247.266	75.25
247.5	78.25
247.733	73.25
247.966	82.25
248.2	69.25
248.433	77.25
248.666	75.25
248.899	84.25
249.133	90.25
249.366	85.25
249.599	93.25
249.832	94.25
250.066	87.25
250.299	89.25
250.532	76.25
250.765	93.25
250.998	91.25
251.231	70.25
251.465	78.25
251.698	80.25
251.931	91.25
252.164	79.25
252.397	90.25
252.63	83.25
252.863	74.25
253.096	76.25
253.329	68.25
253.562	80.25
253.795	77.25
254.028	77.25
254.261	95.25
254.494	74.25
254.727	76.25
254.96	77.25
255.193	84.25
255.426	92.25
255.659	90.25
255.892	94.25
256.124	86.25
256.357	94.25
256.59	85.25
256.823	89.25
257.056	84.25
257.289	100.25
257.521	78.25
257.754	81.25
257.987	81.25
258.22	79.25
258.452	77.25
258.685	87.25
258.918	83.25
259.151	77.25
259.383	78.25
259.616	81.25
259.849	76.25
260.081	80.25
260.314	78.25
260.547	64.25
260.779	80.25
261.012	82.25
261.244	86.25
261.477	83.25
261.71	80.25
261.942	79.25
262.175	89.25
262.407	81.25
262.64	92.25
262.872	86.25
263.105	80.25
263.337	84.25
263.57	85.25
263.802	87.25
264.035	79.25
264.267	91.25
264.499	85.25
264.732	75.25
264.964	85.25
265.197	81.25
265.429	77.25
265.661	86.25
265.894	70.25
266.126	78.25
266.358	91.25
266.591	89.25
266.823	88.25
267.055	97.25
267.287	89.25
267.52	92.25
267.752	100.25
267.984	75.25
268.216	96.25
268.448	87.25
268.681	83.25
268.913	95.25
269.145	78.25
269.377	77.25
269.609	71.25
269.841	80.25
270.073	72.25
270.306	83.25
270.538	78.25
270.77	78.25
271.002	78.25
271.234	81.25
271.466	90.25
271.698	97.25
271.93	94.25
272.162	80.25
272.394	81.25
272.626	93.25
272.858	67.25
273.09	81.25
273.322	77.25
273.553	97.25
273.785	81.25
274.017	89.25
274.249	68.25
274.481	80.25
274.713	73.25
274.945	79.25
275.176	84.25
275.408	88.25
275.64	81.25
275.872	85.25
276.104	90.25
276.335	88.25
276.567	81.25
276.799	89.25
277.031	79.25
277.262	85.25
277.494	85.25
277.726	77.25
277.957	97.25
278.189	74.25
278.421	74.25
278.652	81.25
278.884	92.25
279.115	84.25
279.347	91.25
279.579	84.25
279.81	89.25
280.042	85.25
280.273	80.25
280.505	78.25
280.736	71.25
280.968	98.25
281.199	82.25
281.431	72.25
281.662	97.25
281.894	85.25
282.125	85.25
282.356	89.25
282.588	78.25
282.819	76.25
283.051	83.25
283.282	79.25
283.513	81.25
283.745	88.25
283.976	90.25
284.207	90.25
284.439	80.25
284.67	75.25
284.901	96.25
285.132	76.25
285.364	75.25
285.595	88.25
285.826	82.25
286.057	89.25
286.288	90.25
286.52	88.25
286.751	89.25
286.982	85.25
287.213	85.25
287.444	77.25
287.675	91.25
287.906	87.25
288.138	83.25
288.369	91.25
288.6	88.25
288.831	75.25
289.062	96.25
289.293	99.25
289.524	96.25
289.755	85.25
289.986	88.25
290.217	78.25
290.448	83.25
290.679	99.25
290.91	92.25
291.141	96.25
291.371	82.25
291.602	81.25
291.833	76.25
292.064	83.25
292.295	88.25
292.526	73.25
292.757	87.25
292.987	93.25
293.218	87.25
293.449	89.25
293.68	88.25
293.91	90.25
294.141	94.25
294.372	87.25
294.603	99.25
294.833	80.25
295.064	86.25
295.295	88.25
295.525	85.25
295.756	85.25
295.987	89.25
296.217	83.25
296.448	95.25
296.679	85.25
296.909	75.25
297.14	82.25
297.37	86.25
297.601	99.25
297.831	81.25
298.062	89.25
298.292	87.25
298.523	79.25
298.753	102.25
298.984	77.25
299.214	100.25
299.445	74.25
299.675	91.25
299.905	77.25
300.136	84.25
300.366	79.25
300.597	74.25
300.827	95.25
301.057	91.25
301.288	96.25
301.518	81.25
301.748	77.25
301.979	91.25
302.209	83.25
302.439	74.25
302.669	75.25
302.9	90.25
303.13	70.25
303.36	78.25
303.59	90.25
303.82	90.25
304.051	81.25
304.281	89.25
304.511	92.25
304.741	94.25
304.971	95.25
305.201	82.25
305.431	90.25
305.661	92.25
305.891	75.25
306.121	81.25
306.352	84.25
306.582	79.25
306.812	104.25
307.042	78.25
307.272	84.25
307.502	73.25
307.731	72.25
307.961	90.25
308.191	82.25
308.421	87.25
308.651	76.25
308.881	81.25
309.111	88.25
309.341	79.25
309.571	78.25
309.8	94.25
310.03	97.25
310.26	69.25
310.49	90.25
310.72	75.25
310.949	86.25
311.179	74.25
311.409	82.25
311.639	99.25
311.868	95.25
312.098	77.25
312.328	73.25
312.557	86.25
312.787	101.25
313.017	94.25
313.246	91.25
313.476	80.25
313.706	82.25
313.935	73.25
314.165	88.25
314.394	75.25
314.624	76.25
314.853	94.25
315.083	90.25
315.312	94.25
315.542	80.25
315.771	92.25
316.001	88.25
316.23	92.25
316.46	79.25
316.689	85.25
316.919	84.25
317.148	85.25
317.377	83.25
317.607	104.25
317.836	81.25
318.065	66.25
318.295	86.25
318.524	83.25
318.753	79.25
318.983	83.25
319.212	86.25
319.441	82.25
319.67	87.25
319.9	94.25
320.129	91.25
320.358	89.25
320.587	74.25
320.816	92.25
321.046	83.25
321.275	93.25
321.504	91.25
321.733	78.25
321.962	84.25
322.191	90.25
322.42	87.25
322.649	96.25
322.878	99.25
323.108	86.25
323.337	94.25
323.566	87.25
323.795	74.25
324.024	79.25
324.253	85.25
324.482	97.25
324.71	88.25
324.939	84.25
325.168	89.25
325.397	87.25
325.626	82.25
325.855	90.25
326.084	93.25
326.313	82.25
326.542	82.25
326.77	85.25
326.999	82.25
327.228	72.25
327.457	99.25
327.686	93.25
327.914	82.25
328.143	88.25
328.372	87.25
328.6	75.25
328.829	71.25
329.058	94.25
329.287	79.25
329.515	97.25
329.744	95.25
329.972	94.25
330.201	88.25
330.43	93.25
330.658	95.25
330.887	92.25
331.115	91.25
331.344	80.25
331.572	90.25
331.801	88.25
332.03	100.25
332.258	87.25
332.486	86.25
332.715	91.25
332.943	90.25
333.172	92.25
333.4	81.25
333.629	77.25
333.857	89.25
334.085	80.25
334.314	69.25
334.542	79.25
334.771	80.25
334.999	68.25
335.227	89.25
335.455	99.25
335.684	103.25
335.912	91.25
336.14	77.25
336.369	76.25
336.597	100.25
336.825	83.25
337.053	85.25
337.281	89.25
337.51	67.25
337.738	80.25
337.966	77.25
338.194	84.25
338.422	84.25
338.65	89.25
338.878	84.25
339.106	95.25
339.334	92.25
339.562	83.25
339.79	84.25
340.018	77.25
340.246	80.25
340.474	90.25
340.702	83.25
340.93	88.25
341.158	91.25
341.386	87.25
341.614	101.25
341.842	86.25
342.07	73.25
342.298	85.25
342.526	74.25
342.754	80.25
342.981	97.25
343.209	93.25
343.437	74.25
343.665	90.25
343.893	81.25
344.12	84.25
344.348	83.25
344.576	83.25
344.804	90.25
345.031	78.25
345.259	94.25
345.487	89.25
345.714	87.25
345.942	87.25
346.17	89.25
346.397	101.25
346.625	85.25
346.853	95.25
347.08	78.25
347.308	81.25
347.535	76.25
347.763	74.25
347.99	72.25
348.218	78.25
348.445	92.25
348.673	77.25
348.9	77.25
349.128	94.25
349.355	98.25
349.583	89.25
349.81	84.25
350.037	81.25
350.265	87.25
350.492	86.25
350.72	87.25
350.947	92.25
351.174	86.25
351.402	89.25
351.629	90.25
351.856	92.25
352.083	80.25
352.311	82.25
352.538	75.25
352.765	89.25
352.992	80.25
353.22	66.25
353.447	85.25
353.674	81.25
353.901	96.25
354.128	74.25
354.355	85.25
354.583	95.25
354.81	88.25
355.037	101.25
355.264	80.25
355.491	90.25
355.718	68.25
355.945	87.25
356.172	85.25
356.399	92.25
356.626	86.25
356.853	87.25
357.08	70.25
357.307	92.25
357.534	82.25
357.761	78.25
357.988	89.25
358.215	87.25
358.441	97.25
358.668	89.25
358.895	87.25
359.122	84.25
359.349	78.25
359.576	88.25
359.802	90.25
360.029	84.25
360.256	87.25
360.483	90.25
360.709	86.25
360.936	89.25
361.163	71.25
361.39	75.25
361.616	84.25
361.843	92.25
362.07	75.25
362.296	93.25
362.523	79.25
362.749	98.25
362.976	91.25
363.203	80.25
363.429	79.25
363.656	84.25
363.882	89.25
364.109	86.25
364.335	94.25
364.562	90.25
364.788	98.25
365.015	92.25
365.241	93.25
365.468	75.25
365.694	78.25
365.92	90.25
366.147	79.25
366.373	84.25
366.599	94.25
366.826	80.25
367.052	74.25
367.278	82.25
367.505	88.25
367.731	92.25
367.957	72.25
368.184	73.25
368.41	73.25
368.636	91.25
368.862	67.25
369.089	80.25
369.315	81.25
369.541	105.25
369.767	78.25
369.993	84.25
370.219	85.25
370.445	81.25
370.672	97.25
370.898	86.25
371.124	80.25
371.35	80.25
371.576	88.25
371.802	93.25
372.028	78.25
372.254	81.25
372.48	103.25
372.706	102.25
372.932	88.25
373.158	85.25
373.384	78.25
373.61	95.25
373.835	84.25
374.061	75.25
374.287	84.25
374.513	92.25
374.739	95.25
374.965	78.25
375.191	81.25
375.416	87.25
375.642	85.25
375.868	87.25
376.094	82.25
376.319	85.25
376.545	103.25
376.771	79.25
376.997	86.25
377.222	87.25
377.448	85.25
377.674	82.25
377.899	81.25
378.125	80.25
378.35	83.25
378.576	74.25
378.802	74.25
379.027	84.25
379.253	91.25
379.478	86.25
379.704	93.25
379.929	98.25
380.155	100.25
380.38	87.25
380.606	92.25
380.831	71.25
381.057	87.25
381.282	92.25
381.507	96.25
381.733	77.25
381.958	66.25
382.184	76.25
382.409	89.25
382.634	80.25
382.86	76.25
383.085	84.25
383.31	90.25
383.535	92.25
383.761	93.25
383.986	93.25
384.211	75.25
384.436	75.25
384.662	86.25
384.887	83.25
385.112	73.25
385.337	82.25
385.562	88.25
385.787	82.25
386.013	87.25
386.238	88.25
386.463	90.25
386.688	85.25
386.913	87.25
387.138	86.25
387.363	78.25
387.588	100.25
387.813	82.25
388.038	79.25
388.263	87.25
388.488	100.25
388.713	100.25
388.938	77.25
389.163	95.25
389.387	85.25
389.612	96.25
389.837	82.25
390.062	70.25
390.287	84.25
390.512	81.25
390.736	89.25
390.961	83.25
391.186	91.25
391.411	92.25
391.636	89.25
391.86	90.25
392.085	89.25
392.31	84.25
392.534	89.25
392.759	92.25
392.984	95.25
393.208	86.25
393.433	62.25
393.658	90.25
393.882	75.25
394.107	76.25
394.331	69.25
394.556	93.25
394.78	88.25
395.005	100.25
395.229	89.25
395.454	98.25
395.678	88.25
395.903	89.25
396.127	101.25
396.352	81.25
396.576	81.25
396.801	76.25
397.025	84.25
397.249	89.25
397.474	97.25
397.698	89.25
397.922	100.25
398.147	83.25
398.371	97.25
398.595	93.25
398.82	87.25
399.044	77.25
399.268	102.25
399.492	84.25
399.717	85.25
399.941	77.25
400.165	91.25
400.389	70.25
400.613	85.25
400.837	104.25
401.062	92.25
401.286	94.25
401.51	82.25
401.734	90.25
401.958	83.25
402.182	87.25
402.406	94.25
402.63	84.25
402.854	93.25
403.078	87.25
403.302	86.25
403.526	85.25
403.75	97.25
403.974	87.25
404.198	99.25
404.422	110.25
404.645	89.25
404.869	95.25
405.093	78.25
405.317	75.25
405.541	96.25
405.765	84.25
405.988	87.25
406.212	83.25
406.436	91.25
406.66	101.25
406.883	88.25
407.107	89.25
407.331	94.25
407.555	85.25
407.778	94.25
408.002	97.25
408.226	90.25
408.449	94.25
408.673	82.25
408.896	77.25
409.12	85.25
409.344	73.25
409.567	97.25
409.791	104.25
410.014	93.25
410.238	78.25
410.461	83.25
410.685	98.25
410.908	81.25
411.132	94.25
411.355	78.25
411.578	87.25
411.802	98.25
412.025	96.25
412.249	105.25
412.472	85.25
412.695	97.25
412.919	88.25
413.142	92.25
413.365	89.25
413.589	96.25
413.812	85.25
414.035	94.25
414.258	86.25
414.482	96.25
414.705	86.25
414.928	98.25
415.151	85.25
415.374	80.25
415.597	79.25
415.821	90.25
416.044	94.25
416.267	89.25
416.49	91.25
416.713	102.25
416.936	102.25
417.159	101.25
417.382	84.25
417.605	77.25
417.828	87.25
418.051	75.25
418.274	100.25
418.497	99.25
418.72	106.25
418.943	109.25
419.166	96.25
419.389	78.25
419.611	84.25
419.834	86.25
420.057	98.25
420.28	98.25
420.503	84.25
420.726	106.25
420.948	93.25
421.171	89.25
421.394	90.25
421.617	82.25
421.839	100.25
422.062	91.25
422.285	84.25
422.507	89.25
422.73	92.25
422.953	92.25
423.175	98.25
423.398	101.25
423.621	85.25
423.843	96.25
424.066	85.25
424.288	82.25
424.511	107.25
424.733	108.25
424.956	110.25
425.178	93.25
425.401	94.25
425.623	95.25
425.846	103.25
426.068	88.25
426.291	99.25
426.513	98.25
426.735	88.25
426.958	97.25
427.18	106.25
427.402	97.25
427.625	85.25
427.847	100.25
428.069	89.25
428.292	101.25
428.514	100.25
428.736	82.25
428.958	96.25
429.181	97.25
429.403	101.25
429.625	101.25
429.847	97.25
430.069	101.25
430.292	105.25
430.514	96.25
430.736	73.25
430.958	75.25
431.18	95.25
431.402	82.25
431.624	93.25
431.846	92.25
432.068	89.25
432.29	77.25
432.512	84.25
432.734	93.25
432.956	90.25
433.178	100.25
433.4	82.25
433.622	101.25
433.844	103.25
434.066	98.25
434.287	88.25
434.509	85.25
434.731	76.25
434.953	82.25
435.175	89.25
435.397	82.25
435.618	99.25
435.84	86.25
436.062	93.25
436.284	101.25
436.505	96.25
436.727	99.25
436.949	87.25
437.17	104.25
437.392	86.25
437.614	85.25
437.835	99.25
438.057	97.25
438.278	87.25
438.5	84.25
438.721	97.25
438.943	85.25
439.165	108.25
439.386	103.25
439.608	102.25
439.829	89.25
440.05	94.25
440.272	98.25
440.493	97.25
440.715	92.25
440.936	98.25
441.158	88.25
441.379	97.25
441.6	99.25
441.822	105.25
442.043	85.25
442.264	101.25
442.486	99.25
442.707	94.25
442.928	78.25
443.149	94.25
443.371	101.25
443.592	104.25
443.813	90.25
444.034	88.25
444.255	95.25
444.476	103.25
444.698	98.25
444.919	93.25
445.14	213.25
445.361	151.25
445.582	108.25
445.803	103.25
446.024	95.25
446.245	102.25
446.466	97.25
446.687	99.25
446.908	100.25
447.129	94.25
447.35	106.25
447.571	102.25
447.792	98.25
448.013	92.25
448.234	99.25
448.455	118.25
448.675	110.25
448.896	87.25
449.117	104.25
449.338	98.25
449.559	98.25
449.779	97.25
450	91.25
450.221	105.25
450.442	103.25
450.662	91.25
450.883	97.25
451.104	88.25
451.324	86.25
451.545	94.25
451.766	95.25
451.986	91.25
452.207	91.25
452.428	86.25
452.648	83.25
452.869	87.25
453.089	85.25
453.31	96.25
453.53	99.25
453.751	80.25
453.971	94.25
454.192	88.25
454.412	94.25
454.633	87.25
454.853	85.25
455.073	99.25
455.294	92.25
455.514	92.25
455.734	101.25
455.955	96.25
456.175	73.25
456.395	76.25
456.616	95.25
456.836	84.25
457.056	100.25
457.276	91.25
457.497	86.25
457.717	72.25
457.937	89.25
458.157	90.25
458.377	78.25
458.598	86.25
458.818	92.25
459.038	74.25
459.258	93.25
459.478	83.25
459.698	80.25
459.918	87.25
460.138	96.25
460.358	73.25
460.578	95.25
460.798	90.25
461.018	84.25
461.238	107.25
461.458	77.25
461.678	96.25
461.898	83.25
462.118	99.25
462.338	86.25
462.558	90.25
462.777	81.25
462.997	93.25
463.217	91.25
463.437	89.25
463.657	81.25
463.876	86.25
464.096	86.25
464.316	84.25
464.536	105.25
464.755	102.25
464.975	89.25
465.195	90.25
465.414	98.25
465.634	95.25
465.854	93.25
466.073	98.25
466.293	74.25
466.512	93.25
466.732	99.25
466.951	96.25
467.171	88.25
467.391	90.25
467.61	100.25
467.829	87.25
468.049	97.25
468.268	97.25
468.488	98.25
468.707	90.25
468.927	99.25
469.146	90.25
469.365	105.25
469.585	97.25
469.804	85.25
470.023	90.25
470.243	105.25
470.462	117.25
470.681	109.25
470.901	100.25
471.12	99.25
471.339	107.25
471.558	98.25
471.777	87.25
471.997	104.25
472.216	121.25
472.435	90.25
472.654	88.25
472.873	84.25
473.092	86.25
473.311	91.25
473.53	98.25
473.749	101.25
473.968	103.25
474.187	96.25
474.406	74.25
474.625	91.25
474.844	107.25
475.063	96.25
475.282	99.25
475.501	84.25
475.72	88.25
475.939	101.25
476.158	101.25
476.377	81.25
476.596	91.25
476.814	100.25
477.033	77.25
477.252	101.25
477.471	88.25
477.69	84.25
477.908	92.25
478.127	114.25
478.346	95.25
478.564	79.25
478.783	75.25
479.002	97.25
479.22	97.25
479.439	92.25
479.658	93.25
479.876	100.25
480.095	90.25
480.313	100.25
480.532	103.25
480.751	84.25
480.969	80.25
481.188	96.25
481.406	95.25
481.624	79.25
481.843	88.25
482.061	86.25
482.28	85.25
482.498	83.25
482.717	78.25
482.935	102.25
483.153	93.25
483.372	86.25
483.59	107.25
483.808	101.25
484.027	95.25
484.245	91.25
484.463	98.25
484.681	114.25
484.9	99.25
485.118	92.25
485.336	83.25
485.554	97.25
485.772	83.25
485.99	95.25
486.209	106.25
486.427	88.25
486.645	71.25
486.863	96.25
487.081	99.25
487.299	93.25
487.517	93.25
487.735	100.25
487.953	124.25
488.171	113.25
488.389	110.25
488.607	103.25
488.825	94.25
489.043	95.25
489.261	104.25
489.479	98.25
489.696	79.25
489.914	104.25
490.132	90.25
490.35	99.25
490.568	97.25
490.786	113.25
491.003	103.25
491.221	107.25
491.439	101.25
491.657	111.25
491.874	122.25
492.092	126.25
492.31	119.25
492.527	119.25
492.745	107.25
492.963	120.25
493.18	115.25
493.398	101.25
493.615	117.25
493.833	104.25
494.05	117.25
494.268	116.25
494.485	96.25
494.703	107.25
494.92	112.25
495.138	98.25
495.355	115.25
495.573	99.25
495.79	105.25
496.008	104.25
496.225	100.25
496.442	100.25
496.66	93.25
496.877	102.25
497.094	97.25
497.312	105.25
497.529	118.25
497.746	107.25
497.963	85.25
498.181	87.25
498.398	107.25
498.615	98.25
498.832	101.25
499.049	92.25
499.267	89.25
499.484	88.25
499.701	100.25
499.918	95.25
500.135	96.25
500.352	100.25
500.569	108.25
500.786	117.25
501.003	104.25
501.22	88.25
501.437	105.25
501.654	102.25
501.871	105.25
502.088	97.25
502.305	99.25
502.522	87.25
502.739	84.25
502.956	97.25
503.172	98.25
503.389	104.25
503.606	100.25
503.823	98.25
504.04	100.25
504.256	103.25
504.473	92.25
504.69	82.25
504.907	84.25
505.123	100.25
505.34	104.25
505.557	85.25
505.773	89.25
505.99	103.25
506.207	95.25
506.423	75.25
506.64	92.25
506.856	99.25
507.073	89.25
507.289	87.25
507.506	98.25
507.722	94.25
507.939	102.25
508.155	93.25
508.372	105.25
508.588	98.25
508.805	83.25
509.021	74.25
509.238	102.25
509.454	90.25
509.67	93.25
509.887	72.25
510.103	94.25
510.319	85.25
510.536	88.25
510.752	85.25
510.968	82.25
511.184	78.25
511.401	85.25
511.617	67.25
511.833	70.25
512.049	93.25
512.265	92.25
512.481	97.25
512.698	102.25
512.914	97.25
513.13	91.25
513.346	83.25
513.562	69.25
513.778	87.25
513.994	91.25
514.21	102.25
514.426	87.25
514.642	83.25
514.858	76.25
515.074	86.25
515.29	88.25
515.506	88.25
515.721	79.25
515.937	89.25
516.153	75.25
516.369	76.25
516.585	91.25
516.801	82.25
517.016	89.25
517.232	99.25
