Data from Location5.07152019.Energy5.Lamp.07192019.3%Agarose_HRD10591_16-02-26-628.txt Node
Date: Fri Jul 19 16:02:26 EDT 2019
User: cochatt
Spectrometer: HR+D1059
Trigger mode: 1
Integration Time (sec): 1.000000E-1
Scans to average: 1
Electric dark correction enabled: true
Nonlinearity correction enabled: false
Boxcar width: 0
XAxis mode: Wavelengths
Number of Pixels in Spectrum: 2048
>>>>>Begin Spectral Data<<<<<
223.165	-10.06
223.4	-10.06
223.635	-10.06
223.869	-28.06
224.104	-23.06
224.338	-20.06
224.573	-15.06
224.808	-4.06
225.042	-16.06
225.277	-10.06
225.511	7.94
225.746	14.94
225.98	-5.06
226.215	7.94
226.449	13.94
226.683	25.94
226.918	33.94
227.152	26.94
227.387	28.94
227.621	37.94
227.856	52.94
228.09	51.94
228.324	49.94
228.559	49.94
228.793	60.94
229.027	42.94
229.262	65.94
229.496	60.94
229.73	74.94
229.964	72.94
230.199	74.94
230.433	84.94
230.667	65.94
230.901	79.94
231.136	90.94
231.37	85.94
231.604	87.94
231.838	91.94
232.072	84.94
232.306	87.94
232.541	80.94
232.775	76.94
233.009	73.94
233.243	69.94
233.477	79.94
233.711	96.94
233.945	76.94
234.179	97.94
234.413	83.94
234.647	77.94
234.881	71.94
235.115	84.94
235.349	81.94
235.583	78.94
235.817	79.94
236.051	82.94
236.285	77.94
236.519	81.94
236.753	95.94
236.987	84.94
237.221	77.94
237.455	79.94
237.689	58.94
237.922	72.94
238.156	75.94
238.39	81.94
238.624	83.94
238.858	76.94
239.091	77.94
239.325	72.94
239.559	81.94
239.793	83.94
240.027	72.94
240.26	86.94
240.494	80.94
240.728	83.94
240.961	76.94
241.195	73.94
241.429	78.94
241.662	87.94
241.896	74.94
242.13	71.94
242.363	79.94
242.597	98.94
242.83	81.94
243.064	86.94
243.298	84.94
243.531	85.94
243.765	90.94
243.998	81.94
244.232	90.94
244.465	80.94
244.699	71.94
244.932	69.94
245.166	73.94
245.399	90.94
245.633	86.94
245.866	78.94
246.099	89.94
246.333	69.94
246.566	80.94
246.8	82.94
247.033	77.94
247.266	86.94
247.5	78.94
247.733	78.94
247.966	90.94
248.2	80.94
248.433	84.94
248.666	86.94
248.899	77.94
249.133	65.94
249.366	93.94
249.599	79.94
249.832	74.94
250.066	76.94
250.299	73.94
250.532	78.94
250.765	81.94
250.998	73.94
251.231	79.94
251.465	78.94
251.698	71.94
251.931	76.94
252.164	85.94
252.397	66.94
252.63	79.94
252.863	88.94
253.096	78.94
253.329	85.94
253.562	82.94
253.795	87.94
254.028	88.94
254.261	69.94
254.494	79.94
254.727	83.94
254.96	72.94
255.193	86.94
255.426	90.94
255.659	79.94
255.892	79.94
256.124	88.94
256.357	78.94
256.59	67.94
256.823	83.94
257.056	92.94
257.289	101.94
257.521	87.94
257.754	77.94
257.987	85.94
258.22	95.94
258.452	93.94
258.685	99.94
258.918	77.94
259.151	86.94
259.383	86.94
259.616	80.94
259.849	90.94
260.081	78.94
260.314	83.94
260.547	94.94
260.779	83.94
261.012	77.94
261.244	78.94
261.477	96.94
261.71	85.94
261.942	91.94
262.175	75.94
262.407	81.94
262.64	101.94
262.872	81.94
263.105	86.94
263.337	85.94
263.57	90.94
263.802	84.94
264.035	90.94
264.267	98.94
264.499	91.94
264.732	88.94
264.964	79.94
265.197	88.94
265.429	93.94
265.661	76.94
265.894	77.94
266.126	88.94
266.358	78.94
266.591	79.94
266.823	92.94
267.055	92.94
267.287	107.94
267.52	78.94
267.752	85.94
267.984	84.94
268.216	75.94
268.448	92.94
268.681	89.94
268.913	85.94
269.145	85.94
269.377	83.94
269.609	81.94
269.841	89.94
270.073	79.94
270.306	96.94
270.538	95.94
270.77	91.94
271.002	94.94
271.234	90.94
271.466	79.94
271.698	95.94
271.93	83.94
272.162	86.94
272.394	79.94
272.626	86.94
272.858	97.94
273.09	85.94
273.322	94.94
273.553	79.94
273.785	84.94
274.017	78.94
274.249	79.94
274.481	76.94
274.713	86.94
274.945	99.94
275.176	83.94
275.408	84.94
275.64	91.94
275.872	90.94
276.104	100.94
276.335	87.94
276.567	91.94
276.799	76.94
277.031	76.94
277.262	91.94
277.494	101.94
277.726	86.94
277.957	92.94
278.189	72.94
278.421	79.94
278.652	94.94
278.884	92.94
279.115	88.94
279.347	85.94
279.579	85.94
279.81	87.94
280.042	86.94
280.273	92.94
280.505	99.94
280.736	93.94
280.968	67.94
281.199	86.94
281.431	87.94
281.662	94.94
281.894	83.94
282.125	94.94
282.356	98.94
282.588	91.94
282.819	104.94
283.051	99.94
283.282	94.94
283.513	85.94
283.745	89.94
283.976	96.94
284.207	80.94
284.439	85.94
284.67	85.94
284.901	93.94
285.132	81.94
285.364	97.94
285.595	96.94
285.826	90.94
286.057	93.94
286.288	94.94
286.52	91.94
286.751	90.94
286.982	89.94
287.213	85.94
287.444	92.94
287.675	84.94
287.906	92.94
288.138	90.94
288.369	105.94
288.6	81.94
288.831	101.94
289.062	93.94
289.293	88.94
289.524	94.94
289.755	93.94
289.986	93.94
290.217	88.94
290.448	80.94
290.679	92.94
290.91	78.94
291.141	101.94
291.371	94.94
291.602	90.94
291.833	94.94
292.064	90.94
292.295	95.94
292.526	92.94
292.757	79.94
292.987	89.94
293.218	94.94
293.449	105.94
293.68	97.94
293.91	81.94
294.141	85.94
294.372	89.94
294.603	92.94
294.833	85.94
295.064	85.94
295.295	101.94
295.525	88.94
295.756	86.94
295.987	102.94
296.217	94.94
296.448	87.94
296.679	80.94
296.909	95.94
297.14	72.94
297.37	88.94
297.601	85.94
297.831	83.94
298.062	90.94
298.292	85.94
298.523	85.94
298.753	85.94
298.984	104.94
299.214	92.94
299.445	94.94
299.675	100.94
299.905	99.94
300.136	98.94
300.366	100.94
300.597	95.94
300.827	103.94
301.057	96.94
301.288	97.94
301.518	98.94
301.748	82.94
301.979	92.94
302.209	75.94
302.439	91.94
302.669	85.94
302.9	97.94
303.13	86.94
303.36	97.94
303.59	91.94
303.82	101.94
304.051	94.94
304.281	93.94
304.511	90.94
304.741	97.94
304.971	77.94
305.201	79.94
305.431	106.94
305.661	101.94
305.891	89.94
306.121	90.94
306.352	97.94
306.582	89.94
306.812	98.94
307.042	94.94
307.272	91.94
307.502	79.94
307.731	97.94
307.961	88.94
308.191	79.94
308.421	97.94
308.651	89.94
308.881	88.94
309.111	100.94
309.341	98.94
309.571	86.94
309.8	102.94
310.03	92.94
310.26	93.94
310.49	90.94
310.72	109.94
310.949	87.94
311.179	92.94
311.409	82.94
311.639	93.94
311.868	93.94
312.098	94.94
312.328	96.94
312.557	90.94
312.787	90.94
313.017	94.94
313.246	108.94
313.476	85.94
313.706	91.94
313.935	94.94
314.165	76.94
314.394	96.94
314.624	89.94
314.853	98.94
315.083	96.94
315.312	95.94
315.542	83.94
315.771	83.94
316.001	86.94
316.23	100.94
316.46	89.94
316.689	75.94
316.919	97.94
317.148	97.94
317.377	101.94
317.607	94.94
317.836	95.94
318.065	76.94
318.295	88.94
318.524	102.94
318.753	82.94
318.983	85.94
319.212	113.94
319.441	92.94
319.67	92.94
319.9	78.94
320.129	94.94
320.358	105.94
320.587	92.94
320.816	88.94
321.046	107.94
321.275	103.94
321.504	91.94
321.733	90.94
321.962	91.94
322.191	90.94
322.42	88.94
322.649	99.94
322.878	94.94
323.108	104.94
323.337	103.94
323.566	89.94
323.795	106.94
324.024	93.94
324.253	92.94
324.482	87.94
324.71	99.94
324.939	93.94
325.168	98.94
325.397	109.94
325.626	90.94
325.855	89.94
326.084	86.94
326.313	96.94
326.542	90.94
326.77	103.94
326.999	87.94
327.228	83.94
327.457	85.94
327.686	93.94
327.914	104.94
328.143	93.94
328.372	86.94
328.6	92.94
328.829	100.94
329.058	108.94
329.287	98.94
329.515	99.94
329.744	101.94
329.972	100.94
330.201	89.94
330.43	109.94
330.658	104.94
330.887	99.94
331.115	95.94
331.344	106.94
331.572	96.94
331.801	82.94
332.03	94.94
332.258	91.94
332.486	98.94
332.715	102.94
332.943	107.94
333.172	99.94
333.4	92.94
333.629	97.94
333.857	96.94
334.085	94.94
334.314	85.94
334.542	115.94
334.771	104.94
334.999	102.94
335.227	95.94
335.455	101.94
335.684	105.94
335.912	84.94
336.14	109.94
336.369	100.94
336.597	94.94
336.825	99.94
337.053	102.94
337.281	95.94
337.51	90.94
337.738	92.94
337.966	99.94
338.194	90.94
338.422	97.94
338.65	88.94
338.878	84.94
339.106	80.94
339.334	97.94
339.562	87.94
339.79	94.94
340.018	81.94
340.246	99.94
340.474	100.94
340.702	93.94
340.93	87.94
341.158	107.94
341.386	104.94
341.614	107.94
341.842	90.94
342.07	91.94
342.298	84.94
342.526	88.94
342.754	96.94
342.981	69.94
343.209	111.94
343.437	105.94
343.665	94.94
343.893	116.94
344.12	92.94
344.348	85.94
344.576	94.94
344.804	99.94
345.031	86.94
345.259	87.94
345.487	102.94
345.714	84.94
345.942	101.94
346.17	94.94
346.397	116.94
346.625	85.94
346.853	102.94
347.08	94.94
347.308	101.94
347.535	90.94
347.763	89.94
347.99	97.94
348.218	106.94
348.445	98.94
348.673	99.94
348.9	109.94
349.128	92.94
349.355	101.94
349.583	95.94
349.81	108.94
350.037	100.94
350.265	99.94
350.492	97.94
350.72	94.94
350.947	85.94
351.174	107.94
351.402	81.94
351.629	92.94
351.856	101.94
352.083	94.94
352.311	94.94
352.538	90.94
352.765	100.94
352.992	94.94
353.22	100.94
353.447	85.94
353.674	96.94
353.901	88.94
354.128	89.94
354.355	114.94
354.583	92.94
354.81	94.94
355.037	95.94
355.264	103.94
355.491	82.94
355.718	97.94
355.945	93.94
356.172	92.94
356.399	97.94
356.626	81.94
356.853	84.94
357.08	94.94
357.307	100.94
357.534	104.94
357.761	88.94
357.988	88.94
358.215	80.94
358.441	89.94
358.668	113.94
358.895	87.94
359.122	94.94
359.349	101.94
359.576	102.94
359.802	93.94
360.029	80.94
360.256	84.94
360.483	97.94
360.709	95.94
360.936	98.94
361.163	89.94
361.39	75.94
361.616	85.94
361.843	101.94
362.07	93.94
362.296	105.94
362.523	100.94
362.749	83.94
362.976	91.94
363.203	105.94
363.429	92.94
363.656	104.94
363.882	93.94
364.109	89.94
364.335	90.94
364.562	94.94
364.788	97.94
365.015	100.94
365.241	96.94
365.468	103.94
365.694	86.94
365.92	94.94
366.147	93.94
366.373	87.94
366.599	83.94
366.826	101.94
367.052	93.94
367.278	91.94
367.505	85.94
367.731	102.94
367.957	103.94
368.184	109.94
368.41	95.94
368.636	86.94
368.862	80.94
369.089	93.94
369.315	99.94
369.541	105.94
369.767	107.94
369.993	86.94
370.219	98.94
370.445	73.94
370.672	82.94
370.898	93.94
371.124	94.94
371.35	92.94
371.576	91.94
371.802	96.94
372.028	104.94
372.254	95.94
372.48	117.94
372.706	97.94
372.932	99.94
373.158	79.94
373.384	91.94
373.61	85.94
373.835	89.94
374.061	92.94
374.287	87.94
374.513	90.94
374.739	101.94
374.965	83.94
375.191	92.94
375.416	97.94
375.642	99.94
375.868	91.94
376.094	109.94
376.319	94.94
376.545	93.94
376.771	94.94
376.997	92.94
377.222	97.94
377.448	90.94
377.674	103.94
377.899	105.94
378.125	87.94
378.35	94.94
378.576	94.94
378.802	88.94
379.027	102.94
379.253	93.94
379.478	87.94
379.704	98.94
379.929	96.94
380.155	101.94
380.38	100.94
380.606	109.94
380.831	104.94
381.057	98.94
381.282	108.94
381.507	94.94
381.733	95.94
381.958	110.94
382.184	89.94
382.409	106.94
382.634	100.94
382.86	87.94
383.085	98.94
383.31	93.94
383.535	102.94
383.761	105.94
383.986	101.94
384.211	94.94
384.436	89.94
384.662	86.94
384.887	89.94
385.112	103.94
385.337	97.94
385.562	75.94
385.787	93.94
386.013	106.94
386.238	99.94
386.463	107.94
386.688	96.94
386.913	86.94
387.138	102.94
387.363	117.94
387.588	100.94
387.813	98.94
388.038	113.94
388.263	93.94
388.488	102.94
388.713	109.94
388.938	103.94
389.163	89.94
389.387	95.94
389.612	102.94
389.837	80.94
390.062	96.94
390.287	105.94
390.512	102.94
390.736	105.94
390.961	104.94
391.186	103.94
391.411	102.94
391.636	100.94
391.86	103.94
392.085	90.94
392.31	83.94
392.534	93.94
392.759	97.94
392.984	106.94
393.208	96.94
393.433	117.94
393.658	88.94
393.882	100.94
394.107	110.94
394.331	95.94
394.556	112.94
394.78	106.94
395.005	102.94
395.229	111.94
395.454	88.94
395.678	115.94
395.903	107.94
396.127	100.94
396.352	97.94
396.576	99.94
396.801	95.94
397.025	102.94
397.249	101.94
397.474	102.94
397.698	106.94
397.922	97.94
398.147	102.94
398.371	107.94
398.595	101.94
398.82	85.94
399.044	105.94
399.268	99.94
399.492	109.94
399.717	118.94
399.941	108.94
400.165	126.94
400.389	111.94
400.613	115.94
400.837	104.94
401.062	87.94
401.286	93.94
401.51	95.94
401.734	115.94
401.958	92.94
402.182	108.94
402.406	106.94
402.63	98.94
402.854	105.94
403.078	98.94
403.302	111.94
403.526	97.94
403.75	102.94
403.974	105.94
404.198	109.94
404.422	101.94
404.645	99.94
404.869	108.94
405.093	105.94
405.317	102.94
405.541	117.94
405.765	100.94
405.988	107.94
406.212	106.94
406.436	95.94
406.66	106.94
406.883	115.94
407.107	113.94
407.331	102.94
407.555	101.94
407.778	96.94
408.002	101.94
408.226	108.94
408.449	92.94
408.673	99.94
408.896	102.94
409.12	91.94
409.344	105.94
409.567	100.94
409.791	97.94
410.014	95.94
410.238	91.94
410.461	104.94
410.685	99.94
410.908	109.94
411.132	97.94
411.355	105.94
411.578	101.94
411.802	94.94
412.025	92.94
412.249	113.94
412.472	109.94
412.695	93.94
412.919	104.94
413.142	103.94
413.365	110.94
413.589	104.94
413.812	102.94
414.035	114.94
414.258	100.94
414.482	98.94
414.705	113.94
414.928	99.94
415.151	109.94
415.374	98.94
415.597	114.94
415.821	100.94
416.044	102.94
416.267	105.94
416.49	89.94
416.713	95.94
416.936	111.94
417.159	83.94
417.382	103.94
417.605	109.94
417.828	92.94
418.051	98.94
418.274	114.94
418.497	117.94
418.72	109.94
418.943	96.94
419.166	99.94
419.389	110.94
419.611	102.94
419.834	99.94
420.057	108.94
420.28	75.94
420.503	83.94
420.726	88.94
420.948	83.94
421.171	105.94
421.394	103.94
421.617	100.94
421.839	105.94
422.062	119.94
422.285	99.94
422.507	102.94
422.73	104.94
422.953	91.94
423.175	87.94
423.398	111.94
423.621	106.94
423.843	116.94
424.066	117.94
424.288	97.94
424.511	102.94
424.733	114.94
424.956	95.94
425.178	103.94
425.401	99.94
425.623	85.94
425.846	102.94
426.068	92.94
426.291	89.94
426.513	95.94
426.735	94.94
426.958	92.94
427.18	95.94
427.402	99.94
427.625	93.94
427.847	99.94
428.069	116.94
428.292	89.94
428.514	102.94
428.736	94.94
428.958	85.94
429.181	94.94
429.403	95.94
429.625	95.94
429.847	80.94
430.069	91.94
430.292	90.94
430.514	101.94
430.736	97.94
430.958	86.94
431.18	88.94
431.402	101.94
431.624	93.94
431.846	94.94
432.068	104.94
432.29	91.94
432.512	102.94
432.734	103.94
432.956	107.94
433.178	93.94
433.4	103.94
433.622	102.94
433.844	98.94
434.066	96.94
434.287	102.94
434.509	113.94
434.731	89.94
434.953	95.94
435.175	95.94
435.397	106.94
435.618	98.94
435.84	107.94
436.062	101.94
436.284	96.94
436.505	96.94
436.727	90.94
436.949	99.94
437.17	95.94
437.392	89.94
437.614	93.94
437.835	89.94
438.057	100.94
438.278	88.94
438.5	92.94
438.721	95.94
438.943	102.94
439.165	110.94
439.386	99.94
439.608	104.94
439.829	87.94
440.05	104.94
440.272	106.94
440.493	106.94
440.715	106.94
440.936	113.94
441.158	101.94
441.379	91.94
441.6	88.94
441.822	102.94
442.043	102.94
442.264	107.94
442.486	94.94
442.707	97.94
442.928	90.94
443.149	96.94
443.371	102.94
443.592	102.94
443.813	98.94
444.034	115.94
444.255	110.94
444.476	116.94
444.698	93.94
444.919	99.94
445.14	213.94
445.361	137.94
445.582	116.94
445.803	103.94
446.024	101.94
446.245	100.94
446.466	97.94
446.687	80.94
446.908	88.94
447.129	94.94
447.35	93.94
447.571	105.94
447.792	98.94
448.013	109.94
448.234	91.94
448.455	97.94
448.675	107.94
448.896	91.94
449.117	102.94
449.338	99.94
449.559	103.94
449.779	93.94
450	99.94
450.221	91.94
450.442	96.94
450.662	98.94
450.883	97.94
451.104	91.94
451.324	91.94
451.545	103.94
451.766	84.94
451.986	88.94
452.207	101.94
452.428	94.94
452.648	85.94
452.869	93.94
453.089	107.94
453.31	89.94
453.53	94.94
453.751	93.94
453.971	100.94
454.192	89.94
454.412	87.94
454.633	92.94
454.853	90.94
455.073	78.94
455.294	82.94
455.514	99.94
455.734	95.94
455.955	100.94
456.175	98.94
456.395	94.94
456.616	97.94
456.836	101.94
457.056	84.94
457.276	91.94
457.497	98.94
457.717	94.94
457.937	102.94
458.157	85.94
458.377	91.94
458.598	78.94
458.818	90.94
459.038	107.94
459.258	97.94
459.478	95.94
459.698	103.94
459.918	101.94
460.138	96.94
460.358	90.94
460.578	116.94
460.798	117.94
461.018	85.94
461.238	89.94
461.458	99.94
461.678	115.94
461.898	107.94
462.118	108.94
462.338	110.94
462.558	102.94
462.777	102.94
462.997	119.94
463.217	106.94
463.437	110.94
463.657	115.94
463.876	102.94
464.096	102.94
464.316	102.94
464.536	99.94
464.755	100.94
464.975	105.94
465.195	95.94
465.414	100.94
465.634	108.94
465.854	105.94
466.073	100.94
466.293	89.94
466.512	110.94
466.732	106.94
466.951	93.94
467.171	93.94
467.391	87.94
467.61	97.94
467.829	98.94
468.049	99.94
468.268	98.94
468.488	112.94
468.707	99.94
468.927	102.94
469.146	118.94
469.365	97.94
469.585	86.94
469.804	108.94
470.023	102.94
470.243	92.94
470.462	91.94
470.681	98.94
470.901	101.94
471.12	115.94
471.339	103.94
471.558	97.94
471.777	114.94
471.997	93.94
472.216	107.94
472.435	103.94
472.654	101.94
472.873	97.94
473.092	92.94
473.311	93.94
473.53	92.94
473.749	104.94
473.968	118.94
474.187	109.94
474.406	102.94
474.625	96.94
474.844	108.94
475.063	92.94
475.282	94.94
475.501	94.94
475.72	110.94
475.939	110.94
476.158	110.94
476.377	108.94
476.596	103.94
476.814	103.94
477.033	111.94
477.252	106.94
477.471	106.94
477.69	105.94
477.908	105.94
478.127	117.94
478.346	111.94
478.564	108.94
478.783	108.94
479.002	103.94
479.22	109.94
479.439	102.94
479.658	114.94
479.876	95.94
480.095	97.94
480.313	116.94
480.532	108.94
480.751	96.94
480.969	95.94
481.188	110.94
481.406	102.94
481.624	103.94
481.843	98.94
482.061	97.94
482.28	103.94
482.498	111.94
482.717	101.94
482.935	123.94
483.153	112.94
483.372	103.94
483.59	110.94
483.808	105.94
484.027	113.94
484.245	109.94
484.463	104.94
484.681	110.94
484.9	107.94
485.118	109.94
485.336	107.94
485.554	110.94
485.772	114.94
485.99	107.94
486.209	104.94
486.427	100.94
486.645	113.94
486.863	93.94
487.081	104.94
487.299	112.94
487.517	108.94
487.735	109.94
487.953	105.94
488.171	117.94
488.389	98.94
488.607	111.94
488.825	102.94
489.043	124.94
489.261	102.94
489.479	107.94
489.696	93.94
489.914	104.94
490.132	108.94
490.35	113.94
490.568	113.94
490.786	120.94
491.003	117.94
491.221	114.94
491.439	115.94
491.657	124.94
491.874	109.94
492.092	126.94
492.31	103.94
492.527	121.94
492.745	101.94
492.963	104.94
493.18	121.94
493.398	116.94
493.615	127.94
493.833	109.94
494.05	113.94
494.268	111.94
494.485	124.94
494.703	121.94
494.92	122.94
495.138	111.94
495.355	115.94
495.573	123.94
495.79	124.94
496.008	113.94
496.225	119.94
496.442	114.94
496.66	124.94
496.877	119.94
497.094	122.94
497.312	116.94
497.529	111.94
497.746	119.94
497.963	125.94
498.181	114.94
498.398	138.94
498.615	131.94
498.832	127.94
499.049	98.94
499.267	137.94
499.484	128.94
499.701	133.94
499.918	144.94
500.135	141.94
500.352	166.94
500.569	158.94
500.786	168.94
501.003	151.94
501.22	147.94
501.437	126.94
501.654	132.94
501.871	127.94
502.088	125.94
502.305	124.94
502.522	122.94
502.739	123.94
502.956	131.94
503.172	125.94
503.389	116.94
503.606	112.94
503.823	114.94
504.04	119.94
504.256	118.94
504.473	123.94
504.69	106.94
504.907	118.94
505.123	127.94
505.34	108.94
505.557	117.94
505.773	108.94
505.99	113.94
506.207	116.94
506.423	105.94
506.64	97.94
506.856	104.94
507.073	105.94
507.289	108.94
507.506	99.94
507.722	118.94
507.939	108.94
508.155	99.94
508.372	96.94
508.588	118.94
508.805	101.94
509.021	107.94
509.238	104.94
509.454	114.94
509.67	100.94
509.887	117.94
510.103	98.94
510.319	96.94
510.536	95.94
510.752	99.94
510.968	116.94
511.184	95.94
511.401	94.94
511.617	122.94
511.833	105.94
512.049	107.94
512.265	108.94
512.481	106.94
512.698	98.94
