Data from Location5.07152019.Energy5.Lamp.07192019.3%Agarose_HRD10591_16-04-24-630.txt Node
Date: Fri Jul 19 16:04:24 EDT 2019
User: cochatt
Spectrometer: HR+D1059
Trigger mode: 1
Integration Time (sec): 1.000000E-1
Scans to average: 1
Electric dark correction enabled: true
Nonlinearity correction enabled: false
Boxcar width: 0
XAxis mode: Wavelengths
Number of Pixels in Spectrum: 2048
>>>>>Begin Spectral Data<<<<<
223.165	-12.5
223.4	-12.5
223.635	-12.5
223.869	-18.5
224.104	-12.5
224.338	-6.5
224.573	-26.5
224.808	-29.5
225.042	-8.5
225.277	-2.5
225.511	-8.5
225.746	8.5
225.98	8.5
226.215	22.5
226.449	13.5
226.683	15.5
226.918	24.5
227.152	32.5
227.387	35.5
227.621	45.5
227.856	27.5
228.09	39.5
228.324	48.5
228.559	51.5
228.793	67.5
229.027	64.5
229.262	65.5
229.496	70.5
229.73	64.5
229.964	67.5
230.199	77.5
230.433	80.5
230.667	72.5
230.901	77.5
231.136	74.5
231.37	88.5
231.604	77.5
231.838	78.5
232.072	83.5
232.306	81.5
232.541	87.5
232.775	80.5
233.009	85.5
233.243	78.5
233.477	80.5
233.711	77.5
233.945	88.5
234.179	71.5
234.413	86.5
234.647	75.5
234.881	93.5
235.115	63.5
235.349	75.5
235.583	77.5
235.817	93.5
236.051	81.5
236.285	72.5
236.519	79.5
236.753	87.5
236.987	75.5
237.221	68.5
237.455	60.5
237.689	90.5
237.922	84.5
238.156	80.5
238.39	76.5
238.624	82.5
238.858	84.5
239.091	81.5
239.325	87.5
239.559	83.5
239.793	70.5
240.027	68.5
240.26	73.5
240.494	76.5
240.728	77.5
240.961	68.5
241.195	80.5
241.429	79.5
241.662	64.5
241.896	76.5
242.13	71.5
242.363	76.5
242.597	84.5
242.83	78.5
243.064	88.5
243.298	77.5
243.531	77.5
243.765	75.5
243.998	82.5
244.232	83.5
244.465	83.5
244.699	81.5
244.932	80.5
245.166	78.5
245.399	79.5
245.633	79.5
245.866	76.5
246.099	69.5
246.333	73.5
246.566	52.5
246.8	92.5
247.033	83.5
247.266	84.5
247.5	76.5
247.733	78.5
247.966	69.5
248.2	73.5
248.433	62.5
248.666	75.5
248.899	68.5
249.133	81.5
249.366	83.5
249.599	97.5
249.832	76.5
250.066	82.5
250.299	84.5
250.532	83.5
250.765	90.5
250.998	73.5
251.231	72.5
251.465	69.5
251.698	89.5
251.931	84.5
252.164	81.5
252.397	77.5
252.63	68.5
252.863	82.5
253.096	82.5
253.329	79.5
253.562	81.5
253.795	88.5
254.028	86.5
254.261	86.5
254.494	86.5
254.727	95.5
254.96	93.5
255.193	74.5
255.426	91.5
255.659	68.5
255.892	88.5
256.124	77.5
256.357	87.5
256.59	80.5
256.823	72.5
257.056	73.5
257.289	70.5
257.521	80.5
257.754	61.5
257.987	85.5
258.22	87.5
258.452	75.5
258.685	88.5
258.918	84.5
259.151	82.5
259.383	76.5
259.616	82.5
259.849	70.5
260.081	80.5
260.314	77.5
260.547	76.5
260.779	95.5
261.012	83.5
261.244	71.5
261.477	82.5
261.71	80.5
261.942	78.5
262.175	88.5
262.407	78.5
262.64	77.5
262.872	85.5
263.105	91.5
263.337	77.5
263.57	84.5
263.802	74.5
264.035	84.5
264.267	70.5
264.499	74.5
264.732	90.5
264.964	92.5
265.197	100.5
265.429	83.5
265.661	92.5
265.894	72.5
266.126	88.5
266.358	79.5
266.591	87.5
266.823	83.5
267.055	93.5
267.287	83.5
267.52	78.5
267.752	85.5
267.984	75.5
268.216	92.5
268.448	80.5
268.681	72.5
268.913	89.5
269.145	93.5
269.377	78.5
269.609	90.5
269.841	98.5
270.073	86.5
270.306	90.5
270.538	78.5
270.77	83.5
271.002	84.5
271.234	85.5
271.466	89.5
271.698	85.5
271.93	91.5
272.162	73.5
272.394	94.5
272.626	80.5
272.858	85.5
273.09	82.5
273.322	75.5
273.553	86.5
273.785	72.5
274.017	76.5
274.249	99.5
274.481	78.5
274.713	86.5
274.945	84.5
275.176	88.5
275.408	82.5
275.64	78.5
275.872	92.5
276.104	98.5
276.335	86.5
276.567	91.5
276.799	84.5
277.031	84.5
277.262	79.5
277.494	74.5
277.726	72.5
277.957	90.5
278.189	83.5
278.421	95.5
278.652	78.5
278.884	88.5
279.115	88.5
279.347	81.5
279.579	94.5
279.81	74.5
280.042	92.5
280.273	96.5
280.505	88.5
280.736	94.5
280.968	87.5
281.199	79.5
281.431	81.5
281.662	75.5
281.894	83.5
282.125	89.5
282.356	81.5
282.588	88.5
282.819	94.5
283.051	91.5
283.282	75.5
283.513	77.5
283.745	99.5
283.976	105.5
284.207	96.5
284.439	89.5
284.67	88.5
284.901	93.5
285.132	83.5
285.364	79.5
285.595	89.5
285.826	95.5
286.057	77.5
286.288	90.5
286.52	87.5
286.751	90.5
286.982	84.5
287.213	95.5
287.444	81.5
287.675	73.5
287.906	85.5
288.138	90.5
288.369	90.5
288.6	93.5
288.831	95.5
289.062	86.5
289.293	98.5
289.524	100.5
289.755	81.5
289.986	75.5
290.217	88.5
290.448	88.5
290.679	89.5
290.91	89.5
291.141	79.5
291.371	106.5
291.602	83.5
291.833	87.5
292.064	80.5
292.295	94.5
292.526	83.5
292.757	91.5
292.987	77.5
293.218	93.5
293.449	99.5
293.68	83.5
293.91	89.5
294.141	81.5
294.372	87.5
294.603	85.5
294.833	93.5
295.064	96.5
295.295	88.5
295.525	71.5
295.756	85.5
295.987	81.5
296.217	86.5
296.448	83.5
296.679	99.5
296.909	78.5
297.14	94.5
297.37	98.5
297.601	79.5
297.831	81.5
298.062	90.5
298.292	90.5
298.523	88.5
298.753	89.5
298.984	74.5
299.214	92.5
299.445	76.5
299.675	80.5
299.905	99.5
300.136	102.5
300.366	73.5
300.597	103.5
300.827	100.5
301.057	90.5
301.288	89.5
301.518	86.5
301.748	83.5
301.979	79.5
302.209	88.5
302.439	95.5
302.669	93.5
302.9	77.5
303.13	103.5
303.36	97.5
303.59	84.5
303.82	91.5
304.051	95.5
304.281	104.5
304.511	86.5
304.741	101.5
304.971	91.5
305.201	99.5
305.431	114.5
305.661	80.5
305.891	97.5
306.121	94.5
306.352	89.5
306.582	82.5
306.812	83.5
307.042	90.5
307.272	105.5
307.502	93.5
307.731	96.5
307.961	92.5
308.191	87.5
308.421	101.5
308.651	89.5
308.881	94.5
309.111	93.5
309.341	85.5
309.571	88.5
309.8	82.5
310.03	89.5
310.26	88.5
310.49	86.5
310.72	77.5
310.949	83.5
311.179	100.5
311.409	94.5
311.639	104.5
311.868	92.5
312.098	86.5
312.328	97.5
312.557	102.5
312.787	83.5
313.017	89.5
313.246	98.5
313.476	78.5
313.706	90.5
313.935	97.5
314.165	111.5
314.394	93.5
314.624	97.5
314.853	76.5
315.083	100.5
315.312	92.5
315.542	99.5
315.771	84.5
316.001	90.5
316.23	87.5
316.46	88.5
316.689	79.5
316.919	77.5
317.148	99.5
317.377	97.5
317.607	92.5
317.836	102.5
318.065	88.5
318.295	90.5
318.524	83.5
318.753	102.5
318.983	106.5
319.212	96.5
319.441	80.5
319.67	76.5
319.9	76.5
320.129	103.5
320.358	85.5
320.587	103.5
320.816	89.5
321.046	82.5
321.275	101.5
321.504	93.5
321.733	104.5
321.962	94.5
322.191	92.5
322.42	115.5
322.649	89.5
322.878	102.5
323.108	91.5
323.337	89.5
323.566	83.5
323.795	89.5
324.024	91.5
324.253	79.5
324.482	86.5
324.71	91.5
324.939	87.5
325.168	96.5
325.397	81.5
325.626	97.5
325.855	78.5
326.084	106.5
326.313	77.5
326.542	84.5
326.77	86.5
326.999	90.5
327.228	83.5
327.457	84.5
327.686	87.5
327.914	83.5
328.143	94.5
328.372	89.5
328.6	86.5
328.829	92.5
329.058	91.5
329.287	77.5
329.515	84.5
329.744	72.5
329.972	92.5
330.201	89.5
330.43	90.5
330.658	77.5
330.887	82.5
331.115	89.5
331.344	99.5
331.572	98.5
331.801	102.5
332.03	90.5
332.258	99.5
332.486	87.5
332.715	90.5
332.943	98.5
333.172	91.5
333.4	95.5
333.629	98.5
333.857	90.5
334.085	98.5
334.314	107.5
334.542	94.5
334.771	100.5
334.999	96.5
335.227	89.5
335.455	81.5
335.684	92.5
335.912	91.5
336.14	90.5
336.369	103.5
336.597	118.5
336.825	82.5
337.053	86.5
337.281	82.5
337.51	101.5
337.738	84.5
337.966	86.5
338.194	75.5
338.422	95.5
338.65	90.5
338.878	100.5
339.106	85.5
339.334	85.5
339.562	89.5
339.79	82.5
340.018	87.5
340.246	98.5
340.474	87.5
340.702	90.5
340.93	89.5
341.158	82.5
341.386	74.5
341.614	90.5
341.842	84.5
342.07	86.5
342.298	81.5
342.526	99.5
342.754	93.5
342.981	89.5
343.209	102.5
343.437	96.5
343.665	91.5
343.893	102.5
344.12	97.5
344.348	70.5
344.576	96.5
344.804	88.5
345.031	90.5
345.259	87.5
345.487	97.5
345.714	89.5
345.942	90.5
346.17	84.5
346.397	98.5
346.625	81.5
346.853	80.5
347.08	95.5
347.308	86.5
347.535	101.5
347.763	87.5
347.99	100.5
348.218	90.5
348.445	84.5
348.673	82.5
348.9	82.5
349.128	97.5
349.355	94.5
349.583	90.5
349.81	91.5
350.037	99.5
350.265	91.5
350.492	79.5
350.72	86.5
350.947	79.5
351.174	97.5
351.402	101.5
351.629	88.5
351.856	95.5
352.083	80.5
352.311	89.5
352.538	85.5
352.765	91.5
352.992	90.5
353.22	98.5
353.447	96.5
353.674	86.5
353.901	83.5
354.128	95.5
354.355	96.5
354.583	85.5
354.81	95.5
355.037	74.5
355.264	86.5
355.491	85.5
355.718	88.5
355.945	92.5
356.172	95.5
356.399	89.5
356.626	89.5
356.853	71.5
357.08	93.5
357.307	101.5
357.534	83.5
357.761	90.5
357.988	87.5
358.215	88.5
358.441	81.5
358.668	95.5
358.895	89.5
359.122	90.5
359.349	97.5
359.576	88.5
359.802	75.5
360.029	90.5
360.256	89.5
360.483	93.5
360.709	77.5
360.936	98.5
361.163	88.5
361.39	90.5
361.616	83.5
361.843	85.5
362.07	92.5
362.296	98.5
362.523	95.5
362.749	87.5
362.976	87.5
363.203	87.5
363.429	80.5
363.656	69.5
363.882	96.5
364.109	85.5
364.335	81.5
364.562	88.5
364.788	85.5
365.015	82.5
365.241	81.5
365.468	97.5
365.694	79.5
365.92	94.5
366.147	90.5
366.373	96.5
366.599	79.5
366.826	110.5
367.052	91.5
367.278	96.5
367.505	86.5
367.731	98.5
367.957	80.5
368.184	79.5
368.41	95.5
368.636	83.5
368.862	82.5
369.089	80.5
369.315	79.5
369.541	99.5
369.767	94.5
369.993	86.5
370.219	98.5
370.445	98.5
370.672	82.5
370.898	82.5
371.124	82.5
371.35	102.5
371.576	91.5
371.802	80.5
372.028	85.5
372.254	84.5
372.48	96.5
372.706	87.5
372.932	88.5
373.158	103.5
373.384	99.5
373.61	102.5
373.835	102.5
374.061	94.5
374.287	77.5
374.513	86.5
374.739	101.5
374.965	82.5
375.191	103.5
375.416	86.5
375.642	92.5
375.868	94.5
376.094	89.5
376.319	91.5
376.545	87.5
376.771	86.5
376.997	102.5
377.222	95.5
377.448	100.5
377.674	80.5
377.899	90.5
378.125	99.5
378.35	101.5
378.576	89.5
378.802	90.5
379.027	77.5
379.253	90.5
379.478	94.5
379.704	79.5
379.929	94.5
380.155	79.5
380.38	92.5
380.606	94.5
380.831	95.5
381.057	89.5
381.282	97.5
381.507	91.5
381.733	94.5
381.958	97.5
382.184	105.5
382.409	89.5
382.634	99.5
382.86	100.5
383.085	81.5
383.31	76.5
383.535	103.5
383.761	97.5
383.986	90.5
384.211	94.5
384.436	99.5
384.662	99.5
384.887	89.5
385.112	84.5
385.337	97.5
385.562	86.5
385.787	94.5
386.013	94.5
386.238	99.5
386.463	86.5
386.688	78.5
386.913	101.5
387.138	84.5
387.363	95.5
387.588	98.5
387.813	93.5
388.038	93.5
388.263	102.5
388.488	96.5
388.713	85.5
388.938	96.5
389.163	81.5
389.387	77.5
389.612	95.5
389.837	86.5
390.062	83.5
390.287	90.5
390.512	96.5
390.736	94.5
390.961	89.5
391.186	106.5
391.411	91.5
391.636	100.5
391.86	97.5
392.085	87.5
392.31	88.5
392.534	100.5
392.759	95.5
392.984	98.5
393.208	93.5
393.433	103.5
393.658	95.5
393.882	99.5
394.107	91.5
394.331	101.5
394.556	99.5
394.78	84.5
395.005	86.5
395.229	92.5
395.454	93.5
395.678	78.5
395.903	94.5
396.127	87.5
396.352	104.5
396.576	100.5
396.801	98.5
397.025	86.5
397.249	91.5
397.474	92.5
397.698	99.5
397.922	102.5
398.147	93.5
398.371	88.5
398.595	94.5
398.82	98.5
399.044	99.5
399.268	89.5
399.492	103.5
399.717	103.5
399.941	102.5
400.165	100.5
400.389	111.5
400.613	113.5
400.837	106.5
401.062	89.5
401.286	117.5
401.51	99.5
401.734	104.5
401.958	74.5
402.182	86.5
402.406	95.5
402.63	91.5
402.854	102.5
403.078	95.5
403.302	111.5
403.526	105.5
403.75	87.5
403.974	86.5
404.198	91.5
404.422	93.5
404.645	92.5
404.869	100.5
405.093	106.5
405.317	95.5
405.541	98.5
405.765	88.5
405.988	86.5
406.212	89.5
406.436	87.5
406.66	101.5
406.883	93.5
407.107	106.5
407.331	102.5
407.555	112.5
407.778	115.5
408.002	106.5
408.226	100.5
408.449	98.5
408.673	78.5
408.896	102.5
409.12	89.5
409.344	99.5
409.567	102.5
409.791	93.5
410.014	111.5
410.238	98.5
410.461	97.5
410.685	91.5
410.908	99.5
411.132	89.5
411.355	94.5
411.578	89.5
411.802	102.5
412.025	98.5
412.249	103.5
412.472	99.5
412.695	87.5
412.919	91.5
413.142	96.5
413.365	90.5
413.589	96.5
413.812	92.5
414.035	87.5
414.258	91.5
414.482	94.5
414.705	92.5
414.928	94.5
415.151	112.5
415.374	98.5
415.597	85.5
415.821	86.5
416.044	80.5
416.267	83.5
416.49	87.5
416.713	93.5
416.936	96.5
417.159	94.5
417.382	92.5
417.605	101.5
417.828	91.5
418.051	106.5
418.274	95.5
418.497	97.5
418.72	94.5
418.943	79.5
419.166	96.5
419.389	109.5
419.611	84.5
419.834	102.5
420.057	93.5
420.28	88.5
420.503	81.5
420.726	91.5
420.948	92.5
421.171	87.5
421.394	90.5
421.617	106.5
421.839	94.5
422.062	107.5
422.285	102.5
422.507	95.5
422.73	89.5
422.953	92.5
423.175	88.5
423.398	87.5
423.621	110.5
423.843	108.5
424.066	100.5
424.288	96.5
424.511	98.5
424.733	87.5
424.956	99.5
425.178	102.5
425.401	92.5
425.623	86.5
425.846	112.5
426.068	97.5
426.291	82.5
426.513	82.5
426.735	107.5
426.958	105.5
427.18	96.5
427.402	88.5
427.625	105.5
427.847	94.5
428.069	82.5
428.292	82.5
428.514	89.5
428.736	99.5
428.958	95.5
429.181	82.5
429.403	96.5
429.625	103.5
429.847	86.5
430.069	97.5
430.292	97.5
430.514	86.5
430.736	93.5
430.958	97.5
431.18	83.5
431.402	91.5
431.624	99.5
431.846	107.5
432.068	89.5
432.29	99.5
432.512	90.5
432.734	92.5
432.956	91.5
433.178	97.5
433.4	88.5
433.622	91.5
433.844	95.5
434.066	87.5
434.287	88.5
434.509	101.5
434.731	90.5
434.953	107.5
435.175	102.5
435.397	92.5
435.618	89.5
435.84	89.5
436.062	81.5
436.284	97.5
436.505	80.5
436.727	82.5
436.949	90.5
437.17	103.5
437.392	87.5
437.614	77.5
437.835	86.5
438.057	88.5
438.278	94.5
438.5	90.5
438.721	88.5
438.943	90.5
439.165	81.5
439.386	92.5
439.608	96.5
439.829	98.5
440.05	84.5
440.272	104.5
440.493	99.5
440.715	99.5
440.936	88.5
441.158	72.5
441.379	102.5
441.6	94.5
441.822	97.5
442.043	97.5
442.264	98.5
442.486	95.5
442.707	96.5
442.928	92.5
443.149	86.5
443.371	89.5
443.592	103.5
443.813	95.5
444.034	91.5
444.255	87.5
444.476	88.5
444.698	103.5
444.919	93.5
445.14	213.5
445.361	149.5
445.582	84.5
445.803	86.5
446.024	94.5
446.245	82.5
446.466	87.5
446.687	83.5
446.908	101.5
447.129	95.5
447.35	98.5
447.571	102.5
447.792	106.5
448.013	68.5
448.234	84.5
448.455	101.5
448.675	91.5
448.896	105.5
449.117	99.5
449.338	82.5
449.559	96.5
449.779	81.5
450	82.5
450.221	94.5
450.442	90.5
450.662	81.5
450.883	87.5
451.104	82.5
451.324	81.5
451.545	89.5
451.766	88.5
451.986	90.5
452.207	96.5
452.428	96.5
452.648	94.5
452.869	100.5
453.089	88.5
453.31	82.5
453.53	87.5
453.751	107.5
453.971	88.5
454.192	89.5
454.412	104.5
454.633	98.5
454.853	91.5
455.073	92.5
455.294	76.5
455.514	80.5
455.734	94.5
455.955	94.5
456.175	80.5
456.395	83.5
456.616	89.5
456.836	83.5
457.056	87.5
457.276	89.5
457.497	76.5
457.717	84.5
457.937	82.5
458.157	79.5
458.377	77.5
458.598	99.5
458.818	101.5
459.038	96.5
459.258	83.5
459.478	89.5
459.698	96.5
459.918	94.5
460.138	95.5
460.358	89.5
460.578	102.5
460.798	94.5
461.018	94.5
461.238	93.5
461.458	96.5
461.678	91.5
461.898	96.5
462.118	118.5
462.338	96.5
462.558	111.5
462.777	101.5
462.997	105.5
463.217	104.5
463.437	97.5
463.657	103.5
463.876	95.5
464.096	96.5
464.316	117.5
464.536	95.5
464.755	107.5
464.975	103.5
465.195	98.5
465.414	104.5
465.634	103.5
465.854	92.5
466.073	89.5
466.293	88.5
466.512	89.5
466.732	97.5
466.951	100.5
467.171	87.5
467.391	100.5
467.61	94.5
467.829	92.5
468.049	101.5
468.268	91.5
468.488	87.5
468.707	99.5
468.927	76.5
469.146	94.5
469.365	89.5
469.585	90.5
469.804	99.5
470.023	99.5
470.243	84.5
470.462	100.5
470.681	99.5
470.901	108.5
471.12	103.5
471.339	90.5
471.558	103.5
471.777	94.5
471.997	89.5
472.216	97.5
472.435	114.5
472.654	86.5
472.873	98.5
473.092	94.5
473.311	85.5
473.53	95.5
473.749	95.5
473.968	110.5
474.187	95.5
474.406	83.5
474.625	89.5
474.844	102.5
475.063	95.5
475.282	91.5
475.501	86.5
475.72	99.5
475.939	86.5
476.158	101.5
476.377	104.5
476.596	97.5
476.814	97.5
477.033	95.5
477.252	100.5
477.471	82.5
477.69	99.5
477.908	108.5
478.127	97.5
478.346	87.5
478.564	100.5
478.783	97.5
479.002	100.5
479.22	116.5
479.439	104.5
479.658	112.5
479.876	85.5
480.095	105.5
480.313	106.5
480.532	108.5
480.751	95.5
480.969	81.5
481.188	98.5
481.406	106.5
481.624	84.5
481.843	90.5
482.061	101.5
482.28	96.5
482.498	96.5
482.717	93.5
482.935	87.5
483.153	97.5
483.372	112.5
483.59	98.5
483.808	98.5
484.027	106.5
484.245	91.5
484.463	113.5
484.681	111.5
484.9	107.5
485.118	103.5
485.336	103.5
485.554	114.5
485.772	104.5
485.99	102.5
486.209	111.5
486.427	91.5
486.645	107.5
486.863	101.5
487.081	115.5
487.299	121.5
487.517	114.5
487.735	116.5
487.953	100.5
488.171	101.5
488.389	96.5
488.607	98.5
488.825	95.5
489.043	109.5
489.261	110.5
489.479	98.5
489.696	105.5
489.914	112.5
490.132	106.5
490.35	107.5
490.568	106.5
490.786	110.5
491.003	102.5
491.221	104.5
491.439	126.5
491.657	102.5
491.874	123.5
492.092	105.5
492.31	111.5
492.527	92.5
492.745	114.5
492.963	111.5
493.18	117.5
493.398	109.5
493.615	113.5
493.833	110.5
494.05	111.5
494.268	99.5
494.485	109.5
494.703	101.5
494.92	109.5
495.138	107.5
495.355	117.5
495.573	105.5
495.79	106.5
496.008	115.5
496.225	110.5
496.442	115.5
496.66	103.5
496.877	103.5
497.094	102.5
497.312	94.5
497.529	94.5
497.746	98.5
497.963	95.5
498.181	105.5
498.398	109.5
498.615	107.5
498.832	119.5
499.049	117.5
499.267	119.5
499.484	121.5
499.701	114.5
499.918	149.5
500.135	159.5
500.352	150.5
500.569	158.5
500.786	140.5
501.003	154.5
501.22	138.5
501.437	124.5
501.654	119.5
501.871	121.5
502.088	114.5
502.305	111.5
502.522	111.5
502.739	110.5
502.956	109.5
503.172	128.5
503.389	107.5
503.606	109.5
503.823	104.5
504.04	96.5
504.256	117.5
504.473	116.5
504.69	122.5
504.907	103.5
505.123	111.5
505.34	100.5
505.557	113.5
505.773	94.5
505.99	104.5
506.207	96.5
506.423	100.5
506.64	90.5
506.856	94.5
507.073	108.5
507.289	91.5
507.506	105.5
507.722	97.5
507.939	88.5
508.155	120.5
508.372	117.5
508.588	83.5
508.805	103.5
509.021	111.5
509.238	90.5
509.454	91.5
509.67	87.5
509.887	114.5
510.103	102.5
510.319	95.5
510.536	111.5
510.752	100.5
510.968	100.5
511.184	93.5
511.401	91.5
511.617	111.5
511.833	101.5
512.049	103.5
512.265	91.5
512.481	113.5
512.698	106.5
512.914	82.5
513.13	96.5
513.346	90.5
513.562	95.5
513.778	94.5
513.994	99.5
514.21	106.5
514.426	109.5
514.642	90.5
514.858	113.5
515.074	93.5
515.29	94.5
515.506	101.5
515.721	94.5
515.937	90.5
516.153	98.5
516.369	101.5
516.585	106.5
516.801	105.5
517.016	109.5
517.232	94.5
517.448	102.5
517.664	93.5
517.879	102.5
518.095	113.5
518.311	119.5
518.527	98.5
518.742	105.5
518.958	113.5
519.173	106.5
519.389	105.5
519.605	98.5
519.82	83.5
520.036	86.5
520.251	100.5
520.467	82.5
520.682	111.5
520.898	96.5
521.113	104.5
521.329	89.5
521.544	91.5
521.76	96.5
521.975	91.5
522.19	94.5
522.406	103.5
522.621	91.5
522.836	95.5
523.052	91.5
523.267	105.5
523.482	85.5
523.698	100.5
523.913	102.5
524.128	97.5
524.343	97.5
524.559	100.5
524.774	95.5
524.989	100.5
525.204	102.5
525.419	98.5
525.634	94.5
525.849	97.5
526.064	109.5
526.28	91.5
526.495	86.5
526.71	97.5
526.925	103.5
527.14	93.5
527.355	84.5
527.57	97.5
527.785	88.5
527.999	92.5
528.214	83.5
528.429	98.5
528.644	105.5
528.859	112.5
529.074	106.5
529.289	103.5
529.503	99.5
529.718	101.5
529.933	105.5
530.148	105.5
530.363	98.5
530.577	102.5
530.792	94.5
531.007	86.5
531.221	75.5
531.436	85.5
531.651	105.5
531.865	97.5
532.08	91.5
532.295	98.5
532.509	96.5
532.724	87.5
532.938	116.5
533.153	98.5
533.367	83.5
533.582	102.5
533.796	104.5
534.011	92.5
534.225	98.5
534.44	81.5
534.654	95.5
534.868	101.5
535.083	101.5
