Data from Location5.07152019.Energy5.Lamp.07192019.3%Agarose_HRD10591_15-38-51-388.txt Node
Date: Fri Jul 19 15:38:51 EDT 2019
User: cochatt
Spectrometer: HR+D1059
Trigger mode: 1
Integration Time (sec): 1.000000E-1
Scans to average: 1
Electric dark correction enabled: true
Nonlinearity correction enabled: false
Boxcar width: 0
XAxis mode: Wavelengths
Number of Pixels in Spectrum: 2048
>>>>>Begin Spectral Data<<<<<
223.165	-0.75
223.4	-0.75
223.635	-0.75
223.869	-11.75
224.104	-9.75
224.338	-25.75
224.573	-17.75
224.808	-6.75
225.042	-8.75
225.277	1.25
225.511	-10.75
225.746	-5.75
225.98	14.25
226.215	5.25
226.449	19.25
226.683	11.25
226.918	13.25
227.152	33.25
227.387	40.25
227.621	34.25
227.856	39.25
228.09	49.25
228.324	42.25
228.559	57.25
228.793	53.25
229.027	52.25
229.262	73.25
229.496	67.25
229.73	74.25
229.964	67.25
230.199	74.25
230.433	68.25
230.667	73.25
230.901	88.25
231.136	71.25
231.37	55.25
231.604	82.25
231.838	74.25
232.072	79.25
232.306	79.25
232.541	74.25
232.775	72.25
233.009	73.25
233.243	84.25
233.477	89.25
233.711	78.25
233.945	81.25
234.179	79.25
234.413	90.25
234.647	74.25
234.881	67.25
235.115	73.25
235.349	75.25
235.583	73.25
235.817	67.25
236.051	77.25
236.285	75.25
236.519	80.25
236.753	83.25
236.987	85.25
237.221	85.25
237.455	65.25
237.689	65.25
237.922	74.25
238.156	76.25
238.39	83.25
238.624	75.25
238.858	74.25
239.091	77.25
239.325	75.25
239.559	73.25
239.793	67.25
240.027	83.25
240.26	75.25
240.494	94.25
240.728	74.25
240.961	72.25
241.195	68.25
241.429	85.25
241.662	76.25
241.896	68.25
242.13	75.25
242.363	86.25
242.597	80.25
242.83	81.25
243.064	83.25
243.298	82.25
243.531	69.25
243.765	80.25
243.998	72.25
244.232	91.25
244.465	61.25
244.699	67.25
244.932	80.25
245.166	80.25
245.399	64.25
245.633	63.25
245.866	82.25
246.099	79.25
246.333	87.25
246.566	82.25
246.8	76.25
247.033	69.25
247.266	78.25
247.5	74.25
247.733	73.25
247.966	77.25
248.2	82.25
248.433	71.25
248.666	75.25
248.899	74.25
249.133	87.25
249.366	91.25
249.599	80.25
249.832	72.25
250.066	79.25
250.299	96.25
250.532	84.25
250.765	70.25
250.998	65.25
251.231	69.25
251.465	90.25
251.698	87.25
251.931	93.25
252.164	78.25
252.397	81.25
252.63	70.25
252.863	85.25
253.096	80.25
253.329	81.25
253.562	77.25
253.795	81.25
254.028	79.25
254.261	89.25
254.494	69.25
254.727	83.25
254.96	88.25
255.193	84.25
255.426	84.25
255.659	79.25
255.892	80.25
256.124	81.25
256.357	74.25
256.59	69.25
256.823	80.25
257.056	80.25
257.289	92.25
257.521	86.25
257.754	83.25
257.987	68.25
258.22	85.25
258.452	80.25
258.685	88.25
258.918	77.25
259.151	83.25
259.383	88.25
259.616	89.25
259.849	75.25
260.081	91.25
260.314	95.25
260.547	69.25
260.779	67.25
261.012	81.25
261.244	80.25
261.477	87.25
261.71	85.25
261.942	80.25
262.175	82.25
262.407	76.25
262.64	81.25
262.872	89.25
263.105	80.25
263.337	98.25
263.57	79.25
263.802	91.25
264.035	98.25
264.267	74.25
264.499	96.25
264.732	79.25
264.964	81.25
265.197	75.25
265.429	71.25
265.661	77.25
265.894	81.25
266.126	87.25
266.358	74.25
266.591	73.25
266.823	83.25
267.055	80.25
267.287	66.25
267.52	90.25
267.752	81.25
267.984	72.25
268.216	89.25
268.448	79.25
268.681	86.25
268.913	85.25
269.145	90.25
269.377	71.25
269.609	89.25
269.841	82.25
270.073	75.25
270.306	78.25
270.538	73.25
270.77	82.25
271.002	82.25
271.234	83.25
271.466	93.25
271.698	67.25
271.93	91.25
272.162	89.25
272.394	84.25
272.626	66.25
272.858	85.25
273.09	79.25
273.322	95.25
273.553	85.25
273.785	68.25
274.017	90.25
274.249	92.25
274.481	83.25
274.713	75.25
274.945	95.25
275.176	81.25
275.408	81.25
275.64	67.25
275.872	80.25
276.104	80.25
276.335	83.25
276.567	101.25
276.799	82.25
277.031	82.25
277.262	77.25
277.494	70.25
277.726	96.25
277.957	91.25
278.189	76.25
278.421	73.25
278.652	88.25
278.884	80.25
279.115	81.25
279.347	66.25
279.579	82.25
279.81	90.25
280.042	77.25
280.273	86.25
280.505	78.25
280.736	82.25
280.968	78.25
281.199	94.25
281.431	87.25
281.662	92.25
281.894	70.25
282.125	79.25
282.356	79.25
282.588	91.25
282.819	77.25
283.051	75.25
283.282	64.25
283.513	79.25
283.745	93.25
283.976	79.25
284.207	83.25
284.439	87.25
284.67	78.25
284.901	89.25
285.132	84.25
285.364	87.25
285.595	91.25
285.826	83.25
286.057	84.25
286.288	75.25
286.52	87.25
286.751	92.25
286.982	77.25
287.213	87.25
287.444	93.25
287.675	94.25
287.906	77.25
288.138	80.25
288.369	86.25
288.6	85.25
288.831	78.25
289.062	82.25
289.293	84.25
289.524	74.25
289.755	75.25
289.986	85.25
290.217	88.25
290.448	84.25
290.679	87.25
290.91	89.25
291.141	77.25
291.371	85.25
291.602	78.25
291.833	77.25
292.064	65.25
292.295	94.25
292.526	67.25
292.757	76.25
292.987	71.25
293.218	82.25
293.449	83.25
293.68	74.25
293.91	81.25
294.141	85.25
294.372	73.25
294.603	91.25
294.833	82.25
295.064	96.25
295.295	81.25
295.525	80.25
295.756	78.25
295.987	90.25
296.217	104.25
296.448	88.25
296.679	67.25
296.909	89.25
297.14	86.25
297.37	84.25
297.601	73.25
297.831	78.25
298.062	83.25
298.292	68.25
298.523	73.25
298.753	83.25
298.984	62.25
299.214	82.25
299.445	84.25
299.675	79.25
299.905	84.25
300.136	84.25
300.366	79.25
300.597	79.25
300.827	80.25
301.057	84.25
301.288	78.25
301.518	84.25
301.748	84.25
301.979	88.25
302.209	75.25
302.439	83.25
302.669	88.25
302.9	99.25
303.13	86.25
303.36	78.25
303.59	89.25
303.82	81.25
304.051	92.25
304.281	85.25
304.511	81.25
304.741	75.25
304.971	84.25
305.201	93.25
305.431	95.25
305.661	74.25
305.891	81.25
306.121	94.25
306.352	85.25
306.582	77.25
306.812	79.25
307.042	94.25
307.272	81.25
307.502	81.25
307.731	71.25
307.961	85.25
308.191	63.25
308.421	89.25
308.651	92.25
308.881	94.25
309.111	80.25
309.341	95.25
309.571	94.25
309.8	88.25
310.03	88.25
310.26	78.25
310.49	92.25
310.72	91.25
310.949	96.25
311.179	76.25
311.409	64.25
311.639	74.25
311.868	89.25
312.098	75.25
312.328	85.25
312.557	93.25
312.787	94.25
313.017	82.25
313.246	80.25
313.476	103.25
313.706	91.25
313.935	76.25
314.165	83.25
314.394	76.25
314.624	94.25
314.853	88.25
315.083	85.25
315.312	84.25
315.542	75.25
315.771	81.25
316.001	72.25
316.23	74.25
316.46	91.25
316.689	80.25
316.919	82.25
317.148	94.25
317.377	106.25
317.607	77.25
317.836	80.25
318.065	76.25
318.295	92.25
318.524	81.25
318.753	70.25
318.983	74.25
319.212	75.25
319.441	89.25
319.67	75.25
319.9	92.25
320.129	84.25
320.358	80.25
320.587	81.25
320.816	85.25
321.046	72.25
321.275	73.25
321.504	84.25
321.733	91.25
321.962	74.25
322.191	79.25
322.42	75.25
322.649	74.25
322.878	84.25
323.108	76.25
323.337	90.25
323.566	74.25
323.795	90.25
324.024	92.25
324.253	83.25
324.482	78.25
324.71	76.25
324.939	100.25
325.168	95.25
325.397	89.25
325.626	83.25
325.855	87.25
326.084	85.25
326.313	86.25
326.542	83.25
326.77	75.25
326.999	93.25
327.228	82.25
327.457	82.25
327.686	95.25
327.914	69.25
328.143	95.25
328.372	85.25
328.6	101.25
328.829	90.25
329.058	89.25
329.287	74.25
329.515	81.25
329.744	77.25
329.972	92.25
330.201	89.25
330.43	78.25
330.658	69.25
330.887	81.25
331.115	82.25
331.344	99.25
331.572	90.25
331.801	86.25
332.03	67.25
332.258	72.25
332.486	77.25
332.715	85.25
332.943	87.25
333.172	86.25
333.4	71.25
333.629	75.25
333.857	66.25
334.085	85.25
334.314	82.25
334.542	85.25
334.771	86.25
334.999	89.25
335.227	80.25
335.455	90.25
335.684	93.25
335.912	82.25
336.14	83.25
336.369	72.25
336.597	84.25
336.825	92.25
337.053	82.25
337.281	86.25
337.51	83.25
337.738	86.25
337.966	94.25
338.194	78.25
338.422	71.25
338.65	83.25
338.878	90.25
339.106	70.25
339.334	83.25
339.562	77.25
339.79	79.25
340.018	74.25
340.246	103.25
340.474	65.25
340.702	80.25
340.93	80.25
341.158	98.25
341.386	82.25
341.614	86.25
341.842	89.25
342.07	85.25
342.298	72.25
342.526	77.25
342.754	89.25
342.981	91.25
343.209	77.25
343.437	97.25
343.665	90.25
343.893	84.25
344.12	82.25
344.348	80.25
344.576	83.25
344.804	84.25
345.031	75.25
345.259	86.25
345.487	78.25
345.714	85.25
345.942	83.25
346.17	94.25
346.397	76.25
346.625	83.25
346.853	64.25
347.08	70.25
347.308	81.25
347.535	88.25
347.763	73.25
347.99	80.25
348.218	90.25
348.445	83.25
348.673	85.25
348.9	74.25
349.128	68.25
349.355	106.25
349.583	93.25
349.81	86.25
350.037	82.25
350.265	87.25
350.492	83.25
350.72	93.25
350.947	80.25
351.174	75.25
351.402	85.25
351.629	78.25
351.856	80.25
352.083	95.25
352.311	97.25
352.538	100.25
352.765	89.25
352.992	86.25
353.22	90.25
353.447	90.25
353.674	80.25
353.901	70.25
354.128	85.25
354.355	93.25
354.583	98.25
354.81	89.25
355.037	73.25
355.264	74.25
355.491	69.25
355.718	73.25
355.945	65.25
356.172	91.25
356.399	87.25
356.626	77.25
356.853	76.25
357.08	87.25
357.307	90.25
357.534	82.25
357.761	91.25
357.988	84.25
358.215	82.25
358.441	78.25
358.668	70.25
358.895	84.25
359.122	79.25
359.349	79.25
359.576	79.25
359.802	95.25
360.029	80.25
360.256	88.25
360.483	85.25
360.709	71.25
360.936	84.25
361.163	88.25
361.39	85.25
361.616	75.25
361.843	93.25
362.07	65.25
362.296	71.25
362.523	85.25
362.749	78.25
362.976	65.25
363.203	83.25
363.429	73.25
363.656	79.25
363.882	77.25
364.109	91.25
364.335	94.25
364.562	91.25
364.788	73.25
365.015	78.25
365.241	79.25
365.468	70.25
365.694	87.25
365.92	97.25
366.147	84.25
366.373	76.25
366.599	80.25
366.826	91.25
367.052	74.25
367.278	83.25
367.505	88.25
367.731	75.25
367.957	91.25
368.184	92.25
368.41	79.25
368.636	82.25
368.862	81.25
369.089	78.25
369.315	74.25
369.541	98.25
369.767	82.25
369.993	82.25
370.219	80.25
370.445	87.25
370.672	80.25
370.898	94.25
371.124	97.25
371.35	89.25
371.576	83.25
371.802	92.25
372.028	82.25
372.254	79.25
372.48	66.25
372.706	81.25
372.932	100.25
373.158	79.25
373.384	87.25
373.61	83.25
373.835	83.25
374.061	79.25
374.287	87.25
374.513	94.25
374.739	94.25
374.965	93.25
375.191	76.25
375.416	82.25
375.642	90.25
375.868	96.25
376.094	88.25
376.319	78.25
376.545	81.25
376.771	84.25
376.997	71.25
377.222	78.25
377.448	79.25
377.674	76.25
377.899	92.25
378.125	76.25
378.35	85.25
378.576	89.25
378.802	78.25
379.027	84.25
379.253	91.25
379.478	90.25
379.704	93.25
379.929	80.25
380.155	76.25
380.38	85.25
380.606	71.25
380.831	75.25
381.057	88.25
381.282	78.25
381.507	92.25
381.733	79.25
381.958	97.25
382.184	92.25
382.409	94.25
382.634	95.25
382.86	80.25
383.085	101.25
383.31	81.25
383.535	90.25
383.761	89.25
383.986	89.25
384.211	76.25
384.436	76.25
384.662	80.25
384.887	68.25
385.112	75.25
385.337	83.25
385.562	86.25
385.787	88.25
386.013	90.25
386.238	89.25
386.463	84.25
386.688	83.25
386.913	84.25
387.138	74.25
387.363	67.25
387.588	88.25
387.813	93.25
388.038	87.25
388.263	73.25
388.488	99.25
388.713	87.25
388.938	91.25
389.163	91.25
389.387	75.25
389.612	81.25
389.837	69.25
390.062	69.25
390.287	92.25
390.512	81.25
390.736	81.25
390.961	78.25
391.186	96.25
391.411	71.25
391.636	93.25
391.86	76.25
392.085	87.25
392.31	95.25
392.534	81.25
392.759	81.25
392.984	92.25
393.208	75.25
393.433	85.25
393.658	92.25
393.882	79.25
394.107	81.25
394.331	88.25
394.556	81.25
394.78	79.25
395.005	87.25
395.229	85.25
395.454	84.25
395.678	90.25
395.903	78.25
396.127	86.25
396.352	83.25
396.576	86.25
396.801	79.25
397.025	75.25
397.249	80.25
397.474	82.25
397.698	97.25
397.922	80.25
398.147	91.25
398.371	86.25
398.595	76.25
398.82	98.25
399.044	87.25
399.268	98.25
399.492	95.25
399.717	79.25
399.941	80.25
400.165	83.25
400.389	87.25
400.613	90.25
400.837	64.25
401.062	79.25
401.286	82.25
401.51	79.25
401.734	91.25
401.958	96.25
402.182	84.25
402.406	73.25
402.63	86.25
402.854	86.25
403.078	98.25
403.302	91.25
403.526	93.25
403.75	79.25
403.974	86.25
404.198	91.25
404.422	79.25
404.645	83.25
404.869	72.25
405.093	96.25
405.317	84.25
405.541	89.25
405.765	90.25
405.988	84.25
406.212	86.25
406.436	85.25
406.66	90.25
406.883	95.25
407.107	102.25
407.331	87.25
407.555	92.25
407.778	103.25
408.002	92.25
408.226	78.25
408.449	86.25
408.673	83.25
408.896	86.25
409.12	77.25
409.344	87.25
409.567	94.25
409.791	87.25
410.014	88.25
410.238	103.25
410.461	89.25
410.685	101.25
410.908	84.25
411.132	82.25
411.355	87.25
411.578	100.25
411.802	82.25
412.025	96.25
412.249	98.25
412.472	89.25
412.695	88.25
412.919	67.25
413.142	93.25
413.365	97.25
413.589	93.25
413.812	72.25
414.035	85.25
414.258	89.25
414.482	94.25
414.705	87.25
414.928	89.25
415.151	93.25
415.374	86.25
415.597	90.25
415.821	90.25
416.044	89.25
416.267	79.25
416.49	83.25
416.713	93.25
416.936	94.25
417.159	89.25
417.382	105.25
417.605	94.25
417.828	81.25
418.051	91.25
418.274	104.25
418.497	85.25
418.72	89.25
418.943	88.25
419.166	93.25
419.389	99.25
419.611	84.25
419.834	101.25
420.057	93.25
420.28	77.25
420.503	93.25
420.726	95.25
420.948	97.25
421.171	94.25
421.394	85.25
421.617	90.25
421.839	88.25
422.062	98.25
422.285	83.25
422.507	87.25
422.73	97.25
422.953	86.25
423.175	91.25
423.398	89.25
423.621	89.25
423.843	88.25
424.066	94.25
424.288	98.25
424.511	101.25
424.733	99.25
424.956	89.25
425.178	88.25
425.401	102.25
425.623	94.25
425.846	74.25
426.068	94.25
426.291	99.25
426.513	95.25
426.735	98.25
426.958	85.25
427.18	105.25
427.402	90.25
427.625	90.25
427.847	100.25
428.069	92.25
428.292	84.25
428.514	98.25
428.736	79.25
428.958	91.25
429.181	81.25
429.403	83.25
429.625	88.25
429.847	75.25
430.069	91.25
430.292	105.25
430.514	84.25
430.736	99.25
430.958	88.25
431.18	90.25
431.402	95.25
431.624	89.25
431.846	99.25
432.068	79.25
432.29	92.25
432.512	89.25
432.734	97.25
432.956	91.25
433.178	90.25
433.4	87.25
433.622	97.25
433.844	93.25
434.066	104.25
434.287	94.25
434.509	69.25
434.731	86.25
434.953	87.25
435.175	102.25
435.397	87.25
435.618	85.25
435.84	82.25
436.062	81.25
436.284	86.25
436.505	101.25
436.727	96.25
436.949	93.25
437.17	89.25
437.392	90.25
437.614	93.25
437.835	83.25
438.057	63.25
438.278	98.25
438.5	97.25
438.721	97.25
438.943	98.25
439.165	83.25
439.386	97.25
439.608	93.25
439.829	96.25
440.05	91.25
440.272	102.25
440.493	95.25
440.715	98.25
440.936	127.25
441.158	86.25
441.379	95.25
441.6	105.25
441.822	88.25
442.043	90.25
442.264	90.25
442.486	103.25
442.707	105.25
442.928	96.25
443.149	87.25
443.371	87.25
443.592	100.25
443.813	100.25
444.034	91.25
444.255	99.25
444.476	89.25
444.698	94.25
444.919	104.25
445.14	210.25
445.361	153.25
445.582	95.25
445.803	87.25
446.024	99.25
446.245	94.25
446.466	106.25
446.687	74.25
446.908	89.25
447.129	96.25
447.35	89.25
447.571	91.25
447.792	96.25
448.013	80.25
448.234	83.25
448.455	82.25
448.675	96.25
448.896	103.25
449.117	100.25
449.338	93.25
449.559	95.25
449.779	103.25
450	96.25
450.221	99.25
450.442	89.25
450.662	109.25
450.883	85.25
451.104	99.25
451.324	99.25
451.545	88.25
451.766	97.25
451.986	86.25
452.207	79.25
452.428	87.25
452.648	74.25
452.869	80.25
453.089	80.25
453.31	78.25
453.53	88.25
453.751	88.25
453.971	86.25
454.192	97.25
454.412	98.25
454.633	85.25
454.853	82.25
455.073	83.25
455.294	74.25
455.514	97.25
455.734	99.25
455.955	82.25
456.175	97.25
456.395	85.25
456.616	81.25
456.836	86.25
457.056	87.25
457.276	85.25
457.497	89.25
457.717	103.25
457.937	96.25
458.157	88.25
458.377	74.25
458.598	83.25
458.818	74.25
459.038	75.25
459.258	86.25
459.478	91.25
459.698	86.25
459.918	81.25
460.138	91.25
460.358	75.25
460.578	83.25
460.798	103.25
461.018	99.25
461.238	93.25
461.458	92.25
461.678	75.25
461.898	89.25
462.118	75.25
462.338	86.25
462.558	73.25
462.777	86.25
462.997	93.25
463.217	85.25
463.437	87.25
463.657	90.25
463.876	109.25
464.096	75.25
464.316	78.25
464.536	88.25
464.755	70.25
464.975	90.25
465.195	100.25
465.414	88.25
465.634	91.25
465.854	88.25
466.073	94.25
466.293	91.25
466.512	81.25
466.732	100.25
466.951	86.25
467.171	97.25
467.391	93.25
467.61	98.25
467.829	96.25
468.049	92.25
468.268	99.25
468.488	80.25
468.707	80.25
468.927	80.25
469.146	93.25
469.365	83.25
469.585	91.25
469.804	90.25
470.023	79.25
470.243	99.25
470.462	93.25
470.681	91.25
470.901	103.25
471.12	100.25
471.339	98.25
471.558	104.25
471.777	88.25
471.997	100.25
472.216	89.25
472.435	91.25
472.654	81.25
472.873	109.25
473.092	76.25
473.311	88.25
473.53	98.25
473.749	94.25
473.968	100.25
474.187	90.25
474.406	94.25
474.625	85.25
474.844	89.25
475.063	91.25
475.282	90.25
475.501	88.25
475.72	93.25
475.939	89.25
476.158	92.25
476.377	102.25
476.596	90.25
476.814	85.25
477.033	89.25
477.252	84.25
477.471	80.25
477.69	100.25
477.908	100.25
478.127	101.25
478.346	84.25
478.564	99.25
478.783	93.25
479.002	94.25
479.22	83.25
479.439	84.25
479.658	94.25
479.876	83.25
480.095	90.25
480.313	95.25
480.532	85.25
480.751	80.25
480.969	79.25
481.188	78.25
481.406	85.25
481.624	70.25
481.843	89.25
482.061	84.25
482.28	90.25
482.498	89.25
482.717	91.25
482.935	81.25
483.153	93.25
483.372	90.25
483.59	104.25
483.808	91.25
484.027	99.25
484.245	101.25
484.463	98.25
484.681	91.25
484.9	90.25
485.118	106.25
485.336	90.25
485.554	75.25
485.772	82.25
485.99	85.25
486.209	90.25
486.427	93.25
486.645	90.25
486.863	105.25
487.081	98.25
487.299	84.25
487.517	102.25
487.735	99.25
487.953	111.25
488.171	96.25
488.389	104.25
488.607	106.25
488.825	110.25
489.043	102.25
489.261	100.25
489.479	97.25
489.696	86.25
489.914	87.25
490.132	92.25
490.35	97.25
490.568	97.25
490.786	95.25
491.003	106.25
491.221	113.25
491.439	103.25
491.657	113.25
491.874	114.25
492.092	112.25
492.31	109.25
492.527	118.25
492.745	122.25
492.963	125.25
493.18	106.25
493.398	102.25
493.615	99.25
493.833	118.25
494.05	109.25
494.268	103.25
494.485	105.25
494.703	91.25
494.92	103.25
495.138	106.25
495.355	100.25
495.573	118.25
495.79	87.25
496.008	113.25
496.225	109.25
496.442	99.25
496.66	92.25
496.877	100.25
497.094	96.25
497.312	90.25
497.529	97.25
497.746	109.25
497.963	105.25
498.181	82.25
498.398	97.25
498.615	97.25
498.832	86.25
499.049	85.25
499.267	87.25
499.484	73.25
499.701	79.25
499.918	78.25
500.135	94.25
500.352	103.25
500.569	97.25
500.786	105.25
501.003	99.25
501.22	97.25
501.437	113.25
501.654	106.25
501.871	104.25
502.088	94.25
502.305	90.25
502.522	96.25
502.739	99.25
502.956	100.25
503.172	87.25
503.389	92.25
503.606	87.25
503.823	104.25
504.04	107.25
504.256	99.25
504.473	94.25
504.69	80.25
504.907	91.25
505.123	89.25
505.34	96.25
505.557	93.25
505.773	95.25
505.99	83.25
506.207	76.25
506.423	85.25
506.64	98.25
506.856	93.25
507.073	80.25
507.289	90.25
507.506	84.25
507.722	86.25
507.939	89.25
508.155	87.25
508.372	78.25
508.588	101.25
508.805	82.25
509.021	95.25
509.238	102.25
509.454	91.25
509.67	74.25
509.887	73.25
510.103	67.25
510.319	78.25
510.536	87.25
510.752	78.25
510.968	83.25
511.184	81.25
511.401	81.25
511.617	76.25
511.833	69.25
512.049	85.25
512.265	87.25
512.481	74.25
512.698	102.25
512.914	70.25
513.13	91.25
513.346	89.25
513.562	89.25
513.778	104.25
513.994	77.25
514.21	94.25
514.426	95.25
514.642	89.25
514.858	85.25
515.074	79.25
515.29	95.25
515.506	88.25
515.721	87.25
515.937	72.25
516.153	80.25
516.369	77.25
516.585	74.25
516.801	89.25
517.016	94.25
517.232	80.25
517.448	86.25
517.664	84.25
517.879	83.25
518.095	86.25
