Data from Location5.07152019.Energy5.Lamp.07192019.3%Agarose_HRD10591_15-38-00-388.txt Node
Date: Fri Jul 19 15:38:00 EDT 2019
User: cochatt
Spectrometer: HR+D1059
Trigger mode: 1
Integration Time (sec): 1.000000E-1
Scans to average: 1
Electric dark correction enabled: true
Nonlinearity correction enabled: false
Boxcar width: 0
XAxis mode: Wavelengths
Number of Pixels in Spectrum: 2048
>>>>>Begin Spectral Data<<<<<
223.165	-2.88
223.4	-2.88
223.635	-2.88
223.869	-21.88
224.104	-24.88
224.338	-19.88
224.573	-11.88
224.808	-21.88
225.042	-3.88
225.277	10.12
225.511	11.12
225.746	6.12
225.98	5.12
226.215	-2.88
226.449	9.12
226.683	18.12
226.918	22.12
227.152	28.12
227.387	32.12
227.621	37.12
227.856	57.12
228.09	49.12
228.324	46.12
228.559	51.12
228.793	57.12
229.027	69.12
229.262	55.12
229.496	71.12
229.73	70.12
229.964	70.12
230.199	76.12
230.433	78.12
230.667	92.12
230.901	78.12
231.136	86.12
231.37	78.12
231.604	87.12
231.838	89.12
232.072	89.12
232.306	81.12
232.541	73.12
232.775	65.12
233.009	77.12
233.243	81.12
233.477	68.12
233.711	80.12
233.945	71.12
234.179	75.12
234.413	90.12
234.647	86.12
234.881	81.12
235.115	80.12
235.349	70.12
235.583	86.12
235.817	89.12
236.051	70.12
236.285	73.12
236.519	72.12
236.753	68.12
236.987	71.12
237.221	84.12
237.455	78.12
237.689	75.12
237.922	83.12
238.156	77.12
238.39	80.12
238.624	78.12
238.858	82.12
239.091	88.12
239.325	68.12
239.559	75.12
239.793	91.12
240.027	83.12
240.26	76.12
240.494	81.12
240.728	66.12
240.961	74.12
241.195	74.12
241.429	83.12
241.662	85.12
241.896	74.12
242.13	71.12
242.363	79.12
242.597	86.12
242.83	72.12
243.064	82.12
243.298	86.12
243.531	81.12
243.765	86.12
243.998	85.12
244.232	74.12
244.465	71.12
244.699	81.12
244.932	77.12
245.166	79.12
245.399	76.12
245.633	76.12
245.866	96.12
246.099	70.12
246.333	80.12
246.566	92.12
246.8	74.12
247.033	89.12
247.266	89.12
247.5	66.12
247.733	84.12
247.966	76.12
248.2	90.12
248.433	76.12
248.666	85.12
248.899	67.12
249.133	94.12
249.366	92.12
249.599	83.12
249.832	73.12
250.066	77.12
250.299	86.12
250.532	84.12
250.765	84.12
250.998	81.12
251.231	74.12
251.465	95.12
251.698	93.12
251.931	73.12
252.164	68.12
252.397	83.12
252.63	74.12
252.863	77.12
253.096	75.12
253.329	84.12
253.562	89.12
253.795	98.12
254.028	85.12
254.261	70.12
254.494	74.12
254.727	85.12
254.96	66.12
255.193	85.12
255.426	85.12
255.659	82.12
255.892	85.12
256.124	77.12
256.357	94.12
256.59	81.12
256.823	78.12
257.056	83.12
257.289	80.12
257.521	92.12
257.754	81.12
257.987	68.12
258.22	79.12
258.452	79.12
258.685	86.12
258.918	71.12
259.151	78.12
259.383	84.12
259.616	88.12
259.849	83.12
260.081	83.12
260.314	79.12
260.547	78.12
260.779	79.12
261.012	75.12
261.244	79.12
261.477	86.12
261.71	79.12
261.942	87.12
262.175	70.12
262.407	74.12
262.64	78.12
262.872	79.12
263.105	90.12
263.337	86.12
263.57	85.12
263.802	79.12
264.035	81.12
264.267	94.12
264.499	81.12
264.732	67.12
264.964	74.12
265.197	80.12
265.429	92.12
265.661	79.12
265.894	73.12
266.126	73.12
266.358	76.12
266.591	71.12
266.823	88.12
267.055	69.12
267.287	87.12
267.52	92.12
267.752	90.12
267.984	90.12
268.216	82.12
268.448	80.12
268.681	92.12
268.913	90.12
269.145	88.12
269.377	87.12
269.609	77.12
269.841	86.12
270.073	87.12
270.306	76.12
270.538	83.12
270.77	84.12
271.002	83.12
271.234	85.12
271.466	87.12
271.698	85.12
271.93	101.12
272.162	90.12
272.394	88.12
272.626	70.12
272.858	83.12
273.09	84.12
273.322	91.12
273.553	73.12
273.785	93.12
274.017	72.12
274.249	80.12
274.481	83.12
274.713	83.12
274.945	82.12
275.176	84.12
275.408	75.12
275.64	81.12
275.872	88.12
276.104	83.12
276.335	86.12
276.567	88.12
276.799	84.12
277.031	101.12
277.262	98.12
277.494	87.12
277.726	79.12
277.957	76.12
278.189	95.12
278.421	76.12
278.652	92.12
278.884	76.12
279.115	75.12
279.347	94.12
279.579	75.12
279.81	85.12
280.042	84.12
280.273	82.12
280.505	90.12
280.736	92.12
280.968	84.12
281.199	90.12
281.431	88.12
281.662	84.12
281.894	85.12
282.125	86.12
282.356	84.12
282.588	90.12
282.819	108.12
283.051	87.12
283.282	88.12
283.513	77.12
283.745	73.12
283.976	96.12
284.207	87.12
284.439	72.12
284.67	85.12
284.901	72.12
285.132	80.12
285.364	84.12
285.595	100.12
285.826	84.12
286.057	103.12
286.288	97.12
286.52	87.12
286.751	83.12
286.982	97.12
287.213	78.12
287.444	82.12
287.675	84.12
287.906	81.12
288.138	84.12
288.369	90.12
288.6	83.12
288.831	86.12
289.062	87.12
289.293	75.12
289.524	88.12
289.755	79.12
289.986	84.12
290.217	83.12
290.448	77.12
290.679	92.12
290.91	88.12
291.141	85.12
291.371	76.12
291.602	98.12
291.833	82.12
292.064	87.12
292.295	97.12
292.526	88.12
292.757	78.12
292.987	87.12
293.218	97.12
293.449	73.12
293.68	94.12
293.91	97.12
294.141	97.12
294.372	85.12
294.603	76.12
294.833	91.12
295.064	86.12
295.295	90.12
295.525	82.12
295.756	94.12
295.987	74.12
296.217	84.12
296.448	89.12
296.679	99.12
296.909	101.12
297.14	89.12
297.37	74.12
297.601	84.12
297.831	90.12
298.062	75.12
298.292	95.12
298.523	74.12
298.753	89.12
298.984	93.12
299.214	89.12
299.445	91.12
299.675	89.12
299.905	81.12
300.136	80.12
300.366	95.12
300.597	84.12
300.827	98.12
301.057	83.12
301.288	85.12
301.518	86.12
301.748	96.12
301.979	81.12
302.209	87.12
302.439	89.12
302.669	81.12
302.9	94.12
303.13	81.12
303.36	89.12
303.59	92.12
303.82	77.12
304.051	79.12
304.281	94.12
304.511	84.12
304.741	82.12
304.971	86.12
305.201	90.12
305.431	96.12
305.661	94.12
305.891	73.12
306.121	81.12
306.352	91.12
306.582	94.12
306.812	85.12
307.042	75.12
307.272	71.12
307.502	74.12
307.731	85.12
307.961	102.12
308.191	90.12
308.421	80.12
308.651	84.12
308.881	102.12
309.111	81.12
309.341	71.12
309.571	97.12
309.8	99.12
310.03	76.12
310.26	94.12
310.49	95.12
310.72	94.12
310.949	102.12
311.179	85.12
311.409	87.12
311.639	94.12
311.868	88.12
312.098	95.12
312.328	79.12
312.557	85.12
312.787	81.12
313.017	93.12
313.246	79.12
313.476	80.12
313.706	77.12
313.935	104.12
314.165	96.12
314.394	74.12
314.624	97.12
314.853	76.12
315.083	77.12
315.312	68.12
315.542	85.12
315.771	100.12
316.001	91.12
316.23	78.12
316.46	76.12
316.689	86.12
316.919	79.12
317.148	84.12
317.377	93.12
317.607	95.12
317.836	85.12
318.065	84.12
318.295	80.12
318.524	87.12
318.753	95.12
318.983	100.12
319.212	75.12
319.441	79.12
319.67	89.12
319.9	89.12
320.129	86.12
320.358	82.12
320.587	77.12
320.816	93.12
321.046	78.12
321.275	95.12
321.504	93.12
321.733	73.12
321.962	83.12
322.191	88.12
322.42	74.12
322.649	78.12
322.878	75.12
323.108	90.12
323.337	79.12
323.566	88.12
323.795	77.12
324.024	94.12
324.253	87.12
324.482	92.12
324.71	81.12
324.939	94.12
325.168	85.12
325.397	85.12
325.626	97.12
325.855	84.12
326.084	82.12
326.313	77.12
326.542	80.12
326.77	81.12
326.999	84.12
327.228	89.12
327.457	97.12
327.686	89.12
327.914	84.12
328.143	87.12
328.372	92.12
328.6	76.12
328.829	104.12
329.058	90.12
329.287	98.12
329.515	79.12
329.744	97.12
329.972	72.12
330.201	84.12
330.43	85.12
330.658	73.12
330.887	94.12
331.115	79.12
331.344	101.12
331.572	81.12
331.801	77.12
332.03	91.12
332.258	85.12
332.486	86.12
332.715	85.12
332.943	88.12
333.172	90.12
333.4	85.12
333.629	78.12
333.857	85.12
334.085	83.12
334.314	79.12
334.542	88.12
334.771	87.12
334.999	94.12
335.227	87.12
335.455	86.12
335.684	82.12
335.912	94.12
336.14	89.12
336.369	97.12
336.597	89.12
336.825	94.12
337.053	85.12
337.281	95.12
337.51	84.12
337.738	73.12
337.966	98.12
338.194	95.12
338.422	83.12
338.65	94.12
338.878	107.12
339.106	82.12
339.334	81.12
339.562	80.12
339.79	98.12
340.018	92.12
340.246	88.12
340.474	85.12
340.702	81.12
340.93	98.12
341.158	76.12
341.386	69.12
341.614	85.12
341.842	77.12
342.07	96.12
342.298	89.12
342.526	98.12
342.754	105.12
342.981	84.12
343.209	93.12
343.437	85.12
343.665	100.12
343.893	86.12
344.12	83.12
344.348	86.12
344.576	91.12
344.804	85.12
345.031	83.12
345.259	74.12
345.487	97.12
345.714	78.12
345.942	90.12
346.17	85.12
346.397	93.12
346.625	84.12
346.853	74.12
347.08	89.12
347.308	85.12
347.535	87.12
347.763	87.12
347.99	66.12
348.218	86.12
348.445	94.12
348.673	85.12
348.9	85.12
349.128	98.12
349.355	88.12
349.583	85.12
349.81	88.12
350.037	87.12
350.265	91.12
350.492	75.12
350.72	100.12
350.947	89.12
351.174	87.12
351.402	81.12
351.629	97.12
351.856	87.12
352.083	82.12
352.311	99.12
352.538	96.12
352.765	78.12
352.992	83.12
353.22	84.12
353.447	98.12
353.674	99.12
353.901	86.12
354.128	90.12
354.355	85.12
354.583	77.12
354.81	97.12
355.037	80.12
355.264	91.12
355.491	83.12
355.718	80.12
355.945	82.12
356.172	81.12
356.399	88.12
356.626	99.12
356.853	89.12
357.08	93.12
357.307	110.12
357.534	96.12
357.761	77.12
357.988	81.12
358.215	92.12
358.441	86.12
358.668	91.12
358.895	77.12
359.122	86.12
359.349	84.12
359.576	86.12
359.802	89.12
360.029	79.12
360.256	94.12
360.483	81.12
360.709	82.12
360.936	91.12
361.163	75.12
361.39	93.12
361.616	87.12
361.843	94.12
362.07	88.12
362.296	106.12
362.523	76.12
362.749	88.12
362.976	82.12
363.203	77.12
363.429	74.12
363.656	70.12
363.882	75.12
364.109	94.12
364.335	91.12
364.562	103.12
364.788	84.12
365.015	87.12
365.241	86.12
365.468	83.12
365.694	79.12
365.92	86.12
366.147	93.12
366.373	86.12
366.599	80.12
366.826	78.12
367.052	83.12
367.278	89.12
367.505	82.12
367.731	99.12
367.957	95.12
368.184	86.12
368.41	89.12
368.636	94.12
368.862	100.12
369.089	92.12
369.315	84.12
369.541	82.12
369.767	76.12
369.993	76.12
370.219	89.12
370.445	89.12
370.672	82.12
370.898	86.12
371.124	91.12
371.35	78.12
371.576	78.12
371.802	93.12
372.028	87.12
372.254	92.12
372.48	93.12
372.706	85.12
372.932	83.12
373.158	94.12
373.384	88.12
373.61	90.12
373.835	87.12
374.061	89.12
374.287	77.12
374.513	102.12
374.739	76.12
374.965	93.12
375.191	89.12
375.416	85.12
375.642	92.12
375.868	97.12
376.094	91.12
376.319	84.12
376.545	105.12
376.771	89.12
376.997	90.12
377.222	92.12
377.448	87.12
377.674	97.12
377.899	83.12
378.125	84.12
378.35	92.12
378.576	74.12
378.802	74.12
379.027	87.12
379.253	80.12
379.478	94.12
379.704	92.12
379.929	77.12
380.155	75.12
380.38	73.12
380.606	76.12
380.831	78.12
381.057	92.12
381.282	96.12
381.507	104.12
381.733	100.12
381.958	98.12
382.184	97.12
382.409	87.12
382.634	85.12
382.86	86.12
383.085	85.12
383.31	91.12
383.535	91.12
383.761	88.12
383.986	83.12
384.211	80.12
384.436	93.12
384.662	96.12
384.887	89.12
385.112	95.12
385.337	91.12
385.562	73.12
385.787	75.12
386.013	102.12
386.238	85.12
386.463	94.12
386.688	86.12
386.913	88.12
387.138	95.12
387.363	92.12
387.588	77.12
387.813	91.12
388.038	91.12
388.263	86.12
388.488	82.12
388.713	87.12
388.938	83.12
389.163	91.12
389.387	88.12
389.612	93.12
389.837	85.12
390.062	85.12
390.287	89.12
390.512	104.12
390.736	83.12
390.961	105.12
391.186	89.12
391.411	96.12
391.636	83.12
391.86	106.12
392.085	83.12
392.31	99.12
392.534	94.12
392.759	86.12
392.984	74.12
393.208	88.12
393.433	91.12
393.658	71.12
393.882	90.12
394.107	73.12
394.331	89.12
394.556	83.12
394.78	87.12
395.005	94.12
395.229	83.12
395.454	86.12
395.678	94.12
395.903	85.12
396.127	78.12
396.352	91.12
396.576	86.12
396.801	84.12
397.025	84.12
397.249	84.12
397.474	93.12
397.698	89.12
397.922	93.12
398.147	86.12
398.371	85.12
398.595	85.12
398.82	90.12
399.044	105.12
399.268	80.12
399.492	87.12
399.717	95.12
399.941	82.12
400.165	99.12
400.389	91.12
400.613	93.12
400.837	94.12
401.062	98.12
401.286	84.12
401.51	85.12
401.734	82.12
401.958	94.12
402.182	83.12
402.406	93.12
402.63	97.12
402.854	84.12
403.078	85.12
403.302	101.12
403.526	99.12
403.75	84.12
403.974	91.12
404.198	83.12
404.422	98.12
404.645	98.12
404.869	100.12
405.093	97.12
405.317	94.12
405.541	99.12
405.765	87.12
405.988	86.12
406.212	106.12
406.436	87.12
406.66	99.12
406.883	105.12
407.107	88.12
407.331	97.12
407.555	88.12
407.778	85.12
408.002	106.12
408.226	89.12
408.449	90.12
408.673	79.12
408.896	101.12
409.12	109.12
409.344	85.12
409.567	94.12
409.791	83.12
410.014	98.12
410.238	78.12
410.461	99.12
410.685	87.12
410.908	87.12
411.132	97.12
411.355	90.12
411.578	96.12
411.802	102.12
412.025	90.12
412.249	96.12
412.472	79.12
412.695	93.12
412.919	90.12
413.142	91.12
413.365	85.12
413.589	98.12
413.812	82.12
414.035	101.12
414.258	86.12
414.482	86.12
414.705	84.12
414.928	93.12
415.151	78.12
415.374	89.12
415.597	103.12
415.821	90.12
416.044	105.12
416.267	85.12
416.49	80.12
416.713	87.12
416.936	90.12
417.159	88.12
417.382	79.12
417.605	82.12
417.828	78.12
418.051	90.12
418.274	93.12
418.497	97.12
418.72	88.12
418.943	103.12
419.166	94.12
419.389	96.12
419.611	105.12
419.834	96.12
420.057	91.12
420.28	88.12
420.503	87.12
420.726	87.12
420.948	93.12
421.171	89.12
421.394	104.12
421.617	79.12
421.839	104.12
422.062	94.12
422.285	97.12
422.507	113.12
422.73	101.12
422.953	105.12
423.175	91.12
423.398	88.12
423.621	84.12
423.843	81.12
424.066	95.12
424.288	83.12
424.511	98.12
424.733	93.12
424.956	89.12
425.178	96.12
425.401	90.12
425.623	87.12
425.846	85.12
426.068	96.12
426.291	89.12
426.513	84.12
426.735	83.12
426.958	78.12
427.18	92.12
427.402	97.12
427.625	89.12
427.847	84.12
428.069	85.12
428.292	89.12
428.514	88.12
428.736	119.12
428.958	104.12
429.181	85.12
429.403	104.12
429.625	96.12
429.847	98.12
430.069	98.12
430.292	100.12
430.514	92.12
430.736	91.12
430.958	98.12
431.18	87.12
431.402	100.12
431.624	97.12
431.846	94.12
432.068	83.12
432.29	73.12
432.512	100.12
432.734	92.12
432.956	97.12
433.178	95.12
433.4	91.12
433.622	106.12
433.844	86.12
434.066	78.12
434.287	94.12
434.509	77.12
434.731	89.12
434.953	99.12
435.175	115.12
435.397	86.12
435.618	72.12
435.84	76.12
436.062	91.12
436.284	83.12
436.505	87.12
436.727	96.12
436.949	100.12
437.17	91.12
437.392	93.12
437.614	84.12
437.835	89.12
438.057	77.12
438.278	82.12
438.5	88.12
438.721	102.12
438.943	107.12
439.165	94.12
439.386	101.12
439.608	104.12
439.829	97.12
440.05	102.12
440.272	95.12
440.493	111.12
440.715	102.12
440.936	85.12
441.158	100.12
441.379	93.12
441.6	94.12
441.822	100.12
442.043	91.12
442.264	86.12
442.486	107.12
442.707	105.12
442.928	105.12
443.149	93.12
443.371	85.12
443.592	89.12
443.813	97.12
444.034	87.12
444.255	86.12
444.476	93.12
444.698	82.12
444.919	92.12
445.14	179.12
445.361	141.12
445.582	99.12
445.803	97.12
446.024	101.12
446.245	106.12
446.466	97.12
446.687	84.12
446.908	100.12
447.129	103.12
447.35	101.12
447.571	98.12
447.792	100.12
448.013	100.12
448.234	99.12
448.455	91.12
448.675	89.12
448.896	87.12
449.117	98.12
449.338	101.12
449.559	100.12
449.779	81.12
450	101.12
450.221	93.12
450.442	106.12
450.662	92.12
450.883	83.12
451.104	94.12
451.324	106.12
451.545	97.12
451.766	96.12
451.986	98.12
452.207	84.12
452.428	88.12
452.648	97.12
452.869	97.12
453.089	95.12
453.31	85.12
453.53	92.12
453.751	93.12
453.971	97.12
454.192	98.12
454.412	89.12
454.633	90.12
454.853	77.12
455.073	91.12
455.294	84.12
455.514	100.12
455.734	87.12
455.955	94.12
456.175	84.12
456.395	98.12
456.616	94.12
456.836	94.12
457.056	98.12
457.276	87.12
457.497	92.12
457.717	96.12
457.937	92.12
458.157	82.12
458.377	102.12
458.598	89.12
458.818	87.12
459.038	75.12
459.258	92.12
459.478	86.12
459.698	97.12
459.918	83.12
460.138	97.12
460.358	90.12
460.578	91.12
460.798	90.12
461.018	85.12
461.238	80.12
461.458	98.12
461.678	94.12
461.898	91.12
462.118	95.12
462.338	83.12
462.558	90.12
462.777	76.12
462.997	72.12
463.217	96.12
463.437	101.12
463.657	85.12
463.876	67.12
464.096	100.12
464.316	92.12
464.536	85.12
464.755	109.12
464.975	91.12
465.195	92.12
465.414	103.12
465.634	87.12
465.854	88.12
466.073	88.12
466.293	103.12
466.512	102.12
466.732	109.12
466.951	77.12
467.171	94.12
467.391	98.12
467.61	91.12
467.829	99.12
468.049	87.12
468.268	91.12
468.488	92.12
468.707	117.12
468.927	86.12
469.146	102.12
469.365	98.12
469.585	95.12
469.804	99.12
470.023	101.12
470.243	99.12
470.462	100.12
470.681	106.12
470.901	89.12
471.12	80.12
471.339	99.12
471.558	94.12
471.777	99.12
471.997	102.12
472.216	101.12
472.435	108.12
472.654	89.12
472.873	97.12
473.092	102.12
473.311	93.12
473.53	97.12
473.749	81.12
473.968	92.12
474.187	95.12
474.406	93.12
474.625	98.12
474.844	90.12
475.063	87.12
475.282	109.12
475.501	93.12
475.72	98.12
475.939	108.12
476.158	83.12
476.377	93.12
476.596	111.12
476.814	92.12
477.033	87.12
477.252	94.12
477.471	98.12
477.69	88.12
477.908	89.12
478.127	95.12
478.346	97.12
478.564	89.12
478.783	95.12
479.002	101.12
479.22	84.12
479.439	104.12
479.658	96.12
479.876	79.12
480.095	74.12
480.313	87.12
480.532	92.12
480.751	102.12
480.969	85.12
481.188	98.12
481.406	86.12
481.624	109.12
481.843	94.12
482.061	80.12
482.28	103.12
482.498	96.12
482.717	80.12
482.935	89.12
483.153	109.12
483.372	113.12
483.59	101.12
483.808	104.12
484.027	95.12
484.245	95.12
484.463	93.12
484.681	94.12
484.9	87.12
485.118	94.12
485.336	91.12
485.554	106.12
485.772	85.12
485.99	98.12
486.209	81.12
486.427	82.12
486.645	99.12
486.863	91.12
487.081	98.12
487.299	99.12
487.517	91.12
487.735	88.12
487.953	110.12
488.171	116.12
488.389	107.12
488.607	115.12
488.825	97.12
489.043	89.12
489.261	93.12
489.479	100.12
489.696	101.12
489.914	105.12
490.132	101.12
490.35	95.12
490.568	101.12
490.786	99.12
491.003	108.12
491.221	92.12
491.439	103.12
491.657	113.12
491.874	128.12
492.092	117.12
492.31	123.12
492.527	127.12
492.745	117.12
492.963	95.12
493.18	113.12
493.398	107.12
493.615	112.12
493.833	121.12
494.05	101.12
494.268	102.12
494.485	110.12
494.703	90.12
494.92	108.12
495.138	102.12
495.355	113.12
495.573	105.12
495.79	109.12
496.008	99.12
496.225	106.12
496.442	115.12
496.66	115.12
496.877	109.12
497.094	107.12
497.312	95.12
497.529	99.12
497.746	93.12
497.963	85.12
498.181	99.12
498.398	95.12
498.615	91.12
498.832	92.12
499.049	85.12
499.267	101.12
499.484	94.12
499.701	104.12
499.918	90.12
500.135	102.12
500.352	110.12
500.569	111.12
500.786	88.12
501.003	105.12
501.22	101.12
501.437	94.12
501.654	89.12
501.871	83.12
502.088	82.12
502.305	102.12
502.522	101.12
502.739	90.12
502.956	99.12
503.172	107.12
503.389	90.12
503.606	93.12
503.823	75.12
504.04	102.12
504.256	96.12
504.473	97.12
504.69	93.12
504.907	100.12
505.123	85.12
505.34	89.12
505.557	85.12
505.773	106.12
505.99	102.12
506.207	95.12
506.423	93.12
506.64	81.12
506.856	91.12
507.073	103.12
507.289	104.12
507.506	104.12
507.722	97.12
507.939	96.12
508.155	105.12
508.372	112.12
508.588	87.12
508.805	96.12
509.021	80.12
509.238	83.12
509.454	75.12
509.67	86.12
509.887	83.12
510.103	82.12
510.319	94.12
510.536	82.12
510.752	85.12
510.968	90.12
511.184	97.12
511.401	79.12
511.617	84.12
511.833	79.12
512.049	112.12
512.265	90.12
512.481	99.12
512.698	82.12
512.914	81.12
513.13	101.12
513.346	89.12
513.562	98.12
513.778	85.12
513.994	82.12
514.21	78.12
514.426	102.12
514.642	88.12
514.858	93.12
515.074	76.12
515.29	90.12
515.506	88.12
515.721	81.12
515.937	91.12
516.153	73.12
516.369	97.12
516.585	110.12
516.801	71.12
517.016	92.12
