Data from Location5.07152019.Energy5.Lamp.07192019.3%Agarose_HRD10591_15-38-10-388.txt Node
Date: Fri Jul 19 15:38:10 EDT 2019
User: cochatt
Spectrometer: HR+D1059
Trigger mode: 1
Integration Time (sec): 1.000000E-1
Scans to average: 1
Electric dark correction enabled: true
Nonlinearity correction enabled: false
Boxcar width: 0
XAxis mode: Wavelengths
Number of Pixels in Spectrum: 2048
>>>>>Begin Spectral Data<<<<<
223.165	-19.5
223.4	-19.5
223.635	-19.5
223.869	-11.5
224.104	-15.5
224.338	-15.5
224.573	-10.5
224.808	-0.5
225.042	-4.5
225.277	-10.5
225.511	20.5
225.746	5.5
225.98	10.5
226.215	-11.5
226.449	14.5
226.683	5.5
226.918	18.5
227.152	24.5
227.387	22.5
227.621	38.5
227.856	40.5
228.09	40.5
228.324	55.5
228.559	54.5
228.793	53.5
229.027	57.5
229.262	64.5
229.496	66.5
229.73	65.5
229.964	77.5
230.199	70.5
230.433	66.5
230.667	76.5
230.901	91.5
231.136	76.5
231.37	90.5
231.604	83.5
231.838	74.5
232.072	86.5
232.306	87.5
232.541	96.5
232.775	97.5
233.009	88.5
233.243	79.5
233.477	95.5
233.711	93.5
233.945	93.5
234.179	88.5
234.413	81.5
234.647	75.5
234.881	93.5
235.115	85.5
235.349	78.5
235.583	82.5
235.817	73.5
236.051	76.5
236.285	79.5
236.519	74.5
236.753	86.5
236.987	74.5
237.221	73.5
237.455	84.5
237.689	65.5
237.922	61.5
238.156	88.5
238.39	74.5
238.624	59.5
238.858	75.5
239.091	96.5
239.325	73.5
239.559	82.5
239.793	73.5
240.027	97.5
240.26	78.5
240.494	85.5
240.728	82.5
240.961	84.5
241.195	89.5
241.429	73.5
241.662	78.5
241.896	64.5
242.13	67.5
242.363	68.5
242.597	74.5
242.83	63.5
243.064	73.5
243.298	81.5
243.531	76.5
243.765	76.5
243.998	82.5
244.232	82.5
244.465	79.5
244.699	65.5
244.932	68.5
245.166	76.5
245.399	76.5
245.633	83.5
245.866	92.5
246.099	74.5
246.333	79.5
246.566	75.5
246.8	80.5
247.033	71.5
247.266	73.5
247.5	82.5
247.733	87.5
247.966	81.5
248.2	74.5
248.433	66.5
248.666	85.5
248.899	75.5
249.133	89.5
249.366	92.5
249.599	91.5
249.832	93.5
250.066	81.5
250.299	84.5
250.532	90.5
250.765	91.5
250.998	87.5
251.231	75.5
251.465	81.5
251.698	82.5
251.931	68.5
252.164	68.5
252.397	83.5
252.63	94.5
252.863	76.5
253.096	80.5
253.329	75.5
253.562	82.5
253.795	77.5
254.028	88.5
254.261	76.5
254.494	89.5
254.727	76.5
254.96	82.5
255.193	86.5
255.426	78.5
255.659	82.5
255.892	68.5
256.124	78.5
256.357	91.5
256.59	92.5
256.823	93.5
257.056	87.5
257.289	74.5
257.521	87.5
257.754	87.5
257.987	75.5
258.22	85.5
258.452	88.5
258.685	92.5
258.918	75.5
259.151	65.5
259.383	81.5
259.616	68.5
259.849	84.5
260.081	83.5
260.314	84.5
260.547	79.5
260.779	87.5
261.012	85.5
261.244	83.5
261.477	75.5
261.71	83.5
261.942	85.5
262.175	80.5
262.407	84.5
262.64	79.5
262.872	89.5
263.105	72.5
263.337	83.5
263.57	82.5
263.802	93.5
264.035	103.5
264.267	88.5
264.499	78.5
264.732	84.5
264.964	83.5
265.197	85.5
265.429	86.5
265.661	78.5
265.894	75.5
266.126	94.5
266.358	102.5
266.591	92.5
266.823	81.5
267.055	84.5
267.287	84.5
267.52	86.5
267.752	83.5
267.984	69.5
268.216	81.5
268.448	85.5
268.681	84.5
268.913	92.5
269.145	80.5
269.377	62.5
269.609	69.5
269.841	77.5
270.073	86.5
270.306	79.5
270.538	81.5
270.77	89.5
271.002	85.5
271.234	93.5
271.466	82.5
271.698	87.5
271.93	99.5
272.162	91.5
272.394	89.5
272.626	76.5
272.858	84.5
273.09	86.5
273.322	98.5
273.553	85.5
273.785	95.5
274.017	95.5
274.249	65.5
274.481	79.5
274.713	68.5
274.945	86.5
275.176	80.5
275.408	88.5
275.64	80.5
275.872	77.5
276.104	89.5
276.335	89.5
276.567	83.5
276.799	75.5
277.031	74.5
277.262	95.5
277.494	90.5
277.726	86.5
277.957	101.5
278.189	96.5
278.421	93.5
278.652	67.5
278.884	80.5
279.115	96.5
279.347	94.5
279.579	74.5
279.81	68.5
280.042	80.5
280.273	95.5
280.505	73.5
280.736	93.5
280.968	76.5
281.199	84.5
281.431	77.5
281.662	83.5
281.894	90.5
282.125	99.5
282.356	104.5
282.588	88.5
282.819	81.5
283.051	91.5
283.282	95.5
283.513	97.5
283.745	90.5
283.976	78.5
284.207	90.5
284.439	86.5
284.67	91.5
284.901	92.5
285.132	69.5
285.364	89.5
285.595	76.5
285.826	79.5
286.057	88.5
286.288	95.5
286.52	96.5
286.751	67.5
286.982	77.5
287.213	85.5
287.444	87.5
287.675	95.5
287.906	77.5
288.138	91.5
288.369	82.5
288.6	92.5
288.831	88.5
289.062	96.5
289.293	82.5
289.524	92.5
289.755	99.5
289.986	82.5
290.217	75.5
290.448	77.5
290.679	98.5
290.91	90.5
291.141	81.5
291.371	74.5
291.602	88.5
291.833	93.5
292.064	88.5
292.295	89.5
292.526	89.5
292.757	90.5
292.987	83.5
293.218	83.5
293.449	77.5
293.68	103.5
293.91	79.5
294.141	86.5
294.372	91.5
294.603	89.5
294.833	93.5
295.064	94.5
295.295	87.5
295.525	81.5
295.756	93.5
295.987	89.5
296.217	89.5
296.448	82.5
296.679	86.5
296.909	93.5
297.14	80.5
297.37	78.5
297.601	72.5
297.831	76.5
298.062	101.5
298.292	89.5
298.523	93.5
298.753	98.5
298.984	96.5
299.214	84.5
299.445	91.5
299.675	89.5
299.905	91.5
300.136	71.5
300.366	91.5
300.597	90.5
300.827	85.5
301.057	82.5
301.288	78.5
301.518	79.5
301.748	91.5
301.979	91.5
302.209	102.5
302.439	77.5
302.669	92.5
302.9	75.5
303.13	89.5
303.36	96.5
303.59	97.5
303.82	86.5
304.051	90.5
304.281	77.5
304.511	94.5
304.741	85.5
304.971	87.5
305.201	100.5
305.431	93.5
305.661	85.5
305.891	89.5
306.121	83.5
306.352	83.5
306.582	86.5
306.812	94.5
307.042	85.5
307.272	88.5
307.502	96.5
307.731	80.5
307.961	78.5
308.191	82.5
308.421	90.5
308.651	77.5
308.881	82.5
309.111	84.5
309.341	105.5
309.571	83.5
309.8	83.5
310.03	80.5
310.26	76.5
310.49	81.5
310.72	88.5
310.949	94.5
311.179	80.5
311.409	94.5
311.639	86.5
311.868	82.5
312.098	92.5
312.328	79.5
312.557	102.5
312.787	82.5
313.017	81.5
313.246	99.5
313.476	104.5
313.706	79.5
313.935	75.5
314.165	96.5
314.394	90.5
314.624	78.5
314.853	98.5
315.083	102.5
315.312	95.5
315.542	88.5
315.771	76.5
316.001	82.5
316.23	86.5
316.46	94.5
316.689	82.5
316.919	98.5
317.148	88.5
317.377	88.5
317.607	99.5
317.836	76.5
318.065	93.5
318.295	74.5
318.524	82.5
318.753	94.5
318.983	93.5
319.212	93.5
319.441	82.5
319.67	97.5
319.9	97.5
320.129	78.5
320.358	89.5
320.587	83.5
320.816	80.5
321.046	85.5
321.275	96.5
321.504	77.5
321.733	90.5
321.962	94.5
322.191	88.5
322.42	88.5
322.649	92.5
322.878	89.5
323.108	93.5
323.337	88.5
323.566	83.5
323.795	90.5
324.024	91.5
324.253	99.5
324.482	86.5
324.71	87.5
324.939	76.5
325.168	87.5
325.397	86.5
325.626	92.5
325.855	93.5
326.084	96.5
326.313	85.5
326.542	83.5
326.77	84.5
326.999	81.5
327.228	101.5
327.457	80.5
327.686	94.5
327.914	91.5
328.143	95.5
328.372	86.5
328.6	84.5
328.829	80.5
329.058	77.5
329.287	74.5
329.515	88.5
329.744	81.5
329.972	77.5
330.201	86.5
330.43	98.5
330.658	76.5
330.887	95.5
331.115	99.5
331.344	85.5
331.572	88.5
331.801	79.5
332.03	84.5
332.258	83.5
332.486	78.5
332.715	69.5
332.943	81.5
333.172	84.5
333.4	101.5
333.629	93.5
333.857	89.5
334.085	85.5
334.314	83.5
334.542	96.5
334.771	105.5
334.999	90.5
335.227	74.5
335.455	93.5
335.684	85.5
335.912	90.5
336.14	79.5
336.369	85.5
336.597	76.5
336.825	89.5
337.053	86.5
337.281	92.5
337.51	97.5
337.738	95.5
337.966	80.5
338.194	93.5
338.422	100.5
338.65	90.5
338.878	82.5
339.106	87.5
339.334	81.5
339.562	82.5
339.79	82.5
340.018	79.5
340.246	98.5
340.474	76.5
340.702	84.5
340.93	91.5
341.158	78.5
341.386	92.5
341.614	91.5
341.842	89.5
342.07	84.5
342.298	84.5
342.526	84.5
342.754	91.5
342.981	71.5
343.209	86.5
343.437	84.5
343.665	78.5
343.893	86.5
344.12	94.5
344.348	81.5
344.576	77.5
344.804	101.5
345.031	86.5
345.259	90.5
345.487	80.5
345.714	91.5
345.942	81.5
346.17	78.5
346.397	84.5
346.625	87.5
346.853	87.5
347.08	99.5
347.308	88.5
347.535	82.5
347.763	86.5
347.99	82.5
348.218	91.5
348.445	86.5
348.673	84.5
348.9	99.5
349.128	88.5
349.355	88.5
349.583	92.5
349.81	86.5
350.037	88.5
350.265	85.5
350.492	81.5
350.72	82.5
350.947	84.5
351.174	84.5
351.402	83.5
351.629	76.5
351.856	89.5
352.083	87.5
352.311	90.5
352.538	81.5
352.765	96.5
352.992	101.5
353.22	91.5
353.447	85.5
353.674	98.5
353.901	102.5
354.128	78.5
354.355	75.5
354.583	95.5
354.81	92.5
355.037	92.5
355.264	91.5
355.491	83.5
355.718	88.5
355.945	82.5
356.172	90.5
356.399	91.5
356.626	97.5
356.853	89.5
357.08	72.5
357.307	88.5
357.534	91.5
357.761	82.5
357.988	86.5
358.215	76.5
358.441	98.5
358.668	95.5
358.895	92.5
359.122	104.5
359.349	88.5
359.576	72.5
359.802	90.5
360.029	84.5
360.256	81.5
360.483	88.5
360.709	87.5
360.936	92.5
361.163	92.5
361.39	93.5
361.616	96.5
361.843	89.5
362.07	92.5
362.296	88.5
362.523	87.5
362.749	83.5
362.976	83.5
363.203	84.5
363.429	81.5
363.656	100.5
363.882	88.5
364.109	84.5
364.335	90.5
364.562	95.5
364.788	78.5
365.015	85.5
365.241	94.5
365.468	89.5
365.694	91.5
365.92	89.5
366.147	85.5
366.373	96.5
366.599	94.5
366.826	102.5
367.052	109.5
367.278	103.5
367.505	86.5
367.731	102.5
367.957	77.5
368.184	76.5
368.41	106.5
368.636	76.5
368.862	83.5
369.089	89.5
369.315	82.5
369.541	74.5
369.767	86.5
369.993	90.5
370.219	84.5
370.445	80.5
370.672	81.5
370.898	89.5
371.124	86.5
371.35	90.5
371.576	81.5
371.802	94.5
372.028	72.5
372.254	90.5
372.48	72.5
372.706	80.5
372.932	81.5
373.158	99.5
373.384	83.5
373.61	92.5
373.835	79.5
374.061	74.5
374.287	107.5
374.513	81.5
374.739	69.5
374.965	80.5
375.191	78.5
375.416	91.5
375.642	100.5
375.868	85.5
376.094	89.5
376.319	90.5
376.545	89.5
376.771	76.5
376.997	93.5
377.222	89.5
377.448	93.5
377.674	88.5
377.899	94.5
378.125	84.5
378.35	88.5
378.576	76.5
378.802	100.5
379.027	95.5
379.253	86.5
379.478	94.5
379.704	87.5
379.929	83.5
380.155	82.5
380.38	85.5
380.606	92.5
380.831	81.5
381.057	81.5
381.282	84.5
381.507	88.5
381.733	89.5
381.958	86.5
382.184	79.5
382.409	97.5
382.634	80.5
382.86	94.5
383.085	77.5
383.31	91.5
383.535	97.5
383.761	73.5
383.986	80.5
384.211	105.5
384.436	98.5
384.662	96.5
384.887	81.5
385.112	84.5
385.337	90.5
385.562	86.5
385.787	90.5
386.013	78.5
386.238	82.5
386.463	89.5
386.688	87.5
386.913	101.5
387.138	89.5
387.363	67.5
387.588	77.5
387.813	80.5
388.038	100.5
388.263	92.5
388.488	86.5
388.713	95.5
388.938	84.5
389.163	96.5
389.387	83.5
389.612	84.5
389.837	89.5
390.062	87.5
390.287	82.5
390.512	92.5
390.736	80.5
390.961	85.5
391.186	84.5
391.411	83.5
391.636	85.5
391.86	94.5
392.085	96.5
392.31	101.5
392.534	101.5
392.759	96.5
392.984	78.5
393.208	96.5
393.433	87.5
393.658	90.5
393.882	90.5
394.107	84.5
394.331	79.5
394.556	100.5
394.78	84.5
395.005	96.5
395.229	90.5
395.454	93.5
395.678	97.5
395.903	73.5
396.127	79.5
396.352	84.5
396.576	78.5
396.801	68.5
397.025	104.5
397.249	99.5
397.474	96.5
397.698	97.5
397.922	109.5
398.147	90.5
398.371	99.5
398.595	95.5
398.82	89.5
399.044	87.5
399.268	89.5
399.492	83.5
399.717	96.5
399.941	86.5
400.165	92.5
400.389	78.5
400.613	84.5
400.837	87.5
401.062	90.5
401.286	94.5
401.51	96.5
401.734	88.5
401.958	92.5
402.182	91.5
402.406	94.5
402.63	97.5
402.854	88.5
403.078	82.5
403.302	90.5
403.526	90.5
403.75	92.5
403.974	97.5
404.198	89.5
404.422	92.5
404.645	90.5
404.869	99.5
405.093	104.5
405.317	91.5
405.541	97.5
405.765	94.5
405.988	93.5
406.212	76.5
406.436	75.5
406.66	92.5
406.883	87.5
407.107	93.5
407.331	76.5
407.555	91.5
407.778	90.5
408.002	83.5
408.226	87.5
408.449	92.5
408.673	93.5
408.896	96.5
409.12	96.5
409.344	95.5
409.567	89.5
409.791	86.5
410.014	87.5
410.238	81.5
410.461	98.5
410.685	96.5
410.908	90.5
411.132	97.5
411.355	88.5
411.578	93.5
411.802	79.5
412.025	90.5
412.249	95.5
412.472	86.5
412.695	82.5
412.919	97.5
413.142	90.5
413.365	88.5
413.589	97.5
413.812	89.5
414.035	93.5
414.258	92.5
414.482	101.5
414.705	75.5
414.928	91.5
415.151	94.5
415.374	91.5
415.597	107.5
415.821	92.5
416.044	88.5
416.267	86.5
416.49	104.5
416.713	109.5
416.936	90.5
417.159	97.5
417.382	91.5
417.605	95.5
417.828	90.5
418.051	93.5
418.274	99.5
418.497	89.5
418.72	80.5
418.943	102.5
419.166	96.5
419.389	89.5
419.611	85.5
419.834	85.5
420.057	85.5
420.28	101.5
420.503	102.5
420.726	100.5
420.948	96.5
421.171	95.5
421.394	87.5
421.617	94.5
421.839	93.5
422.062	108.5
422.285	88.5
422.507	89.5
422.73	95.5
422.953	82.5
423.175	78.5
423.398	88.5
423.621	81.5
423.843	94.5
424.066	102.5
424.288	97.5
424.511	91.5
424.733	93.5
424.956	93.5
425.178	106.5
425.401	99.5
425.623	115.5
425.846	105.5
426.068	99.5
426.291	86.5
426.513	96.5
426.735	94.5
426.958	89.5
427.18	88.5
427.402	96.5
427.625	88.5
427.847	91.5
428.069	100.5
428.292	92.5
428.514	95.5
428.736	90.5
428.958	102.5
429.181	94.5
429.403	96.5
429.625	84.5
429.847	96.5
430.069	101.5
430.292	91.5
430.514	98.5
430.736	82.5
430.958	91.5
431.18	91.5
431.402	94.5
431.624	77.5
431.846	93.5
432.068	86.5
432.29	115.5
432.512	96.5
432.734	109.5
432.956	97.5
433.178	97.5
433.4	95.5
433.622	91.5
433.844	101.5
434.066	89.5
434.287	71.5
434.509	87.5
434.731	92.5
434.953	94.5
435.175	93.5
435.397	101.5
435.618	86.5
435.84	90.5
436.062	100.5
436.284	88.5
436.505	97.5
436.727	101.5
436.949	110.5
437.17	97.5
437.392	90.5
437.614	100.5
437.835	100.5
438.057	86.5
438.278	89.5
438.5	96.5
438.721	78.5
438.943	92.5
439.165	106.5
439.386	100.5
439.608	103.5
439.829	101.5
440.05	103.5
440.272	85.5
440.493	97.5
440.715	93.5
440.936	93.5
441.158	86.5
441.379	94.5
441.6	88.5
441.822	106.5
442.043	98.5
442.264	91.5
442.486	108.5
442.707	88.5
442.928	114.5
443.149	94.5
443.371	93.5
443.592	87.5
443.813	104.5
444.034	87.5
444.255	110.5
444.476	90.5
444.698	98.5
444.919	92.5
445.14	204.5
445.361	138.5
445.582	91.5
445.803	103.5
446.024	103.5
446.245	106.5
446.466	99.5
446.687	117.5
446.908	82.5
447.129	98.5
447.35	98.5
447.571	109.5
447.792	93.5
448.013	89.5
448.234	100.5
448.455	97.5
448.675	94.5
448.896	86.5
449.117	85.5
449.338	98.5
449.559	103.5
449.779	101.5
450	84.5
450.221	93.5
450.442	96.5
450.662	90.5
450.883	106.5
451.104	108.5
451.324	96.5
451.545	88.5
451.766	97.5
451.986	86.5
452.207	94.5
452.428	100.5
452.648	100.5
452.869	91.5
453.089	93.5
453.31	90.5
453.53	83.5
453.751	102.5
453.971	84.5
454.192	90.5
454.412	81.5
454.633	84.5
454.853	95.5
455.073	100.5
455.294	95.5
455.514	97.5
455.734	85.5
455.955	72.5
456.175	79.5
456.395	76.5
456.616	81.5
456.836	95.5
457.056	88.5
457.276	88.5
457.497	96.5
457.717	89.5
457.937	90.5
458.157	85.5
458.377	83.5
458.598	85.5
458.818	86.5
459.038	97.5
459.258	77.5
459.478	87.5
459.698	80.5
459.918	100.5
460.138	99.5
460.358	82.5
460.578	91.5
460.798	98.5
461.018	80.5
461.238	95.5
461.458	96.5
461.678	85.5
461.898	96.5
462.118	90.5
462.338	106.5
462.558	76.5
462.777	70.5
462.997	94.5
463.217	109.5
463.437	85.5
463.657	97.5
463.876	89.5
464.096	105.5
464.316	84.5
464.536	88.5
464.755	93.5
464.975	73.5
465.195	111.5
465.414	91.5
465.634	81.5
465.854	101.5
466.073	84.5
466.293	98.5
466.512	93.5
466.732	104.5
466.951	97.5
467.171	90.5
467.391	92.5
467.61	85.5
467.829	89.5
468.049	84.5
468.268	88.5
468.488	100.5
468.707	86.5
468.927	101.5
469.146	92.5
469.365	94.5
469.585	97.5
469.804	107.5
470.023	88.5
470.243	92.5
470.462	94.5
470.681	97.5
470.901	94.5
471.12	82.5
471.339	88.5
471.558	98.5
471.777	107.5
471.997	108.5
472.216	91.5
472.435	90.5
472.654	86.5
472.873	77.5
473.092	90.5
473.311	97.5
473.53	93.5
473.749	104.5
473.968	92.5
474.187	87.5
474.406	78.5
474.625	104.5
474.844	109.5
475.063	96.5
475.282	91.5
475.501	80.5
475.72	90.5
475.939	90.5
476.158	85.5
476.377	103.5
476.596	100.5
476.814	94.5
477.033	101.5
477.252	92.5
477.471	92.5
477.69	94.5
477.908	93.5
478.127	92.5
478.346	102.5
478.564	94.5
478.783	81.5
479.002	104.5
479.22	95.5
479.439	90.5
479.658	96.5
479.876	87.5
480.095	99.5
480.313	100.5
480.532	89.5
480.751	100.5
480.969	74.5
481.188	95.5
481.406	84.5
481.624	67.5
481.843	98.5
482.061	90.5
482.28	94.5
482.498	81.5
482.717	88.5
482.935	96.5
483.153	107.5
483.372	118.5
483.59	116.5
483.808	99.5
484.027	100.5
484.245	108.5
484.463	94.5
484.681	101.5
484.9	92.5
485.118	110.5
485.336	85.5
485.554	85.5
485.772	96.5
485.99	101.5
486.209	92.5
486.427	91.5
486.645	89.5
486.863	92.5
487.081	104.5
487.299	81.5
487.517	106.5
487.735	97.5
487.953	114.5
488.171	101.5
488.389	99.5
488.607	98.5
488.825	95.5
489.043	100.5
489.261	85.5
489.479	91.5
489.696	97.5
489.914	102.5
490.132	98.5
490.35	97.5
490.568	88.5
490.786	105.5
491.003	107.5
491.221	100.5
491.439	106.5
491.657	105.5
491.874	126.5
492.092	124.5
492.31	125.5
492.527	124.5
492.745	114.5
492.963	115.5
493.18	101.5
493.398	113.5
493.615	106.5
493.833	105.5
494.05	113.5
494.268	118.5
494.485	107.5
494.703	118.5
494.92	104.5
495.138	103.5
495.355	124.5
495.573	102.5
495.79	104.5
496.008	97.5
496.225	112.5
496.442	107.5
496.66	116.5
496.877	93.5
497.094	115.5
497.312	97.5
497.529	78.5
497.746	90.5
497.963	94.5
498.181	100.5
498.398	85.5
498.615	101.5
498.832	77.5
499.049	92.5
499.267	72.5
499.484	97.5
499.701	88.5
499.918	100.5
500.135	109.5
500.352	107.5
500.569	97.5
500.786	105.5
501.003	94.5
501.22	98.5
501.437	113.5
501.654	103.5
501.871	83.5
502.088	91.5
502.305	97.5
502.522	93.5
502.739	86.5
502.956	89.5
503.172	93.5
503.389	85.5
503.606	89.5
503.823	101.5
504.04	87.5
504.256	103.5
504.473	108.5
504.69	94.5
504.907	98.5
505.123	95.5
505.34	88.5
505.557	90.5
505.773	81.5
505.99	96.5
506.207	103.5
506.423	98.5
506.64	89.5
506.856	89.5
507.073	103.5
507.289	85.5
507.506	96.5
507.722	90.5
507.939	81.5
508.155	97.5
508.372	93.5
508.588	98.5
508.805	101.5
509.021	88.5
509.238	87.5
509.454	87.5
509.67	87.5
509.887	89.5
510.103	86.5
510.319	90.5
510.536	95.5
510.752	102.5
510.968	89.5
511.184	71.5
511.401	92.5
511.617	96.5
511.833	72.5
512.049	81.5
512.265	84.5
512.481	90.5
512.698	92.5
512.914	91.5
513.13	88.5
513.346	85.5
513.562	89.5
513.778	87.5
513.994	86.5
514.21	82.5
514.426	98.5
514.642	93.5
514.858	96.5
515.074	96.5
515.29	78.5
515.506	91.5
515.721	89.5
515.937	80.5
516.153	99.5
516.369	91.5
516.585	86.5
516.801	85.5
517.016	85.5
517.232	83.5
517.448	85.5
517.664	78.5
517.879	85.5
518.095	93.5
518.311	86.5
518.527	98.5
518.742	100.5
518.958	86.5
519.173	85.5
519.389	103.5
519.605	91.5
519.82	96.5
520.036	101.5
520.251	99.5
520.467	97.5
520.682	100.5
520.898	80.5
521.113	100.5
521.329	88.5
521.544	83.5
521.76	92.5
521.975	93.5
522.19	93.5
522.406	106.5
522.621	86.5
522.836	86.5
523.052	83.5
523.267	84.5
523.482	86.5
523.698	79.5
523.913	81.5
524.128	80.5
524.343	101.5
524.559	89.5
524.774	89.5
524.989	103.5
525.204	92.5
525.419	90.5
525.634	94.5
525.849	82.5
526.064	101.5
526.28	78.5
526.495	87.5
526.71	98.5
526.925	92.5
527.14	86.5
527.355	78.5
527.57	84.5
527.785	92.5
527.999	94.5
528.214	98.5
528.429	97.5
528.644	85.5
528.859	100.5
529.074	97.5
529.289	94.5
529.503	109.5
529.718	96.5
529.933	105.5
530.148	94.5
530.363	78.5
530.577	91.5
530.792	81.5
531.007	75.5
531.221	90.5
531.436	81.5
531.651	86.5
531.865	86.5
532.08	101.5
532.295	91.5
532.509	75.5
532.724	94.5
532.938	84.5
533.153	99.5
533.367	91.5
533.582	98.5
533.796	106.5
534.011	86.5
534.225	87.5
534.44	80.5
534.654	92.5
534.868	87.5
535.083	90.5
535.297	93.5
535.511	77.5
535.726	93.5
535.94	91.5
536.154	82.5
536.369	86.5
536.583	97.5
536.797	96.5
537.011	97.5
