Data from Location5.07152019.Energy5.Lamp.07192019.3%Agarose_HRD10591_16-02-46-628.txt Node
Date: Fri Jul 19 16:02:46 EDT 2019
User: cochatt
Spectrometer: HR+D1059
Trigger mode: 1
Integration Time (sec): 1.000000E-1
Scans to average: 1
Electric dark correction enabled: true
Nonlinearity correction enabled: false
Boxcar width: 0
XAxis mode: Wavelengths
Number of Pixels in Spectrum: 2048
>>>>>Begin Spectral Data<<<<<
223.165	-14.81
223.4	-14.81
223.635	-14.81
223.869	-0.81
224.104	-23.81
224.338	-20.81
224.573	-25.81
224.808	-26.81
225.042	-0.81
225.277	-11.81
225.511	-4.81
225.746	5.19
225.98	12.19
226.215	26.19
226.449	9.19
226.683	33.19
226.918	26.19
227.152	18.19
227.387	35.19
227.621	34.19
227.856	48.19
228.09	37.19
228.324	38.19
228.559	55.19
228.793	47.19
229.027	60.19
229.262	51.19
229.496	55.19
229.73	55.19
229.964	54.19
230.199	74.19
230.433	67.19
230.667	85.19
230.901	86.19
231.136	69.19
231.37	78.19
231.604	60.19
231.838	78.19
232.072	94.19
232.306	80.19
232.541	82.19
232.775	76.19
233.009	85.19
233.243	80.19
233.477	73.19
233.711	71.19
233.945	71.19
234.179	77.19
234.413	85.19
234.647	80.19
234.881	77.19
235.115	84.19
235.349	86.19
235.583	68.19
235.817	80.19
236.051	68.19
236.285	76.19
236.519	85.19
236.753	76.19
236.987	75.19
237.221	64.19
237.455	66.19
237.689	68.19
237.922	61.19
238.156	72.19
238.39	87.19
238.624	91.19
238.858	70.19
239.091	68.19
239.325	77.19
239.559	91.19
239.793	71.19
240.027	69.19
240.26	74.19
240.494	75.19
240.728	72.19
240.961	77.19
241.195	69.19
241.429	71.19
241.662	80.19
241.896	64.19
242.13	71.19
242.363	78.19
242.597	82.19
242.83	85.19
243.064	74.19
243.298	76.19
243.531	73.19
243.765	68.19
243.998	77.19
244.232	87.19
244.465	67.19
244.699	79.19
244.932	75.19
245.166	66.19
245.399	79.19
245.633	66.19
245.866	73.19
246.099	82.19
246.333	77.19
246.566	80.19
246.8	66.19
247.033	67.19
247.266	82.19
247.5	55.19
247.733	75.19
247.966	75.19
248.2	77.19
248.433	63.19
248.666	74.19
248.899	76.19
249.133	75.19
249.366	69.19
249.599	80.19
249.832	81.19
250.066	80.19
250.299	80.19
250.532	73.19
250.765	86.19
250.998	79.19
251.231	69.19
251.465	79.19
251.698	63.19
251.931	63.19
252.164	69.19
252.397	63.19
252.63	68.19
252.863	72.19
253.096	76.19
253.329	83.19
253.562	69.19
253.795	74.19
254.028	89.19
254.261	78.19
254.494	83.19
254.727	86.19
254.96	91.19
255.193	87.19
255.426	94.19
255.659	76.19
255.892	89.19
256.124	71.19
256.357	74.19
256.59	87.19
256.823	82.19
257.056	71.19
257.289	84.19
257.521	78.19
257.754	79.19
257.987	56.19
258.22	82.19
258.452	79.19
258.685	73.19
258.918	85.19
259.151	70.19
259.383	65.19
259.616	71.19
259.849	95.19
260.081	79.19
260.314	87.19
260.547	82.19
260.779	86.19
261.012	79.19
261.244	81.19
261.477	76.19
261.71	72.19
261.942	83.19
262.175	82.19
262.407	52.19
262.64	63.19
262.872	76.19
263.105	71.19
263.337	69.19
263.57	92.19
263.802	84.19
264.035	86.19
264.267	86.19
264.499	62.19
264.732	83.19
264.964	84.19
265.197	85.19
265.429	89.19
265.661	95.19
265.894	73.19
266.126	80.19
266.358	87.19
266.591	85.19
266.823	88.19
267.055	78.19
267.287	82.19
267.52	89.19
267.752	77.19
267.984	86.19
268.216	88.19
268.448	76.19
268.681	89.19
268.913	94.19
269.145	88.19
269.377	76.19
269.609	78.19
269.841	87.19
270.073	80.19
270.306	92.19
270.538	77.19
270.77	77.19
271.002	81.19
271.234	74.19
271.466	80.19
271.698	87.19
271.93	81.19
272.162	83.19
272.394	94.19
272.626	80.19
272.858	93.19
273.09	79.19
273.322	89.19
273.553	90.19
273.785	86.19
274.017	88.19
274.249	81.19
274.481	86.19
274.713	80.19
274.945	84.19
275.176	93.19
275.408	89.19
275.64	82.19
275.872	91.19
276.104	94.19
276.335	84.19
276.567	78.19
276.799	81.19
277.031	92.19
277.262	79.19
277.494	75.19
277.726	70.19
277.957	71.19
278.189	88.19
278.421	81.19
278.652	81.19
278.884	91.19
279.115	89.19
279.347	88.19
279.579	85.19
279.81	78.19
280.042	99.19
280.273	84.19
280.505	79.19
280.736	79.19
280.968	95.19
281.199	78.19
281.431	85.19
281.662	83.19
281.894	83.19
282.125	87.19
282.356	75.19
282.588	95.19
282.819	79.19
283.051	81.19
283.282	76.19
283.513	87.19
283.745	80.19
283.976	83.19
284.207	79.19
284.439	70.19
284.67	108.19
284.901	73.19
285.132	80.19
285.364	80.19
285.595	90.19
285.826	84.19
286.057	89.19
286.288	83.19
286.52	92.19
286.751	69.19
286.982	74.19
287.213	75.19
287.444	87.19
287.675	96.19
287.906	83.19
288.138	80.19
288.369	102.19
288.6	85.19
288.831	87.19
289.062	92.19
289.293	90.19
289.524	87.19
289.755	75.19
289.986	89.19
290.217	88.19
290.448	97.19
290.679	93.19
290.91	97.19
291.141	87.19
291.371	92.19
291.602	81.19
291.833	86.19
292.064	78.19
292.295	79.19
292.526	98.19
292.757	91.19
292.987	88.19
293.218	82.19
293.449	90.19
293.68	72.19
293.91	95.19
294.141	88.19
294.372	80.19
294.603	84.19
294.833	80.19
295.064	78.19
295.295	93.19
295.525	91.19
295.756	89.19
295.987	91.19
296.217	84.19
296.448	100.19
296.679	101.19
296.909	84.19
297.14	85.19
297.37	83.19
297.601	85.19
297.831	87.19
298.062	94.19
298.292	81.19
298.523	90.19
298.753	77.19
298.984	80.19
299.214	87.19
299.445	81.19
299.675	89.19
299.905	88.19
300.136	84.19
300.366	85.19
300.597	81.19
300.827	85.19
301.057	95.19
301.288	90.19
301.518	94.19
301.748	102.19
301.979	93.19
302.209	94.19
302.439	96.19
302.669	94.19
302.9	74.19
303.13	95.19
303.36	85.19
303.59	86.19
303.82	79.19
304.051	101.19
304.281	92.19
304.511	84.19
304.741	87.19
304.971	86.19
305.201	91.19
305.431	86.19
305.661	68.19
305.891	89.19
306.121	91.19
306.352	93.19
306.582	88.19
306.812	87.19
307.042	74.19
307.272	87.19
307.502	70.19
307.731	91.19
307.961	77.19
308.191	87.19
308.421	100.19
308.651	91.19
308.881	84.19
309.111	94.19
309.341	99.19
309.571	88.19
309.8	82.19
310.03	85.19
310.26	95.19
310.49	84.19
310.72	83.19
310.949	86.19
311.179	85.19
311.409	91.19
311.639	92.19
311.868	97.19
312.098	87.19
312.328	84.19
312.557	87.19
312.787	82.19
313.017	85.19
313.246	79.19
313.476	87.19
313.706	101.19
313.935	83.19
314.165	92.19
314.394	87.19
314.624	91.19
314.853	91.19
315.083	87.19
315.312	97.19
315.542	87.19
315.771	95.19
316.001	88.19
316.23	87.19
316.46	90.19
316.689	71.19
316.919	85.19
317.148	76.19
317.377	90.19
317.607	93.19
317.836	87.19
318.065	96.19
318.295	81.19
318.524	94.19
318.753	86.19
318.983	89.19
319.212	97.19
319.441	76.19
319.67	94.19
319.9	80.19
320.129	96.19
320.358	92.19
320.587	89.19
320.816	86.19
321.046	96.19
321.275	98.19
321.504	85.19
321.733	85.19
321.962	68.19
322.191	83.19
322.42	78.19
322.649	97.19
322.878	87.19
323.108	103.19
323.337	87.19
323.566	98.19
323.795	95.19
324.024	81.19
324.253	104.19
324.482	89.19
324.71	87.19
324.939	97.19
325.168	80.19
325.397	96.19
325.626	78.19
325.855	89.19
326.084	100.19
326.313	95.19
326.542	83.19
326.77	91.19
326.999	92.19
327.228	89.19
327.457	81.19
327.686	107.19
327.914	95.19
328.143	93.19
328.372	99.19
328.6	98.19
328.829	96.19
329.058	87.19
329.287	95.19
329.515	102.19
329.744	103.19
329.972	93.19
330.201	88.19
330.43	73.19
330.658	83.19
330.887	113.19
331.115	86.19
331.344	81.19
331.572	101.19
331.801	85.19
332.03	80.19
332.258	79.19
332.486	93.19
332.715	85.19
332.943	95.19
333.172	79.19
333.4	94.19
333.629	109.19
333.857	97.19
334.085	101.19
334.314	91.19
334.542	94.19
334.771	92.19
334.999	95.19
335.227	94.19
335.455	114.19
335.684	95.19
335.912	93.19
336.14	85.19
336.369	97.19
336.597	78.19
336.825	97.19
337.053	109.19
337.281	103.19
337.51	94.19
337.738	104.19
337.966	96.19
338.194	91.19
338.422	96.19
338.65	88.19
338.878	96.19
339.106	88.19
339.334	103.19
339.562	89.19
339.79	79.19
340.018	85.19
340.246	96.19
340.474	77.19
340.702	84.19
340.93	95.19
341.158	89.19
341.386	93.19
341.614	86.19
341.842	95.19
342.07	79.19
342.298	89.19
342.526	86.19
342.754	82.19
342.981	80.19
343.209	84.19
343.437	87.19
343.665	87.19
343.893	93.19
344.12	97.19
344.348	104.19
344.576	84.19
344.804	85.19
345.031	83.19
345.259	88.19
345.487	96.19
345.714	87.19
345.942	93.19
346.17	84.19
346.397	79.19
346.625	100.19
346.853	91.19
347.08	83.19
347.308	108.19
347.535	85.19
347.763	78.19
347.99	85.19
348.218	83.19
348.445	91.19
348.673	84.19
348.9	92.19
349.128	89.19
349.355	96.19
349.583	97.19
349.81	71.19
350.037	91.19
350.265	83.19
350.492	95.19
350.72	86.19
350.947	95.19
351.174	86.19
351.402	96.19
351.629	93.19
351.856	84.19
352.083	89.19
352.311	89.19
352.538	93.19
352.765	91.19
352.992	87.19
353.22	105.19
353.447	80.19
353.674	93.19
353.901	91.19
354.128	85.19
354.355	95.19
354.583	93.19
354.81	95.19
355.037	94.19
355.264	109.19
355.491	98.19
355.718	95.19
355.945	86.19
356.172	79.19
356.399	100.19
356.626	87.19
356.853	80.19
357.08	90.19
357.307	90.19
357.534	95.19
357.761	90.19
357.988	92.19
358.215	89.19
358.441	87.19
358.668	86.19
358.895	81.19
359.122	99.19
359.349	85.19
359.576	98.19
359.802	104.19
360.029	91.19
360.256	96.19
360.483	80.19
360.709	76.19
360.936	91.19
361.163	95.19
361.39	87.19
361.616	86.19
361.843	99.19
362.07	84.19
362.296	94.19
362.523	86.19
362.749	77.19
362.976	81.19
363.203	88.19
363.429	96.19
363.656	86.19
363.882	92.19
364.109	97.19
364.335	91.19
364.562	87.19
364.788	93.19
365.015	87.19
365.241	84.19
365.468	93.19
365.694	96.19
365.92	95.19
366.147	81.19
366.373	85.19
366.599	73.19
366.826	84.19
367.052	87.19
367.278	78.19
367.505	91.19
367.731	92.19
367.957	87.19
368.184	93.19
368.41	94.19
368.636	93.19
368.862	83.19
369.089	78.19
369.315	84.19
369.541	93.19
369.767	73.19
369.993	91.19
370.219	82.19
370.445	90.19
370.672	90.19
370.898	98.19
371.124	88.19
371.35	100.19
371.576	80.19
371.802	93.19
372.028	102.19
372.254	97.19
372.48	97.19
372.706	92.19
372.932	77.19
373.158	82.19
373.384	100.19
373.61	89.19
373.835	78.19
374.061	100.19
374.287	87.19
374.513	99.19
374.739	97.19
374.965	85.19
375.191	81.19
375.416	82.19
375.642	102.19
375.868	87.19
376.094	80.19
376.319	90.19
376.545	98.19
376.771	97.19
376.997	80.19
377.222	100.19
377.448	103.19
377.674	98.19
377.899	79.19
378.125	98.19
378.35	101.19
378.576	101.19
378.802	83.19
379.027	98.19
379.253	87.19
379.478	90.19
379.704	84.19
379.929	80.19
380.155	98.19
380.38	91.19
380.606	84.19
380.831	86.19
381.057	96.19
381.282	81.19
381.507	93.19
381.733	93.19
381.958	83.19
382.184	91.19
382.409	99.19
382.634	96.19
382.86	85.19
383.085	103.19
383.31	101.19
383.535	100.19
383.761	91.19
383.986	92.19
384.211	91.19
384.436	95.19
384.662	104.19
384.887	83.19
385.112	82.19
385.337	99.19
385.562	96.19
385.787	97.19
386.013	89.19
386.238	112.19
386.463	95.19
386.688	95.19
386.913	100.19
387.138	100.19
387.363	91.19
387.588	106.19
387.813	93.19
388.038	90.19
388.263	92.19
388.488	81.19
388.713	88.19
388.938	85.19
389.163	95.19
389.387	82.19
389.612	93.19
389.837	115.19
390.062	101.19
390.287	75.19
390.512	90.19
390.736	100.19
390.961	85.19
391.186	98.19
391.411	100.19
391.636	102.19
391.86	107.19
392.085	101.19
392.31	100.19
392.534	81.19
392.759	94.19
392.984	98.19
393.208	94.19
393.433	85.19
393.658	87.19
393.882	86.19
394.107	94.19
394.331	84.19
394.556	91.19
394.78	87.19
395.005	94.19
395.229	90.19
395.454	94.19
395.678	114.19
395.903	113.19
396.127	104.19
396.352	101.19
396.576	103.19
396.801	94.19
397.025	100.19
397.249	89.19
397.474	90.19
397.698	102.19
397.922	91.19
398.147	107.19
398.371	99.19
398.595	97.19
398.82	88.19
399.044	96.19
399.268	119.19
399.492	103.19
399.717	105.19
399.941	104.19
400.165	108.19
400.389	118.19
400.613	98.19
400.837	96.19
401.062	87.19
401.286	93.19
401.51	107.19
401.734	95.19
401.958	97.19
402.182	104.19
402.406	107.19
402.63	107.19
402.854	100.19
403.078	90.19
403.302	104.19
403.526	100.19
403.75	99.19
403.974	94.19
404.198	97.19
404.422	105.19
404.645	100.19
404.869	105.19
405.093	104.19
405.317	93.19
405.541	109.19
405.765	90.19
405.988	94.19
406.212	94.19
406.436	80.19
406.66	93.19
406.883	99.19
407.107	87.19
407.331	93.19
407.555	108.19
407.778	104.19
408.002	103.19
408.226	115.19
408.449	95.19
408.673	95.19
408.896	100.19
409.12	101.19
409.344	95.19
409.567	95.19
409.791	108.19
410.014	107.19
410.238	92.19
410.461	98.19
410.685	92.19
410.908	95.19
411.132	96.19
411.355	101.19
411.578	106.19
411.802	107.19
412.025	86.19
412.249	101.19
412.472	95.19
412.695	102.19
412.919	98.19
413.142	90.19
413.365	93.19
413.589	88.19
413.812	94.19
414.035	98.19
414.258	95.19
414.482	97.19
414.705	84.19
414.928	99.19
415.151	94.19
415.374	94.19
415.597	95.19
415.821	94.19
416.044	107.19
416.267	89.19
416.49	101.19
416.713	114.19
416.936	94.19
417.159	83.19
417.382	85.19
417.605	82.19
417.828	81.19
418.051	96.19
418.274	109.19
418.497	98.19
418.72	104.19
418.943	118.19
419.166	96.19
419.389	93.19
419.611	88.19
419.834	96.19
420.057	101.19
420.28	108.19
420.503	96.19
420.726	91.19
420.948	87.19
421.171	82.19
421.394	94.19
421.617	94.19
421.839	85.19
422.062	89.19
422.285	101.19
422.507	88.19
422.73	93.19
422.953	98.19
423.175	96.19
423.398	110.19
423.621	96.19
423.843	101.19
424.066	99.19
424.288	88.19
424.511	88.19
424.733	100.19
424.956	85.19
425.178	99.19
425.401	101.19
425.623	102.19
425.846	87.19
426.068	84.19
426.291	95.19
426.513	96.19
426.735	98.19
426.958	90.19
427.18	97.19
427.402	85.19
427.625	91.19
427.847	88.19
428.069	112.19
428.292	88.19
428.514	87.19
428.736	98.19
428.958	87.19
429.181	104.19
429.403	107.19
429.625	97.19
429.847	95.19
430.069	96.19
430.292	91.19
430.514	101.19
430.736	77.19
430.958	95.19
431.18	94.19
431.402	83.19
431.624	100.19
431.846	89.19
432.068	96.19
432.29	92.19
432.512	86.19
432.734	72.19
432.956	84.19
433.178	75.19
433.4	82.19
433.622	99.19
433.844	90.19
434.066	107.19
434.287	92.19
434.509	95.19
434.731	93.19
434.953	93.19
435.175	109.19
435.397	91.19
435.618	89.19
435.84	87.19
436.062	83.19
436.284	103.19
436.505	109.19
436.727	75.19
436.949	90.19
437.17	79.19
437.392	96.19
437.614	100.19
437.835	88.19
438.057	96.19
438.278	102.19
438.5	90.19
438.721	93.19
438.943	93.19
439.165	103.19
439.386	82.19
439.608	89.19
439.829	94.19
440.05	80.19
440.272	98.19
440.493	88.19
440.715	91.19
440.936	99.19
441.158	96.19
441.379	99.19
441.6	95.19
441.822	97.19
442.043	98.19
442.264	93.19
442.486	99.19
442.707	101.19
442.928	95.19
443.149	97.19
443.371	98.19
443.592	108.19
443.813	113.19
444.034	85.19
444.255	101.19
444.476	102.19
444.698	102.19
444.919	101.19
445.14	227.19
445.361	155.19
445.582	97.19
445.803	87.19
446.024	83.19
446.245	89.19
446.466	104.19
446.687	90.19
446.908	87.19
447.129	86.19
447.35	102.19
447.571	82.19
447.792	94.19
448.013	87.19
448.234	68.19
448.455	90.19
448.675	84.19
448.896	93.19
449.117	91.19
449.338	95.19
449.559	111.19
449.779	92.19
450	91.19
450.221	95.19
450.442	99.19
450.662	96.19
450.883	86.19
451.104	98.19
451.324	84.19
451.545	102.19
451.766	91.19
451.986	93.19
452.207	95.19
452.428	104.19
452.648	93.19
452.869	93.19
453.089	68.19
453.31	83.19
453.53	97.19
453.751	102.19
453.971	101.19
454.192	79.19
454.412	73.19
454.633	86.19
454.853	88.19
455.073	93.19
455.294	88.19
455.514	92.19
455.734	99.19
455.955	95.19
456.175	97.19
456.395	91.19
456.616	79.19
456.836	92.19
457.056	105.19
457.276	93.19
457.497	83.19
457.717	95.19
457.937	80.19
458.157	88.19
458.377	81.19
458.598	90.19
458.818	85.19
459.038	107.19
459.258	95.19
459.478	100.19
459.698	85.19
459.918	100.19
460.138	79.19
460.358	77.19
460.578	85.19
460.798	83.19
461.018	108.19
461.238	113.19
461.458	102.19
461.678	96.19
461.898	108.19
462.118	88.19
462.338	88.19
462.558	98.19
462.777	91.19
462.997	103.19
463.217	95.19
463.437	110.19
463.657	97.19
463.876	109.19
464.096	94.19
464.316	97.19
464.536	105.19
464.755	108.19
464.975	99.19
465.195	95.19
465.414	109.19
465.634	83.19
465.854	100.19
466.073	93.19
466.293	89.19
466.512	110.19
466.732	104.19
466.951	85.19
467.171	94.19
467.391	95.19
467.61	94.19
467.829	102.19
468.049	104.19
468.268	95.19
468.488	83.19
468.707	100.19
468.927	90.19
469.146	95.19
469.365	92.19
469.585	94.19
469.804	93.19
470.023	110.19
470.243	97.19
470.462	97.19
470.681	110.19
470.901	94.19
471.12	95.19
471.339	102.19
471.558	110.19
471.777	101.19
471.997	82.19
472.216	94.19
472.435	92.19
472.654	95.19
472.873	96.19
473.092	87.19
473.311	79.19
473.53	99.19
473.749	100.19
473.968	89.19
474.187	106.19
474.406	101.19
474.625	85.19
474.844	91.19
475.063	91.19
475.282	83.19
475.501	101.19
475.72	86.19
475.939	73.19
476.158	87.19
476.377	86.19
476.596	79.19
476.814	99.19
477.033	96.19
477.252	102.19
477.471	107.19
477.69	95.19
477.908	104.19
478.127	102.19
478.346	87.19
478.564	95.19
478.783	97.19
479.002	96.19
479.22	97.19
479.439	99.19
479.658	99.19
479.876	106.19
480.095	96.19
480.313	96.19
480.532	92.19
480.751	99.19
480.969	98.19
481.188	97.19
481.406	81.19
481.624	95.19
481.843	96.19
482.061	91.19
482.28	95.19
482.498	96.19
482.717	88.19
482.935	104.19
483.153	95.19
483.372	100.19
483.59	107.19
483.808	103.19
484.027	107.19
484.245	101.19
484.463	94.19
484.681	104.19
484.9	89.19
485.118	91.19
485.336	101.19
485.554	94.19
485.772	102.19
485.99	91.19
486.209	99.19
486.427	99.19
486.645	103.19
486.863	111.19
487.081	111.19
487.299	93.19
487.517	84.19
487.735	94.19
487.953	106.19
488.171	93.19
488.389	93.19
488.607	98.19
488.825	99.19
489.043	100.19
489.261	112.19
489.479	93.19
489.696	106.19
489.914	101.19
490.132	106.19
490.35	113.19
490.568	115.19
490.786	111.19
491.003	104.19
491.221	97.19
491.439	107.19
491.657	123.19
491.874	101.19
492.092	117.19
492.31	107.19
492.527	125.19
492.745	112.19
492.963	112.19
493.18	117.19
493.398	102.19
493.615	117.19
493.833	109.19
494.05	109.19
494.268	115.19
494.485	98.19
494.703	94.19
494.92	109.19
495.138	114.19
495.355	107.19
495.573	120.19
495.79	92.19
496.008	102.19
496.225	111.19
496.442	98.19
496.66	116.19
496.877	103.19
497.094	117.19
497.312	101.19
497.529	107.19
497.746	117.19
497.963	118.19
498.181	117.19
498.398	115.19
498.615	117.19
498.832	112.19
499.049	109.19
499.267	135.19
499.484	126.19
499.701	123.19
499.918	143.19
500.135	148.19
500.352	167.19
500.569	159.19
500.786	168.19
501.003	153.19
501.22	133.19
501.437	140.19
501.654	132.19
501.871	129.19
502.088	124.19
502.305	120.19
502.522	112.19
502.739	108.19
502.956	100.19
503.172	106.19
503.389	107.19
503.606	108.19
503.823	104.19
504.04	97.19
504.256	92.19
504.473	96.19
504.69	116.19
504.907	103.19
505.123	115.19
505.34	98.19
505.557	99.19
505.773	94.19
505.99	96.19
506.207	101.19
506.423	100.19
506.64	108.19
506.856	113.19
507.073	90.19
507.289	113.19
507.506	107.19
507.722	99.19
507.939	112.19
508.155	100.19
508.372	92.19
508.588	100.19
508.805	110.19
509.021	95.19
509.238	99.19
509.454	90.19
509.67	86.19
509.887	95.19
510.103	90.19
510.319	99.19
510.536	97.19
510.752	84.19
510.968	86.19
511.184	110.19
511.401	101.19
511.617	112.19
511.833	106.19
512.049	103.19
512.265	97.19
512.481	94.19
512.698	98.19
512.914	96.19
513.13	101.19
513.346	86.19
513.562	85.19
513.778	93.19
513.994	89.19
514.21	103.19
514.426	90.19
514.642	110.19
514.858	107.19
515.074	108.19
515.29	113.19
515.506	106.19
515.721	92.19
