Data from Location5.07152019.Energy5.Lamp.07192019.3%Agarose_HRD10591_15-39-38-388.txt Node
Date: Fri Jul 19 15:39:38 EDT 2019
User: cochatt
Spectrometer: HR+D1059
Trigger mode: 1
Integration Time (sec): 1.000000E-1
Scans to average: 1
Electric dark correction enabled: true
Nonlinearity correction enabled: false
Boxcar width: 0
XAxis mode: Wavelengths
Number of Pixels in Spectrum: 2048
>>>>>Begin Spectral Data<<<<<
223.165	-12.5
223.4	-12.5
223.635	-12.5
223.869	-14.5
224.104	-26.5
224.338	-9.5
224.573	-8.5
224.808	0.5
225.042	-1.5
225.277	-15.5
225.511	-3.5
225.746	14.5
225.98	9.5
226.215	9.5
226.449	7.5
226.683	11.5
226.918	18.5
227.152	20.5
227.387	28.5
227.621	37.5
227.856	32.5
228.09	30.5
228.324	49.5
228.559	49.5
228.793	58.5
229.027	60.5
229.262	53.5
229.496	55.5
229.73	74.5
229.964	71.5
230.199	66.5
230.433	74.5
230.667	69.5
230.901	73.5
231.136	73.5
231.37	79.5
231.604	54.5
231.838	84.5
232.072	73.5
232.306	86.5
232.541	58.5
232.775	78.5
233.009	73.5
233.243	86.5
233.477	83.5
233.711	83.5
233.945	69.5
234.179	81.5
234.413	68.5
234.647	87.5
234.881	66.5
235.115	79.5
235.349	82.5
235.583	72.5
235.817	82.5
236.051	69.5
236.285	78.5
236.519	75.5
236.753	71.5
236.987	63.5
237.221	78.5
237.455	73.5
237.689	69.5
237.922	76.5
238.156	77.5
238.39	86.5
238.624	74.5
238.858	72.5
239.091	79.5
239.325	87.5
239.559	76.5
239.793	89.5
240.027	68.5
240.26	70.5
240.494	79.5
240.728	72.5
240.961	82.5
241.195	80.5
241.429	81.5
241.662	71.5
241.896	71.5
242.13	72.5
242.363	78.5
242.597	82.5
242.83	75.5
243.064	79.5
243.298	75.5
243.531	65.5
243.765	75.5
243.998	56.5
244.232	80.5
244.465	75.5
244.699	79.5
244.932	69.5
245.166	76.5
245.399	83.5
245.633	66.5
245.866	72.5
246.099	74.5
246.333	67.5
246.566	86.5
246.8	62.5
247.033	65.5
247.266	80.5
247.5	84.5
247.733	69.5
247.966	71.5
248.2	72.5
248.433	81.5
248.666	79.5
248.899	73.5
249.133	64.5
249.366	75.5
249.599	77.5
249.832	96.5
250.066	80.5
250.299	75.5
250.532	64.5
250.765	69.5
250.998	77.5
251.231	73.5
251.465	80.5
251.698	77.5
251.931	90.5
252.164	71.5
252.397	79.5
252.63	67.5
252.863	75.5
253.096	73.5
253.329	76.5
253.562	67.5
253.795	85.5
254.028	82.5
254.261	90.5
254.494	82.5
254.727	85.5
254.96	75.5
255.193	79.5
255.426	90.5
255.659	74.5
255.892	99.5
256.124	74.5
256.357	71.5
256.59	67.5
256.823	77.5
257.056	77.5
257.289	75.5
257.521	71.5
257.754	71.5
257.987	80.5
258.22	79.5
258.452	79.5
258.685	67.5
258.918	73.5
259.151	62.5
259.383	77.5
259.616	75.5
259.849	73.5
260.081	81.5
260.314	79.5
260.547	75.5
260.779	99.5
261.012	79.5
261.244	87.5
261.477	83.5
261.71	75.5
261.942	75.5
262.175	80.5
262.407	82.5
262.64	70.5
262.872	72.5
263.105	88.5
263.337	88.5
263.57	88.5
263.802	82.5
264.035	94.5
264.267	62.5
264.499	87.5
264.732	96.5
264.964	79.5
265.197	79.5
265.429	83.5
265.661	80.5
265.894	86.5
266.126	82.5
266.358	81.5
266.591	88.5
266.823	80.5
267.055	82.5
267.287	88.5
267.52	81.5
267.752	80.5
267.984	86.5
268.216	86.5
268.448	90.5
268.681	83.5
268.913	80.5
269.145	78.5
269.377	77.5
269.609	82.5
269.841	84.5
270.073	85.5
270.306	93.5
270.538	90.5
270.77	79.5
271.002	80.5
271.234	88.5
271.466	79.5
271.698	91.5
271.93	80.5
272.162	77.5
272.394	90.5
272.626	73.5
272.858	80.5
273.09	85.5
273.322	90.5
273.553	64.5
273.785	73.5
274.017	77.5
274.249	83.5
274.481	73.5
274.713	72.5
274.945	73.5
275.176	88.5
275.408	89.5
275.64	72.5
275.872	88.5
276.104	99.5
276.335	73.5
276.567	86.5
276.799	89.5
277.031	80.5
277.262	68.5
277.494	87.5
277.726	86.5
277.957	90.5
278.189	85.5
278.421	68.5
278.652	75.5
278.884	80.5
279.115	70.5
279.347	87.5
279.579	75.5
279.81	81.5
280.042	87.5
280.273	92.5
280.505	78.5
280.736	87.5
280.968	83.5
281.199	88.5
281.431	86.5
281.662	90.5
281.894	88.5
282.125	93.5
282.356	89.5
282.588	90.5
282.819	85.5
283.051	75.5
283.282	86.5
283.513	83.5
283.745	93.5
283.976	92.5
284.207	90.5
284.439	79.5
284.67	85.5
284.901	83.5
285.132	102.5
285.364	78.5
285.595	82.5
285.826	85.5
286.057	85.5
286.288	68.5
286.52	89.5
286.751	80.5
286.982	88.5
287.213	74.5
287.444	71.5
287.675	80.5
287.906	80.5
288.138	83.5
288.369	76.5
288.6	78.5
288.831	66.5
289.062	77.5
289.293	84.5
289.524	78.5
289.755	81.5
289.986	86.5
290.217	85.5
290.448	78.5
290.679	82.5
290.91	81.5
291.141	85.5
291.371	78.5
291.602	89.5
291.833	69.5
292.064	81.5
292.295	74.5
292.526	79.5
292.757	85.5
292.987	86.5
293.218	76.5
293.449	94.5
293.68	88.5
293.91	92.5
294.141	76.5
294.372	74.5
294.603	96.5
294.833	77.5
295.064	87.5
295.295	78.5
295.525	87.5
295.756	70.5
295.987	70.5
296.217	75.5
296.448	77.5
296.679	85.5
296.909	81.5
297.14	87.5
297.37	86.5
297.601	86.5
297.831	78.5
298.062	87.5
298.292	71.5
298.523	89.5
298.753	70.5
298.984	79.5
299.214	90.5
299.445	88.5
299.675	86.5
299.905	69.5
300.136	83.5
300.366	82.5
300.597	74.5
300.827	85.5
301.057	90.5
301.288	80.5
301.518	95.5
301.748	88.5
301.979	87.5
302.209	83.5
302.439	79.5
302.669	74.5
302.9	90.5
303.13	79.5
303.36	82.5
303.59	68.5
303.82	78.5
304.051	81.5
304.281	71.5
304.511	88.5
304.741	77.5
304.971	88.5
305.201	78.5
305.431	79.5
305.661	69.5
305.891	78.5
306.121	93.5
306.352	81.5
306.582	95.5
306.812	83.5
307.042	76.5
307.272	82.5
307.502	83.5
307.731	91.5
307.961	88.5
308.191	79.5
308.421	73.5
308.651	76.5
308.881	88.5
309.111	82.5
309.341	82.5
309.571	86.5
309.8	70.5
310.03	88.5
310.26	90.5
310.49	77.5
310.72	79.5
310.949	71.5
311.179	74.5
311.409	89.5
311.639	80.5
311.868	82.5
312.098	81.5
312.328	88.5
312.557	83.5
312.787	79.5
313.017	94.5
313.246	85.5
313.476	79.5
313.706	78.5
313.935	93.5
314.165	92.5
314.394	82.5
314.624	83.5
314.853	74.5
315.083	64.5
315.312	85.5
315.542	90.5
315.771	87.5
316.001	78.5
316.23	89.5
316.46	81.5
316.689	87.5
316.919	86.5
317.148	81.5
317.377	87.5
317.607	89.5
317.836	75.5
318.065	81.5
318.295	89.5
318.524	91.5
318.753	88.5
318.983	79.5
319.212	87.5
319.441	94.5
319.67	87.5
319.9	79.5
320.129	82.5
320.358	85.5
320.587	86.5
320.816	83.5
321.046	86.5
321.275	68.5
321.504	100.5
321.733	89.5
321.962	86.5
322.191	68.5
322.42	86.5
322.649	80.5
322.878	82.5
323.108	91.5
323.337	74.5
323.566	72.5
323.795	76.5
324.024	90.5
324.253	85.5
324.482	84.5
324.71	83.5
324.939	90.5
325.168	71.5
325.397	67.5
325.626	67.5
325.855	96.5
326.084	106.5
326.313	84.5
326.542	72.5
326.77	75.5
326.999	84.5
327.228	82.5
327.457	91.5
327.686	85.5
327.914	86.5
328.143	81.5
328.372	87.5
328.6	83.5
328.829	88.5
329.058	97.5
329.287	56.5
329.515	90.5
329.744	96.5
329.972	82.5
330.201	90.5
330.43	82.5
330.658	90.5
330.887	80.5
331.115	73.5
331.344	82.5
331.572	84.5
331.801	83.5
332.03	97.5
332.258	83.5
332.486	71.5
332.715	77.5
332.943	85.5
333.172	72.5
333.4	76.5
333.629	90.5
333.857	97.5
334.085	74.5
334.314	74.5
334.542	84.5
334.771	96.5
334.999	83.5
335.227	98.5
335.455	87.5
335.684	74.5
335.912	82.5
336.14	99.5
336.369	93.5
336.597	95.5
336.825	82.5
337.053	77.5
337.281	78.5
337.51	80.5
337.738	86.5
337.966	70.5
338.194	71.5
338.422	79.5
338.65	80.5
338.878	81.5
339.106	88.5
339.334	80.5
339.562	80.5
339.79	81.5
340.018	79.5
340.246	74.5
340.474	77.5
340.702	85.5
340.93	88.5
341.158	82.5
341.386	80.5
341.614	78.5
341.842	87.5
342.07	77.5
342.298	88.5
342.526	76.5
342.754	87.5
342.981	93.5
343.209	92.5
343.437	74.5
343.665	89.5
343.893	86.5
344.12	83.5
344.348	82.5
344.576	73.5
344.804	77.5
345.031	76.5
345.259	85.5
345.487	79.5
345.714	75.5
345.942	90.5
346.17	85.5
346.397	72.5
346.625	81.5
346.853	82.5
347.08	77.5
347.308	92.5
347.535	75.5
347.763	90.5
347.99	81.5
348.218	79.5
348.445	81.5
348.673	90.5
348.9	90.5
349.128	94.5
349.355	83.5
349.583	85.5
349.81	68.5
350.037	88.5
350.265	71.5
350.492	72.5
350.72	79.5
350.947	63.5
351.174	75.5
351.402	90.5
351.629	80.5
351.856	83.5
352.083	74.5
352.311	83.5
352.538	83.5
352.765	74.5
352.992	85.5
353.22	87.5
353.447	69.5
353.674	85.5
353.901	89.5
354.128	81.5
354.355	82.5
354.583	81.5
354.81	82.5
355.037	83.5
355.264	89.5
355.491	78.5
355.718	79.5
355.945	84.5
356.172	81.5
356.399	79.5
356.626	88.5
356.853	87.5
357.08	95.5
357.307	85.5
357.534	80.5
357.761	77.5
357.988	76.5
358.215	95.5
358.441	89.5
358.668	88.5
358.895	85.5
359.122	82.5
359.349	89.5
359.576	85.5
359.802	66.5
360.029	80.5
360.256	86.5
360.483	88.5
360.709	70.5
360.936	73.5
361.163	83.5
361.39	79.5
361.616	75.5
361.843	62.5
362.07	80.5
362.296	82.5
362.523	88.5
362.749	72.5
362.976	70.5
363.203	72.5
363.429	78.5
363.656	91.5
363.882	78.5
364.109	90.5
364.335	85.5
364.562	86.5
364.788	68.5
365.015	85.5
365.241	90.5
365.468	93.5
365.694	70.5
365.92	94.5
366.147	81.5
366.373	86.5
366.599	72.5
366.826	80.5
367.052	83.5
367.278	79.5
367.505	78.5
367.731	82.5
367.957	74.5
368.184	73.5
368.41	84.5
368.636	98.5
368.862	88.5
369.089	79.5
369.315	89.5
369.541	85.5
369.767	90.5
369.993	90.5
370.219	81.5
370.445	77.5
370.672	88.5
370.898	71.5
371.124	80.5
371.35	93.5
371.576	96.5
371.802	70.5
372.028	88.5
372.254	81.5
372.48	78.5
372.706	78.5
372.932	69.5
373.158	75.5
373.384	62.5
373.61	95.5
373.835	79.5
374.061	81.5
374.287	88.5
374.513	99.5
374.739	89.5
374.965	75.5
375.191	72.5
375.416	90.5
375.642	72.5
375.868	84.5
376.094	70.5
376.319	89.5
376.545	89.5
376.771	85.5
376.997	89.5
377.222	85.5
377.448	72.5
377.674	86.5
377.899	89.5
378.125	93.5
378.35	89.5
378.576	79.5
378.802	79.5
379.027	87.5
379.253	92.5
379.478	81.5
379.704	93.5
379.929	83.5
380.155	74.5
380.38	90.5
380.606	94.5
380.831	89.5
381.057	106.5
381.282	87.5
381.507	88.5
381.733	95.5
381.958	79.5
382.184	72.5
382.409	79.5
382.634	81.5
382.86	82.5
383.085	77.5
383.31	73.5
383.535	84.5
383.761	81.5
383.986	83.5
384.211	80.5
384.436	93.5
384.662	83.5
384.887	85.5
385.112	80.5
385.337	77.5
385.562	91.5
385.787	91.5
386.013	88.5
386.238	99.5
386.463	89.5
386.688	81.5
386.913	68.5
387.138	73.5
387.363	94.5
387.588	82.5
387.813	81.5
388.038	89.5
388.263	71.5
388.488	74.5
388.713	88.5
388.938	86.5
389.163	72.5
389.387	84.5
389.612	82.5
389.837	95.5
390.062	79.5
390.287	78.5
390.512	82.5
390.736	85.5
390.961	83.5
391.186	87.5
391.411	75.5
391.636	76.5
391.86	92.5
392.085	84.5
392.31	83.5
392.534	84.5
392.759	78.5
392.984	82.5
393.208	72.5
393.433	77.5
393.658	79.5
393.882	75.5
394.107	75.5
394.331	75.5
394.556	83.5
394.78	99.5
395.005	81.5
395.229	72.5
395.454	82.5
395.678	72.5
395.903	75.5
396.127	90.5
396.352	97.5
396.576	81.5
396.801	78.5
397.025	85.5
397.249	84.5
397.474	95.5
397.698	93.5
397.922	95.5
398.147	89.5
398.371	84.5
398.595	84.5
398.82	90.5
399.044	95.5
399.268	99.5
399.492	74.5
399.717	82.5
399.941	89.5
400.165	93.5
400.389	72.5
400.613	89.5
400.837	89.5
401.062	91.5
401.286	85.5
401.51	87.5
401.734	86.5
401.958	78.5
402.182	88.5
402.406	88.5
402.63	96.5
402.854	83.5
403.078	89.5
403.302	80.5
403.526	72.5
403.75	94.5
403.974	83.5
404.198	98.5
404.422	77.5
404.645	68.5
404.869	83.5
405.093	81.5
405.317	88.5
405.541	98.5
405.765	90.5
405.988	81.5
406.212	100.5
406.436	87.5
406.66	82.5
406.883	83.5
407.107	90.5
407.331	89.5
407.555	91.5
407.778	85.5
408.002	70.5
408.226	86.5
408.449	89.5
408.673	98.5
408.896	90.5
409.12	79.5
409.344	80.5
409.567	76.5
409.791	75.5
410.014	85.5
410.238	83.5
410.461	90.5
410.685	96.5
410.908	68.5
411.132	88.5
411.355	93.5
411.578	90.5
411.802	90.5
412.025	91.5
412.249	94.5
412.472	98.5
412.695	79.5
412.919	84.5
413.142	88.5
413.365	81.5
413.589	96.5
413.812	82.5
414.035	92.5
414.258	88.5
414.482	74.5
414.705	75.5
414.928	75.5
415.151	82.5
415.374	93.5
415.597	86.5
415.821	76.5
416.044	89.5
416.267	91.5
416.49	94.5
416.713	88.5
416.936	81.5
417.159	81.5
417.382	93.5
417.605	83.5
417.828	83.5
418.051	99.5
418.274	82.5
418.497	99.5
418.72	83.5
418.943	89.5
419.166	88.5
419.389	97.5
419.611	91.5
419.834	98.5
420.057	101.5
420.28	90.5
420.503	94.5
420.726	100.5
420.948	96.5
421.171	86.5
421.394	99.5
421.617	93.5
421.839	102.5
422.062	95.5
422.285	89.5
422.507	85.5
422.73	99.5
422.953	91.5
423.175	90.5
423.398	91.5
423.621	89.5
423.843	89.5
424.066	80.5
424.288	93.5
424.511	89.5
424.733	83.5
424.956	85.5
425.178	87.5
425.401	87.5
425.623	81.5
425.846	81.5
426.068	91.5
426.291	70.5
426.513	98.5
426.735	89.5
426.958	84.5
427.18	97.5
427.402	95.5
427.625	92.5
427.847	96.5
428.069	83.5
428.292	95.5
428.514	82.5
428.736	92.5
428.958	90.5
429.181	87.5
429.403	86.5
429.625	73.5
429.847	97.5
430.069	87.5
430.292	95.5
430.514	85.5
430.736	87.5
430.958	104.5
431.18	111.5
431.402	78.5
431.624	79.5
431.846	84.5
432.068	87.5
432.29	93.5
432.512	81.5
432.734	79.5
432.956	83.5
433.178	103.5
433.4	90.5
433.622	98.5
433.844	93.5
434.066	74.5
434.287	76.5
434.509	80.5
434.731	96.5
434.953	83.5
435.175	82.5
435.397	88.5
435.618	95.5
435.84	84.5
436.062	88.5
436.284	93.5
436.505	86.5
436.727	81.5
436.949	87.5
437.17	91.5
437.392	92.5
437.614	89.5
437.835	83.5
438.057	89.5
438.278	93.5
438.5	76.5
438.721	87.5
438.943	96.5
439.165	87.5
439.386	88.5
439.608	94.5
439.829	94.5
440.05	108.5
440.272	90.5
440.493	96.5
440.715	106.5
440.936	99.5
441.158	93.5
441.379	93.5
441.6	90.5
441.822	89.5
442.043	95.5
442.264	96.5
442.486	101.5
442.707	80.5
442.928	84.5
443.149	99.5
443.371	92.5
443.592	93.5
443.813	88.5
444.034	94.5
444.255	99.5
444.476	85.5
444.698	84.5
444.919	95.5
445.14	229.5
445.361	145.5
445.582	101.5
445.803	90.5
446.024	107.5
446.245	102.5
446.466	89.5
446.687	94.5
446.908	96.5
447.129	94.5
447.35	91.5
447.571	93.5
447.792	105.5
448.013	94.5
448.234	97.5
448.455	96.5
448.675	83.5
448.896	93.5
449.117	104.5
449.338	74.5
449.559	96.5
449.779	86.5
450	98.5
450.221	91.5
450.442	85.5
450.662	77.5
450.883	84.5
451.104	75.5
451.324	89.5
451.545	88.5
451.766	79.5
451.986	82.5
452.207	87.5
452.428	87.5
452.648	86.5
452.869	97.5
453.089	85.5
453.31	91.5
453.53	80.5
453.751	88.5
453.971	78.5
454.192	77.5
454.412	74.5
454.633	110.5
454.853	82.5
455.073	85.5
455.294	89.5
455.514	86.5
455.734	80.5
455.955	80.5
456.175	87.5
456.395	80.5
456.616	95.5
456.836	99.5
457.056	84.5
457.276	80.5
457.497	79.5
457.717	84.5
457.937	76.5
458.157	78.5
458.377	70.5
458.598	86.5
458.818	76.5
459.038	83.5
459.258	85.5
459.478	81.5
459.698	77.5
459.918	78.5
460.138	74.5
460.358	82.5
460.578	88.5
460.798	92.5
461.018	69.5
461.238	79.5
461.458	87.5
461.678	86.5
461.898	94.5
462.118	87.5
462.338	92.5
462.558	83.5
462.777	82.5
462.997	84.5
463.217	89.5
463.437	82.5
463.657	81.5
463.876	80.5
464.096	80.5
464.316	78.5
464.536	90.5
464.755	86.5
464.975	89.5
465.195	95.5
465.414	107.5
465.634	85.5
465.854	89.5
466.073	95.5
466.293	88.5
466.512	103.5
466.732	104.5
466.951	87.5
467.171	96.5
467.391	99.5
467.61	80.5
467.829	94.5
468.049	82.5
468.268	81.5
468.488	86.5
468.707	93.5
468.927	111.5
469.146	95.5
469.365	80.5
469.585	87.5
469.804	106.5
470.023	83.5
470.243	94.5
470.462	91.5
470.681	78.5
470.901	96.5
471.12	94.5
471.339	84.5
471.558	99.5
471.777	103.5
471.997	89.5
472.216	89.5
472.435	108.5
472.654	95.5
472.873	85.5
473.092	82.5
473.311	94.5
473.53	74.5
473.749	100.5
473.968	88.5
474.187	82.5
474.406	85.5
474.625	79.5
474.844	92.5
475.063	93.5
475.282	96.5
475.501	82.5
475.72	94.5
475.939	104.5
476.158	95.5
476.377	110.5
476.596	94.5
476.814	78.5
477.033	70.5
477.252	82.5
477.471	95.5
477.69	100.5
477.908	98.5
478.127	102.5
478.346	95.5
478.564	89.5
478.783	89.5
479.002	88.5
479.22	80.5
479.439	86.5
479.658	85.5
479.876	91.5
480.095	84.5
480.313	89.5
480.532	104.5
480.751	76.5
480.969	80.5
481.188	84.5
481.406	88.5
481.624	81.5
481.843	84.5
482.061	92.5
482.28	95.5
482.498	82.5
482.717	89.5
482.935	100.5
483.153	95.5
483.372	103.5
483.59	101.5
483.808	87.5
484.027	87.5
484.245	89.5
484.463	86.5
484.681	100.5
484.9	105.5
485.118	85.5
485.336	95.5
485.554	69.5
485.772	81.5
485.99	99.5
486.209	74.5
486.427	82.5
486.645	86.5
486.863	88.5
487.081	93.5
487.299	97.5
487.517	87.5
487.735	100.5
487.953	117.5
488.171	103.5
488.389	88.5
488.607	103.5
488.825	91.5
489.043	92.5
489.261	93.5
489.479	81.5
489.696	96.5
489.914	95.5
490.132	115.5
490.35	94.5
490.568	118.5
490.786	102.5
491.003	101.5
491.221	93.5
491.439	112.5
491.657	115.5
491.874	105.5
492.092	109.5
492.31	129.5
492.527	118.5
492.745	118.5
492.963	130.5
493.18	108.5
493.398	107.5
493.615	113.5
493.833	109.5
494.05	98.5
494.268	104.5
494.485	86.5
494.703	100.5
494.92	99.5
495.138	113.5
495.355	102.5
495.573	98.5
495.79	87.5
496.008	94.5
496.225	110.5
496.442	107.5
496.66	96.5
496.877	111.5
497.094	116.5
497.312	116.5
497.529	104.5
497.746	100.5
497.963	88.5
498.181	94.5
498.398	74.5
498.615	100.5
498.832	92.5
499.049	93.5
499.267	97.5
499.484	93.5
499.701	81.5
499.918	90.5
500.135	93.5
500.352	96.5
500.569	93.5
500.786	91.5
501.003	111.5
501.22	104.5
501.437	93.5
501.654	100.5
501.871	85.5
502.088	83.5
502.305	85.5
502.522	92.5
502.739	90.5
502.956	93.5
503.172	82.5
503.389	97.5
503.606	81.5
503.823	91.5
504.04	83.5
504.256	96.5
504.473	79.5
504.69	84.5
504.907	95.5
505.123	82.5
505.34	86.5
505.557	81.5
505.773	95.5
505.99	90.5
506.207	82.5
506.423	82.5
506.64	90.5
506.856	97.5
507.073	101.5
507.289	86.5
507.506	88.5
507.722	76.5
507.939	95.5
508.155	96.5
508.372	88.5
508.588	87.5
508.805	95.5
509.021	97.5
509.238	83.5
509.454	81.5
509.67	73.5
509.887	80.5
510.103	77.5
510.319	80.5
510.536	83.5
510.752	74.5
510.968	76.5
511.184	81.5
511.401	80.5
511.617	84.5
511.833	86.5
512.049	82.5
512.265	81.5
512.481	92.5
512.698	80.5
512.914	90.5
513.13	82.5
513.346	78.5
513.562	79.5
513.778	84.5
513.994	81.5
514.21	71.5
514.426	86.5
514.642	72.5
514.858	93.5
515.074	89.5
515.29	73.5
515.506	85.5
515.721	73.5
515.937	91.5
516.153	89.5
516.369	96.5
516.585	83.5
516.801	97.5
517.016	77.5
517.232	76.5
517.448	84.5
517.664	91.5
517.879	79.5
518.095	84.5
518.311	83.5
518.527	86.5
518.742	77.5
518.958	71.5
519.173	87.5
519.389	65.5
519.605	75.5
519.82	91.5
520.036	81.5
520.251	94.5
520.467	76.5
520.682	85.5
520.898	89.5
521.113	75.5
521.329	93.5
521.544	77.5
521.76	82.5
521.975	78.5
522.19	89.5
522.406	89.5
522.621	90.5
522.836	86.5
523.052	89.5
523.267	95.5
523.482	89.5
523.698	89.5
523.913	75.5
524.128	86.5
524.343	94.5
524.559	88.5
524.774	82.5
524.989	90.5
525.204	100.5
525.419	88.5
525.634	93.5
525.849	85.5
526.064	88.5
526.28	89.5
526.495	86.5
526.71	80.5
526.925	60.5
527.14	73.5
527.355	86.5
527.57	87.5
527.785	83.5
527.999	83.5
528.214	90.5
528.429	71.5
528.644	82.5
528.859	98.5
529.074	90.5
529.289	91.5
529.503	98.5
529.718	82.5
529.933	79.5
530.148	87.5
530.363	75.5
530.577	78.5
530.792	93.5
531.007	81.5
531.221	80.5
531.436	94.5
531.651	83.5
531.865	80.5
532.08	91.5
532.295	87.5
532.509	76.5
532.724	88.5
532.938	72.5
533.153	93.5
533.367	97.5
533.582	84.5
533.796	83.5
534.011	81.5
534.225	73.5
534.44	91.5
534.654	83.5
534.868	86.5
535.083	85.5
535.297	75.5
535.511	82.5
535.726	87.5
535.94	83.5
536.154	75.5
536.369	90.5
536.583	77.5
536.797	88.5
537.011	79.5
537.225	79.5
537.44	83.5
537.654	81.5
537.868	88.5
538.082	97.5
538.296	93.5
538.51	95.5
538.724	95.5
