Data from Location5.07152019.Energy5.Lamp.07192019.3%Agarose_HRD10591_16-04-33-629.txt Node
Date: Fri Jul 19 16:04:33 EDT 2019
User: cochatt
Spectrometer: HR+D1059
Trigger mode: 1
Integration Time (sec): 1.000000E-1
Scans to average: 1
Electric dark correction enabled: true
Nonlinearity correction enabled: false
Boxcar width: 0
XAxis mode: Wavelengths
Number of Pixels in Spectrum: 2048
>>>>>Begin Spectral Data<<<<<
223.165	-7.44
223.4	-7.44
223.635	-7.44
223.869	-12.44
224.104	-13.44
224.338	-20.44
224.573	-25.44
224.808	-14.44
225.042	-8.44
225.277	-4.44
225.511	9.56
225.746	0.56
225.98	8.56
226.215	10.56
226.449	24.56
226.683	22.56
226.918	8.56
227.152	21.56
227.387	31.56
227.621	39.56
227.856	42.56
228.09	43.56
228.324	65.56
228.559	67.56
228.793	52.56
229.027	63.56
229.262	68.56
229.496	82.56
229.73	69.56
229.964	73.56
230.199	76.56
230.433	72.56
230.667	81.56
230.901	73.56
231.136	75.56
231.37	94.56
231.604	82.56
231.838	77.56
232.072	82.56
232.306	96.56
232.541	96.56
232.775	86.56
233.009	88.56
233.243	88.56
233.477	86.56
233.711	84.56
233.945	97.56
234.179	72.56
234.413	86.56
234.647	76.56
234.881	71.56
235.115	89.56
235.349	86.56
235.583	85.56
235.817	87.56
236.051	78.56
236.285	72.56
236.519	72.56
236.753	89.56
236.987	81.56
237.221	73.56
237.455	80.56
237.689	85.56
237.922	89.56
238.156	69.56
238.39	67.56
238.624	81.56
238.858	69.56
239.091	87.56
239.325	73.56
239.559	79.56
239.793	75.56
240.027	84.56
240.26	87.56
240.494	86.56
240.728	76.56
240.961	67.56
241.195	77.56
241.429	83.56
241.662	83.56
241.896	91.56
242.13	85.56
242.363	63.56
242.597	82.56
242.83	75.56
243.064	70.56
243.298	95.56
243.531	87.56
243.765	81.56
243.998	80.56
244.232	101.56
244.465	80.56
244.699	85.56
244.932	77.56
245.166	69.56
245.399	80.56
245.633	81.56
245.866	76.56
246.099	72.56
246.333	90.56
246.566	87.56
246.8	74.56
247.033	82.56
247.266	76.56
247.5	87.56
247.733	68.56
247.966	77.56
248.2	85.56
248.433	84.56
248.666	89.56
248.899	88.56
249.133	78.56
249.366	94.56
249.599	87.56
249.832	87.56
250.066	83.56
250.299	70.56
250.532	70.56
250.765	89.56
250.998	90.56
251.231	75.56
251.465	79.56
251.698	80.56
251.931	77.56
252.164	72.56
252.397	89.56
252.63	96.56
252.863	83.56
253.096	82.56
253.329	77.56
253.562	86.56
253.795	92.56
254.028	79.56
254.261	81.56
254.494	90.56
254.727	84.56
254.96	103.56
255.193	93.56
255.426	75.56
255.659	68.56
255.892	76.56
256.124	87.56
256.357	78.56
256.59	85.56
256.823	87.56
257.056	93.56
257.289	97.56
257.521	92.56
257.754	87.56
257.987	92.56
258.22	90.56
258.452	80.56
258.685	75.56
258.918	85.56
259.151	69.56
259.383	88.56
259.616	89.56
259.849	80.56
260.081	84.56
260.314	75.56
260.547	92.56
260.779	74.56
261.012	85.56
261.244	85.56
261.477	91.56
261.71	81.56
261.942	81.56
262.175	100.56
262.407	78.56
262.64	88.56
262.872	77.56
263.105	76.56
263.337	101.56
263.57	85.56
263.802	76.56
264.035	88.56
264.267	73.56
264.499	87.56
264.732	90.56
264.964	92.56
265.197	73.56
265.429	83.56
265.661	79.56
265.894	79.56
266.126	101.56
266.358	86.56
266.591	95.56
266.823	77.56
267.055	71.56
267.287	90.56
267.52	96.56
267.752	100.56
267.984	81.56
268.216	77.56
268.448	68.56
268.681	87.56
268.913	80.56
269.145	89.56
269.377	72.56
269.609	63.56
269.841	74.56
270.073	88.56
270.306	89.56
270.538	89.56
270.77	79.56
271.002	83.56
271.234	79.56
271.466	91.56
271.698	71.56
271.93	69.56
272.162	97.56
272.394	95.56
272.626	95.56
272.858	82.56
273.09	87.56
273.322	77.56
273.553	86.56
273.785	94.56
274.017	81.56
274.249	101.56
274.481	88.56
274.713	75.56
274.945	90.56
275.176	82.56
275.408	87.56
275.64	96.56
275.872	96.56
276.104	82.56
276.335	90.56
276.567	92.56
276.799	77.56
277.031	83.56
277.262	109.56
277.494	92.56
277.726	84.56
277.957	95.56
278.189	84.56
278.421	76.56
278.652	91.56
278.884	84.56
279.115	88.56
279.347	88.56
279.579	90.56
279.81	95.56
280.042	85.56
280.273	89.56
280.505	91.56
280.736	91.56
280.968	91.56
281.199	93.56
281.431	87.56
281.662	84.56
281.894	88.56
282.125	93.56
282.356	100.56
282.588	89.56
282.819	87.56
283.051	86.56
283.282	92.56
283.513	96.56
283.745	109.56
283.976	84.56
284.207	97.56
284.439	80.56
284.67	93.56
284.901	76.56
285.132	107.56
285.364	84.56
285.595	86.56
285.826	76.56
286.057	75.56
286.288	91.56
286.52	83.56
286.751	91.56
286.982	91.56
287.213	91.56
287.444	77.56
287.675	87.56
287.906	86.56
288.138	99.56
288.369	98.56
288.6	83.56
288.831	101.56
289.062	96.56
289.293	97.56
289.524	97.56
289.755	90.56
289.986	93.56
290.217	93.56
290.448	78.56
290.679	93.56
290.91	89.56
291.141	88.56
291.371	95.56
291.602	94.56
291.833	84.56
292.064	103.56
292.295	77.56
292.526	96.56
292.757	87.56
292.987	107.56
293.218	96.56
293.449	91.56
293.68	80.56
293.91	99.56
294.141	89.56
294.372	90.56
294.603	96.56
294.833	102.56
295.064	94.56
295.295	92.56
295.525	101.56
295.756	88.56
295.987	88.56
296.217	84.56
296.448	98.56
296.679	99.56
296.909	102.56
297.14	97.56
297.37	83.56
297.601	86.56
297.831	96.56
298.062	97.56
298.292	85.56
298.523	95.56
298.753	83.56
298.984	84.56
299.214	91.56
299.445	99.56
299.675	84.56
299.905	80.56
300.136	93.56
300.366	97.56
300.597	101.56
300.827	101.56
301.057	86.56
301.288	103.56
301.518	98.56
301.748	86.56
301.979	99.56
302.209	77.56
302.439	79.56
302.669	102.56
302.9	82.56
303.13	103.56
303.36	80.56
303.59	96.56
303.82	90.56
304.051	93.56
304.281	111.56
304.511	108.56
304.741	89.56
304.971	81.56
305.201	101.56
305.431	90.56
305.661	93.56
305.891	81.56
306.121	96.56
306.352	95.56
306.582	98.56
306.812	93.56
307.042	82.56
307.272	91.56
307.502	88.56
307.731	87.56
307.961	90.56
308.191	105.56
308.421	96.56
308.651	103.56
308.881	92.56
309.111	94.56
309.341	80.56
309.571	87.56
309.8	91.56
310.03	77.56
310.26	92.56
310.49	86.56
310.72	100.56
310.949	89.56
311.179	92.56
311.409	99.56
311.639	88.56
311.868	89.56
312.098	104.56
312.328	87.56
312.557	104.56
312.787	96.56
313.017	83.56
313.246	105.56
313.476	93.56
313.706	76.56
313.935	78.56
314.165	92.56
314.394	77.56
314.624	85.56
314.853	97.56
315.083	95.56
315.312	97.56
315.542	89.56
315.771	101.56
316.001	93.56
316.23	99.56
316.46	85.56
316.689	90.56
316.919	93.56
317.148	115.56
317.377	95.56
317.607	97.56
317.836	90.56
318.065	90.56
318.295	94.56
318.524	94.56
318.753	84.56
318.983	82.56
319.212	82.56
319.441	89.56
319.67	94.56
319.9	92.56
320.129	94.56
320.358	97.56
320.587	107.56
320.816	72.56
321.046	102.56
321.275	77.56
321.504	75.56
321.733	92.56
321.962	100.56
322.191	102.56
322.42	95.56
322.649	98.56
322.878	98.56
323.108	97.56
323.337	89.56
323.566	104.56
323.795	90.56
324.024	91.56
324.253	92.56
324.482	84.56
324.71	103.56
324.939	100.56
325.168	89.56
325.397	93.56
325.626	91.56
325.855	89.56
326.084	83.56
326.313	79.56
326.542	89.56
326.77	84.56
326.999	98.56
327.228	87.56
327.457	90.56
327.686	92.56
327.914	111.56
328.143	85.56
328.372	91.56
328.6	91.56
328.829	96.56
329.058	90.56
329.287	101.56
329.515	95.56
329.744	79.56
329.972	68.56
330.201	91.56
330.43	84.56
330.658	84.56
330.887	97.56
331.115	106.56
331.344	87.56
331.572	95.56
331.801	83.56
332.03	95.56
332.258	90.56
332.486	89.56
332.715	101.56
332.943	92.56
333.172	102.56
333.4	91.56
333.629	104.56
333.857	88.56
334.085	105.56
334.314	108.56
334.542	95.56
334.771	104.56
334.999	103.56
335.227	90.56
335.455	97.56
335.684	90.56
335.912	98.56
336.14	95.56
336.369	104.56
336.597	107.56
336.825	103.56
337.053	83.56
337.281	90.56
337.51	83.56
337.738	99.56
337.966	85.56
338.194	89.56
338.422	100.56
338.65	92.56
338.878	101.56
339.106	78.56
339.334	103.56
339.562	84.56
339.79	85.56
340.018	100.56
340.246	95.56
340.474	102.56
340.702	94.56
340.93	96.56
341.158	84.56
341.386	95.56
341.614	96.56
341.842	87.56
342.07	88.56
342.298	112.56
342.526	100.56
342.754	107.56
342.981	106.56
343.209	81.56
343.437	70.56
343.665	86.56
343.893	89.56
344.12	96.56
344.348	85.56
344.576	97.56
344.804	87.56
345.031	85.56
345.259	88.56
345.487	97.56
345.714	98.56
345.942	87.56
346.17	91.56
346.397	76.56
346.625	93.56
346.853	87.56
347.08	89.56
347.308	83.56
347.535	102.56
347.763	87.56
347.99	88.56
348.218	102.56
348.445	98.56
348.673	92.56
348.9	101.56
349.128	96.56
349.355	111.56
349.583	88.56
349.81	99.56
350.037	89.56
350.265	94.56
350.492	90.56
350.72	89.56
350.947	85.56
351.174	89.56
351.402	90.56
351.629	81.56
351.856	105.56
352.083	98.56
352.311	91.56
352.538	90.56
352.765	84.56
352.992	91.56
353.22	111.56
353.447	86.56
353.674	89.56
353.901	88.56
354.128	94.56
354.355	89.56
354.583	88.56
354.81	85.56
355.037	81.56
355.264	96.56
355.491	92.56
355.718	86.56
355.945	89.56
356.172	88.56
356.399	97.56
356.626	95.56
356.853	89.56
357.08	87.56
357.307	94.56
357.534	93.56
357.761	96.56
357.988	94.56
358.215	77.56
358.441	77.56
358.668	84.56
358.895	89.56
359.122	100.56
359.349	91.56
359.576	98.56
359.802	87.56
360.029	98.56
360.256	88.56
360.483	98.56
360.709	97.56
360.936	98.56
361.163	88.56
361.39	81.56
361.616	88.56
361.843	97.56
362.07	99.56
362.296	91.56
362.523	108.56
362.749	86.56
362.976	85.56
363.203	93.56
363.429	88.56
363.656	81.56
363.882	96.56
364.109	83.56
364.335	105.56
364.562	89.56
364.788	99.56
365.015	111.56
365.241	93.56
365.468	108.56
365.694	109.56
365.92	82.56
366.147	99.56
366.373	107.56
366.599	100.56
366.826	104.56
367.052	81.56
367.278	100.56
367.505	99.56
367.731	90.56
367.957	94.56
368.184	91.56
368.41	87.56
368.636	93.56
368.862	91.56
369.089	98.56
369.315	93.56
369.541	107.56
369.767	95.56
369.993	104.56
370.219	92.56
370.445	97.56
370.672	92.56
370.898	80.56
371.124	89.56
371.35	105.56
371.576	88.56
371.802	87.56
372.028	89.56
372.254	102.56
372.48	99.56
372.706	99.56
372.932	92.56
373.158	101.56
373.384	100.56
373.61	87.56
373.835	96.56
374.061	81.56
374.287	88.56
374.513	92.56
374.739	98.56
374.965	104.56
375.191	104.56
375.416	91.56
375.642	93.56
375.868	90.56
376.094	98.56
376.319	88.56
376.545	81.56
376.771	85.56
376.997	86.56
377.222	85.56
377.448	101.56
377.674	91.56
377.899	96.56
378.125	98.56
378.35	94.56
378.576	97.56
378.802	82.56
379.027	88.56
379.253	103.56
379.478	80.56
379.704	90.56
379.929	104.56
380.155	83.56
380.38	91.56
380.606	106.56
380.831	92.56
381.057	96.56
381.282	100.56
381.507	88.56
381.733	90.56
381.958	86.56
382.184	96.56
382.409	89.56
382.634	94.56
382.86	87.56
383.085	95.56
383.31	89.56
383.535	93.56
383.761	81.56
383.986	86.56
384.211	98.56
384.436	95.56
384.662	96.56
384.887	92.56
385.112	103.56
385.337	102.56
385.562	85.56
385.787	111.56
386.013	92.56
386.238	91.56
386.463	101.56
386.688	102.56
386.913	88.56
387.138	98.56
387.363	96.56
387.588	91.56
387.813	100.56
388.038	97.56
388.263	98.56
388.488	97.56
388.713	83.56
388.938	83.56
389.163	91.56
389.387	97.56
389.612	88.56
389.837	104.56
390.062	102.56
390.287	97.56
390.512	96.56
390.736	89.56
390.961	88.56
391.186	72.56
391.411	77.56
391.636	111.56
391.86	101.56
392.085	93.56
392.31	103.56
392.534	82.56
392.759	106.56
392.984	88.56
393.208	84.56
393.433	100.56
393.658	90.56
393.882	98.56
394.107	98.56
394.331	103.56
394.556	83.56
394.78	99.56
395.005	90.56
395.229	98.56
395.454	103.56
395.678	105.56
395.903	74.56
396.127	99.56
396.352	104.56
396.576	100.56
396.801	101.56
397.025	91.56
397.249	102.56
397.474	105.56
397.698	103.56
397.922	101.56
398.147	80.56
398.371	90.56
398.595	99.56
398.82	83.56
399.044	92.56
399.268	80.56
399.492	88.56
399.717	98.56
399.941	96.56
400.165	80.56
400.389	108.56
400.613	109.56
400.837	100.56
401.062	95.56
401.286	105.56
401.51	120.56
401.734	87.56
401.958	102.56
402.182	106.56
402.406	97.56
402.63	98.56
402.854	99.56
403.078	87.56
403.302	105.56
403.526	96.56
403.75	98.56
403.974	116.56
404.198	96.56
404.422	92.56
404.645	97.56
404.869	107.56
405.093	97.56
405.317	111.56
405.541	106.56
405.765	104.56
405.988	120.56
406.212	116.56
406.436	107.56
406.66	93.56
406.883	98.56
407.107	97.56
407.331	103.56
407.555	100.56
407.778	101.56
408.002	102.56
408.226	96.56
408.449	104.56
408.673	103.56
408.896	90.56
409.12	96.56
409.344	94.56
409.567	99.56
409.791	103.56
410.014	98.56
410.238	104.56
410.461	95.56
410.685	117.56
410.908	93.56
411.132	118.56
411.355	101.56
411.578	94.56
411.802	104.56
412.025	98.56
412.249	90.56
412.472	90.56
412.695	89.56
412.919	104.56
413.142	114.56
413.365	106.56
413.589	101.56
413.812	106.56
414.035	86.56
414.258	108.56
414.482	100.56
414.705	91.56
414.928	89.56
415.151	103.56
415.374	83.56
415.597	105.56
415.821	116.56
416.044	104.56
416.267	95.56
416.49	92.56
416.713	117.56
416.936	104.56
417.159	98.56
417.382	91.56
417.605	115.56
417.828	97.56
418.051	99.56
418.274	93.56
418.497	102.56
418.72	100.56
418.943	107.56
419.166	95.56
419.389	93.56
419.611	107.56
419.834	90.56
420.057	96.56
420.28	90.56
420.503	90.56
420.726	93.56
420.948	95.56
421.171	111.56
421.394	100.56
421.617	95.56
421.839	83.56
422.062	96.56
422.285	101.56
422.507	103.56
422.73	97.56
422.953	97.56
423.175	96.56
423.398	104.56
423.621	111.56
423.843	102.56
424.066	103.56
424.288	102.56
424.511	96.56
424.733	104.56
424.956	107.56
425.178	96.56
425.401	93.56
425.623	88.56
425.846	79.56
426.068	104.56
426.291	89.56
426.513	95.56
426.735	96.56
426.958	97.56
427.18	98.56
427.402	96.56
427.625	91.56
427.847	102.56
428.069	90.56
428.292	85.56
428.514	94.56
428.736	93.56
428.958	87.56
429.181	89.56
429.403	102.56
429.625	95.56
429.847	80.56
430.069	89.56
430.292	100.56
430.514	99.56
430.736	83.56
430.958	81.56
431.18	92.56
431.402	83.56
431.624	92.56
431.846	111.56
432.068	98.56
432.29	97.56
432.512	87.56
432.734	92.56
432.956	96.56
433.178	93.56
433.4	91.56
433.622	122.56
433.844	95.56
434.066	87.56
434.287	85.56
434.509	92.56
434.731	99.56
434.953	91.56
435.175	87.56
435.397	103.56
435.618	96.56
435.84	107.56
436.062	101.56
436.284	108.56
436.505	100.56
436.727	104.56
436.949	93.56
437.17	103.56
437.392	85.56
437.614	95.56
437.835	109.56
438.057	103.56
438.278	94.56
438.5	100.56
438.721	95.56
438.943	105.56
439.165	87.56
439.386	95.56
439.608	95.56
439.829	83.56
440.05	92.56
440.272	89.56
440.493	83.56
440.715	85.56
440.936	85.56
441.158	105.56
441.379	100.56
441.6	83.56
441.822	97.56
442.043	96.56
442.264	88.56
442.486	89.56
442.707	93.56
442.928	112.56
443.149	95.56
443.371	99.56
443.592	99.56
443.813	89.56
444.034	88.56
444.255	94.56
444.476	105.56
444.698	102.56
444.919	94.56
445.14	241.56
445.361	153.56
445.582	104.56
445.803	86.56
446.024	67.56
446.245	108.56
446.466	101.56
446.687	91.56
446.908	107.56
447.129	89.56
447.35	99.56
447.571	108.56
447.792	92.56
448.013	98.56
448.234	108.56
448.455	107.56
448.675	95.56
448.896	85.56
449.117	103.56
449.338	90.56
449.559	108.56
449.779	97.56
450	88.56
450.221	88.56
450.442	104.56
450.662	88.56
450.883	91.56
451.104	93.56
451.324	100.56
451.545	95.56
451.766	98.56
451.986	107.56
452.207	90.56
452.428	85.56
452.648	91.56
452.869	89.56
453.089	98.56
453.31	97.56
453.53	107.56
453.751	93.56
453.971	99.56
454.192	91.56
454.412	92.56
454.633	94.56
454.853	109.56
455.073	95.56
455.294	84.56
455.514	89.56
455.734	88.56
455.955	94.56
456.175	88.56
456.395	94.56
456.616	87.56
456.836	90.56
457.056	89.56
457.276	96.56
457.497	95.56
457.717	93.56
457.937	89.56
458.157	84.56
458.377	97.56
458.598	97.56
458.818	84.56
459.038	116.56
459.258	97.56
459.478	96.56
459.698	97.56
459.918	106.56
460.138	89.56
460.358	101.56
460.578	96.56
460.798	87.56
461.018	95.56
461.238	103.56
461.458	98.56
461.678	91.56
461.898	104.56
462.118	97.56
462.338	105.56
462.558	94.56
462.777	105.56
462.997	106.56
463.217	93.56
463.437	93.56
463.657	101.56
463.876	102.56
464.096	96.56
464.316	112.56
464.536	95.56
464.755	108.56
464.975	99.56
465.195	103.56
465.414	113.56
465.634	107.56
465.854	80.56
466.073	97.56
466.293	98.56
466.512	105.56
466.732	83.56
466.951	84.56
467.171	93.56
467.391	105.56
467.61	106.56
467.829	100.56
468.049	93.56
468.268	107.56
468.488	89.56
468.707	92.56
468.927	101.56
469.146	93.56
469.365	107.56
469.585	92.56
469.804	93.56
470.023	115.56
470.243	95.56
470.462	108.56
470.681	92.56
470.901	98.56
471.12	112.56
471.339	99.56
471.558	88.56
471.777	105.56
471.997	76.56
472.216	99.56
472.435	104.56
472.654	90.56
472.873	88.56
473.092	100.56
473.311	100.56
473.53	100.56
473.749	87.56
473.968	101.56
474.187	108.56
474.406	96.56
474.625	99.56
474.844	105.56
475.063	109.56
475.282	122.56
475.501	108.56
475.72	93.56
475.939	104.56
476.158	105.56
476.377	103.56
476.596	96.56
476.814	95.56
477.033	105.56
477.252	112.56
477.471	100.56
477.69	83.56
477.908	98.56
478.127	97.56
478.346	85.56
478.564	96.56
478.783	95.56
479.002	118.56
479.22	107.56
479.439	106.56
479.658	96.56
479.876	91.56
480.095	100.56
480.313	94.56
480.532	111.56
480.751	104.56
480.969	104.56
481.188	93.56
481.406	104.56
481.624	104.56
481.843	97.56
482.061	90.56
482.28	100.56
482.498	109.56
482.717	101.56
482.935	95.56
483.153	102.56
483.372	95.56
483.59	117.56
483.808	96.56
484.027	94.56
484.245	108.56
484.463	123.56
484.681	101.56
484.9	104.56
485.118	91.56
485.336	106.56
485.554	107.56
485.772	112.56
485.99	101.56
486.209	103.56
486.427	91.56
486.645	93.56
486.863	98.56
487.081	93.56
487.299	90.56
487.517	118.56
487.735	110.56
487.953	119.56
488.171	95.56
488.389	103.56
488.607	108.56
488.825	103.56
489.043	102.56
489.261	112.56
489.479	101.56
489.696	111.56
489.914	115.56
490.132	111.56
490.35	127.56
490.568	112.56
490.786	101.56
491.003	115.56
491.221	117.56
491.439	100.56
491.657	111.56
491.874	121.56
492.092	104.56
492.31	109.56
492.527	107.56
492.745	121.56
492.963	123.56
493.18	118.56
493.398	112.56
493.615	125.56
493.833	110.56
494.05	103.56
494.268	114.56
494.485	108.56
494.703	120.56
494.92	97.56
495.138	101.56
495.355	114.56
495.573	108.56
495.79	104.56
496.008	97.56
496.225	111.56
496.442	114.56
496.66	117.56
496.877	115.56
497.094	105.56
497.312	111.56
497.529	115.56
497.746	106.56
497.963	110.56
498.181	112.56
498.398	128.56
498.615	103.56
498.832	115.56
499.049	107.56
499.267	108.56
499.484	121.56
499.701	137.56
499.918	132.56
500.135	134.56
500.352	154.56
500.569	150.56
500.786	160.56
501.003	136.56
501.22	140.56
501.437	131.56
501.654	114.56
501.871	120.56
502.088	131.56
502.305	119.56
502.522	120.56
502.739	128.56
502.956	110.56
503.172	113.56
503.389	102.56
503.606	101.56
503.823	113.56
504.04	102.56
504.256	101.56
504.473	106.56
504.69	108.56
504.907	101.56
505.123	112.56
505.34	117.56
505.557	108.56
505.773	99.56
505.99	103.56
506.207	107.56
506.423	100.56
506.64	105.56
506.856	114.56
507.073	90.56
507.289	112.56
507.506	103.56
507.722	105.56
507.939	108.56
508.155	100.56
508.372	101.56
508.588	117.56
508.805	115.56
509.021	98.56
509.238	93.56
509.454	101.56
509.67	92.56
509.887	105.56
510.103	116.56
510.319	113.56
510.536	91.56
510.752	89.56
510.968	84.56
511.184	93.56
511.401	109.56
511.617	115.56
511.833	96.56
512.049	113.56
512.265	96.56
512.481	100.56
512.698	103.56
512.914	100.56
513.13	93.56
513.346	96.56
513.562	111.56
513.778	103.56
513.994	104.56
