Data from Location5.07152019.Energy5.Lamp.07192019.3%Agarose_HRD10591_16-04-37-629.txt Node
Date: Fri Jul 19 16:04:37 EDT 2019
User: cochatt
Spectrometer: HR+D1059
Trigger mode: 1
Integration Time (sec): 1.000000E-1
Scans to average: 1
Electric dark correction enabled: true
Nonlinearity correction enabled: false
Boxcar width: 0
XAxis mode: Wavelengths
Number of Pixels in Spectrum: 2048
>>>>>Begin Spectral Data<<<<<
223.165	-24.94
223.4	-24.94
223.635	-24.94
223.869	-20.94
224.104	-11.94
224.338	5.06
224.573	-11.94
224.808	-7.94
225.042	-0.94
225.277	-3.94
225.511	-8.94
225.746	1.06
225.98	13.06
226.215	23.06
226.449	8.06
226.683	11.06
226.918	1.06
227.152	29.06
227.387	27.06
227.621	32.06
227.856	40.06
228.09	45.06
228.324	51.06
228.559	56.06
228.793	41.06
229.027	62.06
229.262	70.06
229.496	63.06
229.73	65.06
229.964	68.06
230.199	57.06
230.433	73.06
230.667	92.06
230.901	72.06
231.136	70.06
231.37	78.06
231.604	82.06
231.838	79.06
232.072	85.06
232.306	79.06
232.541	72.06
232.775	62.06
233.009	71.06
233.243	88.06
233.477	82.06
233.711	73.06
233.945	81.06
234.179	71.06
234.413	80.06
234.647	91.06
234.881	75.06
235.115	60.06
235.349	63.06
235.583	95.06
235.817	81.06
236.051	80.06
236.285	56.06
236.519	89.06
236.753	72.06
236.987	77.06
237.221	71.06
237.455	82.06
237.689	69.06
237.922	81.06
238.156	63.06
238.39	75.06
238.624	67.06
238.858	88.06
239.091	74.06
239.325	78.06
239.559	81.06
239.793	73.06
240.027	79.06
240.26	62.06
240.494	65.06
240.728	79.06
240.961	88.06
241.195	90.06
241.429	74.06
241.662	70.06
241.896	68.06
242.13	67.06
242.363	86.06
242.597	76.06
242.83	81.06
243.064	70.06
243.298	72.06
243.531	78.06
243.765	74.06
243.998	77.06
244.232	71.06
244.465	70.06
244.699	83.06
244.932	78.06
245.166	72.06
245.399	71.06
245.633	75.06
245.866	86.06
246.099	72.06
246.333	74.06
246.566	73.06
246.8	81.06
247.033	75.06
247.266	67.06
247.5	68.06
247.733	74.06
247.966	91.06
248.2	73.06
248.433	90.06
248.666	68.06
248.899	77.06
249.133	70.06
249.366	87.06
249.599	75.06
249.832	65.06
250.066	64.06
250.299	80.06
250.532	79.06
250.765	79.06
250.998	79.06
251.231	89.06
251.465	82.06
251.698	85.06
251.931	63.06
252.164	76.06
252.397	66.06
252.63	80.06
252.863	77.06
253.096	77.06
253.329	76.06
253.562	82.06
253.795	88.06
254.028	70.06
254.261	72.06
254.494	77.06
254.727	86.06
254.96	80.06
255.193	66.06
255.426	83.06
255.659	79.06
255.892	86.06
256.124	88.06
256.357	84.06
256.59	82.06
256.823	78.06
257.056	65.06
257.289	76.06
257.521	70.06
257.754	73.06
257.987	91.06
258.22	81.06
258.452	93.06
258.685	84.06
258.918	89.06
259.151	76.06
259.383	78.06
259.616	66.06
259.849	92.06
260.081	72.06
260.314	77.06
260.547	69.06
260.779	79.06
261.012	91.06
261.244	81.06
261.477	79.06
261.71	81.06
261.942	87.06
262.175	81.06
262.407	69.06
262.64	87.06
262.872	86.06
263.105	81.06
263.337	88.06
263.57	84.06
263.802	86.06
264.035	70.06
264.267	79.06
264.499	82.06
264.732	99.06
264.964	75.06
265.197	75.06
265.429	87.06
265.661	77.06
265.894	86.06
266.126	93.06
266.358	65.06
266.591	83.06
266.823	88.06
267.055	82.06
267.287	86.06
267.52	74.06
267.752	91.06
267.984	74.06
268.216	74.06
268.448	76.06
268.681	70.06
268.913	79.06
269.145	86.06
269.377	76.06
269.609	84.06
269.841	72.06
270.073	96.06
270.306	80.06
270.538	78.06
270.77	80.06
271.002	83.06
271.234	92.06
271.466	77.06
271.698	83.06
271.93	81.06
272.162	76.06
272.394	91.06
272.626	83.06
272.858	76.06
273.09	71.06
273.322	78.06
273.553	77.06
273.785	79.06
274.017	80.06
274.249	79.06
274.481	88.06
274.713	76.06
274.945	86.06
275.176	68.06
275.408	86.06
275.64	80.06
275.872	81.06
276.104	90.06
276.335	82.06
276.567	83.06
276.799	91.06
277.031	85.06
277.262	73.06
277.494	83.06
277.726	91.06
277.957	93.06
278.189	94.06
278.421	98.06
278.652	87.06
278.884	77.06
279.115	88.06
279.347	80.06
279.579	62.06
279.81	73.06
280.042	81.06
280.273	91.06
280.505	81.06
280.736	84.06
280.968	84.06
281.199	87.06
281.431	85.06
281.662	87.06
281.894	74.06
282.125	85.06
282.356	88.06
282.588	87.06
282.819	78.06
283.051	87.06
283.282	81.06
283.513	94.06
283.745	94.06
283.976	79.06
284.207	87.06
284.439	79.06
284.67	80.06
284.901	78.06
285.132	88.06
285.364	79.06
285.595	83.06
285.826	85.06
286.057	76.06
286.288	91.06
286.52	79.06
286.751	77.06
286.982	84.06
287.213	83.06
287.444	80.06
287.675	87.06
287.906	86.06
288.138	71.06
288.369	92.06
288.6	97.06
288.831	94.06
289.062	83.06
289.293	91.06
289.524	81.06
289.755	87.06
289.986	71.06
290.217	91.06
290.448	93.06
290.679	94.06
290.91	81.06
291.141	80.06
291.371	83.06
291.602	101.06
291.833	83.06
292.064	88.06
292.295	81.06
292.526	83.06
292.757	89.06
292.987	90.06
293.218	79.06
293.449	86.06
293.68	79.06
293.91	74.06
294.141	87.06
294.372	82.06
294.603	83.06
294.833	84.06
295.064	73.06
295.295	84.06
295.525	81.06
295.756	105.06
295.987	103.06
296.217	88.06
296.448	84.06
296.679	91.06
296.909	103.06
297.14	73.06
297.37	92.06
297.601	82.06
297.831	83.06
298.062	77.06
298.292	63.06
298.523	85.06
298.753	83.06
298.984	78.06
299.214	80.06
299.445	85.06
299.675	92.06
299.905	87.06
300.136	97.06
300.366	77.06
300.597	81.06
300.827	95.06
301.057	84.06
301.288	95.06
301.518	88.06
301.748	70.06
301.979	88.06
302.209	88.06
302.439	79.06
302.669	84.06
302.9	85.06
303.13	73.06
303.36	96.06
303.59	93.06
303.82	73.06
304.051	95.06
304.281	83.06
304.511	71.06
304.741	83.06
304.971	86.06
305.201	87.06
305.431	85.06
305.661	91.06
305.891	102.06
306.121	79.06
306.352	87.06
306.582	85.06
306.812	72.06
307.042	92.06
307.272	79.06
307.502	93.06
307.731	67.06
307.961	88.06
308.191	97.06
308.421	95.06
308.651	88.06
308.881	89.06
309.111	100.06
309.341	89.06
309.571	81.06
309.8	82.06
310.03	94.06
310.26	89.06
310.49	91.06
310.72	82.06
310.949	93.06
311.179	95.06
311.409	92.06
311.639	98.06
311.868	92.06
312.098	80.06
312.328	93.06
312.557	92.06
312.787	91.06
313.017	95.06
313.246	80.06
313.476	78.06
313.706	80.06
313.935	88.06
314.165	83.06
314.394	71.06
314.624	86.06
314.853	91.06
315.083	89.06
315.312	84.06
315.542	95.06
315.771	83.06
316.001	73.06
316.23	100.06
316.46	84.06
316.689	81.06
316.919	104.06
317.148	94.06
317.377	72.06
317.607	95.06
317.836	97.06
318.065	92.06
318.295	92.06
318.524	91.06
318.753	76.06
318.983	78.06
319.212	77.06
319.441	80.06
319.67	83.06
319.9	87.06
320.129	96.06
320.358	101.06
320.587	96.06
320.816	82.06
321.046	101.06
321.275	89.06
321.504	82.06
321.733	96.06
321.962	91.06
322.191	83.06
322.42	89.06
322.649	68.06
322.878	82.06
323.108	90.06
323.337	83.06
323.566	83.06
323.795	75.06
324.024	72.06
324.253	96.06
324.482	89.06
324.71	99.06
324.939	84.06
325.168	88.06
325.397	80.06
325.626	98.06
325.855	90.06
326.084	100.06
326.313	102.06
326.542	83.06
326.77	97.06
326.999	85.06
327.228	91.06
327.457	87.06
327.686	91.06
327.914	94.06
328.143	78.06
328.372	82.06
328.6	83.06
328.829	84.06
329.058	93.06
329.287	88.06
329.515	91.06
329.744	80.06
329.972	79.06
330.201	100.06
330.43	88.06
330.658	83.06
330.887	92.06
331.115	82.06
331.344	81.06
331.572	83.06
331.801	91.06
332.03	83.06
332.258	102.06
332.486	80.06
332.715	102.06
332.943	86.06
333.172	100.06
333.4	81.06
333.629	82.06
333.857	95.06
334.085	86.06
334.314	80.06
334.542	74.06
334.771	88.06
334.999	96.06
335.227	89.06
335.455	76.06
335.684	98.06
335.912	84.06
336.14	88.06
336.369	92.06
336.597	85.06
336.825	97.06
337.053	100.06
337.281	85.06
337.51	83.06
337.738	92.06
337.966	87.06
338.194	100.06
338.422	73.06
338.65	74.06
338.878	97.06
339.106	76.06
339.334	91.06
339.562	80.06
339.79	90.06
340.018	79.06
340.246	91.06
340.474	94.06
340.702	98.06
340.93	99.06
341.158	85.06
341.386	93.06
341.614	94.06
341.842	68.06
342.07	91.06
342.298	94.06
342.526	92.06
342.754	98.06
342.981	88.06
343.209	89.06
343.437	92.06
343.665	67.06
343.893	86.06
344.12	88.06
344.348	85.06
344.576	86.06
344.804	96.06
345.031	80.06
345.259	80.06
345.487	84.06
345.714	91.06
345.942	89.06
346.17	84.06
346.397	84.06
346.625	84.06
346.853	85.06
347.08	83.06
347.308	87.06
347.535	89.06
347.763	89.06
347.99	89.06
348.218	80.06
348.445	88.06
348.673	86.06
348.9	94.06
349.128	86.06
349.355	84.06
349.583	86.06
349.81	83.06
350.037	79.06
350.265	87.06
350.492	80.06
350.72	87.06
350.947	92.06
351.174	86.06
351.402	95.06
351.629	97.06
351.856	91.06
352.083	95.06
352.311	79.06
352.538	84.06
352.765	96.06
352.992	88.06
353.22	86.06
353.447	94.06
353.674	92.06
353.901	84.06
354.128	100.06
354.355	84.06
354.583	85.06
354.81	80.06
355.037	98.06
355.264	94.06
355.491	88.06
355.718	78.06
355.945	89.06
356.172	83.06
356.399	84.06
356.626	83.06
356.853	85.06
357.08	97.06
357.307	89.06
357.534	84.06
357.761	80.06
357.988	88.06
358.215	86.06
358.441	87.06
358.668	96.06
358.895	84.06
359.122	89.06
359.349	87.06
359.576	87.06
359.802	88.06
360.029	89.06
360.256	89.06
360.483	90.06
360.709	78.06
360.936	76.06
361.163	92.06
361.39	73.06
361.616	88.06
361.843	86.06
362.07	74.06
362.296	88.06
362.523	87.06
362.749	92.06
362.976	80.06
363.203	85.06
363.429	76.06
363.656	88.06
363.882	87.06
364.109	76.06
364.335	88.06
364.562	70.06
364.788	98.06
365.015	88.06
365.241	90.06
365.468	73.06
365.694	79.06
365.92	77.06
366.147	96.06
366.373	78.06
366.599	85.06
366.826	99.06
367.052	90.06
367.278	79.06
367.505	90.06
367.731	79.06
367.957	96.06
368.184	92.06
368.41	85.06
368.636	94.06
368.862	92.06
369.089	72.06
369.315	100.06
369.541	96.06
369.767	89.06
369.993	104.06
370.219	89.06
370.445	96.06
370.672	87.06
370.898	87.06
371.124	90.06
371.35	99.06
371.576	93.06
371.802	85.06
372.028	85.06
372.254	86.06
372.48	85.06
372.706	100.06
372.932	87.06
373.158	99.06
373.384	110.06
373.61	85.06
373.835	94.06
374.061	93.06
374.287	94.06
374.513	88.06
374.739	81.06
374.965	90.06
375.191	88.06
375.416	83.06
375.642	88.06
375.868	98.06
376.094	85.06
376.319	72.06
376.545	72.06
376.771	86.06
376.997	83.06
377.222	81.06
377.448	83.06
377.674	93.06
377.899	105.06
378.125	93.06
378.35	77.06
378.576	78.06
378.802	87.06
379.027	93.06
379.253	99.06
379.478	80.06
379.704	85.06
379.929	92.06
380.155	77.06
380.38	83.06
380.606	91.06
380.831	91.06
381.057	99.06
381.282	89.06
381.507	69.06
381.733	72.06
381.958	96.06
382.184	91.06
382.409	87.06
382.634	92.06
382.86	84.06
383.085	81.06
383.31	80.06
383.535	95.06
383.761	88.06
383.986	78.06
384.211	92.06
384.436	112.06
384.662	79.06
384.887	91.06
385.112	86.06
385.337	90.06
385.562	85.06
385.787	85.06
386.013	99.06
386.238	83.06
386.463	86.06
386.688	92.06
386.913	85.06
387.138	82.06
387.363	80.06
387.588	90.06
387.813	99.06
388.038	85.06
388.263	81.06
388.488	101.06
388.713	85.06
388.938	84.06
389.163	90.06
389.387	83.06
389.612	100.06
389.837	88.06
390.062	102.06
390.287	88.06
390.512	84.06
390.736	94.06
390.961	81.06
391.186	83.06
391.411	87.06
391.636	97.06
391.86	88.06
392.085	105.06
392.31	94.06
392.534	96.06
392.759	93.06
392.984	81.06
393.208	83.06
393.433	84.06
393.658	101.06
393.882	86.06
394.107	93.06
394.331	99.06
394.556	94.06
394.78	92.06
395.005	87.06
395.229	79.06
395.454	93.06
395.678	91.06
395.903	82.06
396.127	81.06
396.352	96.06
396.576	95.06
396.801	95.06
397.025	97.06
397.249	91.06
397.474	94.06
397.698	91.06
397.922	82.06
398.147	94.06
398.371	84.06
398.595	94.06
398.82	85.06
399.044	84.06
399.268	97.06
399.492	103.06
399.717	107.06
399.941	106.06
400.165	101.06
400.389	99.06
400.613	81.06
400.837	87.06
401.062	91.06
401.286	74.06
401.51	93.06
401.734	78.06
401.958	84.06
402.182	78.06
402.406	81.06
402.63	93.06
402.854	101.06
403.078	82.06
403.302	82.06
403.526	93.06
403.75	95.06
403.974	85.06
404.198	89.06
404.422	85.06
404.645	91.06
404.869	80.06
405.093	92.06
405.317	92.06
405.541	92.06
405.765	96.06
405.988	82.06
406.212	96.06
406.436	92.06
406.66	81.06
406.883	91.06
407.107	91.06
407.331	83.06
407.555	94.06
407.778	79.06
408.002	105.06
408.226	95.06
408.449	95.06
408.673	80.06
408.896	100.06
409.12	92.06
409.344	99.06
409.567	96.06
409.791	98.06
410.014	103.06
410.238	87.06
410.461	106.06
410.685	93.06
410.908	83.06
411.132	99.06
411.355	98.06
411.578	99.06
411.802	79.06
412.025	94.06
412.249	101.06
412.472	83.06
412.695	86.06
412.919	87.06
413.142	91.06
413.365	98.06
413.589	83.06
413.812	81.06
414.035	89.06
414.258	91.06
414.482	87.06
414.705	102.06
414.928	95.06
415.151	95.06
415.374	98.06
415.597	103.06
415.821	104.06
416.044	88.06
416.267	86.06
416.49	81.06
416.713	89.06
416.936	91.06
417.159	91.06
417.382	81.06
417.605	95.06
417.828	93.06
418.051	85.06
418.274	95.06
418.497	94.06
418.72	108.06
418.943	91.06
419.166	83.06
419.389	91.06
419.611	97.06
419.834	95.06
420.057	101.06
420.28	83.06
420.503	101.06
420.726	86.06
420.948	81.06
421.171	94.06
421.394	104.06
421.617	95.06
421.839	98.06
422.062	96.06
422.285	74.06
422.507	89.06
422.73	78.06
422.953	92.06
423.175	80.06
423.398	92.06
423.621	92.06
423.843	100.06
424.066	83.06
424.288	89.06
424.511	93.06
424.733	95.06
424.956	91.06
425.178	92.06
425.401	85.06
425.623	82.06
425.846	89.06
426.068	76.06
426.291	94.06
426.513	93.06
426.735	91.06
426.958	96.06
427.18	86.06
427.402	88.06
427.625	82.06
427.847	78.06
428.069	91.06
428.292	92.06
428.514	104.06
428.736	82.06
428.958	87.06
429.181	72.06
429.403	84.06
429.625	94.06
429.847	90.06
430.069	104.06
430.292	95.06
430.514	82.06
430.736	89.06
430.958	95.06
431.18	89.06
431.402	87.06
431.624	80.06
431.846	99.06
432.068	103.06
432.29	83.06
432.512	101.06
432.734	89.06
432.956	83.06
433.178	85.06
433.4	89.06
433.622	93.06
433.844	101.06
434.066	91.06
434.287	79.06
434.509	95.06
434.731	89.06
434.953	84.06
435.175	80.06
435.397	97.06
435.618	87.06
435.84	72.06
436.062	99.06
436.284	94.06
436.505	75.06
436.727	81.06
436.949	83.06
437.17	75.06
437.392	87.06
437.614	72.06
437.835	77.06
438.057	89.06
438.278	105.06
438.5	98.06
438.721	84.06
438.943	96.06
439.165	104.06
439.386	86.06
439.608	91.06
439.829	95.06
440.05	84.06
440.272	88.06
440.493	76.06
440.715	91.06
440.936	87.06
441.158	98.06
441.379	91.06
441.6	88.06
441.822	74.06
442.043	105.06
442.264	91.06
442.486	80.06
442.707	106.06
442.928	85.06
443.149	88.06
443.371	88.06
443.592	88.06
443.813	93.06
444.034	101.06
444.255	109.06
444.476	92.06
444.698	85.06
444.919	84.06
445.14	211.06
445.361	142.06
445.582	108.06
445.803	87.06
446.024	100.06
446.245	86.06
446.466	93.06
446.687	95.06
446.908	84.06
447.129	92.06
447.35	84.06
447.571	85.06
447.792	79.06
448.013	89.06
448.234	87.06
448.455	79.06
448.675	100.06
448.896	92.06
449.117	95.06
449.338	85.06
449.559	90.06
449.779	87.06
450	81.06
450.221	79.06
450.442	99.06
450.662	94.06
450.883	87.06
451.104	86.06
451.324	85.06
451.545	83.06
451.766	83.06
451.986	86.06
452.207	102.06
452.428	88.06
452.648	91.06
452.869	96.06
453.089	85.06
453.31	70.06
453.53	80.06
453.751	97.06
453.971	94.06
454.192	81.06
454.412	77.06
454.633	84.06
454.853	86.06
455.073	83.06
455.294	86.06
455.514	82.06
455.734	91.06
455.955	98.06
456.175	102.06
456.395	91.06
456.616	86.06
456.836	89.06
457.056	83.06
457.276	85.06
457.497	87.06
457.717	65.06
457.937	82.06
458.157	94.06
458.377	83.06
458.598	73.06
458.818	73.06
459.038	84.06
459.258	95.06
459.478	92.06
459.698	92.06
459.918	97.06
460.138	91.06
460.358	95.06
460.578	98.06
460.798	92.06
461.018	89.06
461.238	92.06
461.458	83.06
461.678	109.06
461.898	90.06
462.118	99.06
462.338	84.06
462.558	94.06
462.777	97.06
462.997	108.06
463.217	107.06
463.437	91.06
463.657	86.06
463.876	99.06
464.096	103.06
464.316	96.06
464.536	92.06
464.755	92.06
464.975	86.06
465.195	81.06
465.414	91.06
465.634	100.06
465.854	82.06
466.073	89.06
466.293	83.06
466.512	98.06
466.732	89.06
466.951	91.06
467.171	91.06
467.391	86.06
467.61	93.06
467.829	94.06
468.049	105.06
468.268	98.06
468.488	94.06
468.707	92.06
468.927	92.06
469.146	93.06
469.365	97.06
469.585	92.06
469.804	100.06
470.023	102.06
470.243	95.06
470.462	88.06
470.681	101.06
470.901	88.06
471.12	96.06
471.339	87.06
471.558	84.06
471.777	94.06
471.997	81.06
472.216	95.06
472.435	91.06
472.654	89.06
472.873	100.06
473.092	93.06
473.311	94.06
473.53	78.06
473.749	87.06
473.968	111.06
474.187	98.06
474.406	74.06
474.625	91.06
474.844	92.06
475.063	96.06
475.282	86.06
475.501	94.06
475.72	98.06
475.939	82.06
476.158	92.06
476.377	86.06
476.596	91.06
476.814	88.06
477.033	98.06
477.252	96.06
477.471	88.06
477.69	101.06
477.908	103.06
478.127	99.06
478.346	88.06
478.564	92.06
478.783	95.06
479.002	95.06
479.22	100.06
479.439	94.06
479.658	87.06
479.876	108.06
480.095	102.06
480.313	94.06
480.532	91.06
480.751	101.06
480.969	90.06
481.188	81.06
481.406	100.06
481.624	94.06
481.843	95.06
482.061	104.06
482.28	90.06
482.498	108.06
482.717	95.06
482.935	88.06
483.153	95.06
483.372	97.06
483.59	86.06
483.808	93.06
484.027	82.06
484.245	104.06
484.463	114.06
484.681	115.06
484.9	91.06
485.118	95.06
485.336	87.06
485.554	97.06
485.772	89.06
485.99	104.06
486.209	99.06
486.427	93.06
486.645	100.06
486.863	87.06
487.081	95.06
487.299	95.06
487.517	95.06
487.735	98.06
487.953	114.06
488.171	95.06
488.389	97.06
488.607	111.06
488.825	102.06
489.043	97.06
489.261	105.06
489.479	91.06
489.696	109.06
489.914	97.06
490.132	103.06
490.35	87.06
490.568	97.06
490.786	104.06
491.003	100.06
491.221	107.06
491.439	98.06
491.657	119.06
491.874	102.06
492.092	115.06
492.31	111.06
492.527	111.06
492.745	103.06
492.963	104.06
493.18	107.06
493.398	107.06
493.615	101.06
493.833	114.06
494.05	112.06
494.268	108.06
494.485	118.06
494.703	103.06
494.92	111.06
495.138	97.06
495.355	112.06
495.573	103.06
495.79	113.06
496.008	102.06
496.225	112.06
496.442	109.06
496.66	114.06
496.877	110.06
497.094	109.06
497.312	107.06
497.529	115.06
497.746	115.06
497.963	96.06
498.181	113.06
498.398	110.06
498.615	117.06
498.832	117.06
499.049	109.06
499.267	112.06
499.484	119.06
499.701	135.06
499.918	137.06
500.135	140.06
500.352	143.06
500.569	165.06
500.786	141.06
501.003	136.06
501.22	147.06
501.437	119.06
501.654	120.06
501.871	118.06
502.088	102.06
502.305	100.06
502.522	99.06
502.739	102.06
502.956	119.06
503.172	112.06
503.389	103.06
503.606	102.06
503.823	113.06
504.04	111.06
504.256	118.06
504.473	102.06
504.69	98.06
504.907	111.06
505.123	111.06
505.34	114.06
505.557	111.06
505.773	99.06
505.99	99.06
506.207	103.06
506.423	86.06
506.64	100.06
506.856	107.06
507.073	93.06
507.289	101.06
507.506	100.06
507.722	111.06
507.939	107.06
508.155	108.06
508.372	91.06
508.588	91.06
508.805	99.06
509.021	81.06
509.238	95.06
509.454	103.06
509.67	98.06
509.887	89.06
510.103	91.06
510.319	111.06
510.536	107.06
510.752	90.06
510.968	92.06
511.184	95.06
511.401	97.06
511.617	91.06
511.833	90.06
512.049	94.06
512.265	91.06
512.481	95.06
512.698	97.06
512.914	108.06
513.13	93.06
513.346	94.06
513.562	94.06
513.778	99.06
513.994	108.06
514.21	97.06
514.426	102.06
514.642	86.06
514.858	78.06
515.074	92.06
515.29	93.06
515.506	92.06
515.721	96.06
515.937	105.06
516.153	108.06
516.369	105.06
516.585	93.06
516.801	81.06
517.016	93.06
