Data from Location5.07152019.Energy5.Lamp.07192019.3%Agarose_HRD10591_16-05-43-629.txt Node
Date: Fri Jul 19 16:05:43 EDT 2019
User: cochatt
Spectrometer: HR+D1059
Trigger mode: 1
Integration Time (sec): 1.000000E-1
Scans to average: 1
Electric dark correction enabled: true
Nonlinearity correction enabled: false
Boxcar width: 0
XAxis mode: Wavelengths
Number of Pixels in Spectrum: 2048
>>>>>Begin Spectral Data<<<<<
223.165	-30.25
223.4	-30.25
223.635	-30.25
223.869	-16.25
224.104	-0.25
224.338	-13.25
224.573	-7.25
224.808	0.75
225.042	-2.25
225.277	-0.25
225.511	-1.25
225.746	4.75
225.98	2.75
226.215	4.75
226.449	-2.25
226.683	21.75
226.918	9.75
227.152	28.75
227.387	38.75
227.621	51.75
227.856	43.75
228.09	45.75
228.324	52.75
228.559	58.75
228.793	59.75
229.027	72.75
229.262	50.75
229.496	64.75
229.73	73.75
229.964	63.75
230.199	59.75
230.433	87.75
230.667	58.75
230.901	81.75
231.136	82.75
231.37	81.75
231.604	80.75
231.838	93.75
232.072	77.75
232.306	90.75
232.541	86.75
232.775	76.75
233.009	86.75
233.243	88.75
233.477	85.75
233.711	78.75
233.945	74.75
234.179	78.75
234.413	81.75
234.647	68.75
234.881	68.75
235.115	82.75
235.349	71.75
235.583	75.75
235.817	77.75
236.051	78.75
236.285	91.75
236.519	74.75
236.753	70.75
236.987	79.75
237.221	75.75
237.455	87.75
237.689	70.75
237.922	70.75
238.156	66.75
238.39	81.75
238.624	80.75
238.858	80.75
239.091	85.75
239.325	71.75
239.559	65.75
239.793	80.75
240.027	87.75
240.26	73.75
240.494	74.75
240.728	58.75
240.961	81.75
241.195	80.75
241.429	76.75
241.662	82.75
241.896	80.75
242.13	74.75
242.363	84.75
242.597	78.75
242.83	76.75
243.064	81.75
243.298	67.75
243.531	78.75
243.765	90.75
243.998	68.75
244.232	73.75
244.465	73.75
244.699	64.75
244.932	74.75
245.166	71.75
245.399	71.75
245.633	71.75
245.866	80.75
246.099	71.75
246.333	75.75
246.566	78.75
246.8	74.75
247.033	74.75
247.266	87.75
247.5	80.75
247.733	87.75
247.966	89.75
248.2	86.75
248.433	71.75
248.666	78.75
248.899	72.75
249.133	90.75
249.366	78.75
249.599	74.75
249.832	89.75
250.066	81.75
250.299	88.75
250.532	79.75
250.765	68.75
250.998	86.75
251.231	78.75
251.465	83.75
251.698	78.75
251.931	83.75
252.164	76.75
252.397	77.75
252.63	81.75
252.863	76.75
253.096	70.75
253.329	77.75
253.562	77.75
253.795	80.75
254.028	68.75
254.261	93.75
254.494	81.75
254.727	72.75
254.96	84.75
255.193	96.75
255.426	78.75
255.659	75.75
255.892	92.75
256.124	69.75
256.357	73.75
256.59	85.75
256.823	83.75
257.056	73.75
257.289	89.75
257.521	98.75
257.754	74.75
257.987	90.75
258.22	94.75
258.452	79.75
258.685	82.75
258.918	74.75
259.151	85.75
259.383	82.75
259.616	98.75
259.849	92.75
260.081	83.75
260.314	82.75
260.547	84.75
260.779	79.75
261.012	81.75
261.244	81.75
261.477	85.75
261.71	72.75
261.942	84.75
262.175	90.75
262.407	77.75
262.64	73.75
262.872	65.75
263.105	76.75
263.337	88.75
263.57	83.75
263.802	79.75
264.035	67.75
264.267	69.75
264.499	87.75
264.732	79.75
264.964	73.75
265.197	99.75
265.429	86.75
265.661	80.75
265.894	77.75
266.126	99.75
266.358	74.75
266.591	82.75
266.823	84.75
267.055	73.75
267.287	83.75
267.52	85.75
267.752	89.75
267.984	93.75
268.216	80.75
268.448	85.75
268.681	92.75
268.913	85.75
269.145	85.75
269.377	83.75
269.609	58.75
269.841	78.75
270.073	94.75
270.306	85.75
270.538	71.75
270.77	77.75
271.002	95.75
271.234	73.75
271.466	87.75
271.698	79.75
271.93	87.75
272.162	61.75
272.394	87.75
272.626	71.75
272.858	90.75
273.09	85.75
273.322	79.75
273.553	88.75
273.785	95.75
274.017	85.75
274.249	77.75
274.481	74.75
274.713	89.75
274.945	90.75
275.176	74.75
275.408	80.75
275.64	74.75
275.872	83.75
276.104	86.75
276.335	88.75
276.567	77.75
276.799	72.75
277.031	80.75
277.262	82.75
277.494	79.75
277.726	83.75
277.957	84.75
278.189	92.75
278.421	88.75
278.652	95.75
278.884	93.75
279.115	86.75
279.347	77.75
279.579	78.75
279.81	82.75
280.042	82.75
280.273	79.75
280.505	76.75
280.736	86.75
280.968	87.75
281.199	90.75
281.431	79.75
281.662	80.75
281.894	85.75
282.125	80.75
282.356	79.75
282.588	104.75
282.819	78.75
283.051	94.75
283.282	79.75
283.513	74.75
283.745	72.75
283.976	90.75
284.207	74.75
284.439	85.75
284.67	80.75
284.901	89.75
285.132	77.75
285.364	93.75
285.595	82.75
285.826	64.75
286.057	82.75
286.288	78.75
286.52	76.75
286.751	82.75
286.982	74.75
287.213	90.75
287.444	88.75
287.675	77.75
287.906	85.75
288.138	73.75
288.369	80.75
288.6	81.75
288.831	78.75
289.062	88.75
289.293	80.75
289.524	80.75
289.755	100.75
289.986	81.75
290.217	80.75
290.448	80.75
290.679	79.75
290.91	87.75
291.141	76.75
291.371	93.75
291.602	84.75
291.833	91.75
292.064	70.75
292.295	85.75
292.526	82.75
292.757	77.75
292.987	73.75
293.218	89.75
293.449	98.75
293.68	82.75
293.91	91.75
294.141	98.75
294.372	92.75
294.603	87.75
294.833	72.75
295.064	72.75
295.295	89.75
295.525	64.75
295.756	98.75
295.987	82.75
296.217	84.75
296.448	86.75
296.679	77.75
296.909	82.75
297.14	79.75
297.37	82.75
297.601	79.75
297.831	79.75
298.062	96.75
298.292	83.75
298.523	77.75
298.753	73.75
298.984	79.75
299.214	86.75
299.445	87.75
299.675	92.75
299.905	91.75
300.136	82.75
300.366	90.75
300.597	87.75
300.827	88.75
301.057	99.75
301.288	96.75
301.518	81.75
301.748	86.75
301.979	88.75
302.209	79.75
302.439	88.75
302.669	84.75
302.9	87.75
303.13	90.75
303.36	85.75
303.59	89.75
303.82	68.75
304.051	82.75
304.281	91.75
304.511	96.75
304.741	94.75
304.971	98.75
305.201	75.75
305.431	81.75
305.661	94.75
305.891	78.75
306.121	86.75
306.352	91.75
306.582	81.75
306.812	87.75
307.042	88.75
307.272	98.75
307.502	78.75
307.731	73.75
307.961	88.75
308.191	92.75
308.421	93.75
308.651	90.75
308.881	82.75
309.111	77.75
309.341	85.75
309.571	100.75
309.8	83.75
310.03	98.75
310.26	88.75
310.49	87.75
310.72	66.75
310.949	82.75
311.179	79.75
311.409	87.75
311.639	82.75
311.868	98.75
312.098	85.75
312.328	85.75
312.557	95.75
312.787	88.75
313.017	89.75
313.246	80.75
313.476	88.75
313.706	91.75
313.935	78.75
314.165	94.75
314.394	85.75
314.624	87.75
314.853	100.75
315.083	84.75
315.312	90.75
315.542	85.75
315.771	85.75
316.001	95.75
316.23	98.75
316.46	77.75
316.689	93.75
316.919	89.75
317.148	85.75
317.377	86.75
317.607	102.75
317.836	79.75
318.065	102.75
318.295	95.75
318.524	84.75
318.753	92.75
318.983	80.75
319.212	98.75
319.441	83.75
319.67	90.75
319.9	75.75
320.129	82.75
320.358	84.75
320.587	88.75
320.816	90.75
321.046	95.75
321.275	86.75
321.504	86.75
321.733	93.75
321.962	81.75
322.191	95.75
322.42	78.75
322.649	83.75
322.878	73.75
323.108	83.75
323.337	94.75
323.566	106.75
323.795	90.75
324.024	97.75
324.253	84.75
324.482	74.75
324.71	85.75
324.939	91.75
325.168	89.75
325.397	85.75
325.626	67.75
325.855	74.75
326.084	81.75
326.313	99.75
326.542	87.75
326.77	78.75
326.999	67.75
327.228	74.75
327.457	94.75
327.686	105.75
327.914	73.75
328.143	88.75
328.372	89.75
328.6	87.75
328.829	85.75
329.058	70.75
329.287	85.75
329.515	77.75
329.744	75.75
329.972	89.75
330.201	85.75
330.43	80.75
330.658	99.75
330.887	89.75
331.115	83.75
331.344	95.75
331.572	81.75
331.801	89.75
332.03	90.75
332.258	95.75
332.486	80.75
332.715	95.75
332.943	75.75
333.172	89.75
333.4	88.75
333.629	80.75
333.857	96.75
334.085	93.75
334.314	89.75
334.542	79.75
334.771	103.75
334.999	88.75
335.227	90.75
335.455	79.75
335.684	80.75
335.912	92.75
336.14	78.75
336.369	82.75
336.597	81.75
336.825	87.75
337.053	76.75
337.281	93.75
337.51	96.75
337.738	80.75
337.966	80.75
338.194	64.75
338.422	94.75
338.65	89.75
338.878	93.75
339.106	78.75
339.334	87.75
339.562	76.75
339.79	88.75
340.018	86.75
340.246	97.75
340.474	87.75
340.702	82.75
340.93	77.75
341.158	91.75
341.386	82.75
341.614	88.75
341.842	80.75
342.07	90.75
342.298	88.75
342.526	88.75
342.754	81.75
342.981	79.75
343.209	97.75
343.437	77.75
343.665	95.75
343.893	87.75
344.12	95.75
344.348	94.75
344.576	91.75
344.804	88.75
345.031	76.75
345.259	77.75
345.487	93.75
345.714	93.75
345.942	83.75
346.17	77.75
346.397	91.75
346.625	88.75
346.853	96.75
347.08	88.75
347.308	102.75
347.535	90.75
347.763	81.75
347.99	90.75
348.218	93.75
348.445	100.75
348.673	88.75
348.9	92.75
349.128	90.75
349.355	77.75
349.583	89.75
349.81	93.75
350.037	69.75
350.265	73.75
350.492	70.75
350.72	87.75
350.947	90.75
351.174	84.75
351.402	80.75
351.629	90.75
351.856	81.75
352.083	102.75
352.311	82.75
352.538	82.75
352.765	91.75
352.992	90.75
353.22	81.75
353.447	85.75
353.674	80.75
353.901	65.75
354.128	90.75
354.355	90.75
354.583	88.75
354.81	95.75
355.037	88.75
355.264	94.75
355.491	83.75
355.718	83.75
355.945	94.75
356.172	89.75
356.399	85.75
356.626	98.75
356.853	77.75
357.08	73.75
357.307	84.75
357.534	90.75
357.761	79.75
357.988	92.75
358.215	85.75
358.441	81.75
358.668	96.75
358.895	74.75
359.122	75.75
359.349	91.75
359.576	91.75
359.802	73.75
360.029	90.75
360.256	99.75
360.483	74.75
360.709	85.75
360.936	78.75
361.163	70.75
361.39	81.75
361.616	84.75
361.843	76.75
362.07	67.75
362.296	78.75
362.523	78.75
362.749	77.75
362.976	80.75
363.203	78.75
363.429	73.75
363.656	77.75
363.882	81.75
364.109	88.75
364.335	79.75
364.562	84.75
364.788	82.75
365.015	80.75
365.241	97.75
365.468	78.75
365.694	103.75
365.92	88.75
366.147	93.75
366.373	96.75
366.599	77.75
366.826	73.75
367.052	96.75
367.278	89.75
367.505	90.75
367.731	77.75
367.957	78.75
368.184	82.75
368.41	76.75
368.636	88.75
368.862	90.75
369.089	78.75
369.315	87.75
369.541	81.75
369.767	92.75
369.993	85.75
370.219	89.75
370.445	76.75
370.672	88.75
370.898	88.75
371.124	90.75
371.35	93.75
371.576	82.75
371.802	90.75
372.028	77.75
372.254	90.75
372.48	73.75
372.706	82.75
372.932	82.75
373.158	98.75
373.384	93.75
373.61	87.75
373.835	94.75
374.061	74.75
374.287	100.75
374.513	102.75
374.739	84.75
374.965	82.75
375.191	86.75
375.416	85.75
375.642	79.75
375.868	90.75
376.094	83.75
376.319	83.75
376.545	86.75
376.771	96.75
376.997	94.75
377.222	85.75
377.448	69.75
377.674	76.75
377.899	73.75
378.125	78.75
378.35	80.75
378.576	89.75
378.802	75.75
379.027	81.75
379.253	93.75
379.478	68.75
379.704	90.75
379.929	95.75
380.155	85.75
380.38	83.75
380.606	88.75
380.831	97.75
381.057	89.75
381.282	93.75
381.507	94.75
381.733	88.75
381.958	87.75
382.184	83.75
382.409	91.75
382.634	88.75
382.86	71.75
383.085	98.75
383.31	78.75
383.535	81.75
383.761	92.75
383.986	86.75
384.211	93.75
384.436	90.75
384.662	79.75
384.887	84.75
385.112	79.75
385.337	83.75
385.562	76.75
385.787	86.75
386.013	83.75
386.238	95.75
386.463	96.75
386.688	85.75
386.913	93.75
387.138	88.75
387.363	89.75
387.588	77.75
387.813	93.75
388.038	75.75
388.263	95.75
388.488	96.75
388.713	94.75
388.938	91.75
389.163	86.75
389.387	87.75
389.612	83.75
389.837	78.75
390.062	102.75
390.287	87.75
390.512	100.75
390.736	91.75
390.961	82.75
391.186	93.75
391.411	90.75
391.636	103.75
391.86	94.75
392.085	82.75
392.31	89.75
392.534	88.75
392.759	81.75
392.984	86.75
393.208	92.75
393.433	87.75
393.658	97.75
393.882	88.75
394.107	82.75
394.331	95.75
394.556	67.75
394.78	81.75
395.005	92.75
395.229	79.75
395.454	103.75
395.678	84.75
395.903	94.75
396.127	86.75
396.352	103.75
396.576	85.75
396.801	82.75
397.025	89.75
397.249	79.75
397.474	80.75
397.698	95.75
397.922	86.75
398.147	89.75
398.371	79.75
398.595	89.75
398.82	85.75
399.044	82.75
399.268	84.75
399.492	97.75
399.717	90.75
399.941	109.75
400.165	90.75
400.389	85.75
400.613	98.75
400.837	99.75
401.062	83.75
401.286	89.75
401.51	85.75
401.734	77.75
401.958	78.75
402.182	92.75
402.406	90.75
402.63	84.75
402.854	79.75
403.078	84.75
403.302	84.75
403.526	107.75
403.75	90.75
403.974	97.75
404.198	90.75
404.422	74.75
404.645	97.75
404.869	89.75
405.093	95.75
405.317	89.75
405.541	103.75
405.765	78.75
405.988	92.75
406.212	116.75
406.436	100.75
406.66	95.75
406.883	88.75
407.107	94.75
407.331	86.75
407.555	82.75
407.778	90.75
408.002	101.75
408.226	106.75
408.449	85.75
408.673	78.75
408.896	92.75
409.12	92.75
409.344	107.75
409.567	92.75
409.791	94.75
410.014	88.75
410.238	80.75
410.461	91.75
410.685	90.75
410.908	94.75
411.132	96.75
411.355	91.75
411.578	94.75
411.802	90.75
412.025	85.75
412.249	92.75
412.472	91.75
412.695	85.75
412.919	86.75
413.142	74.75
413.365	85.75
413.589	93.75
413.812	90.75
414.035	96.75
414.258	100.75
414.482	83.75
414.705	93.75
414.928	102.75
415.151	84.75
415.374	90.75
415.597	88.75
415.821	100.75
416.044	95.75
416.267	93.75
416.49	86.75
416.713	82.75
416.936	88.75
417.159	80.75
417.382	82.75
417.605	101.75
417.828	89.75
418.051	88.75
418.274	89.75
418.497	77.75
418.72	76.75
418.943	80.75
419.166	77.75
419.389	77.75
419.611	77.75
419.834	81.75
420.057	92.75
420.28	89.75
420.503	89.75
420.726	90.75
420.948	80.75
421.171	92.75
421.394	96.75
421.617	82.75
421.839	86.75
422.062	89.75
422.285	83.75
422.507	89.75
422.73	61.75
422.953	94.75
423.175	80.75
423.398	84.75
423.621	71.75
423.843	80.75
424.066	96.75
424.288	97.75
424.511	86.75
424.733	85.75
424.956	88.75
425.178	87.75
425.401	78.75
425.623	80.75
425.846	92.75
426.068	90.75
426.291	89.75
426.513	93.75
426.735	87.75
426.958	96.75
427.18	87.75
427.402	77.75
427.625	96.75
427.847	82.75
428.069	93.75
428.292	83.75
428.514	86.75
428.736	84.75
428.958	80.75
429.181	80.75
429.403	86.75
429.625	88.75
429.847	88.75
430.069	72.75
430.292	88.75
430.514	70.75
430.736	88.75
430.958	74.75
431.18	94.75
431.402	95.75
431.624	93.75
431.846	79.75
432.068	80.75
432.29	86.75
432.512	81.75
432.734	84.75
432.956	80.75
433.178	88.75
433.4	83.75
433.622	100.75
433.844	84.75
434.066	104.75
434.287	96.75
434.509	81.75
434.731	95.75
434.953	88.75
435.175	83.75
435.397	93.75
435.618	94.75
435.84	86.75
436.062	96.75
436.284	67.75
436.505	84.75
436.727	90.75
436.949	93.75
437.17	84.75
437.392	72.75
437.614	88.75
437.835	82.75
438.057	75.75
438.278	84.75
438.5	80.75
438.721	88.75
438.943	79.75
439.165	86.75
439.386	82.75
439.608	87.75
439.829	101.75
440.05	92.75
440.272	77.75
440.493	75.75
440.715	85.75
440.936	80.75
441.158	82.75
441.379	80.75
441.6	92.75
441.822	80.75
442.043	85.75
442.264	94.75
442.486	90.75
442.707	51.75
442.928	104.75
443.149	98.75
443.371	78.75
443.592	78.75
443.813	89.75
444.034	84.75
444.255	101.75
444.476	97.75
444.698	96.75
444.919	86.75
445.14	218.75
445.361	130.75
445.582	81.75
445.803	80.75
446.024	86.75
446.245	82.75
446.466	89.75
446.687	89.75
446.908	106.75
447.129	86.75
447.35	95.75
447.571	88.75
447.792	87.75
448.013	87.75
448.234	82.75
448.455	91.75
448.675	76.75
448.896	90.75
449.117	90.75
449.338	76.75
449.559	90.75
449.779	78.75
450	80.75
450.221	86.75
450.442	85.75
450.662	83.75
450.883	104.75
451.104	95.75
451.324	86.75
451.545	76.75
451.766	86.75
451.986	80.75
452.207	82.75
452.428	81.75
452.648	96.75
452.869	84.75
453.089	73.75
453.31	94.75
453.53	91.75
453.751	89.75
453.971	92.75
454.192	78.75
454.412	84.75
454.633	84.75
454.853	89.75
455.073	80.75
455.294	80.75
455.514	94.75
455.734	90.75
455.955	86.75
456.175	83.75
456.395	81.75
456.616	87.75
456.836	82.75
457.056	87.75
457.276	80.75
457.497	81.75
457.717	82.75
457.937	84.75
458.157	78.75
458.377	89.75
458.598	97.75
458.818	85.75
459.038	88.75
459.258	82.75
459.478	76.75
459.698	88.75
459.918	81.75
460.138	105.75
460.358	73.75
460.578	85.75
460.798	78.75
461.018	89.75
461.238	90.75
461.458	90.75
461.678	84.75
461.898	81.75
462.118	95.75
462.338	81.75
462.558	84.75
462.777	96.75
462.997	90.75
463.217	100.75
463.437	86.75
463.657	85.75
463.876	90.75
464.096	110.75
464.316	74.75
464.536	87.75
464.755	85.75
464.975	90.75
465.195	89.75
465.414	85.75
465.634	92.75
465.854	80.75
466.073	88.75
466.293	87.75
466.512	77.75
466.732	86.75
466.951	93.75
467.171	99.75
467.391	81.75
467.61	88.75
467.829	97.75
468.049	86.75
468.268	89.75
468.488	89.75
468.707	108.75
468.927	96.75
469.146	93.75
469.365	97.75
469.585	117.75
469.804	99.75
470.023	84.75
470.243	110.75
470.462	95.75
470.681	93.75
470.901	95.75
471.12	94.75
471.339	80.75
471.558	89.75
471.777	90.75
471.997	90.75
472.216	94.75
472.435	104.75
472.654	88.75
472.873	88.75
473.092	85.75
473.311	96.75
473.53	71.75
473.749	100.75
473.968	97.75
474.187	85.75
474.406	72.75
474.625	86.75
474.844	103.75
475.063	99.75
475.282	98.75
475.501	85.75
475.72	96.75
475.939	100.75
476.158	100.75
476.377	90.75
476.596	92.75
476.814	86.75
477.033	96.75
477.252	88.75
477.471	92.75
477.69	87.75
477.908	88.75
478.127	109.75
478.346	94.75
478.564	101.75
478.783	90.75
479.002	93.75
479.22	89.75
479.439	94.75
479.658	110.75
479.876	96.75
480.095	105.75
480.313	100.75
480.532	95.75
480.751	94.75
480.969	66.75
481.188	82.75
481.406	94.75
481.624	97.75
481.843	73.75
482.061	91.75
482.28	93.75
482.498	102.75
482.717	72.75
482.935	93.75
483.153	87.75
483.372	92.75
483.59	92.75
483.808	84.75
484.027	89.75
484.245	88.75
484.463	103.75
484.681	100.75
484.9	103.75
485.118	98.75
485.336	112.75
485.554	85.75
485.772	96.75
485.99	90.75
486.209	101.75
486.427	93.75
486.645	87.75
486.863	91.75
487.081	99.75
487.299	79.75
487.517	92.75
487.735	99.75
487.953	101.75
488.171	102.75
488.389	96.75
488.607	86.75
488.825	93.75
489.043	104.75
489.261	104.75
489.479	102.75
489.696	98.75
489.914	88.75
490.132	97.75
490.35	97.75
490.568	97.75
490.786	88.75
491.003	91.75
491.221	106.75
491.439	97.75
491.657	97.75
491.874	115.75
492.092	103.75
492.31	121.75
492.527	108.75
492.745	102.75
492.963	121.75
493.18	102.75
493.398	102.75
493.615	106.75
493.833	103.75
494.05	101.75
494.268	109.75
494.485	108.75
494.703	103.75
494.92	114.75
495.138	115.75
495.355	113.75
495.573	95.75
495.79	101.75
496.008	99.75
496.225	108.75
496.442	99.75
496.66	108.75
496.877	110.75
497.094	92.75
497.312	106.75
497.529	93.75
497.746	105.75
497.963	114.75
498.181	102.75
498.398	109.75
498.615	113.75
498.832	110.75
499.049	111.75
499.267	114.75
499.484	114.75
499.701	127.75
499.918	120.75
500.135	128.75
500.352	126.75
500.569	127.75
500.786	127.75
501.003	130.75
501.22	126.75
501.437	122.75
501.654	106.75
501.871	101.75
502.088	101.75
502.305	111.75
502.522	104.75
502.739	106.75
502.956	112.75
503.172	80.75
503.389	108.75
503.606	101.75
503.823	92.75
504.04	104.75
504.256	102.75
504.473	92.75
504.69	95.75
504.907	96.75
505.123	96.75
505.34	92.75
505.557	90.75
505.773	96.75
505.99	107.75
506.207	97.75
506.423	94.75
506.64	108.75
506.856	93.75
507.073	76.75
507.289	101.75
507.506	92.75
507.722	95.75
507.939	90.75
508.155	96.75
508.372	102.75
508.588	103.75
508.805	93.75
509.021	95.75
509.238	85.75
509.454	90.75
509.67	105.75
509.887	86.75
510.103	90.75
510.319	95.75
510.536	87.75
510.752	89.75
510.968	80.75
511.184	96.75
511.401	115.75
511.617	104.75
511.833	86.75
512.049	99.75
512.265	97.75
512.481	106.75
512.698	93.75
512.914	81.75
513.13	85.75
513.346	90.75
513.562	87.75
513.778	103.75
513.994	88.75
514.21	96.75
514.426	98.75
514.642	101.75
514.858	89.75
515.074	91.75
515.29	99.75
515.506	85.75
515.721	100.75
515.937	101.75
516.153	83.75
516.369	92.75
516.585	91.75
516.801	90.75
517.016	82.75
517.232	93.75
517.448	95.75
517.664	110.75
