Data from Location5.07152019.Energy5.Lamp.07192019.3%Agarose_HRD10591_15-39-25-388.txt Node
Date: Fri Jul 19 15:39:25 EDT 2019
User: cochatt
Spectrometer: HR+D1059
Trigger mode: 1
Integration Time (sec): 1.000000E-1
Scans to average: 1
Electric dark correction enabled: true
Nonlinearity correction enabled: false
Boxcar width: 0
XAxis mode: Wavelengths
Number of Pixels in Spectrum: 2048
>>>>>Begin Spectral Data<<<<<
223.165	-11.12
223.4	-11.12
223.635	-11.12
223.869	-17.12
224.104	-13.12
224.338	-23.12
224.573	-28.12
224.808	-13.12
225.042	-12.12
225.277	7.88
225.511	-6.12
225.746	5.88
225.98	9.88
226.215	4.88
226.449	23.88
226.683	19.88
226.918	24.88
227.152	26.88
227.387	45.88
227.621	22.88
227.856	45.88
228.09	43.88
228.324	61.88
228.559	55.88
228.793	67.88
229.027	51.88
229.262	69.88
229.496	74.88
229.73	73.88
229.964	55.88
230.199	73.88
230.433	75.88
230.667	68.88
230.901	70.88
231.136	83.88
231.37	85.88
231.604	73.88
231.838	86.88
232.072	87.88
232.306	69.88
232.541	80.88
232.775	65.88
233.009	77.88
233.243	81.88
233.477	82.88
233.711	70.88
233.945	85.88
234.179	72.88
234.413	84.88
234.647	87.88
234.881	87.88
235.115	81.88
235.349	76.88
235.583	70.88
235.817	86.88
236.051	84.88
236.285	85.88
236.519	82.88
236.753	78.88
236.987	64.88
237.221	85.88
237.455	73.88
237.689	81.88
237.922	71.88
238.156	84.88
238.39	79.88
238.624	87.88
238.858	78.88
239.091	91.88
239.325	74.88
239.559	74.88
239.793	85.88
240.027	84.88
240.26	78.88
240.494	81.88
240.728	72.88
240.961	74.88
241.195	79.88
241.429	79.88
241.662	65.88
241.896	82.88
242.13	83.88
242.363	69.88
242.597	80.88
242.83	69.88
243.064	73.88
243.298	76.88
243.531	67.88
243.765	68.88
243.998	67.88
244.232	76.88
244.465	93.88
244.699	74.88
244.932	62.88
245.166	69.88
245.399	81.88
245.633	70.88
245.866	83.88
246.099	84.88
246.333	67.88
246.566	81.88
246.8	78.88
247.033	81.88
247.266	84.88
247.5	70.88
247.733	73.88
247.966	85.88
248.2	79.88
248.433	70.88
248.666	74.88
248.899	72.88
249.133	78.88
249.366	74.88
249.599	81.88
249.832	77.88
250.066	79.88
250.299	78.88
250.532	59.88
250.765	86.88
250.998	95.88
251.231	76.88
251.465	74.88
251.698	65.88
251.931	83.88
252.164	75.88
252.397	89.88
252.63	80.88
252.863	73.88
253.096	79.88
253.329	73.88
253.562	79.88
253.795	93.88
254.028	73.88
254.261	83.88
254.494	77.88
254.727	83.88
254.96	78.88
255.193	75.88
255.426	62.88
255.659	74.88
255.892	86.88
256.124	79.88
256.357	81.88
256.59	87.88
256.823	74.88
257.056	75.88
257.289	81.88
257.521	77.88
257.754	79.88
257.987	80.88
258.22	81.88
258.452	83.88
258.685	81.88
258.918	94.88
259.151	92.88
259.383	88.88
259.616	74.88
259.849	77.88
260.081	69.88
260.314	67.88
260.547	74.88
260.779	79.88
261.012	80.88
261.244	90.88
261.477	76.88
261.71	83.88
261.942	95.88
262.175	86.88
262.407	83.88
262.64	85.88
262.872	99.88
263.105	85.88
263.337	80.88
263.57	87.88
263.802	75.88
264.035	86.88
264.267	86.88
264.499	68.88
264.732	85.88
264.964	70.88
265.197	93.88
265.429	82.88
265.661	89.88
265.894	73.88
266.126	81.88
266.358	78.88
266.591	88.88
266.823	94.88
267.055	71.88
267.287	73.88
267.52	80.88
267.752	68.88
267.984	88.88
268.216	85.88
268.448	78.88
268.681	86.88
268.913	91.88
269.145	82.88
269.377	74.88
269.609	72.88
269.841	99.88
270.073	77.88
270.306	82.88
270.538	93.88
270.77	89.88
271.002	79.88
271.234	86.88
271.466	82.88
271.698	77.88
271.93	86.88
272.162	71.88
272.394	70.88
272.626	88.88
272.858	83.88
273.09	77.88
273.322	82.88
273.553	82.88
273.785	86.88
274.017	89.88
274.249	83.88
274.481	85.88
274.713	86.88
274.945	98.88
275.176	84.88
275.408	97.88
275.64	88.88
275.872	93.88
276.104	87.88
276.335	96.88
276.567	84.88
276.799	75.88
277.031	86.88
277.262	88.88
277.494	74.88
277.726	88.88
277.957	73.88
278.189	79.88
278.421	89.88
278.652	83.88
278.884	86.88
279.115	86.88
279.347	86.88
279.579	71.88
279.81	73.88
280.042	89.88
280.273	75.88
280.505	75.88
280.736	86.88
280.968	73.88
281.199	79.88
281.431	80.88
281.662	82.88
281.894	96.88
282.125	90.88
282.356	80.88
282.588	81.88
282.819	68.88
283.051	94.88
283.282	94.88
283.513	93.88
283.745	84.88
283.976	82.88
284.207	79.88
284.439	83.88
284.67	87.88
284.901	81.88
285.132	97.88
285.364	89.88
285.595	75.88
285.826	94.88
286.057	87.88
286.288	71.88
286.52	82.88
286.751	70.88
286.982	87.88
287.213	91.88
287.444	80.88
287.675	86.88
287.906	78.88
288.138	89.88
288.369	93.88
288.6	81.88
288.831	90.88
289.062	98.88
289.293	72.88
289.524	93.88
289.755	68.88
289.986	81.88
290.217	81.88
290.448	93.88
290.679	77.88
290.91	79.88
291.141	81.88
291.371	90.88
291.602	68.88
291.833	78.88
292.064	95.88
292.295	78.88
292.526	91.88
292.757	87.88
292.987	77.88
293.218	97.88
293.449	84.88
293.68	74.88
293.91	84.88
294.141	66.88
294.372	75.88
294.603	86.88
294.833	73.88
295.064	87.88
295.295	84.88
295.525	82.88
295.756	89.88
295.987	97.88
296.217	83.88
296.448	87.88
296.679	89.88
296.909	86.88
297.14	72.88
297.37	84.88
297.601	80.88
297.831	78.88
298.062	77.88
298.292	83.88
298.523	87.88
298.753	94.88
298.984	91.88
299.214	93.88
299.445	77.88
299.675	77.88
299.905	83.88
300.136	90.88
300.366	85.88
300.597	81.88
300.827	79.88
301.057	77.88
301.288	79.88
301.518	87.88
301.748	78.88
301.979	81.88
302.209	74.88
302.439	74.88
302.669	95.88
302.9	90.88
303.13	80.88
303.36	71.88
303.59	70.88
303.82	78.88
304.051	88.88
304.281	82.88
304.511	88.88
304.741	82.88
304.971	71.88
305.201	90.88
305.431	94.88
305.661	81.88
305.891	76.88
306.121	90.88
306.352	102.88
306.582	79.88
306.812	82.88
307.042	83.88
307.272	74.88
307.502	89.88
307.731	94.88
307.961	90.88
308.191	79.88
308.421	82.88
308.651	75.88
308.881	95.88
309.111	90.88
309.341	81.88
309.571	92.88
309.8	81.88
310.03	78.88
310.26	72.88
310.49	87.88
310.72	73.88
310.949	90.88
311.179	84.88
311.409	90.88
311.639	79.88
311.868	85.88
312.098	86.88
312.328	88.88
312.557	87.88
312.787	73.88
313.017	90.88
313.246	72.88
313.476	95.88
313.706	83.88
313.935	86.88
314.165	65.88
314.394	90.88
314.624	81.88
314.853	91.88
315.083	89.88
315.312	84.88
315.542	91.88
315.771	86.88
316.001	84.88
316.23	79.88
316.46	86.88
316.689	82.88
316.919	75.88
317.148	80.88
317.377	89.88
317.607	79.88
317.836	88.88
318.065	85.88
318.295	91.88
318.524	82.88
318.753	85.88
318.983	76.88
319.212	84.88
319.441	87.88
319.67	85.88
319.9	82.88
320.129	88.88
320.358	86.88
320.587	94.88
320.816	72.88
321.046	84.88
321.275	79.88
321.504	94.88
321.733	74.88
321.962	71.88
322.191	90.88
322.42	82.88
322.649	77.88
322.878	83.88
323.108	85.88
323.337	90.88
323.566	90.88
323.795	76.88
324.024	72.88
324.253	73.88
324.482	79.88
324.71	89.88
324.939	93.88
325.168	98.88
325.397	86.88
325.626	92.88
325.855	87.88
326.084	83.88
326.313	70.88
326.542	91.88
326.77	83.88
326.999	86.88
327.228	81.88
327.457	68.88
327.686	71.88
327.914	90.88
328.143	98.88
328.372	86.88
328.6	73.88
328.829	98.88
329.058	71.88
329.287	66.88
329.515	85.88
329.744	85.88
329.972	80.88
330.201	84.88
330.43	77.88
330.658	70.88
330.887	87.88
331.115	97.88
331.344	77.88
331.572	79.88
331.801	85.88
332.03	83.88
332.258	93.88
332.486	83.88
332.715	75.88
332.943	71.88
333.172	81.88
333.4	67.88
333.629	91.88
333.857	87.88
334.085	101.88
334.314	83.88
334.542	77.88
334.771	83.88
334.999	73.88
335.227	74.88
335.455	81.88
335.684	85.88
335.912	89.88
336.14	78.88
336.369	83.88
336.597	64.88
336.825	92.88
337.053	83.88
337.281	87.88
337.51	75.88
337.738	71.88
337.966	80.88
338.194	90.88
338.422	80.88
338.65	87.88
338.878	88.88
339.106	75.88
339.334	76.88
339.562	78.88
339.79	78.88
340.018	87.88
340.246	71.88
340.474	78.88
340.702	92.88
340.93	67.88
341.158	90.88
341.386	79.88
341.614	73.88
341.842	74.88
342.07	85.88
342.298	79.88
342.526	79.88
342.754	72.88
342.981	85.88
343.209	89.88
343.437	105.88
343.665	86.88
343.893	93.88
344.12	89.88
344.348	79.88
344.576	81.88
344.804	70.88
345.031	73.88
345.259	73.88
345.487	74.88
345.714	81.88
345.942	80.88
346.17	93.88
346.397	72.88
346.625	77.88
346.853	77.88
347.08	74.88
347.308	88.88
347.535	86.88
347.763	87.88
347.99	87.88
348.218	77.88
348.445	69.88
348.673	89.88
348.9	90.88
349.128	80.88
349.355	85.88
349.583	75.88
349.81	105.88
350.037	87.88
350.265	91.88
350.492	76.88
350.72	79.88
350.947	82.88
351.174	89.88
351.402	87.88
351.629	71.88
351.856	83.88
352.083	76.88
352.311	83.88
352.538	84.88
352.765	75.88
352.992	79.88
353.22	94.88
353.447	87.88
353.674	85.88
353.901	83.88
354.128	77.88
354.355	75.88
354.583	70.88
354.81	89.88
355.037	84.88
355.264	71.88
355.491	88.88
355.718	77.88
355.945	90.88
356.172	91.88
356.399	80.88
356.626	85.88
356.853	72.88
357.08	71.88
357.307	77.88
357.534	93.88
357.761	87.88
357.988	93.88
358.215	85.88
358.441	81.88
358.668	80.88
358.895	76.88
359.122	83.88
359.349	81.88
359.576	83.88
359.802	73.88
360.029	83.88
360.256	80.88
360.483	86.88
360.709	85.88
360.936	78.88
361.163	83.88
361.39	77.88
361.616	91.88
361.843	73.88
362.07	83.88
362.296	67.88
362.523	70.88
362.749	76.88
362.976	88.88
363.203	81.88
363.429	74.88
363.656	74.88
363.882	88.88
364.109	91.88
364.335	82.88
364.562	77.88
364.788	81.88
365.015	78.88
365.241	84.88
365.468	83.88
365.694	60.88
365.92	91.88
366.147	87.88
366.373	69.88
366.599	92.88
366.826	79.88
367.052	82.88
367.278	82.88
367.505	89.88
367.731	94.88
367.957	60.88
368.184	92.88
368.41	80.88
368.636	89.88
368.862	75.88
369.089	87.88
369.315	87.88
369.541	91.88
369.767	83.88
369.993	93.88
370.219	69.88
370.445	71.88
370.672	81.88
370.898	78.88
371.124	78.88
371.35	71.88
371.576	78.88
371.802	98.88
372.028	76.88
372.254	80.88
372.48	70.88
372.706	84.88
372.932	78.88
373.158	83.88
373.384	75.88
373.61	79.88
373.835	100.88
374.061	77.88
374.287	76.88
374.513	89.88
374.739	70.88
374.965	80.88
375.191	79.88
375.416	74.88
375.642	84.88
375.868	87.88
376.094	88.88
376.319	74.88
376.545	78.88
376.771	74.88
376.997	83.88
377.222	84.88
377.448	91.88
377.674	94.88
377.899	81.88
378.125	65.88
378.35	80.88
378.576	76.88
378.802	87.88
379.027	85.88
379.253	88.88
379.478	70.88
379.704	83.88
379.929	69.88
380.155	89.88
380.38	109.88
380.606	67.88
380.831	82.88
381.057	97.88
381.282	90.88
381.507	84.88
381.733	90.88
381.958	68.88
382.184	71.88
382.409	79.88
382.634	71.88
382.86	85.88
383.085	86.88
383.31	86.88
383.535	86.88
383.761	97.88
383.986	84.88
384.211	81.88
384.436	63.88
384.662	78.88
384.887	69.88
385.112	75.88
385.337	95.88
385.562	98.88
385.787	59.88
386.013	80.88
386.238	87.88
386.463	81.88
386.688	82.88
386.913	94.88
387.138	89.88
387.363	87.88
387.588	92.88
387.813	74.88
388.038	84.88
388.263	94.88
388.488	78.88
388.713	91.88
388.938	88.88
389.163	80.88
389.387	86.88
389.612	90.88
389.837	90.88
390.062	87.88
390.287	80.88
390.512	90.88
390.736	86.88
390.961	87.88
391.186	85.88
391.411	80.88
391.636	82.88
391.86	77.88
392.085	87.88
392.31	88.88
392.534	93.88
392.759	79.88
392.984	95.88
393.208	82.88
393.433	87.88
393.658	86.88
393.882	72.88
394.107	67.88
394.331	82.88
394.556	88.88
394.78	87.88
395.005	80.88
395.229	78.88
395.454	77.88
395.678	85.88
395.903	77.88
396.127	85.88
396.352	86.88
396.576	87.88
396.801	90.88
397.025	99.88
397.249	86.88
397.474	82.88
397.698	81.88
397.922	78.88
398.147	82.88
398.371	82.88
398.595	95.88
398.82	77.88
399.044	86.88
399.268	94.88
399.492	86.88
399.717	90.88
399.941	89.88
400.165	90.88
400.389	81.88
400.613	85.88
400.837	84.88
401.062	88.88
401.286	81.88
401.51	84.88
401.734	86.88
401.958	93.88
402.182	62.88
402.406	96.88
402.63	83.88
402.854	84.88
403.078	83.88
403.302	69.88
403.526	97.88
403.75	89.88
403.974	90.88
404.198	104.88
404.422	103.88
404.645	82.88
404.869	90.88
405.093	101.88
405.317	95.88
405.541	94.88
405.765	80.88
405.988	89.88
406.212	88.88
406.436	83.88
406.66	97.88
406.883	92.88
407.107	73.88
407.331	87.88
407.555	102.88
407.778	87.88
408.002	73.88
408.226	82.88
408.449	89.88
408.673	100.88
408.896	72.88
409.12	79.88
409.344	99.88
409.567	90.88
409.791	87.88
410.014	86.88
410.238	85.88
410.461	90.88
410.685	104.88
410.908	95.88
411.132	95.88
411.355	80.88
411.578	89.88
411.802	95.88
412.025	83.88
412.249	81.88
412.472	90.88
412.695	87.88
412.919	81.88
413.142	90.88
413.365	100.88
413.589	88.88
413.812	96.88
414.035	82.88
414.258	87.88
414.482	92.88
414.705	106.88
414.928	91.88
415.151	88.88
415.374	80.88
415.597	85.88
415.821	91.88
416.044	86.88
416.267	104.88
416.49	98.88
416.713	95.88
416.936	85.88
417.159	94.88
417.382	98.88
417.605	97.88
417.828	97.88
418.051	85.88
418.274	87.88
418.497	91.88
418.72	85.88
418.943	92.88
419.166	89.88
419.389	103.88
419.611	80.88
419.834	103.88
420.057	89.88
420.28	86.88
420.503	84.88
420.726	90.88
420.948	98.88
421.171	74.88
421.394	75.88
421.617	108.88
421.839	94.88
422.062	85.88
422.285	96.88
422.507	92.88
422.73	90.88
422.953	89.88
423.175	86.88
423.398	85.88
423.621	85.88
423.843	92.88
424.066	85.88
424.288	92.88
424.511	77.88
424.733	94.88
424.956	78.88
425.178	90.88
425.401	86.88
425.623	85.88
425.846	80.88
426.068	95.88
426.291	98.88
426.513	82.88
426.735	85.88
426.958	79.88
427.18	105.88
427.402	91.88
427.625	87.88
427.847	89.88
428.069	84.88
428.292	89.88
428.514	81.88
428.736	83.88
428.958	79.88
429.181	99.88
429.403	101.88
429.625	86.88
429.847	99.88
430.069	95.88
430.292	103.88
430.514	101.88
430.736	84.88
430.958	90.88
431.18	100.88
431.402	80.88
431.624	93.88
431.846	87.88
432.068	73.88
432.29	88.88
432.512	83.88
432.734	87.88
432.956	88.88
433.178	86.88
433.4	82.88
433.622	96.88
433.844	96.88
434.066	87.88
434.287	93.88
434.509	88.88
434.731	93.88
434.953	91.88
435.175	77.88
435.397	87.88
435.618	93.88
435.84	93.88
436.062	71.88
436.284	85.88
436.505	92.88
436.727	86.88
436.949	109.88
437.17	90.88
437.392	79.88
437.614	97.88
437.835	75.88
438.057	96.88
438.278	91.88
438.5	93.88
438.721	88.88
438.943	102.88
439.165	109.88
439.386	98.88
439.608	100.88
439.829	89.88
440.05	86.88
440.272	103.88
440.493	100.88
440.715	104.88
440.936	85.88
441.158	105.88
441.379	90.88
441.6	106.88
441.822	92.88
442.043	88.88
442.264	83.88
442.486	84.88
442.707	97.88
442.928	96.88
443.149	94.88
443.371	92.88
443.592	95.88
443.813	102.88
444.034	88.88
444.255	94.88
444.476	100.88
444.698	94.88
444.919	94.88
445.14	224.88
445.361	157.88
445.582	102.88
445.803	103.88
446.024	87.88
446.245	99.88
446.466	89.88
446.687	99.88
446.908	101.88
447.129	98.88
447.35	93.88
447.571	107.88
447.792	104.88
448.013	100.88
448.234	104.88
448.455	89.88
448.675	84.88
448.896	86.88
449.117	82.88
449.338	76.88
449.559	88.88
449.779	96.88
450	84.88
450.221	87.88
450.442	89.88
450.662	95.88
450.883	102.88
451.104	94.88
451.324	86.88
451.545	89.88
451.766	99.88
451.986	94.88
452.207	98.88
452.428	89.88
452.648	99.88
452.869	67.88
453.089	87.88
453.31	96.88
453.53	87.88
453.751	85.88
453.971	73.88
454.192	80.88
454.412	69.88
454.633	102.88
454.853	85.88
455.073	79.88
455.294	88.88
455.514	81.88
455.734	97.88
455.955	93.88
456.175	102.88
456.395	83.88
456.616	81.88
456.836	74.88
457.056	88.88
457.276	96.88
457.497	79.88
457.717	70.88
457.937	74.88
458.157	87.88
458.377	79.88
458.598	90.88
458.818	86.88
459.038	92.88
459.258	77.88
459.478	83.88
459.698	92.88
459.918	95.88
460.138	84.88
460.358	85.88
460.578	94.88
460.798	79.88
461.018	87.88
461.238	101.88
461.458	90.88
461.678	89.88
461.898	90.88
462.118	86.88
462.338	75.88
462.558	91.88
462.777	81.88
462.997	84.88
463.217	76.88
463.437	90.88
463.657	93.88
463.876	83.88
464.096	92.88
464.316	86.88
464.536	85.88
464.755	85.88
464.975	94.88
465.195	102.88
465.414	87.88
465.634	96.88
465.854	73.88
466.073	87.88
466.293	87.88
466.512	85.88
466.732	72.88
466.951	86.88
467.171	92.88
467.391	80.88
467.61	94.88
467.829	102.88
468.049	89.88
468.268	97.88
468.488	81.88
468.707	92.88
468.927	96.88
469.146	82.88
469.365	95.88
469.585	95.88
469.804	85.88
470.023	74.88
470.243	95.88
470.462	124.88
470.681	101.88
470.901	94.88
471.12	101.88
471.339	113.88
471.558	101.88
471.777	93.88
471.997	88.88
472.216	93.88
472.435	86.88
472.654	92.88
472.873	100.88
473.092	92.88
473.311	102.88
473.53	100.88
473.749	75.88
473.968	90.88
474.187	83.88
474.406	92.88
474.625	91.88
474.844	88.88
475.063	95.88
475.282	90.88
475.501	101.88
475.72	93.88
475.939	84.88
476.158	84.88
476.377	70.88
476.596	89.88
476.814	86.88
477.033	78.88
477.252	101.88
477.471	91.88
477.69	90.88
477.908	93.88
478.127	99.88
478.346	99.88
478.564	80.88
478.783	99.88
479.002	76.88
479.22	97.88
479.439	103.88
479.658	95.88
479.876	78.88
480.095	81.88
480.313	88.88
480.532	98.88
480.751	78.88
480.969	74.88
481.188	89.88
481.406	74.88
481.624	92.88
481.843	82.88
482.061	85.88
482.28	88.88
482.498	93.88
482.717	81.88
482.935	107.88
483.153	102.88
483.372	106.88
483.59	114.88
483.808	86.88
484.027	92.88
484.245	102.88
484.463	123.88
484.681	105.88
484.9	96.88
485.118	104.88
485.336	91.88
485.554	96.88
485.772	66.88
485.99	96.88
486.209	97.88
486.427	87.88
486.645	85.88
486.863	102.88
487.081	99.88
487.299	84.88
487.517	97.88
487.735	74.88
487.953	116.88
488.171	109.88
488.389	107.88
488.607	88.88
488.825	89.88
489.043	99.88
489.261	95.88
489.479	89.88
489.696	95.88
489.914	87.88
490.132	94.88
490.35	112.88
490.568	108.88
490.786	92.88
491.003	102.88
491.221	97.88
491.439	107.88
491.657	106.88
491.874	129.88
492.092	115.88
492.31	118.88
492.527	118.88
492.745	116.88
492.963	110.88
493.18	119.88
493.398	114.88
493.615	108.88
493.833	105.88
494.05	100.88
494.268	98.88
494.485	110.88
494.703	96.88
494.92	125.88
495.138	105.88
495.355	112.88
495.573	111.88
495.79	101.88
496.008	102.88
496.225	93.88
496.442	103.88
496.66	115.88
496.877	110.88
497.094	111.88
497.312	96.88
497.529	109.88
497.746	101.88
497.963	105.88
498.181	103.88
498.398	95.88
498.615	91.88
498.832	84.88
499.049	96.88
499.267	114.88
499.484	85.88
499.701	95.88
499.918	101.88
500.135	89.88
500.352	93.88
500.569	85.88
500.786	104.88
501.003	115.88
501.22	96.88
501.437	82.88
501.654	89.88
501.871	107.88
502.088	103.88
502.305	80.88
502.522	82.88
502.739	88.88
502.956	89.88
503.172	100.88
503.389	95.88
503.606	94.88
503.823	95.88
504.04	96.88
504.256	101.88
504.473	78.88
504.69	81.88
504.907	102.88
505.123	91.88
505.34	82.88
505.557	90.88
505.773	99.88
505.99	93.88
506.207	97.88
506.423	89.88
506.64	97.88
506.856	91.88
507.073	91.88
507.289	94.88
507.506	100.88
507.722	88.88
507.939	90.88
508.155	84.88
508.372	97.88
508.588	80.88
508.805	80.88
509.021	103.88
509.238	96.88
509.454	80.88
509.67	74.88
509.887	84.88
510.103	75.88
510.319	91.88
510.536	75.88
510.752	90.88
510.968	91.88
511.184	79.88
511.401	69.88
511.617	90.88
511.833	82.88
512.049	93.88
512.265	79.88
512.481	109.88
512.698	79.88
512.914	95.88
513.13	78.88
513.346	100.88
513.562	85.88
513.778	77.88
513.994	82.88
514.21	82.88
514.426	84.88
514.642	85.88
514.858	99.88
515.074	80.88
515.29	79.88
515.506	76.88
515.721	88.88
515.937	84.88
516.153	82.88
516.369	94.88
516.585	72.88
516.801	75.88
517.016	86.88
517.232	90.88
517.448	82.88
517.664	81.88
517.879	79.88
