Data from Location5.07152019.Energy5.Lamp.07192019.3%Agarose_HRD10591_16-04-26-629.txt Node
Date: Fri Jul 19 16:04:26 EDT 2019
User: cochatt
Spectrometer: HR+D1059
Trigger mode: 1
Integration Time (sec): 1.000000E-1
Scans to average: 1
Electric dark correction enabled: true
Nonlinearity correction enabled: false
Boxcar width: 0
XAxis mode: Wavelengths
Number of Pixels in Spectrum: 2048
>>>>>Begin Spectral Data<<<<<
223.165	-10.44
223.4	-10.44
223.635	-10.44
223.869	-26.44
224.104	-16.44
224.338	-17.44
224.573	-16.44
224.808	-7.44
225.042	-1.44
225.277	-1.44
225.511	2.56
225.746	2.56
225.98	18.56
226.215	8.56
226.449	9.56
226.683	20.56
226.918	12.56
227.152	22.56
227.387	31.56
227.621	36.56
227.856	52.56
228.09	49.56
228.324	42.56
228.559	44.56
228.793	53.56
229.027	66.56
229.262	52.56
229.496	65.56
229.73	62.56
229.964	74.56
230.199	65.56
230.433	62.56
230.667	72.56
230.901	69.56
231.136	78.56
231.37	86.56
231.604	87.56
231.838	73.56
232.072	76.56
232.306	76.56
232.541	87.56
232.775	79.56
233.009	74.56
233.243	81.56
233.477	84.56
233.711	73.56
233.945	80.56
234.179	85.56
234.413	78.56
234.647	78.56
234.881	75.56
235.115	80.56
235.349	71.56
235.583	77.56
235.817	71.56
236.051	81.56
236.285	73.56
236.519	86.56
236.753	88.56
236.987	87.56
237.221	81.56
237.455	75.56
237.689	73.56
237.922	82.56
238.156	82.56
238.39	69.56
238.624	67.56
238.858	69.56
239.091	73.56
239.325	75.56
239.559	84.56
239.793	78.56
240.027	80.56
240.26	71.56
240.494	73.56
240.728	71.56
240.961	79.56
241.195	76.56
241.429	76.56
241.662	64.56
241.896	80.56
242.13	78.56
242.363	85.56
242.597	78.56
242.83	79.56
243.064	76.56
243.298	77.56
243.531	82.56
243.765	79.56
243.998	83.56
244.232	68.56
244.465	74.56
244.699	77.56
244.932	78.56
245.166	73.56
245.399	88.56
245.633	65.56
245.866	72.56
246.099	66.56
246.333	76.56
246.566	71.56
246.8	64.56
247.033	86.56
247.266	83.56
247.5	69.56
247.733	89.56
247.966	86.56
248.2	76.56
248.433	63.56
248.666	84.56
248.899	85.56
249.133	90.56
249.366	91.56
249.599	74.56
249.832	87.56
250.066	81.56
250.299	73.56
250.532	75.56
250.765	73.56
250.998	77.56
251.231	74.56
251.465	74.56
251.698	74.56
251.931	70.56
252.164	73.56
252.397	68.56
252.63	83.56
252.863	87.56
253.096	88.56
253.329	77.56
253.562	80.56
253.795	84.56
254.028	76.56
254.261	85.56
254.494	84.56
254.727	83.56
254.96	88.56
255.193	81.56
255.426	78.56
255.659	84.56
255.892	91.56
256.124	89.56
256.357	90.56
256.59	78.56
256.823	79.56
257.056	75.56
257.289	80.56
257.521	66.56
257.754	84.56
257.987	71.56
258.22	80.56
258.452	73.56
258.685	65.56
258.918	74.56
259.151	93.56
259.383	94.56
259.616	75.56
259.849	82.56
260.081	74.56
260.314	89.56
260.547	96.56
260.779	78.56
261.012	106.56
261.244	82.56
261.477	88.56
261.71	88.56
261.942	83.56
262.175	77.56
262.407	83.56
262.64	82.56
262.872	81.56
263.105	89.56
263.337	92.56
263.57	81.56
263.802	94.56
264.035	86.56
264.267	87.56
264.499	83.56
264.732	92.56
264.964	99.56
265.197	82.56
265.429	81.56
265.661	80.56
265.894	81.56
266.126	83.56
266.358	81.56
266.591	79.56
266.823	77.56
267.055	83.56
267.287	88.56
267.52	80.56
267.752	85.56
267.984	65.56
268.216	81.56
268.448	104.56
268.681	94.56
268.913	88.56
269.145	72.56
269.377	79.56
269.609	68.56
269.841	90.56
270.073	87.56
270.306	87.56
270.538	84.56
270.77	67.56
271.002	85.56
271.234	87.56
271.466	80.56
271.698	88.56
271.93	80.56
272.162	78.56
272.394	81.56
272.626	82.56
272.858	85.56
273.09	93.56
273.322	84.56
273.553	72.56
273.785	67.56
274.017	88.56
274.249	91.56
274.481	84.56
274.713	74.56
274.945	90.56
275.176	72.56
275.408	87.56
275.64	83.56
275.872	88.56
276.104	67.56
276.335	89.56
276.567	80.56
276.799	86.56
277.031	84.56
277.262	99.56
277.494	88.56
277.726	80.56
277.957	73.56
278.189	81.56
278.421	98.56
278.652	94.56
278.884	96.56
279.115	94.56
279.347	72.56
279.579	89.56
279.81	76.56
280.042	75.56
280.273	92.56
280.505	97.56
280.736	92.56
280.968	93.56
281.199	89.56
281.431	80.56
281.662	96.56
281.894	92.56
282.125	92.56
282.356	89.56
282.588	83.56
282.819	85.56
283.051	72.56
283.282	91.56
283.513	81.56
283.745	99.56
283.976	89.56
284.207	99.56
284.439	72.56
284.67	81.56
284.901	88.56
285.132	79.56
285.364	83.56
285.595	69.56
285.826	74.56
286.057	87.56
286.288	99.56
286.52	82.56
286.751	87.56
286.982	80.56
287.213	79.56
287.444	102.56
287.675	92.56
287.906	75.56
288.138	96.56
288.369	95.56
288.6	98.56
288.831	95.56
289.062	99.56
289.293	89.56
289.524	78.56
289.755	94.56
289.986	91.56
290.217	84.56
290.448	81.56
290.679	77.56
290.91	94.56
291.141	70.56
291.371	92.56
291.602	84.56
291.833	92.56
292.064	82.56
292.295	88.56
292.526	98.56
292.757	74.56
292.987	100.56
293.218	74.56
293.449	94.56
293.68	80.56
293.91	78.56
294.141	84.56
294.372	81.56
294.603	83.56
294.833	87.56
295.064	89.56
295.295	84.56
295.525	82.56
295.756	75.56
295.987	81.56
296.217	84.56
296.448	98.56
296.679	92.56
296.909	82.56
297.14	81.56
297.37	79.56
297.601	83.56
297.831	81.56
298.062	80.56
298.292	88.56
298.523	88.56
298.753	93.56
298.984	86.56
299.214	95.56
299.445	89.56
299.675	92.56
299.905	91.56
300.136	88.56
300.366	76.56
300.597	107.56
300.827	89.56
301.057	78.56
301.288	71.56
301.518	81.56
301.748	78.56
301.979	104.56
302.209	77.56
302.439	97.56
302.669	97.56
302.9	73.56
303.13	90.56
303.36	84.56
303.59	83.56
303.82	102.56
304.051	88.56
304.281	93.56
304.511	89.56
304.741	76.56
304.971	82.56
305.201	85.56
305.431	84.56
305.661	89.56
305.891	88.56
306.121	95.56
306.352	73.56
306.582	74.56
306.812	78.56
307.042	74.56
307.272	97.56
307.502	98.56
307.731	95.56
307.961	95.56
308.191	97.56
308.421	91.56
308.651	91.56
308.881	88.56
309.111	85.56
309.341	85.56
309.571	92.56
309.8	81.56
310.03	92.56
310.26	79.56
310.49	95.56
310.72	81.56
310.949	89.56
311.179	93.56
311.409	87.56
311.639	75.56
311.868	80.56
312.098	85.56
312.328	80.56
312.557	92.56
312.787	90.56
313.017	96.56
313.246	89.56
313.476	93.56
313.706	82.56
313.935	80.56
314.165	97.56
314.394	93.56
314.624	88.56
314.853	96.56
315.083	87.56
315.312	91.56
315.542	67.56
315.771	81.56
316.001	80.56
316.23	89.56
316.46	101.56
316.689	95.56
316.919	90.56
317.148	84.56
317.377	86.56
317.607	84.56
317.836	87.56
318.065	78.56
318.295	80.56
318.524	89.56
318.753	79.56
318.983	80.56
319.212	95.56
319.441	88.56
319.67	87.56
319.9	82.56
320.129	110.56
320.358	95.56
320.587	80.56
320.816	94.56
321.046	81.56
321.275	81.56
321.504	85.56
321.733	83.56
321.962	102.56
322.191	90.56
322.42	109.56
322.649	85.56
322.878	81.56
323.108	86.56
323.337	92.56
323.566	94.56
323.795	94.56
324.024	92.56
324.253	97.56
324.482	97.56
324.71	90.56
324.939	74.56
325.168	79.56
325.397	71.56
325.626	96.56
325.855	87.56
326.084	92.56
326.313	88.56
326.542	101.56
326.77	93.56
326.999	83.56
327.228	101.56
327.457	88.56
327.686	92.56
327.914	83.56
328.143	96.56
328.372	100.56
328.6	91.56
328.829	96.56
329.058	95.56
329.287	89.56
329.515	84.56
329.744	81.56
329.972	92.56
330.201	79.56
330.43	92.56
330.658	86.56
330.887	84.56
331.115	93.56
331.344	92.56
331.572	85.56
331.801	80.56
332.03	85.56
332.258	88.56
332.486	96.56
332.715	71.56
332.943	83.56
333.172	109.56
333.4	96.56
333.629	105.56
333.857	85.56
334.085	87.56
334.314	115.56
334.542	84.56
334.771	102.56
334.999	99.56
335.227	98.56
335.455	87.56
335.684	102.56
335.912	90.56
336.14	82.56
336.369	91.56
336.597	83.56
336.825	82.56
337.053	95.56
337.281	88.56
337.51	77.56
337.738	79.56
337.966	103.56
338.194	80.56
338.422	93.56
338.65	83.56
338.878	99.56
339.106	94.56
339.334	89.56
339.562	95.56
339.79	95.56
340.018	87.56
340.246	81.56
340.474	86.56
340.702	92.56
340.93	81.56
341.158	86.56
341.386	87.56
341.614	82.56
341.842	102.56
342.07	98.56
342.298	89.56
342.526	97.56
342.754	75.56
342.981	82.56
343.209	95.56
343.437	102.56
343.665	103.56
343.893	97.56
344.12	85.56
344.348	96.56
344.576	87.56
344.804	88.56
345.031	93.56
345.259	93.56
345.487	95.56
345.714	100.56
345.942	84.56
346.17	100.56
346.397	82.56
346.625	97.56
346.853	92.56
347.08	82.56
347.308	79.56
347.535	84.56
347.763	70.56
347.99	84.56
348.218	90.56
348.445	85.56
348.673	99.56
348.9	94.56
349.128	74.56
349.355	90.56
349.583	85.56
349.81	82.56
350.037	93.56
350.265	81.56
350.492	93.56
350.72	108.56
350.947	92.56
351.174	82.56
351.402	80.56
351.629	81.56
351.856	82.56
352.083	84.56
352.311	79.56
352.538	97.56
352.765	85.56
352.992	83.56
353.22	106.56
353.447	95.56
353.674	84.56
353.901	108.56
354.128	88.56
354.355	90.56
354.583	97.56
354.81	101.56
355.037	89.56
355.264	86.56
355.491	87.56
355.718	85.56
355.945	76.56
356.172	76.56
356.399	96.56
356.626	85.56
356.853	96.56
357.08	81.56
357.307	88.56
357.534	87.56
357.761	88.56
357.988	91.56
358.215	95.56
358.441	89.56
358.668	88.56
358.895	89.56
359.122	74.56
359.349	81.56
359.576	82.56
359.802	87.56
360.029	99.56
360.256	84.56
360.483	92.56
360.709	86.56
360.936	83.56
361.163	89.56
361.39	81.56
361.616	109.56
361.843	96.56
362.07	106.56
362.296	92.56
362.523	97.56
362.749	92.56
362.976	102.56
363.203	83.56
363.429	96.56
363.656	71.56
363.882	75.56
364.109	82.56
364.335	78.56
364.562	93.56
364.788	84.56
365.015	80.56
365.241	92.56
365.468	85.56
365.694	73.56
365.92	86.56
366.147	101.56
366.373	89.56
366.599	86.56
366.826	80.56
367.052	93.56
367.278	86.56
367.505	91.56
367.731	87.56
367.957	89.56
368.184	80.56
368.41	101.56
368.636	100.56
368.862	91.56
369.089	101.56
369.315	90.56
369.541	91.56
369.767	92.56
369.993	103.56
370.219	94.56
370.445	103.56
370.672	91.56
370.898	80.56
371.124	90.56
371.35	95.56
371.576	92.56
371.802	74.56
372.028	92.56
372.254	98.56
372.48	85.56
372.706	71.56
372.932	83.56
373.158	80.56
373.384	84.56
373.61	93.56
373.835	93.56
374.061	94.56
374.287	84.56
374.513	90.56
374.739	87.56
374.965	81.56
375.191	100.56
375.416	89.56
375.642	97.56
375.868	73.56
376.094	70.56
376.319	85.56
376.545	94.56
376.771	88.56
376.997	74.56
377.222	94.56
377.448	85.56
377.674	72.56
377.899	71.56
378.125	82.56
378.35	79.56
378.576	94.56
378.802	86.56
379.027	84.56
379.253	90.56
379.478	94.56
379.704	85.56
379.929	92.56
380.155	86.56
380.38	82.56
380.606	82.56
380.831	85.56
381.057	94.56
381.282	80.56
381.507	81.56
381.733	81.56
381.958	87.56
382.184	96.56
382.409	80.56
382.634	96.56
382.86	95.56
383.085	93.56
383.31	85.56
383.535	86.56
383.761	103.56
383.986	87.56
384.211	75.56
384.436	90.56
384.662	89.56
384.887	83.56
385.112	92.56
385.337	104.56
385.562	78.56
385.787	96.56
386.013	94.56
386.238	87.56
386.463	86.56
386.688	92.56
386.913	88.56
387.138	77.56
387.363	93.56
387.588	88.56
387.813	99.56
388.038	83.56
388.263	87.56
388.488	88.56
388.713	88.56
388.938	91.56
389.163	104.56
389.387	93.56
389.612	84.56
389.837	85.56
390.062	92.56
390.287	90.56
390.512	90.56
390.736	82.56
390.961	80.56
391.186	80.56
391.411	91.56
391.636	97.56
391.86	81.56
392.085	76.56
392.31	89.56
392.534	82.56
392.759	94.56
392.984	83.56
393.208	103.56
393.433	87.56
393.658	93.56
393.882	88.56
394.107	85.56
394.331	99.56
394.556	77.56
394.78	112.56
395.005	111.56
395.229	93.56
395.454	90.56
395.678	98.56
395.903	90.56
396.127	97.56
396.352	90.56
396.576	89.56
396.801	99.56
397.025	71.56
397.249	92.56
397.474	90.56
397.698	83.56
397.922	81.56
398.147	99.56
398.371	89.56
398.595	88.56
398.82	102.56
399.044	82.56
399.268	101.56
399.492	78.56
399.717	96.56
399.941	98.56
400.165	81.56
400.389	103.56
400.613	88.56
400.837	86.56
401.062	91.56
401.286	90.56
401.51	95.56
401.734	99.56
401.958	97.56
402.182	90.56
402.406	91.56
402.63	74.56
402.854	88.56
403.078	96.56
403.302	87.56
403.526	84.56
403.75	93.56
403.974	100.56
404.198	91.56
404.422	93.56
404.645	89.56
404.869	108.56
405.093	98.56
405.317	109.56
405.541	88.56
405.765	95.56
405.988	111.56
406.212	101.56
406.436	87.56
406.66	101.56
406.883	91.56
407.107	96.56
407.331	99.56
407.555	87.56
407.778	104.56
408.002	92.56
408.226	96.56
408.449	105.56
408.673	89.56
408.896	111.56
409.12	97.56
409.344	101.56
409.567	101.56
409.791	97.56
410.014	99.56
410.238	89.56
410.461	90.56
410.685	103.56
410.908	109.56
411.132	99.56
411.355	92.56
411.578	94.56
411.802	100.56
412.025	94.56
412.249	84.56
412.472	81.56
412.695	93.56
412.919	97.56
413.142	91.56
413.365	92.56
413.589	81.56
413.812	94.56
414.035	99.56
414.258	98.56
414.482	76.56
414.705	102.56
414.928	89.56
415.151	91.56
415.374	114.56
415.597	92.56
415.821	80.56
416.044	91.56
416.267	99.56
416.49	85.56
416.713	92.56
416.936	87.56
417.159	84.56
417.382	89.56
417.605	86.56
417.828	101.56
418.051	95.56
418.274	110.56
418.497	97.56
418.72	95.56
418.943	100.56
419.166	90.56
419.389	97.56
419.611	93.56
419.834	76.56
420.057	89.56
420.28	87.56
420.503	91.56
420.726	116.56
420.948	94.56
421.171	99.56
421.394	90.56
421.617	94.56
421.839	91.56
422.062	96.56
422.285	98.56
422.507	92.56
422.73	105.56
422.953	88.56
423.175	93.56
423.398	87.56
423.621	99.56
423.843	96.56
424.066	101.56
424.288	93.56
424.511	87.56
424.733	89.56
424.956	84.56
425.178	87.56
425.401	83.56
425.623	99.56
425.846	79.56
426.068	86.56
426.291	98.56
426.513	102.56
426.735	82.56
426.958	88.56
427.18	92.56
427.402	93.56
427.625	93.56
427.847	92.56
428.069	90.56
428.292	98.56
428.514	95.56
428.736	92.56
428.958	89.56
429.181	91.56
429.403	92.56
429.625	95.56
429.847	100.56
430.069	90.56
430.292	81.56
430.514	85.56
430.736	96.56
430.958	102.56
431.18	84.56
431.402	76.56
431.624	93.56
431.846	77.56
432.068	89.56
432.29	102.56
432.512	93.56
432.734	95.56
432.956	83.56
433.178	98.56
433.4	76.56
433.622	94.56
433.844	106.56
434.066	89.56
434.287	85.56
434.509	103.56
434.731	92.56
434.953	87.56
435.175	87.56
435.397	86.56
435.618	98.56
435.84	85.56
436.062	93.56
436.284	96.56
436.505	89.56
436.727	81.56
436.949	81.56
437.17	87.56
437.392	84.56
437.614	95.56
437.835	88.56
438.057	94.56
438.278	84.56
438.5	98.56
438.721	75.56
438.943	87.56
439.165	101.56
439.386	88.56
439.608	99.56
439.829	85.56
440.05	89.56
440.272	100.56
440.493	93.56
440.715	96.56
440.936	91.56
441.158	85.56
441.379	103.56
441.6	95.56
441.822	86.56
442.043	87.56
442.264	92.56
442.486	86.56
442.707	92.56
442.928	99.56
443.149	97.56
443.371	103.56
443.592	90.56
443.813	92.56
444.034	91.56
444.255	100.56
444.476	102.56
444.698	98.56
444.919	94.56
445.14	212.56
445.361	133.56
445.582	88.56
445.803	87.56
446.024	96.56
446.245	101.56
446.466	96.56
446.687	109.56
446.908	98.56
447.129	93.56
447.35	83.56
447.571	79.56
447.792	79.56
448.013	80.56
448.234	103.56
448.455	90.56
448.675	94.56
448.896	76.56
449.117	95.56
449.338	91.56
449.559	97.56
449.779	88.56
450	96.56
450.221	90.56
450.442	78.56
450.662	90.56
450.883	85.56
451.104	97.56
451.324	89.56
451.545	83.56
451.766	93.56
451.986	86.56
452.207	79.56
452.428	100.56
452.648	82.56
452.869	92.56
453.089	82.56
453.31	77.56
453.53	102.56
453.751	78.56
453.971	85.56
454.192	80.56
454.412	104.56
454.633	100.56
454.853	99.56
455.073	86.56
455.294	81.56
455.514	85.56
455.734	77.56
455.955	82.56
456.175	85.56
456.395	89.56
456.616	84.56
456.836	102.56
457.056	104.56
457.276	97.56
457.497	81.56
457.717	91.56
457.937	90.56
458.157	85.56
458.377	87.56
458.598	93.56
458.818	90.56
459.038	88.56
459.258	86.56
459.478	99.56
459.698	84.56
459.918	82.56
460.138	89.56
460.358	98.56
460.578	105.56
460.798	90.56
461.018	93.56
461.238	96.56
461.458	92.56
461.678	88.56
461.898	97.56
462.118	87.56
462.338	89.56
462.558	87.56
462.777	89.56
462.997	99.56
463.217	97.56
463.437	96.56
463.657	97.56
463.876	92.56
464.096	89.56
464.316	98.56
464.536	104.56
464.755	89.56
464.975	93.56
465.195	85.56
465.414	84.56
465.634	88.56
465.854	99.56
466.073	89.56
466.293	104.56
466.512	96.56
466.732	84.56
466.951	85.56
467.171	80.56
467.391	91.56
467.61	100.56
467.829	99.56
468.049	112.56
468.268	98.56
468.488	94.56
468.707	100.56
468.927	86.56
469.146	98.56
469.365	89.56
469.585	90.56
469.804	102.56
470.023	102.56
470.243	93.56
470.462	101.56
470.681	97.56
470.901	98.56
471.12	88.56
471.339	97.56
471.558	90.56
471.777	92.56
471.997	97.56
472.216	101.56
472.435	96.56
472.654	86.56
472.873	88.56
473.092	100.56
473.311	102.56
473.53	111.56
473.749	84.56
473.968	87.56
474.187	98.56
474.406	101.56
474.625	73.56
474.844	87.56
475.063	100.56
475.282	83.56
475.501	99.56
475.72	94.56
475.939	89.56
476.158	96.56
476.377	86.56
476.596	80.56
476.814	91.56
477.033	89.56
477.252	94.56
477.471	94.56
477.69	94.56
477.908	103.56
478.127	110.56
478.346	86.56
478.564	95.56
478.783	108.56
479.002	108.56
479.22	99.56
479.439	102.56
479.658	86.56
479.876	87.56
480.095	102.56
480.313	92.56
480.532	94.56
480.751	89.56
480.969	105.56
481.188	93.56
481.406	93.56
481.624	104.56
481.843	82.56
482.061	92.56
482.28	89.56
482.498	100.56
482.717	110.56
482.935	101.56
483.153	93.56
483.372	107.56
483.59	89.56
483.808	94.56
484.027	106.56
484.245	100.56
484.463	112.56
484.681	104.56
484.9	103.56
485.118	102.56
485.336	102.56
485.554	102.56
485.772	99.56
485.99	94.56
486.209	92.56
486.427	86.56
486.645	87.56
486.863	101.56
487.081	116.56
487.299	90.56
487.517	104.56
487.735	106.56
487.953	96.56
488.171	103.56
488.389	104.56
488.607	109.56
488.825	104.56
489.043	94.56
489.261	89.56
489.479	94.56
489.696	100.56
489.914	94.56
490.132	97.56
490.35	118.56
490.568	108.56
490.786	111.56
491.003	108.56
491.221	98.56
491.439	112.56
491.657	104.56
491.874	101.56
492.092	110.56
492.31	110.56
492.527	114.56
492.745	110.56
492.963	101.56
493.18	105.56
493.398	116.56
493.615	90.56
493.833	101.56
494.05	117.56
494.268	125.56
494.485	112.56
494.703	100.56
494.92	116.56
495.138	111.56
495.355	112.56
495.573	117.56
495.79	103.56
496.008	115.56
496.225	105.56
496.442	103.56
496.66	109.56
496.877	112.56
497.094	110.56
497.312	98.56
497.529	114.56
497.746	116.56
497.963	102.56
498.181	108.56
498.398	105.56
498.615	108.56
498.832	132.56
499.049	107.56
499.267	112.56
499.484	116.56
499.701	127.56
499.918	124.56
500.135	129.56
500.352	151.56
500.569	155.56
500.786	152.56
501.003	146.56
501.22	127.56
501.437	121.56
501.654	118.56
501.871	117.56
502.088	117.56
502.305	116.56
502.522	94.56
502.739	105.56
502.956	112.56
503.172	112.56
503.389	108.56
503.606	108.56
503.823	101.56
504.04	116.56
504.256	118.56
504.473	106.56
504.69	105.56
504.907	99.56
505.123	108.56
505.34	101.56
505.557	92.56
505.773	106.56
505.99	83.56
506.207	105.56
506.423	113.56
506.64	88.56
506.856	99.56
507.073	96.56
507.289	95.56
507.506	93.56
507.722	90.56
507.939	94.56
508.155	113.56
508.372	84.56
508.588	96.56
508.805	105.56
509.021	94.56
509.238	93.56
509.454	109.56
509.67	96.56
509.887	95.56
510.103	102.56
510.319	90.56
510.536	100.56
510.752	115.56
510.968	105.56
511.184	98.56
511.401	89.56
511.617	85.56
511.833	101.56
512.049	91.56
512.265	94.56
512.481	105.56
512.698	90.56
512.914	105.56
513.13	101.56
513.346	100.56
513.562	103.56
513.778	97.56
513.994	99.56
514.21	100.56
514.426	97.56
514.642	104.56
514.858	97.56
515.074	91.56
515.29	101.56
515.506	97.56
515.721	85.56
515.937	97.56
516.153	80.56
516.369	83.56
