Data from Location5.07152019.Energy5.Lamp.07192019.3%Agarose_HRD10591_15-38-24-388.txt Node
Date: Fri Jul 19 15:38:24 EDT 2019
User: cochatt
Spectrometer: HR+D1059
Trigger mode: 1
Integration Time (sec): 1.000000E-1
Scans to average: 1
Electric dark correction enabled: true
Nonlinearity correction enabled: false
Boxcar width: 0
XAxis mode: Wavelengths
Number of Pixels in Spectrum: 2048
>>>>>Begin Spectral Data<<<<<
223.165	-17.25
223.4	-17.25
223.635	-17.25
223.869	-15.25
224.104	-18.25
224.338	-7.25
224.573	-26.25
224.808	-13.25
225.042	-16.25
225.277	-7.25
225.511	-3.25
225.746	13.75
225.98	13.75
226.215	11.75
226.449	13.75
226.683	26.75
226.918	16.75
227.152	27.75
227.387	29.75
227.621	38.75
227.856	56.75
228.09	48.75
228.324	53.75
228.559	69.75
228.793	47.75
229.027	73.75
229.262	51.75
229.496	77.75
229.73	65.75
229.964	62.75
230.199	64.75
230.433	73.75
230.667	91.75
230.901	92.75
231.136	72.75
231.37	77.75
231.604	68.75
231.838	80.75
232.072	92.75
232.306	96.75
232.541	85.75
232.775	93.75
233.009	91.75
233.243	73.75
233.477	84.75
233.711	82.75
233.945	78.75
234.179	69.75
234.413	85.75
234.647	84.75
234.881	73.75
235.115	83.75
235.349	96.75
235.583	96.75
235.817	75.75
236.051	72.75
236.285	83.75
236.519	77.75
236.753	80.75
236.987	88.75
237.221	76.75
237.455	71.75
237.689	87.75
237.922	87.75
238.156	76.75
238.39	86.75
238.624	71.75
238.858	71.75
239.091	72.75
239.325	76.75
239.559	80.75
239.793	89.75
240.027	83.75
240.26	84.75
240.494	83.75
240.728	87.75
240.961	81.75
241.195	85.75
241.429	70.75
241.662	84.75
241.896	77.75
242.13	79.75
242.363	78.75
242.597	98.75
242.83	69.75
243.064	75.75
243.298	83.75
243.531	72.75
243.765	75.75
243.998	85.75
244.232	87.75
244.465	73.75
244.699	82.75
244.932	87.75
245.166	74.75
245.399	66.75
245.633	74.75
245.866	65.75
246.099	69.75
246.333	71.75
246.566	87.75
246.8	70.75
247.033	87.75
247.266	80.75
247.5	65.75
247.733	90.75
247.966	83.75
248.2	81.75
248.433	77.75
248.666	97.75
248.899	75.75
249.133	84.75
249.366	67.75
249.599	79.75
249.832	86.75
250.066	67.75
250.299	80.75
250.532	79.75
250.765	74.75
250.998	78.75
251.231	75.75
251.465	81.75
251.698	85.75
251.931	83.75
252.164	79.75
252.397	77.75
252.63	72.75
252.863	77.75
253.096	89.75
253.329	87.75
253.562	78.75
253.795	91.75
254.028	80.75
254.261	94.75
254.494	80.75
254.727	66.75
254.96	60.75
255.193	79.75
255.426	76.75
255.659	95.75
255.892	74.75
256.124	77.75
256.357	87.75
256.59	88.75
256.823	88.75
257.056	84.75
257.289	83.75
257.521	86.75
257.754	102.75
257.987	79.75
258.22	79.75
258.452	93.75
258.685	69.75
258.918	82.75
259.151	81.75
259.383	89.75
259.616	77.75
259.849	69.75
260.081	88.75
260.314	77.75
260.547	87.75
260.779	89.75
261.012	89.75
261.244	80.75
261.477	82.75
261.71	79.75
261.942	78.75
262.175	83.75
262.407	90.75
262.64	79.75
262.872	87.75
263.105	86.75
263.337	78.75
263.57	87.75
263.802	91.75
264.035	68.75
264.267	73.75
264.499	80.75
264.732	88.75
264.964	84.75
265.197	88.75
265.429	85.75
265.661	80.75
265.894	85.75
266.126	78.75
266.358	85.75
266.591	85.75
266.823	78.75
267.055	67.75
267.287	85.75
267.52	75.75
267.752	87.75
267.984	86.75
268.216	85.75
268.448	85.75
268.681	81.75
268.913	95.75
269.145	76.75
269.377	85.75
269.609	83.75
269.841	77.75
270.073	76.75
270.306	69.75
270.538	88.75
270.77	68.75
271.002	85.75
271.234	81.75
271.466	78.75
271.698	97.75
271.93	82.75
272.162	81.75
272.394	83.75
272.626	86.75
272.858	76.75
273.09	73.75
273.322	93.75
273.553	92.75
273.785	93.75
274.017	101.75
274.249	71.75
274.481	75.75
274.713	84.75
274.945	92.75
275.176	84.75
275.408	87.75
275.64	80.75
275.872	81.75
276.104	92.75
276.335	102.75
276.567	71.75
276.799	75.75
277.031	89.75
277.262	88.75
277.494	85.75
277.726	87.75
277.957	90.75
278.189	76.75
278.421	78.75
278.652	97.75
278.884	87.75
279.115	93.75
279.347	95.75
279.579	82.75
279.81	80.75
280.042	82.75
280.273	91.75
280.505	89.75
280.736	84.75
280.968	90.75
281.199	93.75
281.431	72.75
281.662	86.75
281.894	87.75
282.125	94.75
282.356	82.75
282.588	86.75
282.819	90.75
283.051	92.75
283.282	87.75
283.513	95.75
283.745	70.75
283.976	75.75
284.207	76.75
284.439	92.75
284.67	93.75
284.901	89.75
285.132	89.75
285.364	93.75
285.595	88.75
285.826	84.75
286.057	81.75
286.288	104.75
286.52	91.75
286.751	88.75
286.982	87.75
287.213	82.75
287.444	81.75
287.675	65.75
287.906	80.75
288.138	80.75
288.369	90.75
288.6	80.75
288.831	77.75
289.062	88.75
289.293	89.75
289.524	90.75
289.755	88.75
289.986	83.75
290.217	84.75
290.448	90.75
290.679	89.75
290.91	92.75
291.141	76.75
291.371	93.75
291.602	77.75
291.833	108.75
292.064	80.75
292.295	87.75
292.526	74.75
292.757	96.75
292.987	84.75
293.218	95.75
293.449	77.75
293.68	91.75
293.91	75.75
294.141	89.75
294.372	90.75
294.603	88.75
294.833	88.75
295.064	100.75
295.295	95.75
295.525	89.75
295.756	105.75
295.987	79.75
296.217	98.75
296.448	88.75
296.679	82.75
296.909	90.75
297.14	83.75
297.37	93.75
297.601	86.75
297.831	90.75
298.062	91.75
298.292	81.75
298.523	76.75
298.753	96.75
298.984	91.75
299.214	87.75
299.445	85.75
299.675	99.75
299.905	79.75
300.136	91.75
300.366	80.75
300.597	82.75
300.827	82.75
301.057	78.75
301.288	85.75
301.518	86.75
301.748	79.75
301.979	93.75
302.209	86.75
302.439	74.75
302.669	86.75
302.9	93.75
303.13	89.75
303.36	90.75
303.59	85.75
303.82	84.75
304.051	104.75
304.281	90.75
304.511	92.75
304.741	77.75
304.971	87.75
305.201	90.75
305.431	90.75
305.661	75.75
305.891	92.75
306.121	78.75
306.352	97.75
306.582	84.75
306.812	90.75
307.042	80.75
307.272	88.75
307.502	87.75
307.731	90.75
307.961	71.75
308.191	96.75
308.421	78.75
308.651	91.75
308.881	93.75
309.111	74.75
309.341	85.75
309.571	82.75
309.8	76.75
310.03	79.75
310.26	86.75
310.49	82.75
310.72	91.75
310.949	89.75
311.179	86.75
311.409	87.75
311.639	81.75
311.868	93.75
312.098	92.75
312.328	87.75
312.557	81.75
312.787	84.75
313.017	89.75
313.246	80.75
313.476	82.75
313.706	80.75
313.935	85.75
314.165	83.75
314.394	89.75
314.624	86.75
314.853	91.75
315.083	87.75
315.312	90.75
315.542	83.75
315.771	83.75
316.001	80.75
316.23	76.75
316.46	83.75
316.689	75.75
316.919	103.75
317.148	92.75
317.377	84.75
317.607	84.75
317.836	85.75
318.065	91.75
318.295	85.75
318.524	100.75
318.753	87.75
318.983	88.75
319.212	103.75
319.441	88.75
319.67	91.75
319.9	85.75
320.129	83.75
320.358	88.75
320.587	80.75
320.816	83.75
321.046	83.75
321.275	91.75
321.504	96.75
321.733	87.75
321.962	90.75
322.191	86.75
322.42	87.75
322.649	87.75
322.878	86.75
323.108	86.75
323.337	80.75
323.566	92.75
323.795	84.75
324.024	83.75
324.253	72.75
324.482	90.75
324.71	92.75
324.939	88.75
325.168	99.75
325.397	75.75
325.626	69.75
325.855	94.75
326.084	89.75
326.313	87.75
326.542	73.75
326.77	88.75
326.999	84.75
327.228	92.75
327.457	77.75
327.686	75.75
327.914	89.75
328.143	89.75
328.372	74.75
328.6	84.75
328.829	83.75
329.058	80.75
329.287	89.75
329.515	68.75
329.744	75.75
329.972	86.75
330.201	84.75
330.43	87.75
330.658	86.75
330.887	76.75
331.115	90.75
331.344	86.75
331.572	85.75
331.801	89.75
332.03	91.75
332.258	89.75
332.486	99.75
332.715	81.75
332.943	72.75
333.172	86.75
333.4	77.75
333.629	79.75
333.857	76.75
334.085	71.75
334.314	73.75
334.542	104.75
334.771	69.75
334.999	88.75
335.227	99.75
335.455	87.75
335.684	95.75
335.912	99.75
336.14	87.75
336.369	85.75
336.597	81.75
336.825	76.75
337.053	80.75
337.281	102.75
337.51	92.75
337.738	95.75
337.966	67.75
338.194	81.75
338.422	95.75
338.65	94.75
338.878	89.75
339.106	79.75
339.334	92.75
339.562	89.75
339.79	92.75
340.018	85.75
340.246	104.75
340.474	80.75
340.702	72.75
340.93	79.75
341.158	95.75
341.386	79.75
341.614	89.75
341.842	83.75
342.07	79.75
342.298	76.75
342.526	94.75
342.754	91.75
342.981	100.75
343.209	84.75
343.437	72.75
343.665	75.75
343.893	81.75
344.12	96.75
344.348	88.75
344.576	90.75
344.804	69.75
345.031	70.75
345.259	97.75
345.487	92.75
345.714	86.75
345.942	89.75
346.17	101.75
346.397	96.75
346.625	88.75
346.853	80.75
347.08	77.75
347.308	98.75
347.535	96.75
347.763	92.75
347.99	76.75
348.218	80.75
348.445	88.75
348.673	77.75
348.9	95.75
349.128	93.75
349.355	80.75
349.583	96.75
349.81	81.75
350.037	81.75
350.265	88.75
350.492	83.75
350.72	77.75
350.947	84.75
351.174	75.75
351.402	77.75
351.629	85.75
351.856	91.75
352.083	67.75
352.311	78.75
352.538	87.75
352.765	92.75
352.992	95.75
353.22	90.75
353.447	97.75
353.674	95.75
353.901	82.75
354.128	78.75
354.355	89.75
354.583	82.75
354.81	87.75
355.037	81.75
355.264	94.75
355.491	98.75
355.718	88.75
355.945	87.75
356.172	80.75
356.399	88.75
356.626	73.75
356.853	82.75
357.08	81.75
357.307	84.75
357.534	80.75
357.761	89.75
357.988	84.75
358.215	84.75
358.441	90.75
358.668	75.75
358.895	84.75
359.122	81.75
359.349	83.75
359.576	92.75
359.802	81.75
360.029	90.75
360.256	91.75
360.483	84.75
360.709	75.75
360.936	88.75
361.163	91.75
361.39	98.75
361.616	69.75
361.843	85.75
362.07	82.75
362.296	93.75
362.523	86.75
362.749	76.75
362.976	79.75
363.203	93.75
363.429	84.75
363.656	81.75
363.882	83.75
364.109	84.75
364.335	80.75
364.562	76.75
364.788	86.75
365.015	89.75
365.241	86.75
365.468	85.75
365.694	86.75
365.92	88.75
366.147	93.75
366.373	86.75
366.599	90.75
366.826	88.75
367.052	77.75
367.278	82.75
367.505	81.75
367.731	67.75
367.957	76.75
368.184	74.75
368.41	83.75
368.636	79.75
368.862	89.75
369.089	90.75
369.315	87.75
369.541	67.75
369.767	91.75
369.993	83.75
370.219	75.75
370.445	83.75
370.672	81.75
370.898	83.75
371.124	67.75
371.35	75.75
371.576	87.75
371.802	89.75
372.028	65.75
372.254	85.75
372.48	75.75
372.706	90.75
372.932	88.75
373.158	78.75
373.384	93.75
373.61	94.75
373.835	90.75
374.061	84.75
374.287	86.75
374.513	77.75
374.739	68.75
374.965	85.75
375.191	67.75
375.416	81.75
375.642	91.75
375.868	72.75
376.094	91.75
376.319	77.75
376.545	85.75
376.771	75.75
376.997	94.75
377.222	77.75
377.448	90.75
377.674	85.75
377.899	87.75
378.125	78.75
378.35	91.75
378.576	81.75
378.802	81.75
379.027	83.75
379.253	72.75
379.478	79.75
379.704	88.75
379.929	71.75
380.155	104.75
380.38	74.75
380.606	80.75
380.831	89.75
381.057	95.75
381.282	84.75
381.507	79.75
381.733	72.75
381.958	75.75
382.184	88.75
382.409	73.75
382.634	80.75
382.86	90.75
383.085	96.75
383.31	99.75
383.535	86.75
383.761	76.75
383.986	72.75
384.211	87.75
384.436	84.75
384.662	79.75
384.887	74.75
385.112	71.75
385.337	83.75
385.562	84.75
385.787	88.75
386.013	92.75
386.238	92.75
386.463	78.75
386.688	89.75
386.913	87.75
387.138	93.75
387.363	80.75
387.588	78.75
387.813	72.75
388.038	80.75
388.263	68.75
388.488	89.75
388.713	80.75
388.938	73.75
389.163	84.75
389.387	75.75
389.612	88.75
389.837	97.75
390.062	96.75
390.287	77.75
390.512	82.75
390.736	88.75
390.961	73.75
391.186	91.75
391.411	90.75
391.636	83.75
391.86	89.75
392.085	94.75
392.31	80.75
392.534	80.75
392.759	79.75
392.984	97.75
393.208	92.75
393.433	79.75
393.658	81.75
393.882	90.75
394.107	85.75
394.331	88.75
394.556	97.75
394.78	93.75
395.005	85.75
395.229	93.75
395.454	88.75
395.678	84.75
395.903	84.75
396.127	72.75
396.352	88.75
396.576	79.75
396.801	97.75
397.025	91.75
397.249	93.75
397.474	90.75
397.698	100.75
397.922	81.75
398.147	82.75
398.371	93.75
398.595	81.75
398.82	96.75
399.044	80.75
399.268	82.75
399.492	84.75
399.717	97.75
399.941	94.75
400.165	88.75
400.389	94.75
400.613	80.75
400.837	90.75
401.062	102.75
401.286	89.75
401.51	91.75
401.734	83.75
401.958	96.75
402.182	93.75
402.406	77.75
402.63	95.75
402.854	83.75
403.078	84.75
403.302	90.75
403.526	87.75
403.75	88.75
403.974	93.75
404.198	91.75
404.422	84.75
404.645	87.75
404.869	96.75
405.093	96.75
405.317	86.75
405.541	97.75
405.765	93.75
405.988	86.75
406.212	80.75
406.436	79.75
406.66	96.75
406.883	90.75
407.107	99.75
407.331	98.75
407.555	89.75
407.778	87.75
408.002	103.75
408.226	86.75
408.449	76.75
408.673	80.75
408.896	87.75
409.12	93.75
409.344	86.75
409.567	92.75
409.791	97.75
410.014	99.75
410.238	92.75
410.461	85.75
410.685	85.75
410.908	82.75
411.132	98.75
411.355	73.75
411.578	92.75
411.802	85.75
412.025	91.75
412.249	90.75
412.472	96.75
412.695	88.75
412.919	76.75
413.142	77.75
413.365	89.75
413.589	96.75
413.812	102.75
414.035	98.75
414.258	100.75
414.482	94.75
414.705	85.75
414.928	88.75
415.151	89.75
415.374	71.75
415.597	90.75
415.821	99.75
416.044	82.75
416.267	81.75
416.49	91.75
416.713	83.75
416.936	92.75
417.159	84.75
417.382	81.75
417.605	81.75
417.828	94.75
418.051	93.75
418.274	114.75
418.497	109.75
418.72	97.75
418.943	98.75
419.166	83.75
419.389	97.75
419.611	106.75
419.834	85.75
420.057	96.75
420.28	99.75
420.503	94.75
420.726	101.75
420.948	95.75
421.171	99.75
421.394	91.75
421.617	98.75
421.839	105.75
422.062	100.75
422.285	88.75
422.507	96.75
422.73	91.75
422.953	76.75
423.175	98.75
423.398	92.75
423.621	86.75
423.843	79.75
424.066	87.75
424.288	97.75
424.511	99.75
424.733	104.75
424.956	98.75
425.178	102.75
425.401	81.75
425.623	102.75
425.846	110.75
426.068	90.75
426.291	84.75
426.513	96.75
426.735	108.75
426.958	89.75
427.18	96.75
427.402	93.75
427.625	98.75
427.847	92.75
428.069	98.75
428.292	99.75
428.514	92.75
428.736	95.75
428.958	89.75
429.181	85.75
429.403	84.75
429.625	88.75
429.847	107.75
430.069	86.75
430.292	108.75
430.514	95.75
430.736	101.75
430.958	101.75
431.18	100.75
431.402	90.75
431.624	101.75
431.846	91.75
432.068	99.75
432.29	79.75
432.512	73.75
432.734	91.75
432.956	81.75
433.178	105.75
433.4	87.75
433.622	98.75
433.844	79.75
434.066	99.75
434.287	91.75
434.509	73.75
434.731	85.75
434.953	85.75
435.175	88.75
435.397	83.75
435.618	85.75
435.84	86.75
436.062	89.75
436.284	100.75
436.505	98.75
436.727	86.75
436.949	84.75
437.17	97.75
437.392	104.75
437.614	98.75
437.835	91.75
438.057	97.75
438.278	94.75
438.5	86.75
438.721	93.75
438.943	95.75
439.165	103.75
439.386	95.75
439.608	103.75
439.829	88.75
440.05	103.75
440.272	98.75
440.493	95.75
440.715	102.75
440.936	96.75
441.158	103.75
441.379	78.75
441.6	89.75
441.822	102.75
442.043	114.75
442.264	97.75
442.486	83.75
442.707	91.75
442.928	78.75
443.149	96.75
443.371	90.75
443.592	96.75
443.813	96.75
444.034	90.75
444.255	82.75
444.476	85.75
444.698	111.75
444.919	99.75
445.14	217.75
445.361	160.75
445.582	96.75
445.803	101.75
446.024	100.75
446.245	100.75
446.466	103.75
446.687	92.75
446.908	100.75
447.129	106.75
447.35	97.75
447.571	87.75
447.792	96.75
448.013	100.75
448.234	85.75
448.455	82.75
448.675	97.75
448.896	90.75
449.117	97.75
449.338	103.75
449.559	100.75
449.779	87.75
450	98.75
450.221	81.75
450.442	87.75
450.662	76.75
450.883	92.75
451.104	94.75
451.324	91.75
451.545	91.75
451.766	95.75
451.986	87.75
452.207	100.75
452.428	97.75
452.648	108.75
452.869	87.75
453.089	84.75
453.31	94.75
453.53	96.75
453.751	93.75
453.971	83.75
454.192	83.75
454.412	89.75
454.633	80.75
454.853	92.75
455.073	99.75
455.294	85.75
455.514	88.75
455.734	91.75
455.955	100.75
456.175	89.75
456.395	75.75
456.616	88.75
456.836	90.75
457.056	82.75
457.276	88.75
457.497	90.75
457.717	95.75
457.937	92.75
458.157	83.75
458.377	100.75
458.598	76.75
458.818	75.75
459.038	76.75
459.258	92.75
459.478	73.75
459.698	80.75
459.918	83.75
460.138	81.75
460.358	106.75
460.578	81.75
460.798	82.75
461.018	82.75
461.238	86.75
461.458	90.75
461.678	98.75
461.898	78.75
462.118	77.75
462.338	79.75
462.558	81.75
462.777	78.75
462.997	91.75
463.217	87.75
463.437	90.75
463.657	81.75
463.876	84.75
464.096	91.75
464.316	96.75
464.536	104.75
464.755	92.75
464.975	85.75
465.195	89.75
465.414	103.75
465.634	75.75
465.854	83.75
466.073	92.75
466.293	96.75
466.512	98.75
466.732	98.75
466.951	90.75
467.171	94.75
467.391	97.75
467.61	92.75
467.829	88.75
468.049	86.75
468.268	85.75
468.488	98.75
468.707	85.75
468.927	73.75
469.146	97.75
469.365	108.75
469.585	92.75
469.804	84.75
470.023	90.75
470.243	112.75
470.462	95.75
470.681	102.75
470.901	96.75
471.12	95.75
471.339	95.75
471.558	90.75
471.777	101.75
471.997	89.75
472.216	94.75
472.435	93.75
472.654	90.75
472.873	92.75
473.092	76.75
473.311	97.75
473.53	98.75
473.749	111.75
473.968	93.75
474.187	100.75
474.406	103.75
474.625	72.75
474.844	92.75
475.063	98.75
475.282	98.75
475.501	93.75
475.72	95.75
475.939	91.75
476.158	95.75
476.377	94.75
476.596	98.75
476.814	87.75
477.033	85.75
477.252	90.75
477.471	84.75
477.69	91.75
477.908	86.75
478.127	85.75
478.346	93.75
478.564	89.75
478.783	91.75
479.002	111.75
479.22	88.75
479.439	104.75
479.658	96.75
479.876	100.75
480.095	73.75
480.313	77.75
480.532	86.75
480.751	84.75
480.969	84.75
481.188	86.75
481.406	89.75
481.624	84.75
481.843	93.75
482.061	96.75
482.28	83.75
482.498	89.75
482.717	76.75
482.935	85.75
483.153	96.75
483.372	98.75
483.59	87.75
483.808	98.75
484.027	96.75
484.245	107.75
484.463	101.75
484.681	90.75
484.9	98.75
485.118	95.75
485.336	95.75
485.554	88.75
485.772	88.75
485.99	87.75
486.209	93.75
486.427	98.75
486.645	92.75
486.863	92.75
487.081	90.75
487.299	98.75
487.517	93.75
487.735	105.75
487.953	93.75
488.171	102.75
488.389	116.75
488.607	116.75
488.825	100.75
489.043	84.75
489.261	105.75
489.479	91.75
489.696	100.75
489.914	107.75
490.132	106.75
490.35	91.75
490.568	100.75
490.786	105.75
491.003	115.75
491.221	100.75
491.439	117.75
491.657	125.75
491.874	111.75
492.092	114.75
492.31	127.75
492.527	123.75
492.745	108.75
492.963	118.75
493.18	99.75
493.398	120.75
493.615	105.75
493.833	103.75
494.05	104.75
494.268	94.75
494.485	107.75
494.703	104.75
494.92	114.75
495.138	110.75
495.355	127.75
495.573	97.75
495.79	99.75
496.008	105.75
496.225	102.75
496.442	111.75
496.66	110.75
496.877	97.75
497.094	108.75
497.312	111.75
497.529	103.75
497.746	93.75
497.963	105.75
498.181	99.75
498.398	93.75
498.615	90.75
498.832	94.75
499.049	79.75
499.267	87.75
499.484	86.75
499.701	97.75
499.918	100.75
500.135	96.75
500.352	105.75
500.569	101.75
500.786	88.75
501.003	98.75
501.22	99.75
501.437	93.75
501.654	91.75
501.871	98.75
502.088	91.75
502.305	100.75
502.522	96.75
502.739	97.75
502.956	96.75
503.172	91.75
503.389	100.75
503.606	98.75
503.823	85.75
504.04	103.75
504.256	92.75
504.473	95.75
504.69	91.75
504.907	101.75
505.123	99.75
505.34	88.75
505.557	84.75
505.773	109.75
505.99	97.75
506.207	84.75
506.423	93.75
506.64	93.75
506.856	103.75
507.073	96.75
507.289	99.75
507.506	96.75
507.722	92.75
507.939	80.75
508.155	88.75
508.372	87.75
508.588	104.75
508.805	100.75
509.021	85.75
509.238	83.75
509.454	96.75
509.67	80.75
509.887	88.75
510.103	84.75
510.319	92.75
510.536	88.75
510.752	87.75
510.968	89.75
511.184	73.75
511.401	81.75
511.617	91.75
511.833	74.75
512.049	79.75
512.265	83.75
512.481	82.75
512.698	76.75
512.914	95.75
513.13	83.75
513.346	89.75
513.562	99.75
513.778	75.75
513.994	87.75
514.21	97.75
514.426	77.75
514.642	88.75
514.858	84.75
515.074	67.75
515.29	86.75
515.506	84.75
515.721	88.75
515.937	84.75
516.153	77.75
516.369	68.75
516.585	91.75
516.801	85.75
517.016	84.75
517.232	83.75
517.448	87.75
517.664	92.75
