Data from Location5.07152019.Energy5.Lamp.07192019.3%Agarose_HRD10591_16-04-59-629.txt Node
Date: Fri Jul 19 16:04:59 EDT 2019
User: cochatt
Spectrometer: HR+D1059
Trigger mode: 1
Integration Time (sec): 1.000000E-1
Scans to average: 1
Electric dark correction enabled: true
Nonlinearity correction enabled: false
Boxcar width: 0
XAxis mode: Wavelengths
Number of Pixels in Spectrum: 2048
>>>>>Begin Spectral Data<<<<<
223.165	-20.31
223.4	-20.31
223.635	-20.31
223.869	-23.31
224.104	-26.31
224.338	-18.31
224.573	1.69
224.808	-17.31
225.042	-18.31
225.277	0.69
225.511	-7.31
225.746	10.69
225.98	21.69
226.215	5.69
226.449	18.69
226.683	22.69
226.918	25.69
227.152	23.69
227.387	36.69
227.621	41.69
227.856	49.69
228.09	40.69
228.324	45.69
228.559	59.69
228.793	63.69
229.027	53.69
229.262	52.69
229.496	63.69
229.73	76.69
229.964	69.69
230.199	76.69
230.433	75.69
230.667	79.69
230.901	84.69
231.136	85.69
231.37	80.69
231.604	80.69
231.838	69.69
232.072	73.69
232.306	81.69
232.541	84.69
232.775	81.69
233.009	71.69
233.243	69.69
233.477	83.69
233.711	83.69
233.945	82.69
234.179	81.69
234.413	90.69
234.647	75.69
234.881	78.69
235.115	72.69
235.349	72.69
235.583	86.69
235.817	73.69
236.051	91.69
236.285	79.69
236.519	77.69
236.753	72.69
236.987	81.69
237.221	77.69
237.455	77.69
237.689	92.69
237.922	79.69
238.156	71.69
238.39	71.69
238.624	62.69
238.858	94.69
239.091	70.69
239.325	86.69
239.559	74.69
239.793	78.69
240.027	93.69
240.26	73.69
240.494	71.69
240.728	77.69
240.961	77.69
241.195	75.69
241.429	81.69
241.662	79.69
241.896	76.69
242.13	64.69
242.363	75.69
242.597	77.69
242.83	72.69
243.064	75.69
243.298	70.69
243.531	76.69
243.765	75.69
243.998	72.69
244.232	68.69
244.465	66.69
244.699	77.69
244.932	84.69
245.166	69.69
245.399	70.69
245.633	82.69
245.866	77.69
246.099	81.69
246.333	85.69
246.566	77.69
246.8	85.69
247.033	84.69
247.266	77.69
247.5	81.69
247.733	70.69
247.966	69.69
248.2	71.69
248.433	75.69
248.666	70.69
248.899	72.69
249.133	67.69
249.366	71.69
249.599	82.69
249.832	78.69
250.066	72.69
250.299	69.69
250.532	78.69
250.765	78.69
250.998	77.69
251.231	78.69
251.465	75.69
251.698	83.69
251.931	76.69
252.164	79.69
252.397	85.69
252.63	69.69
252.863	87.69
253.096	85.69
253.329	78.69
253.562	81.69
253.795	87.69
254.028	79.69
254.261	88.69
254.494	96.69
254.727	91.69
254.96	73.69
255.193	90.69
255.426	86.69
255.659	75.69
255.892	76.69
256.124	72.69
256.357	77.69
256.59	77.69
256.823	79.69
257.056	96.69
257.289	79.69
257.521	76.69
257.754	77.69
257.987	69.69
258.22	80.69
258.452	86.69
258.685	74.69
258.918	77.69
259.151	85.69
259.383	82.69
259.616	77.69
259.849	79.69
260.081	78.69
260.314	82.69
260.547	91.69
260.779	100.69
261.012	86.69
261.244	88.69
261.477	87.69
261.71	79.69
261.942	79.69
262.175	86.69
262.407	78.69
262.64	85.69
262.872	73.69
263.105	87.69
263.337	73.69
263.57	89.69
263.802	93.69
264.035	64.69
264.267	83.69
264.499	71.69
264.732	98.69
264.964	80.69
265.197	82.69
265.429	81.69
265.661	91.69
265.894	86.69
266.126	75.69
266.358	72.69
266.591	84.69
266.823	62.69
267.055	75.69
267.287	78.69
267.52	103.69
267.752	85.69
267.984	74.69
268.216	91.69
268.448	92.69
268.681	68.69
268.913	79.69
269.145	81.69
269.377	83.69
269.609	88.69
269.841	81.69
270.073	87.69
270.306	91.69
270.538	73.69
270.77	90.69
271.002	85.69
271.234	82.69
271.466	98.69
271.698	85.69
271.93	71.69
272.162	86.69
272.394	89.69
272.626	86.69
272.858	71.69
273.09	72.69
273.322	61.69
273.553	96.69
273.785	76.69
274.017	88.69
274.249	95.69
274.481	75.69
274.713	77.69
274.945	76.69
275.176	92.69
275.408	96.69
275.64	93.69
275.872	83.69
276.104	89.69
276.335	83.69
276.567	81.69
276.799	95.69
277.031	92.69
277.262	82.69
277.494	81.69
277.726	75.69
277.957	71.69
278.189	84.69
278.421	75.69
278.652	89.69
278.884	69.69
279.115	100.69
279.347	88.69
279.579	106.69
279.81	81.69
280.042	94.69
280.273	88.69
280.505	86.69
280.736	82.69
280.968	86.69
281.199	80.69
281.431	85.69
281.662	86.69
281.894	87.69
282.125	81.69
282.356	91.69
282.588	85.69
282.819	95.69
283.051	82.69
283.282	85.69
283.513	104.69
283.745	88.69
283.976	89.69
284.207	84.69
284.439	89.69
284.67	106.69
284.901	95.69
285.132	107.69
285.364	74.69
285.595	93.69
285.826	97.69
286.057	90.69
286.288	102.69
286.52	76.69
286.751	94.69
286.982	94.69
287.213	83.69
287.444	90.69
287.675	91.69
287.906	68.69
288.138	68.69
288.369	84.69
288.6	97.69
288.831	79.69
289.062	91.69
289.293	59.69
289.524	85.69
289.755	83.69
289.986	92.69
290.217	78.69
290.448	71.69
290.679	93.69
290.91	93.69
291.141	79.69
291.371	87.69
291.602	86.69
291.833	90.69
292.064	99.69
292.295	88.69
292.526	79.69
292.757	73.69
292.987	81.69
293.218	75.69
293.449	82.69
293.68	99.69
293.91	98.69
294.141	97.69
294.372	88.69
294.603	90.69
294.833	95.69
295.064	85.69
295.295	91.69
295.525	93.69
295.756	82.69
295.987	78.69
296.217	93.69
296.448	89.69
296.679	81.69
296.909	82.69
297.14	94.69
297.37	92.69
297.601	85.69
297.831	92.69
298.062	91.69
298.292	92.69
298.523	74.69
298.753	83.69
298.984	86.69
299.214	91.69
299.445	81.69
299.675	86.69
299.905	85.69
300.136	82.69
300.366	95.69
300.597	83.69
300.827	97.69
301.057	86.69
301.288	95.69
301.518	90.69
301.748	85.69
301.979	91.69
302.209	87.69
302.439	73.69
302.669	96.69
302.9	91.69
303.13	88.69
303.36	93.69
303.59	92.69
303.82	96.69
304.051	100.69
304.281	103.69
304.511	81.69
304.741	83.69
304.971	92.69
305.201	84.69
305.431	83.69
305.661	96.69
305.891	95.69
306.121	74.69
306.352	87.69
306.582	84.69
306.812	76.69
307.042	102.69
307.272	87.69
307.502	87.69
307.731	94.69
307.961	79.69
308.191	88.69
308.421	102.69
308.651	81.69
308.881	93.69
309.111	83.69
309.341	91.69
309.571	93.69
309.8	72.69
310.03	83.69
310.26	81.69
310.49	84.69
310.72	92.69
310.949	76.69
311.179	99.69
311.409	97.69
311.639	93.69
311.868	93.69
312.098	69.69
312.328	77.69
312.557	89.69
312.787	91.69
313.017	97.69
313.246	90.69
313.476	91.69
313.706	81.69
313.935	63.69
314.165	89.69
314.394	76.69
314.624	90.69
314.853	64.69
315.083	87.69
315.312	81.69
315.542	96.69
315.771	78.69
316.001	84.69
316.23	92.69
316.46	94.69
316.689	102.69
316.919	98.69
317.148	101.69
317.377	92.69
317.607	83.69
317.836	95.69
318.065	87.69
318.295	86.69
318.524	96.69
318.753	86.69
318.983	96.69
319.212	95.69
319.441	85.69
319.67	76.69
319.9	95.69
320.129	91.69
320.358	99.69
320.587	80.69
320.816	83.69
321.046	81.69
321.275	75.69
321.504	71.69
321.733	95.69
321.962	78.69
322.191	88.69
322.42	92.69
322.649	84.69
322.878	87.69
323.108	91.69
323.337	96.69
323.566	95.69
323.795	93.69
324.024	84.69
324.253	85.69
324.482	93.69
324.71	77.69
324.939	97.69
325.168	100.69
325.397	89.69
325.626	91.69
325.855	85.69
326.084	90.69
326.313	104.69
326.542	86.69
326.77	84.69
326.999	80.69
327.228	84.69
327.457	92.69
327.686	78.69
327.914	88.69
328.143	84.69
328.372	97.69
328.6	86.69
328.829	81.69
329.058	92.69
329.287	88.69
329.515	96.69
329.744	99.69
329.972	85.69
330.201	77.69
330.43	90.69
330.658	80.69
330.887	68.69
331.115	86.69
331.344	82.69
331.572	86.69
331.801	94.69
332.03	95.69
332.258	93.69
332.486	85.69
332.715	87.69
332.943	99.69
333.172	84.69
333.4	95.69
333.629	118.69
333.857	84.69
334.085	81.69
334.314	96.69
334.542	86.69
334.771	87.69
334.999	75.69
335.227	78.69
335.455	92.69
335.684	102.69
335.912	91.69
336.14	93.69
336.369	102.69
336.597	100.69
336.825	97.69
337.053	96.69
337.281	89.69
337.51	83.69
337.738	96.69
337.966	91.69
338.194	89.69
338.422	74.69
338.65	95.69
338.878	89.69
339.106	90.69
339.334	96.69
339.562	91.69
339.79	88.69
340.018	94.69
340.246	90.69
340.474	82.69
340.702	75.69
340.93	72.69
341.158	87.69
341.386	96.69
341.614	87.69
341.842	99.69
342.07	90.69
342.298	88.69
342.526	92.69
342.754	86.69
342.981	100.69
343.209	73.69
343.437	97.69
343.665	95.69
343.893	91.69
344.12	82.69
344.348	81.69
344.576	75.69
344.804	98.69
345.031	92.69
345.259	94.69
345.487	72.69
345.714	84.69
345.942	72.69
346.17	89.69
346.397	89.69
346.625	93.69
346.853	81.69
347.08	91.69
347.308	83.69
347.535	91.69
347.763	96.69
347.99	77.69
348.218	84.69
348.445	94.69
348.673	80.69
348.9	99.69
349.128	98.69
349.355	95.69
349.583	95.69
349.81	85.69
350.037	79.69
350.265	99.69
350.492	88.69
350.72	85.69
350.947	92.69
351.174	97.69
351.402	80.69
351.629	94.69
351.856	92.69
352.083	88.69
352.311	91.69
352.538	89.69
352.765	73.69
352.992	96.69
353.22	109.69
353.447	88.69
353.674	73.69
353.901	86.69
354.128	91.69
354.355	83.69
354.583	77.69
354.81	103.69
355.037	83.69
355.264	108.69
355.491	71.69
355.718	97.69
355.945	85.69
356.172	85.69
356.399	95.69
356.626	85.69
356.853	85.69
357.08	90.69
357.307	87.69
357.534	79.69
357.761	87.69
357.988	87.69
358.215	97.69
358.441	78.69
358.668	93.69
358.895	97.69
359.122	95.69
359.349	92.69
359.576	85.69
359.802	92.69
360.029	85.69
360.256	77.69
360.483	82.69
360.709	81.69
360.936	95.69
361.163	95.69
361.39	95.69
361.616	94.69
361.843	84.69
362.07	82.69
362.296	88.69
362.523	89.69
362.749	87.69
362.976	95.69
363.203	81.69
363.429	91.69
363.656	84.69
363.882	83.69
364.109	95.69
364.335	87.69
364.562	80.69
364.788	97.69
365.015	87.69
365.241	97.69
365.468	97.69
365.694	73.69
365.92	90.69
366.147	97.69
366.373	93.69
366.599	79.69
366.826	80.69
367.052	79.69
367.278	90.69
367.505	83.69
367.731	91.69
367.957	84.69
368.184	72.69
368.41	89.69
368.636	86.69
368.862	82.69
369.089	87.69
369.315	79.69
369.541	100.69
369.767	110.69
369.993	82.69
370.219	80.69
370.445	80.69
370.672	67.69
370.898	81.69
371.124	92.69
371.35	91.69
371.576	73.69
371.802	91.69
372.028	80.69
372.254	91.69
372.48	95.69
372.706	94.69
372.932	96.69
373.158	82.69
373.384	76.69
373.61	87.69
373.835	81.69
374.061	89.69
374.287	88.69
374.513	74.69
374.739	94.69
374.965	86.69
375.191	78.69
375.416	86.69
375.642	91.69
375.868	91.69
376.094	92.69
376.319	90.69
376.545	72.69
376.771	95.69
376.997	92.69
377.222	87.69
377.448	99.69
377.674	78.69
377.899	73.69
378.125	99.69
378.35	83.69
378.576	97.69
378.802	81.69
379.027	81.69
379.253	99.69
379.478	93.69
379.704	78.69
379.929	92.69
380.155	95.69
380.38	99.69
380.606	84.69
380.831	96.69
381.057	89.69
381.282	79.69
381.507	89.69
381.733	93.69
381.958	91.69
382.184	98.69
382.409	96.69
382.634	89.69
382.86	88.69
383.085	86.69
383.31	94.69
383.535	90.69
383.761	82.69
383.986	85.69
384.211	83.69
384.436	97.69
384.662	93.69
384.887	81.69
385.112	78.69
385.337	78.69
385.562	93.69
385.787	85.69
386.013	95.69
386.238	82.69
386.463	91.69
386.688	87.69
386.913	96.69
387.138	90.69
387.363	85.69
387.588	100.69
387.813	102.69
388.038	91.69
388.263	85.69
388.488	92.69
388.713	91.69
388.938	89.69
389.163	92.69
389.387	101.69
389.612	91.69
389.837	86.69
390.062	94.69
390.287	87.69
390.512	84.69
390.736	82.69
390.961	90.69
391.186	94.69
391.411	99.69
391.636	94.69
391.86	88.69
392.085	88.69
392.31	100.69
392.534	92.69
392.759	86.69
392.984	85.69
393.208	76.69
393.433	93.69
393.658	87.69
393.882	85.69
394.107	71.69
394.331	98.69
394.556	92.69
394.78	100.69
395.005	72.69
395.229	93.69
395.454	96.69
395.678	85.69
395.903	92.69
396.127	85.69
396.352	96.69
396.576	83.69
396.801	88.69
397.025	85.69
397.249	84.69
397.474	97.69
397.698	86.69
397.922	100.69
398.147	98.69
398.371	96.69
398.595	101.69
398.82	84.69
399.044	78.69
399.268	85.69
399.492	100.69
399.717	108.69
399.941	107.69
400.165	107.69
400.389	90.69
400.613	89.69
400.837	85.69
401.062	83.69
401.286	82.69
401.51	90.69
401.734	63.69
401.958	105.69
402.182	86.69
402.406	100.69
402.63	91.69
402.854	103.69
403.078	98.69
403.302	108.69
403.526	101.69
403.75	96.69
403.974	95.69
404.198	85.69
404.422	107.69
404.645	101.69
404.869	104.69
405.093	91.69
405.317	93.69
405.541	86.69
405.765	85.69
405.988	93.69
406.212	104.69
406.436	105.69
406.66	95.69
406.883	107.69
407.107	103.69
407.331	97.69
407.555	105.69
407.778	94.69
408.002	104.69
408.226	99.69
408.449	89.69
408.673	88.69
408.896	87.69
409.12	95.69
409.344	92.69
409.567	95.69
409.791	94.69
410.014	91.69
410.238	84.69
410.461	94.69
410.685	99.69
410.908	81.69
411.132	88.69
411.355	106.69
411.578	99.69
411.802	95.69
412.025	89.69
412.249	93.69
412.472	94.69
412.695	78.69
412.919	78.69
413.142	99.69
413.365	87.69
413.589	104.69
413.812	106.69
414.035	86.69
414.258	90.69
414.482	96.69
414.705	94.69
414.928	95.69
415.151	85.69
415.374	99.69
415.597	86.69
415.821	93.69
416.044	85.69
416.267	84.69
416.49	90.69
416.713	81.69
416.936	82.69
417.159	107.69
417.382	88.69
417.605	94.69
417.828	107.69
418.051	85.69
418.274	100.69
418.497	92.69
418.72	95.69
418.943	105.69
419.166	84.69
419.389	100.69
419.611	84.69
419.834	94.69
420.057	83.69
420.28	87.69
420.503	107.69
420.726	88.69
420.948	79.69
421.171	88.69
421.394	96.69
421.617	84.69
421.839	95.69
422.062	95.69
422.285	90.69
422.507	101.69
422.73	96.69
422.953	92.69
423.175	102.69
423.398	97.69
423.621	102.69
423.843	93.69
424.066	113.69
424.288	92.69
424.511	71.69
424.733	88.69
424.956	89.69
425.178	99.69
425.401	99.69
425.623	99.69
425.846	90.69
426.068	78.69
426.291	85.69
426.513	78.69
426.735	92.69
426.958	93.69
427.18	104.69
427.402	100.69
427.625	87.69
427.847	92.69
428.069	71.69
428.292	97.69
428.514	76.69
428.736	89.69
428.958	87.69
429.181	86.69
429.403	92.69
429.625	80.69
429.847	73.69
430.069	84.69
430.292	100.69
430.514	83.69
430.736	86.69
430.958	101.69
431.18	95.69
431.402	80.69
431.624	82.69
431.846	83.69
432.068	87.69
432.29	91.69
432.512	77.69
432.734	85.69
432.956	92.69
433.178	101.69
433.4	93.69
433.622	84.69
433.844	93.69
434.066	90.69
434.287	102.69
434.509	82.69
434.731	90.69
434.953	81.69
435.175	79.69
435.397	80.69
435.618	92.69
435.84	73.69
436.062	90.69
436.284	81.69
436.505	89.69
436.727	103.69
436.949	98.69
437.17	89.69
437.392	85.69
437.614	84.69
437.835	83.69
438.057	89.69
438.278	89.69
438.5	80.69
438.721	104.69
438.943	99.69
439.165	99.69
439.386	91.69
439.608	97.69
439.829	83.69
440.05	92.69
440.272	91.69
440.493	93.69
440.715	87.69
440.936	82.69
441.158	95.69
441.379	85.69
441.6	95.69
441.822	80.69
442.043	93.69
442.264	94.69
442.486	101.69
442.707	91.69
442.928	91.69
443.149	90.69
443.371	91.69
443.592	90.69
443.813	77.69
444.034	83.69
444.255	91.69
444.476	98.69
444.698	99.69
444.919	91.69
445.14	217.69
445.361	141.69
445.582	86.69
445.803	82.69
446.024	82.69
446.245	94.69
446.466	83.69
446.687	92.69
446.908	93.69
447.129	95.69
447.35	78.69
447.571	87.69
447.792	71.69
448.013	84.69
448.234	108.69
448.455	92.69
448.675	82.69
448.896	79.69
449.117	88.69
449.338	95.69
449.559	92.69
449.779	95.69
450	89.69
450.221	86.69
450.442	78.69
450.662	95.69
450.883	92.69
451.104	84.69
451.324	88.69
451.545	101.69
451.766	85.69
451.986	91.69
452.207	93.69
452.428	90.69
452.648	74.69
452.869	92.69
453.089	102.69
453.31	82.69
453.53	87.69
453.751	82.69
453.971	91.69
454.192	85.69
454.412	80.69
454.633	89.69
454.853	99.69
455.073	89.69
455.294	84.69
455.514	92.69
455.734	71.69
455.955	100.69
456.175	84.69
456.395	83.69
456.616	98.69
456.836	93.69
457.056	85.69
457.276	77.69
457.497	93.69
457.717	80.69
457.937	82.69
458.157	83.69
458.377	95.69
458.598	86.69
458.818	91.69
459.038	72.69
459.258	88.69
459.478	80.69
459.698	93.69
459.918	90.69
460.138	96.69
460.358	83.69
460.578	88.69
460.798	83.69
461.018	103.69
461.238	96.69
461.458	78.69
461.678	82.69
461.898	98.69
462.118	87.69
462.338	113.69
462.558	101.69
462.777	82.69
462.997	93.69
463.217	111.69
463.437	107.69
463.657	114.69
463.876	88.69
464.096	93.69
464.316	97.69
464.536	97.69
464.755	101.69
464.975	91.69
465.195	93.69
465.414	91.69
465.634	87.69
465.854	80.69
466.073	101.69
466.293	93.69
466.512	81.69
466.732	93.69
466.951	83.69
467.171	81.69
467.391	76.69
467.61	85.69
467.829	91.69
468.049	81.69
468.268	97.69
468.488	79.69
468.707	98.69
468.927	85.69
469.146	99.69
469.365	94.69
469.585	83.69
469.804	96.69
470.023	91.69
470.243	92.69
470.462	82.69
470.681	80.69
470.901	89.69
471.12	97.69
471.339	97.69
471.558	101.69
471.777	87.69
471.997	106.69
472.216	89.69
472.435	96.69
472.654	94.69
472.873	82.69
473.092	78.69
473.311	88.69
473.53	98.69
473.749	89.69
473.968	88.69
474.187	83.69
474.406	88.69
474.625	98.69
474.844	93.69
475.063	93.69
475.282	92.69
475.501	94.69
475.72	100.69
475.939	89.69
476.158	100.69
476.377	94.69
476.596	89.69
476.814	77.69
477.033	88.69
477.252	86.69
477.471	89.69
477.69	107.69
477.908	111.69
478.127	96.69
478.346	101.69
478.564	97.69
478.783	104.69
479.002	96.69
479.22	92.69
479.439	84.69
479.658	117.69
479.876	95.69
480.095	111.69
480.313	92.69
480.532	107.69
480.751	78.69
480.969	85.69
481.188	101.69
481.406	96.69
481.624	102.69
481.843	92.69
482.061	108.69
482.28	91.69
482.498	92.69
482.717	98.69
482.935	88.69
483.153	96.69
483.372	108.69
483.59	103.69
483.808	98.69
484.027	94.69
484.245	99.69
484.463	109.69
484.681	101.69
484.9	115.69
485.118	107.69
485.336	86.69
485.554	99.69
485.772	92.69
485.99	97.69
486.209	94.69
486.427	81.69
486.645	100.69
486.863	88.69
487.081	106.69
487.299	86.69
487.517	96.69
487.735	97.69
487.953	118.69
488.171	112.69
488.389	108.69
488.607	111.69
488.825	98.69
489.043	88.69
489.261	111.69
489.479	101.69
489.696	95.69
489.914	111.69
490.132	104.69
490.35	97.69
490.568	99.69
490.786	96.69
491.003	105.69
491.221	114.69
491.439	101.69
491.657	108.69
491.874	93.69
492.092	107.69
492.31	117.69
492.527	120.69
492.745	112.69
492.963	104.69
493.18	98.69
493.398	115.69
493.615	105.69
493.833	101.69
494.05	101.69
494.268	107.69
494.485	102.69
494.703	97.69
494.92	99.69
495.138	100.69
495.355	104.69
495.573	120.69
495.79	117.69
496.008	99.69
496.225	123.69
496.442	111.69
496.66	119.69
496.877	112.69
497.094	96.69
497.312	109.69
497.529	97.69
497.746	107.69
497.963	95.69
498.181	111.69
498.398	116.69
498.615	107.69
498.832	102.69
499.049	107.69
499.267	106.69
499.484	120.69
499.701	122.69
499.918	128.69
500.135	139.69
500.352	148.69
500.569	161.69
500.786	155.69
501.003	145.69
501.22	130.69
501.437	119.69
501.654	113.69
501.871	114.69
502.088	100.69
502.305	102.69
502.522	119.69
502.739	110.69
502.956	113.69
503.172	92.69
503.389	103.69
503.606	91.69
503.823	93.69
504.04	116.69
504.256	96.69
504.473	95.69
504.69	108.69
504.907	112.69
505.123	116.69
505.34	105.69
505.557	96.69
505.773	94.69
505.99	90.69
506.207	109.69
506.423	103.69
506.64	100.69
506.856	107.69
507.073	109.69
507.289	104.69
507.506	102.69
507.722	97.69
507.939	96.69
508.155	96.69
508.372	108.69
508.588	113.69
508.805	106.69
509.021	102.69
509.238	90.69
509.454	95.69
509.67	95.69
509.887	99.69
510.103	89.69
510.319	88.69
510.536	90.69
510.752	98.69
510.968	98.69
511.184	95.69
511.401	94.69
511.617	104.69
511.833	87.69
512.049	98.69
512.265	98.69
512.481	89.69
512.698	90.69
512.914	99.69
513.13	87.69
513.346	95.69
513.562	96.69
513.778	88.69
513.994	87.69
514.21	92.69
514.426	100.69
514.642	105.69
514.858	92.69
515.074	102.69
515.29	104.69
515.506	90.69
515.721	90.69
515.937	107.69
516.153	90.69
516.369	98.69
516.585	105.69
516.801	106.69
