Data from Location5.07152019.Energy5.Lamp.07192019.3%Agarose_HRD10591_16-05-16-629.txt Node
Date: Fri Jul 19 16:05:16 EDT 2019
User: cochatt
Spectrometer: HR+D1059
Trigger mode: 1
Integration Time (sec): 1.000000E-1
Scans to average: 1
Electric dark correction enabled: true
Nonlinearity correction enabled: false
Boxcar width: 0
XAxis mode: Wavelengths
Number of Pixels in Spectrum: 2048
>>>>>Begin Spectral Data<<<<<
223.165	-7.25
223.4	-7.25
223.635	-7.25
223.869	-22.25
224.104	-28.25
224.338	-17.25
224.573	-10.25
224.808	-11.25
225.042	-10.25
225.277	2.75
225.511	-13.25
225.746	3.75
225.98	4.75
226.215	12.75
226.449	13.75
226.683	22.75
226.918	26.75
227.152	32.75
227.387	50.75
227.621	37.75
227.856	27.75
228.09	45.75
228.324	64.75
228.559	45.75
228.793	51.75
229.027	66.75
229.262	60.75
229.496	55.75
229.73	63.75
229.964	75.75
230.199	73.75
230.433	73.75
230.667	71.75
230.901	69.75
231.136	67.75
231.37	86.75
231.604	89.75
231.838	76.75
232.072	82.75
232.306	82.75
232.541	85.75
232.775	85.75
233.009	88.75
233.243	87.75
233.477	97.75
233.711	78.75
233.945	93.75
234.179	76.75
234.413	78.75
234.647	93.75
234.881	85.75
235.115	84.75
235.349	76.75
235.583	83.75
235.817	91.75
236.051	77.75
236.285	75.75
236.519	83.75
236.753	78.75
236.987	80.75
237.221	82.75
237.455	81.75
237.689	78.75
237.922	84.75
238.156	78.75
238.39	81.75
238.624	67.75
238.858	83.75
239.091	82.75
239.325	85.75
239.559	92.75
239.793	70.75
240.027	88.75
240.26	67.75
240.494	85.75
240.728	77.75
240.961	72.75
241.195	93.75
241.429	75.75
241.662	76.75
241.896	81.75
242.13	67.75
242.363	83.75
242.597	77.75
242.83	75.75
243.064	72.75
243.298	79.75
243.531	84.75
243.765	74.75
243.998	73.75
244.232	88.75
244.465	67.75
244.699	86.75
244.932	77.75
245.166	82.75
245.399	91.75
245.633	83.75
245.866	90.75
246.099	75.75
246.333	77.75
246.566	90.75
246.8	82.75
247.033	85.75
247.266	78.75
247.5	94.75
247.733	73.75
247.966	86.75
248.2	85.75
248.433	87.75
248.666	90.75
248.899	67.75
249.133	88.75
249.366	88.75
249.599	73.75
249.832	77.75
250.066	72.75
250.299	78.75
250.532	98.75
250.765	77.75
250.998	77.75
251.231	74.75
251.465	73.75
251.698	78.75
251.931	74.75
252.164	70.75
252.397	86.75
252.63	92.75
252.863	97.75
253.096	72.75
253.329	74.75
253.562	75.75
253.795	82.75
254.028	94.75
254.261	82.75
254.494	96.75
254.727	87.75
254.96	81.75
255.193	79.75
255.426	82.75
255.659	78.75
255.892	88.75
256.124	93.75
256.357	90.75
256.59	68.75
256.823	74.75
257.056	84.75
257.289	68.75
257.521	77.75
257.754	87.75
257.987	76.75
258.22	83.75
258.452	79.75
258.685	87.75
258.918	89.75
259.151	86.75
259.383	81.75
259.616	95.75
259.849	82.75
260.081	88.75
260.314	81.75
260.547	78.75
260.779	97.75
261.012	86.75
261.244	97.75
261.477	82.75
261.71	88.75
261.942	86.75
262.175	105.75
262.407	86.75
262.64	84.75
262.872	92.75
263.105	84.75
263.337	91.75
263.57	76.75
263.802	79.75
264.035	91.75
264.267	95.75
264.499	101.75
264.732	100.75
264.964	89.75
265.197	79.75
265.429	78.75
265.661	88.75
265.894	64.75
266.126	86.75
266.358	81.75
266.591	89.75
266.823	95.75
267.055	87.75
267.287	82.75
267.52	94.75
267.752	72.75
267.984	85.75
268.216	70.75
268.448	96.75
268.681	84.75
268.913	98.75
269.145	70.75
269.377	99.75
269.609	101.75
269.841	83.75
270.073	98.75
270.306	83.75
270.538	85.75
270.77	71.75
271.002	81.75
271.234	88.75
271.466	96.75
271.698	101.75
271.93	97.75
272.162	81.75
272.394	77.75
272.626	79.75
272.858	87.75
273.09	88.75
273.322	86.75
273.553	81.75
273.785	86.75
274.017	105.75
274.249	89.75
274.481	102.75
274.713	92.75
274.945	93.75
275.176	76.75
275.408	84.75
275.64	81.75
275.872	83.75
276.104	102.75
276.335	94.75
276.567	83.75
276.799	82.75
277.031	93.75
277.262	92.75
277.494	76.75
277.726	99.75
277.957	84.75
278.189	92.75
278.421	102.75
278.652	87.75
278.884	76.75
279.115	91.75
279.347	80.75
279.579	90.75
279.81	86.75
280.042	87.75
280.273	90.75
280.505	99.75
280.736	92.75
280.968	88.75
281.199	90.75
281.431	97.75
281.662	86.75
281.894	92.75
282.125	85.75
282.356	94.75
282.588	77.75
282.819	90.75
283.051	98.75
283.282	80.75
283.513	88.75
283.745	95.75
283.976	90.75
284.207	80.75
284.439	97.75
284.67	88.75
284.901	96.75
285.132	86.75
285.364	87.75
285.595	102.75
285.826	110.75
286.057	88.75
286.288	86.75
286.52	96.75
286.751	75.75
286.982	90.75
287.213	92.75
287.444	77.75
287.675	100.75
287.906	91.75
288.138	82.75
288.369	97.75
288.6	83.75
288.831	104.75
289.062	79.75
289.293	82.75
289.524	98.75
289.755	90.75
289.986	94.75
290.217	93.75
290.448	94.75
290.679	102.75
290.91	95.75
291.141	93.75
291.371	98.75
291.602	95.75
291.833	84.75
292.064	70.75
292.295	92.75
292.526	99.75
292.757	83.75
292.987	90.75
293.218	82.75
293.449	96.75
293.68	99.75
293.91	83.75
294.141	95.75
294.372	94.75
294.603	104.75
294.833	90.75
295.064	93.75
295.295	81.75
295.525	86.75
295.756	88.75
295.987	93.75
296.217	90.75
296.448	98.75
296.679	95.75
296.909	100.75
297.14	104.75
297.37	106.75
297.601	98.75
297.831	93.75
298.062	100.75
298.292	93.75
298.523	85.75
298.753	91.75
298.984	67.75
299.214	92.75
299.445	81.75
299.675	92.75
299.905	89.75
300.136	81.75
300.366	92.75
300.597	84.75
300.827	97.75
301.057	97.75
301.288	101.75
301.518	107.75
301.748	94.75
301.979	86.75
302.209	86.75
302.439	82.75
302.669	93.75
302.9	96.75
303.13	104.75
303.36	92.75
303.59	92.75
303.82	97.75
304.051	97.75
304.281	89.75
304.511	98.75
304.741	98.75
304.971	98.75
305.201	96.75
305.431	97.75
305.661	102.75
305.891	69.75
306.121	85.75
306.352	92.75
306.582	89.75
306.812	88.75
307.042	92.75
307.272	78.75
307.502	90.75
307.731	99.75
307.961	90.75
308.191	105.75
308.421	90.75
308.651	75.75
308.881	93.75
309.111	106.75
309.341	100.75
309.571	74.75
309.8	88.75
310.03	101.75
310.26	91.75
310.49	77.75
310.72	106.75
310.949	84.75
311.179	91.75
311.409	106.75
311.639	101.75
311.868	93.75
312.098	86.75
312.328	94.75
312.557	92.75
312.787	85.75
313.017	96.75
313.246	93.75
313.476	82.75
313.706	101.75
313.935	93.75
314.165	92.75
314.394	104.75
314.624	92.75
314.853	99.75
315.083	101.75
315.312	98.75
315.542	91.75
315.771	99.75
316.001	90.75
316.23	82.75
316.46	98.75
316.689	94.75
316.919	93.75
317.148	93.75
317.377	93.75
317.607	98.75
317.836	102.75
318.065	84.75
318.295	89.75
318.524	101.75
318.753	91.75
318.983	103.75
319.212	93.75
319.441	96.75
319.67	90.75
319.9	90.75
320.129	89.75
320.358	91.75
320.587	92.75
320.816	99.75
321.046	73.75
321.275	82.75
321.504	88.75
321.733	89.75
321.962	99.75
322.191	103.75
322.42	99.75
322.649	104.75
322.878	92.75
323.108	92.75
323.337	96.75
323.566	96.75
323.795	91.75
324.024	95.75
324.253	75.75
324.482	96.75
324.71	96.75
324.939	92.75
325.168	91.75
325.397	94.75
325.626	90.75
325.855	88.75
326.084	95.75
326.313	92.75
326.542	96.75
326.77	102.75
326.999	106.75
327.228	88.75
327.457	102.75
327.686	98.75
327.914	99.75
328.143	92.75
328.372	89.75
328.6	106.75
328.829	85.75
329.058	84.75
329.287	98.75
329.515	90.75
329.744	87.75
329.972	89.75
330.201	102.75
330.43	99.75
330.658	85.75
330.887	94.75
331.115	99.75
331.344	88.75
331.572	102.75
331.801	94.75
332.03	92.75
332.258	82.75
332.486	86.75
332.715	103.75
332.943	103.75
333.172	112.75
333.4	92.75
333.629	90.75
333.857	96.75
334.085	93.75
334.314	103.75
334.542	94.75
334.771	100.75
334.999	98.75
335.227	97.75
335.455	107.75
335.684	109.75
335.912	110.75
336.14	82.75
336.369	96.75
336.597	87.75
336.825	100.75
337.053	92.75
337.281	100.75
337.51	104.75
337.738	98.75
337.966	101.75
338.194	93.75
338.422	89.75
338.65	105.75
338.878	91.75
339.106	87.75
339.334	95.75
339.562	107.75
339.79	94.75
340.018	81.75
340.246	90.75
340.474	98.75
340.702	102.75
340.93	88.75
341.158	89.75
341.386	93.75
341.614	87.75
341.842	86.75
342.07	93.75
342.298	91.75
342.526	88.75
342.754	92.75
342.981	82.75
343.209	105.75
343.437	105.75
343.665	100.75
343.893	110.75
344.12	86.75
344.348	96.75
344.576	104.75
344.804	89.75
345.031	99.75
345.259	89.75
345.487	82.75
345.714	90.75
345.942	94.75
346.17	94.75
346.397	93.75
346.625	76.75
346.853	93.75
347.08	93.75
347.308	106.75
347.535	108.75
347.763	91.75
347.99	86.75
348.218	89.75
348.445	102.75
348.673	91.75
348.9	107.75
349.128	99.75
349.355	89.75
349.583	99.75
349.81	91.75
350.037	88.75
350.265	86.75
350.492	84.75
350.72	74.75
350.947	84.75
351.174	86.75
351.402	92.75
351.629	90.75
351.856	88.75
352.083	78.75
352.311	82.75
352.538	76.75
352.765	86.75
352.992	82.75
353.22	91.75
353.447	95.75
353.674	92.75
353.901	97.75
354.128	84.75
354.355	87.75
354.583	95.75
354.81	100.75
355.037	86.75
355.264	98.75
355.491	95.75
355.718	81.75
355.945	99.75
356.172	84.75
356.399	84.75
356.626	82.75
356.853	85.75
357.08	84.75
357.307	93.75
357.534	100.75
357.761	93.75
357.988	102.75
358.215	87.75
358.441	72.75
358.668	99.75
358.895	88.75
359.122	97.75
359.349	89.75
359.576	93.75
359.802	102.75
360.029	95.75
360.256	106.75
360.483	83.75
360.709	85.75
360.936	92.75
361.163	89.75
361.39	89.75
361.616	99.75
361.843	100.75
362.07	88.75
362.296	89.75
362.523	90.75
362.749	91.75
362.976	93.75
363.203	97.75
363.429	94.75
363.656	86.75
363.882	96.75
364.109	93.75
364.335	96.75
364.562	91.75
364.788	99.75
365.015	86.75
365.241	90.75
365.468	85.75
365.694	80.75
365.92	81.75
366.147	70.75
366.373	79.75
366.599	103.75
366.826	91.75
367.052	105.75
367.278	92.75
367.505	91.75
367.731	104.75
367.957	103.75
368.184	90.75
368.41	102.75
368.636	93.75
368.862	93.75
369.089	100.75
369.315	88.75
369.541	102.75
369.767	88.75
369.993	90.75
370.219	100.75
370.445	86.75
370.672	86.75
370.898	92.75
371.124	97.75
371.35	98.75
371.576	89.75
371.802	97.75
372.028	92.75
372.254	101.75
372.48	91.75
372.706	82.75
372.932	99.75
373.158	94.75
373.384	101.75
373.61	109.75
373.835	82.75
374.061	86.75
374.287	104.75
374.513	97.75
374.739	93.75
374.965	102.75
375.191	94.75
375.416	99.75
375.642	100.75
375.868	90.75
376.094	97.75
376.319	90.75
376.545	79.75
376.771	97.75
376.997	104.75
377.222	83.75
377.448	78.75
377.674	92.75
377.899	97.75
378.125	106.75
378.35	96.75
378.576	94.75
378.802	91.75
379.027	100.75
379.253	94.75
379.478	85.75
379.704	96.75
379.929	87.75
380.155	85.75
380.38	96.75
380.606	91.75
380.831	96.75
381.057	104.75
381.282	85.75
381.507	102.75
381.733	87.75
381.958	106.75
382.184	90.75
382.409	89.75
382.634	91.75
382.86	100.75
383.085	96.75
383.31	106.75
383.535	94.75
383.761	92.75
383.986	99.75
384.211	85.75
384.436	96.75
384.662	86.75
384.887	105.75
385.112	107.75
385.337	85.75
385.562	87.75
385.787	88.75
386.013	97.75
386.238	94.75
386.463	101.75
386.688	94.75
386.913	82.75
387.138	97.75
387.363	85.75
387.588	92.75
387.813	89.75
388.038	92.75
388.263	102.75
388.488	105.75
388.713	92.75
388.938	92.75
389.163	95.75
389.387	86.75
389.612	102.75
389.837	92.75
390.062	103.75
390.287	95.75
390.512	94.75
390.736	100.75
390.961	90.75
391.186	87.75
391.411	91.75
391.636	105.75
391.86	93.75
392.085	105.75
392.31	106.75
392.534	96.75
392.759	89.75
392.984	93.75
393.208	100.75
393.433	78.75
393.658	90.75
393.882	111.75
394.107	102.75
394.331	99.75
394.556	84.75
394.78	93.75
395.005	83.75
395.229	91.75
395.454	96.75
395.678	98.75
395.903	96.75
396.127	100.75
396.352	89.75
396.576	90.75
396.801	104.75
397.025	94.75
397.249	108.75
397.474	92.75
397.698	91.75
397.922	101.75
398.147	85.75
398.371	94.75
398.595	86.75
398.82	96.75
399.044	95.75
399.268	103.75
399.492	97.75
399.717	100.75
399.941	102.75
400.165	110.75
400.389	100.75
400.613	98.75
400.837	108.75
401.062	94.75
401.286	102.75
401.51	95.75
401.734	101.75
401.958	98.75
402.182	96.75
402.406	100.75
402.63	106.75
402.854	103.75
403.078	86.75
403.302	90.75
403.526	107.75
403.75	92.75
403.974	97.75
404.198	106.75
404.422	100.75
404.645	110.75
404.869	99.75
405.093	89.75
405.317	99.75
405.541	91.75
405.765	92.75
405.988	90.75
406.212	109.75
406.436	93.75
406.66	97.75
406.883	108.75
407.107	115.75
407.331	96.75
407.555	98.75
407.778	102.75
408.002	106.75
408.226	104.75
408.449	104.75
408.673	90.75
408.896	87.75
409.12	92.75
409.344	106.75
409.567	101.75
409.791	101.75
410.014	103.75
410.238	101.75
410.461	99.75
410.685	101.75
410.908	99.75
411.132	94.75
411.355	83.75
411.578	72.75
411.802	109.75
412.025	79.75
412.249	95.75
412.472	91.75
412.695	90.75
412.919	99.75
413.142	92.75
413.365	97.75
413.589	98.75
413.812	104.75
414.035	97.75
414.258	91.75
414.482	98.75
414.705	90.75
414.928	100.75
415.151	89.75
415.374	94.75
415.597	108.75
415.821	94.75
416.044	95.75
416.267	100.75
416.49	102.75
416.713	94.75
416.936	97.75
417.159	105.75
417.382	110.75
417.605	83.75
417.828	91.75
418.051	88.75
418.274	109.75
418.497	103.75
418.72	101.75
418.943	102.75
419.166	104.75
419.389	101.75
419.611	89.75
419.834	95.75
420.057	90.75
420.28	102.75
420.503	96.75
420.726	85.75
420.948	80.75
421.171	89.75
421.394	97.75
421.617	100.75
421.839	76.75
422.062	97.75
422.285	95.75
422.507	100.75
422.73	88.75
422.953	92.75
423.175	90.75
423.398	94.75
423.621	96.75
423.843	98.75
424.066	89.75
424.288	93.75
424.511	102.75
424.733	96.75
424.956	96.75
425.178	94.75
425.401	84.75
425.623	90.75
425.846	94.75
426.068	100.75
426.291	86.75
426.513	77.75
426.735	98.75
426.958	85.75
427.18	92.75
427.402	91.75
427.625	83.75
427.847	98.75
428.069	90.75
428.292	94.75
428.514	96.75
428.736	102.75
428.958	88.75
429.181	101.75
429.403	86.75
429.625	98.75
429.847	92.75
430.069	90.75
430.292	99.75
430.514	97.75
430.736	77.75
430.958	107.75
431.18	86.75
431.402	100.75
431.624	88.75
431.846	84.75
432.068	84.75
432.29	83.75
432.512	89.75
432.734	91.75
432.956	91.75
433.178	90.75
433.4	105.75
433.622	103.75
433.844	92.75
434.066	91.75
434.287	88.75
434.509	83.75
434.731	91.75
434.953	93.75
435.175	99.75
435.397	93.75
435.618	100.75
435.84	92.75
436.062	88.75
436.284	92.75
436.505	85.75
436.727	99.75
436.949	66.75
437.17	83.75
437.392	93.75
437.614	93.75
437.835	97.75
438.057	97.75
438.278	85.75
438.5	88.75
438.721	92.75
438.943	107.75
439.165	106.75
439.386	91.75
439.608	91.75
439.829	98.75
440.05	109.75
440.272	102.75
440.493	93.75
440.715	97.75
440.936	90.75
441.158	98.75
441.379	98.75
441.6	84.75
441.822	101.75
442.043	84.75
442.264	112.75
442.486	103.75
442.707	85.75
442.928	95.75
443.149	95.75
443.371	98.75
443.592	90.75
443.813	90.75
444.034	99.75
444.255	96.75
444.476	91.75
444.698	100.75
444.919	97.75
445.14	237.75
445.361	154.75
445.582	110.75
445.803	96.75
446.024	95.75
446.245	92.75
446.466	98.75
446.687	100.75
446.908	102.75
447.129	92.75
447.35	96.75
447.571	85.75
447.792	82.75
448.013	87.75
448.234	91.75
448.455	82.75
448.675	92.75
448.896	88.75
449.117	101.75
449.338	91.75
449.559	88.75
449.779	96.75
450	92.75
450.221	96.75
450.442	113.75
450.662	97.75
450.883	98.75
451.104	79.75
451.324	97.75
451.545	87.75
451.766	84.75
451.986	78.75
452.207	72.75
452.428	80.75
452.648	101.75
452.869	91.75
453.089	95.75
453.31	105.75
453.53	107.75
453.751	99.75
453.971	89.75
454.192	82.75
454.412	97.75
454.633	92.75
454.853	78.75
455.073	83.75
455.294	90.75
455.514	90.75
455.734	92.75
455.955	89.75
456.175	100.75
456.395	81.75
456.616	93.75
456.836	89.75
457.056	92.75
457.276	86.75
457.497	83.75
457.717	79.75
457.937	100.75
458.157	85.75
458.377	83.75
458.598	84.75
458.818	84.75
459.038	78.75
459.258	101.75
459.478	88.75
459.698	96.75
459.918	95.75
460.138	95.75
460.358	94.75
460.578	114.75
460.798	110.75
461.018	88.75
461.238	95.75
461.458	107.75
461.678	92.75
461.898	84.75
462.118	108.75
462.338	93.75
462.558	104.75
462.777	112.75
462.997	96.75
463.217	98.75
463.437	98.75
463.657	112.75
463.876	104.75
464.096	104.75
464.316	104.75
464.536	99.75
464.755	106.75
464.975	100.75
465.195	103.75
465.414	98.75
465.634	94.75
465.854	95.75
466.073	92.75
466.293	86.75
466.512	94.75
466.732	89.75
466.951	90.75
467.171	99.75
467.391	85.75
467.61	101.75
467.829	89.75
468.049	100.75
468.268	100.75
468.488	106.75
468.707	93.75
468.927	90.75
469.146	86.75
469.365	108.75
469.585	99.75
469.804	90.75
470.023	88.75
470.243	82.75
470.462	92.75
470.681	110.75
470.901	101.75
471.12	102.75
471.339	96.75
471.558	112.75
471.777	98.75
471.997	103.75
472.216	88.75
472.435	106.75
472.654	96.75
472.873	91.75
473.092	101.75
473.311	96.75
473.53	70.75
473.749	75.75
473.968	99.75
474.187	102.75
474.406	96.75
474.625	108.75
474.844	84.75
475.063	91.75
475.282	85.75
475.501	92.75
475.72	88.75
475.939	103.75
476.158	96.75
476.377	90.75
476.596	98.75
476.814	86.75
477.033	81.75
477.252	96.75
477.471	90.75
477.69	92.75
477.908	101.75
478.127	91.75
478.346	108.75
478.564	96.75
478.783	100.75
479.002	103.75
479.22	98.75
479.439	100.75
479.658	97.75
479.876	93.75
480.095	95.75
480.313	102.75
480.532	103.75
480.751	105.75
480.969	106.75
481.188	101.75
481.406	91.75
481.624	100.75
481.843	107.75
482.061	93.75
482.28	91.75
482.498	79.75
482.717	104.75
482.935	96.75
483.153	111.75
483.372	98.75
483.59	111.75
483.808	101.75
484.027	96.75
484.245	90.75
484.463	101.75
484.681	97.75
484.9	109.75
485.118	97.75
485.336	99.75
485.554	99.75
485.772	103.75
485.99	91.75
486.209	94.75
486.427	101.75
486.645	113.75
486.863	112.75
487.081	112.75
487.299	99.75
487.517	102.75
487.735	108.75
487.953	108.75
488.171	101.75
488.389	103.75
488.607	105.75
488.825	92.75
489.043	103.75
489.261	102.75
489.479	103.75
489.696	105.75
489.914	105.75
490.132	105.75
490.35	105.75
490.568	98.75
490.786	99.75
491.003	104.75
491.221	96.75
491.439	103.75
491.657	110.75
491.874	105.75
492.092	107.75
492.31	118.75
492.527	103.75
492.745	109.75
492.963	102.75
493.18	114.75
493.398	112.75
493.615	108.75
493.833	112.75
494.05	101.75
494.268	114.75
494.485	121.75
494.703	103.75
494.92	108.75
495.138	115.75
495.355	112.75
495.573	101.75
495.79	117.75
496.008	108.75
496.225	111.75
496.442	98.75
496.66	121.75
496.877	108.75
497.094	115.75
497.312	109.75
497.529	116.75
497.746	110.75
497.963	97.75
498.181	109.75
498.398	112.75
498.615	110.75
498.832	114.75
499.049	112.75
499.267	120.75
499.484	126.75
499.701	126.75
499.918	138.75
500.135	132.75
500.352	142.75
500.569	170.75
500.786	156.75
501.003	138.75
501.22	134.75
501.437	130.75
501.654	124.75
501.871	130.75
502.088	123.75
502.305	115.75
502.522	121.75
502.739	107.75
502.956	109.75
503.172	104.75
503.389	114.75
503.606	98.75
503.823	118.75
504.04	100.75
504.256	110.75
504.473	127.75
504.69	116.75
504.907	115.75
505.123	100.75
505.34	102.75
505.557	100.75
505.773	101.75
505.99	107.75
506.207	98.75
506.423	109.75
506.64	91.75
506.856	100.75
507.073	105.75
507.289	98.75
507.506	103.75
507.722	94.75
507.939	93.75
508.155	110.75
508.372	106.75
508.588	102.75
508.805	103.75
509.021	87.75
509.238	100.75
509.454	99.75
509.67	103.75
509.887	90.75
510.103	99.75
510.319	90.75
510.536	119.75
510.752	82.75
510.968	92.75
511.184	92.75
511.401	75.75
511.617	103.75
511.833	94.75
512.049	86.75
512.265	107.75
512.481	80.75
512.698	102.75
512.914	88.75
513.13	93.75
513.346	103.75
513.562	84.75
513.778	95.75
513.994	109.75
514.21	103.75
514.426	97.75
514.642	91.75
