Data from Location5.07152019.Energy5.Lamp.07192019.3%Agarose_HRD10591_16-04-43-629.txt Node
Date: Fri Jul 19 16:04:43 EDT 2019
User: cochatt
Spectrometer: HR+D1059
Trigger mode: 1
Integration Time (sec): 1.000000E-1
Scans to average: 1
Electric dark correction enabled: true
Nonlinearity correction enabled: false
Boxcar width: 0
XAxis mode: Wavelengths
Number of Pixels in Spectrum: 2048
>>>>>Begin Spectral Data<<<<<
223.165	-1.88
223.4	-1.88
223.635	-1.88
223.869	-22.88
224.104	-10.88
224.338	-0.88
224.573	-26.88
224.808	-21.88
225.042	-15.88
225.277	-9.88
225.511	-9.88
225.746	6.12
225.98	5.12
226.215	17.12
226.449	14.12
226.683	26.12
226.918	18.12
227.152	34.12
227.387	33.12
227.621	30.12
227.856	32.12
228.09	35.12
228.324	59.12
228.559	58.12
228.793	63.12
229.027	60.12
229.262	54.12
229.496	74.12
229.73	62.12
229.964	64.12
230.199	80.12
230.433	63.12
230.667	65.12
230.901	66.12
231.136	61.12
231.37	86.12
231.604	80.12
231.838	84.12
232.072	93.12
232.306	72.12
232.541	65.12
232.775	81.12
233.009	78.12
233.243	73.12
233.477	77.12
233.711	85.12
233.945	77.12
234.179	76.12
234.413	89.12
234.647	75.12
234.881	68.12
235.115	73.12
235.349	92.12
235.583	76.12
235.817	61.12
236.051	69.12
236.285	78.12
236.519	66.12
236.753	80.12
236.987	75.12
237.221	76.12
237.455	66.12
237.689	70.12
237.922	59.12
238.156	80.12
238.39	80.12
238.624	45.12
238.858	64.12
239.091	82.12
239.325	74.12
239.559	75.12
239.793	72.12
240.027	86.12
240.26	74.12
240.494	66.12
240.728	66.12
240.961	83.12
241.195	66.12
241.429	63.12
241.662	75.12
241.896	74.12
242.13	75.12
242.363	63.12
242.597	67.12
242.83	78.12
243.064	80.12
243.298	94.12
243.531	72.12
243.765	74.12
243.998	72.12
244.232	69.12
244.465	80.12
244.699	88.12
244.932	65.12
245.166	72.12
245.399	79.12
245.633	79.12
245.866	73.12
246.099	76.12
246.333	82.12
246.566	80.12
246.8	78.12
247.033	70.12
247.266	78.12
247.5	75.12
247.733	87.12
247.966	80.12
248.2	70.12
248.433	83.12
248.666	62.12
248.899	68.12
249.133	70.12
249.366	77.12
249.599	80.12
249.832	71.12
250.066	58.12
250.299	75.12
250.532	86.12
250.765	71.12
250.998	77.12
251.231	86.12
251.465	64.12
251.698	85.12
251.931	69.12
252.164	72.12
252.397	79.12
252.63	69.12
252.863	86.12
253.096	83.12
253.329	88.12
253.562	57.12
253.795	68.12
254.028	71.12
254.261	79.12
254.494	66.12
254.727	64.12
254.96	73.12
255.193	91.12
255.426	71.12
255.659	80.12
255.892	74.12
256.124	87.12
256.357	82.12
256.59	74.12
256.823	78.12
257.056	83.12
257.289	80.12
257.521	80.12
257.754	67.12
257.987	77.12
258.22	81.12
258.452	70.12
258.685	66.12
258.918	80.12
259.151	74.12
259.383	84.12
259.616	86.12
259.849	84.12
260.081	79.12
260.314	77.12
260.547	71.12
260.779	79.12
261.012	89.12
261.244	78.12
261.477	81.12
261.71	64.12
261.942	86.12
262.175	76.12
262.407	72.12
262.64	95.12
262.872	65.12
263.105	67.12
263.337	68.12
263.57	82.12
263.802	76.12
264.035	92.12
264.267	78.12
264.499	64.12
264.732	85.12
264.964	76.12
265.197	69.12
265.429	79.12
265.661	94.12
265.894	64.12
266.126	91.12
266.358	94.12
266.591	78.12
266.823	91.12
267.055	77.12
267.287	74.12
267.52	71.12
267.752	74.12
267.984	96.12
268.216	80.12
268.448	80.12
268.681	73.12
268.913	89.12
269.145	83.12
269.377	93.12
269.609	77.12
269.841	86.12
270.073	80.12
270.306	86.12
270.538	83.12
270.77	81.12
271.002	92.12
271.234	104.12
271.466	81.12
271.698	65.12
271.93	76.12
272.162	77.12
272.394	82.12
272.626	77.12
272.858	90.12
273.09	94.12
273.322	93.12
273.553	75.12
273.785	85.12
274.017	101.12
274.249	72.12
274.481	82.12
274.713	83.12
274.945	99.12
275.176	76.12
275.408	88.12
275.64	94.12
275.872	91.12
276.104	76.12
276.335	82.12
276.567	84.12
276.799	79.12
277.031	79.12
277.262	97.12
277.494	87.12
277.726	82.12
277.957	83.12
278.189	86.12
278.421	80.12
278.652	68.12
278.884	73.12
279.115	78.12
279.347	76.12
279.579	86.12
279.81	97.12
280.042	78.12
280.273	87.12
280.505	77.12
280.736	103.12
280.968	75.12
281.199	73.12
281.431	91.12
281.662	95.12
281.894	74.12
282.125	71.12
282.356	85.12
282.588	63.12
282.819	76.12
283.051	86.12
283.282	69.12
283.513	74.12
283.745	82.12
283.976	95.12
284.207	98.12
284.439	94.12
284.67	78.12
284.901	86.12
285.132	75.12
285.364	82.12
285.595	88.12
285.826	86.12
286.057	83.12
286.288	78.12
286.52	92.12
286.751	94.12
286.982	77.12
287.213	84.12
287.444	86.12
287.675	85.12
287.906	93.12
288.138	79.12
288.369	80.12
288.6	84.12
288.831	76.12
289.062	79.12
289.293	88.12
289.524	88.12
289.755	86.12
289.986	82.12
290.217	73.12
290.448	78.12
290.679	82.12
290.91	81.12
291.141	71.12
291.371	98.12
291.602	93.12
291.833	96.12
292.064	81.12
292.295	72.12
292.526	79.12
292.757	93.12
292.987	85.12
293.218	90.12
293.449	94.12
293.68	91.12
293.91	105.12
294.141	95.12
294.372	93.12
294.603	89.12
294.833	83.12
295.064	86.12
295.295	82.12
295.525	82.12
295.756	88.12
295.987	82.12
296.217	86.12
296.448	91.12
296.679	86.12
296.909	80.12
297.14	95.12
297.37	83.12
297.601	94.12
297.831	86.12
298.062	86.12
298.292	87.12
298.523	96.12
298.753	90.12
298.984	90.12
299.214	86.12
299.445	97.12
299.675	99.12
299.905	89.12
300.136	87.12
300.366	81.12
300.597	101.12
300.827	99.12
301.057	106.12
301.288	98.12
301.518	90.12
301.748	80.12
301.979	86.12
302.209	83.12
302.439	96.12
302.669	99.12
302.9	90.12
303.13	82.12
303.36	83.12
303.59	96.12
303.82	102.12
304.051	86.12
304.281	79.12
304.511	73.12
304.741	96.12
304.971	89.12
305.201	86.12
305.431	90.12
305.661	96.12
305.891	99.12
306.121	92.12
306.352	105.12
306.582	87.12
306.812	82.12
307.042	95.12
307.272	82.12
307.502	82.12
307.731	92.12
307.961	89.12
308.191	79.12
308.421	87.12
308.651	89.12
308.881	94.12
309.111	89.12
309.341	95.12
309.571	96.12
309.8	88.12
310.03	89.12
310.26	78.12
310.49	91.12
310.72	86.12
310.949	79.12
311.179	81.12
311.409	98.12
311.639	76.12
311.868	86.12
312.098	88.12
312.328	77.12
312.557	87.12
312.787	93.12
313.017	91.12
313.246	84.12
313.476	90.12
313.706	94.12
313.935	87.12
314.165	75.12
314.394	99.12
314.624	73.12
314.853	80.12
315.083	92.12
315.312	92.12
315.542	100.12
315.771	98.12
316.001	90.12
316.23	71.12
316.46	94.12
316.689	84.12
316.919	91.12
317.148	82.12
317.377	91.12
317.607	91.12
317.836	82.12
318.065	104.12
318.295	79.12
318.524	92.12
318.753	91.12
318.983	98.12
319.212	91.12
319.441	75.12
319.67	82.12
319.9	78.12
320.129	91.12
320.358	96.12
320.587	82.12
320.816	90.12
321.046	98.12
321.275	85.12
321.504	92.12
321.733	97.12
321.962	90.12
322.191	100.12
322.42	85.12
322.649	81.12
322.878	83.12
323.108	87.12
323.337	96.12
323.566	93.12
323.795	88.12
324.024	87.12
324.253	77.12
324.482	74.12
324.71	91.12
324.939	90.12
325.168	82.12
325.397	90.12
325.626	90.12
325.855	96.12
326.084	85.12
326.313	95.12
326.542	94.12
326.77	90.12
326.999	97.12
327.228	89.12
327.457	106.12
327.686	81.12
327.914	88.12
328.143	101.12
328.372	95.12
328.6	80.12
328.829	89.12
329.058	89.12
329.287	104.12
329.515	98.12
329.744	92.12
329.972	103.12
330.201	93.12
330.43	79.12
330.658	83.12
330.887	81.12
331.115	79.12
331.344	77.12
331.572	103.12
331.801	97.12
332.03	100.12
332.258	91.12
332.486	105.12
332.715	94.12
332.943	90.12
333.172	93.12
333.4	99.12
333.629	98.12
333.857	105.12
334.085	87.12
334.314	95.12
334.542	95.12
334.771	91.12
334.999	91.12
335.227	83.12
335.455	100.12
335.684	90.12
335.912	98.12
336.14	87.12
336.369	86.12
336.597	102.12
336.825	78.12
337.053	93.12
337.281	84.12
337.51	88.12
337.738	79.12
337.966	72.12
338.194	68.12
338.422	98.12
338.65	90.12
338.878	104.12
339.106	98.12
339.334	100.12
339.562	75.12
339.79	96.12
340.018	93.12
340.246	88.12
340.474	95.12
340.702	84.12
340.93	91.12
341.158	86.12
341.386	93.12
341.614	92.12
341.842	95.12
342.07	83.12
342.298	71.12
342.526	79.12
342.754	87.12
342.981	91.12
343.209	85.12
343.437	94.12
343.665	83.12
343.893	103.12
344.12	92.12
344.348	96.12
344.576	79.12
344.804	99.12
345.031	90.12
345.259	90.12
345.487	75.12
345.714	96.12
345.942	106.12
346.17	79.12
346.397	87.12
346.625	92.12
346.853	93.12
347.08	83.12
347.308	93.12
347.535	87.12
347.763	93.12
347.99	87.12
348.218	89.12
348.445	82.12
348.673	97.12
348.9	79.12
349.128	93.12
349.355	91.12
349.583	90.12
349.81	85.12
350.037	94.12
350.265	92.12
350.492	83.12
350.72	95.12
350.947	78.12
351.174	86.12
351.402	87.12
351.629	72.12
351.856	83.12
352.083	90.12
352.311	85.12
352.538	77.12
352.765	91.12
352.992	92.12
353.22	87.12
353.447	87.12
353.674	89.12
353.901	84.12
354.128	94.12
354.355	82.12
354.583	80.12
354.81	99.12
355.037	81.12
355.264	83.12
355.491	80.12
355.718	83.12
355.945	85.12
356.172	83.12
356.399	87.12
356.626	95.12
356.853	98.12
357.08	80.12
357.307	91.12
357.534	88.12
357.761	87.12
357.988	94.12
358.215	106.12
358.441	79.12
358.668	90.12
358.895	86.12
359.122	73.12
359.349	75.12
359.576	91.12
359.802	87.12
360.029	105.12
360.256	82.12
360.483	85.12
360.709	84.12
360.936	75.12
361.163	86.12
361.39	89.12
361.616	94.12
361.843	75.12
362.07	84.12
362.296	82.12
362.523	80.12
362.749	85.12
362.976	91.12
363.203	82.12
363.429	99.12
363.656	77.12
363.882	73.12
364.109	85.12
364.335	86.12
364.562	83.12
364.788	84.12
365.015	86.12
365.241	98.12
365.468	66.12
365.694	82.12
365.92	96.12
366.147	82.12
366.373	83.12
366.599	97.12
366.826	74.12
367.052	85.12
367.278	72.12
367.505	80.12
367.731	99.12
367.957	80.12
368.184	77.12
368.41	71.12
368.636	83.12
368.862	90.12
369.089	82.12
369.315	72.12
369.541	88.12
369.767	91.12
369.993	93.12
370.219	78.12
370.445	82.12
370.672	88.12
370.898	91.12
371.124	76.12
371.35	103.12
371.576	87.12
371.802	92.12
372.028	91.12
372.254	86.12
372.48	82.12
372.706	77.12
372.932	81.12
373.158	81.12
373.384	70.12
373.61	82.12
373.835	82.12
374.061	87.12
374.287	72.12
374.513	93.12
374.739	94.12
374.965	85.12
375.191	98.12
375.416	80.12
375.642	83.12
375.868	94.12
376.094	88.12
376.319	91.12
376.545	76.12
376.771	78.12
376.997	86.12
377.222	73.12
377.448	81.12
377.674	94.12
377.899	84.12
378.125	84.12
378.35	103.12
378.576	72.12
378.802	81.12
379.027	91.12
379.253	91.12
379.478	91.12
379.704	97.12
379.929	72.12
380.155	73.12
380.38	99.12
380.606	76.12
380.831	97.12
381.057	91.12
381.282	100.12
381.507	76.12
381.733	88.12
381.958	91.12
382.184	99.12
382.409	78.12
382.634	104.12
382.86	93.12
383.085	91.12
383.31	83.12
383.535	99.12
383.761	97.12
383.986	79.12
384.211	99.12
384.436	91.12
384.662	85.12
384.887	92.12
385.112	72.12
385.337	99.12
385.562	75.12
385.787	91.12
386.013	112.12
386.238	87.12
386.463	79.12
386.688	85.12
386.913	89.12
387.138	89.12
387.363	89.12
387.588	93.12
387.813	91.12
388.038	81.12
388.263	94.12
388.488	84.12
388.713	94.12
388.938	85.12
389.163	93.12
389.387	91.12
389.612	89.12
389.837	80.12
390.062	84.12
390.287	84.12
390.512	83.12
390.736	82.12
390.961	103.12
391.186	84.12
391.411	96.12
391.636	78.12
391.86	91.12
392.085	110.12
392.31	97.12
392.534	103.12
392.759	93.12
392.984	83.12
393.208	84.12
393.433	76.12
393.658	88.12
393.882	75.12
394.107	83.12
394.331	88.12
394.556	95.12
394.78	89.12
395.005	92.12
395.229	90.12
395.454	93.12
395.678	82.12
395.903	81.12
396.127	92.12
396.352	88.12
396.576	96.12
396.801	85.12
397.025	70.12
397.249	90.12
397.474	102.12
397.698	106.12
397.922	90.12
398.147	88.12
398.371	91.12
398.595	92.12
398.82	91.12
399.044	91.12
399.268	92.12
399.492	92.12
399.717	98.12
399.941	92.12
400.165	96.12
400.389	92.12
400.613	101.12
400.837	95.12
401.062	95.12
401.286	98.12
401.51	92.12
401.734	88.12
401.958	84.12
402.182	90.12
402.406	82.12
402.63	91.12
402.854	87.12
403.078	84.12
403.302	90.12
403.526	107.12
403.75	91.12
403.974	106.12
404.198	90.12
404.422	84.12
404.645	96.12
404.869	96.12
405.093	93.12
405.317	99.12
405.541	78.12
405.765	90.12
405.988	98.12
406.212	107.12
406.436	88.12
406.66	102.12
406.883	84.12
407.107	77.12
407.331	90.12
407.555	94.12
407.778	96.12
408.002	104.12
408.226	96.12
408.449	104.12
408.673	99.12
408.896	96.12
409.12	85.12
409.344	98.12
409.567	88.12
409.791	92.12
410.014	82.12
410.238	104.12
410.461	93.12
410.685	113.12
410.908	87.12
411.132	88.12
411.355	91.12
411.578	94.12
411.802	91.12
412.025	90.12
412.249	95.12
412.472	88.12
412.695	99.12
412.919	90.12
413.142	90.12
413.365	89.12
413.589	91.12
413.812	95.12
414.035	93.12
414.258	85.12
414.482	86.12
414.705	94.12
414.928	97.12
415.151	88.12
415.374	85.12
415.597	102.12
415.821	91.12
416.044	77.12
416.267	74.12
416.49	76.12
416.713	86.12
416.936	95.12
417.159	85.12
417.382	100.12
417.605	94.12
417.828	78.12
418.051	94.12
418.274	86.12
418.497	82.12
418.72	73.12
418.943	91.12
419.166	84.12
419.389	101.12
419.611	90.12
419.834	92.12
420.057	94.12
420.28	100.12
420.503	96.12
420.726	102.12
420.948	101.12
421.171	78.12
421.394	109.12
421.617	101.12
421.839	91.12
422.062	75.12
422.285	85.12
422.507	68.12
422.73	96.12
422.953	94.12
423.175	107.12
423.398	95.12
423.621	83.12
423.843	85.12
424.066	86.12
424.288	93.12
424.511	92.12
424.733	97.12
424.956	85.12
425.178	86.12
425.401	92.12
425.623	109.12
425.846	87.12
426.068	80.12
426.291	94.12
426.513	88.12
426.735	91.12
426.958	102.12
427.18	94.12
427.402	106.12
427.625	84.12
427.847	101.12
428.069	90.12
428.292	97.12
428.514	108.12
428.736	100.12
428.958	73.12
429.181	87.12
429.403	96.12
429.625	93.12
429.847	83.12
430.069	73.12
430.292	86.12
430.514	88.12
430.736	77.12
430.958	82.12
431.18	81.12
431.402	82.12
431.624	79.12
431.846	83.12
432.068	97.12
432.29	90.12
432.512	93.12
432.734	76.12
432.956	79.12
433.178	93.12
433.4	84.12
433.622	85.12
433.844	92.12
434.066	86.12
434.287	81.12
434.509	86.12
434.731	94.12
434.953	102.12
435.175	90.12
435.397	92.12
435.618	89.12
435.84	87.12
436.062	93.12
436.284	93.12
436.505	87.12
436.727	79.12
436.949	89.12
437.17	98.12
437.392	96.12
437.614	85.12
437.835	85.12
438.057	81.12
438.278	94.12
438.5	100.12
438.721	96.12
438.943	92.12
439.165	94.12
439.386	90.12
439.608	84.12
439.829	88.12
440.05	97.12
440.272	73.12
440.493	93.12
440.715	85.12
440.936	95.12
441.158	94.12
441.379	91.12
441.6	96.12
441.822	80.12
442.043	99.12
442.264	95.12
442.486	100.12
442.707	87.12
442.928	84.12
443.149	94.12
443.371	92.12
443.592	102.12
443.813	99.12
444.034	85.12
444.255	83.12
444.476	92.12
444.698	70.12
444.919	87.12
445.14	233.12
445.361	148.12
445.582	107.12
445.803	91.12
446.024	92.12
446.245	95.12
446.466	79.12
446.687	97.12
446.908	82.12
447.129	86.12
447.35	84.12
447.571	83.12
447.792	84.12
448.013	69.12
448.234	80.12
448.455	97.12
448.675	87.12
448.896	78.12
449.117	92.12
449.338	87.12
449.559	85.12
449.779	90.12
450	91.12
450.221	97.12
450.442	88.12
450.662	93.12
450.883	84.12
451.104	83.12
451.324	85.12
451.545	97.12
451.766	86.12
451.986	94.12
452.207	102.12
452.428	110.12
452.648	82.12
452.869	98.12
453.089	111.12
453.31	89.12
453.53	94.12
453.751	97.12
453.971	93.12
454.192	93.12
454.412	71.12
454.633	100.12
454.853	85.12
455.073	80.12
455.294	95.12
455.514	106.12
455.734	80.12
455.955	78.12
456.175	96.12
456.395	90.12
456.616	87.12
456.836	90.12
457.056	104.12
457.276	84.12
457.497	87.12
457.717	83.12
457.937	84.12
458.157	90.12
458.377	89.12
458.598	87.12
458.818	89.12
459.038	91.12
459.258	81.12
459.478	95.12
459.698	79.12
459.918	84.12
460.138	82.12
460.358	78.12
460.578	91.12
460.798	102.12
461.018	87.12
461.238	106.12
461.458	97.12
461.678	109.12
461.898	71.12
462.118	96.12
462.338	87.12
462.558	101.12
462.777	84.12
462.997	117.12
463.217	98.12
463.437	86.12
463.657	80.12
463.876	106.12
464.096	109.12
464.316	100.12
464.536	93.12
464.755	102.12
464.975	109.12
465.195	108.12
465.414	117.12
465.634	98.12
465.854	90.12
466.073	94.12
466.293	87.12
466.512	99.12
466.732	101.12
466.951	92.12
467.171	78.12
467.391	84.12
467.61	88.12
467.829	100.12
468.049	82.12
468.268	91.12
468.488	112.12
468.707	100.12
468.927	86.12
469.146	81.12
469.365	92.12
469.585	84.12
469.804	112.12
470.023	99.12
470.243	86.12
470.462	96.12
470.681	92.12
470.901	95.12
471.12	93.12
471.339	77.12
471.558	82.12
471.777	87.12
471.997	90.12
472.216	96.12
472.435	88.12
472.654	91.12
472.873	87.12
473.092	95.12
473.311	96.12
473.53	94.12
473.749	88.12
473.968	90.12
474.187	86.12
474.406	80.12
474.625	94.12
474.844	97.12
475.063	83.12
475.282	94.12
475.501	89.12
475.72	99.12
475.939	77.12
476.158	86.12
476.377	96.12
476.596	95.12
476.814	94.12
477.033	75.12
477.252	94.12
477.471	95.12
477.69	107.12
477.908	96.12
478.127	92.12
478.346	96.12
478.564	111.12
478.783	85.12
479.002	102.12
479.22	107.12
479.439	90.12
479.658	110.12
479.876	82.12
480.095	96.12
480.313	100.12
480.532	92.12
480.751	90.12
480.969	106.12
481.188	107.12
481.406	93.12
481.624	92.12
481.843	90.12
482.061	112.12
482.28	92.12
482.498	106.12
482.717	94.12
482.935	94.12
483.153	92.12
483.372	102.12
483.59	100.12
483.808	89.12
484.027	84.12
484.245	95.12
484.463	109.12
484.681	92.12
484.9	100.12
485.118	94.12
485.336	96.12
485.554	114.12
485.772	108.12
485.99	85.12
486.209	92.12
486.427	81.12
486.645	94.12
486.863	99.12
487.081	91.12
487.299	106.12
487.517	103.12
487.735	92.12
487.953	110.12
488.171	94.12
488.389	113.12
488.607	110.12
488.825	99.12
489.043	91.12
489.261	100.12
489.479	96.12
489.696	93.12
489.914	91.12
490.132	99.12
490.35	107.12
490.568	119.12
490.786	102.12
491.003	103.12
491.221	110.12
491.439	102.12
491.657	122.12
491.874	95.12
492.092	109.12
492.31	107.12
492.527	108.12
492.745	102.12
492.963	95.12
493.18	102.12
493.398	114.12
493.615	118.12
493.833	97.12
494.05	106.12
494.268	110.12
494.485	97.12
494.703	115.12
494.92	94.12
495.138	101.12
495.355	117.12
495.573	118.12
495.79	92.12
496.008	105.12
496.225	100.12
496.442	99.12
496.66	118.12
496.877	101.12
497.094	106.12
497.312	118.12
497.529	118.12
497.746	115.12
497.963	104.12
498.181	106.12
498.398	98.12
498.615	97.12
498.832	97.12
499.049	112.12
499.267	118.12
499.484	123.12
499.701	138.12
499.918	135.12
500.135	148.12
500.352	133.12
500.569	137.12
500.786	142.12
501.003	141.12
501.22	130.12
501.437	132.12
501.654	122.12
501.871	119.12
502.088	108.12
502.305	110.12
502.522	96.12
502.739	124.12
502.956	107.12
503.172	104.12
503.389	104.12
503.606	105.12
503.823	111.12
504.04	111.12
504.256	116.12
504.473	113.12
504.69	101.12
504.907	107.12
505.123	110.12
505.34	103.12
505.557	110.12
505.773	98.12
505.99	99.12
506.207	98.12
506.423	113.12
506.64	95.12
506.856	100.12
507.073	83.12
507.289	76.12
507.506	92.12
507.722	89.12
507.939	95.12
508.155	91.12
508.372	91.12
508.588	86.12
508.805	98.12
509.021	102.12
509.238	108.12
509.454	81.12
509.67	96.12
509.887	96.12
510.103	85.12
510.319	85.12
510.536	85.12
510.752	85.12
510.968	99.12
511.184	102.12
511.401	99.12
511.617	92.12
511.833	99.12
512.049	88.12
512.265	77.12
512.481	89.12
512.698	100.12
512.914	87.12
513.13	101.12
513.346	110.12
513.562	106.12
513.778	112.12
513.994	97.12
514.21	94.12
514.426	102.12
514.642	81.12
514.858	93.12
515.074	89.12
515.29	98.12
515.506	92.12
515.721	91.12
515.937	72.12
516.153	86.12
516.369	103.12
516.585	98.12
516.801	84.12
517.016	81.12
