Data from Location5.07152019.Energy5.Lamp.07192019.3%Agarose_HRD10591_15-36-27-388.txt Node
Date: Fri Jul 19 15:36:27 EDT 2019
User: cochatt
Spectrometer: HR+D1059
Trigger mode: 1
Integration Time (sec): 1.000000E-1
Scans to average: 1
Electric dark correction enabled: true
Nonlinearity correction enabled: false
Boxcar width: 0
XAxis mode: Wavelengths
Number of Pixels in Spectrum: 2048
>>>>>Begin Spectral Data<<<<<
223.165	-20.62
223.4	-20.62
223.635	-20.62
223.869	-4.62
224.104	-11.62
224.338	-5.62
224.573	-35.62
224.808	-19.62
225.042	-13.62
225.277	4.38
225.511	0.38
225.746	7.38
225.98	11.38
226.215	19.38
226.449	16.38
226.683	10.38
226.918	23.38
227.152	18.38
227.387	38.38
227.621	41.38
227.856	35.38
228.09	45.38
228.324	47.38
228.559	63.38
228.793	65.38
229.027	58.38
229.262	68.38
229.496	59.38
229.73	79.38
229.964	81.38
230.199	82.38
230.433	88.38
230.667	80.38
230.901	90.38
231.136	91.38
231.37	77.38
231.604	75.38
231.838	97.38
232.072	93.38
232.306	75.38
232.541	85.38
232.775	93.38
233.009	86.38
233.243	94.38
233.477	89.38
233.711	95.38
233.945	88.38
234.179	90.38
234.413	90.38
234.647	92.38
234.881	88.38
235.115	79.38
235.349	75.38
235.583	85.38
235.817	77.38
236.051	86.38
236.285	87.38
236.519	81.38
236.753	88.38
236.987	97.38
237.221	74.38
237.455	75.38
237.689	91.38
237.922	81.38
238.156	78.38
238.39	92.38
238.624	73.38
238.858	84.38
239.091	92.38
239.325	84.38
239.559	79.38
239.793	79.38
240.027	64.38
240.26	79.38
240.494	71.38
240.728	59.38
240.961	77.38
241.195	85.38
241.429	80.38
241.662	92.38
241.896	90.38
242.13	86.38
242.363	85.38
242.597	70.38
242.83	75.38
243.064	82.38
243.298	75.38
243.531	78.38
243.765	87.38
243.998	81.38
244.232	90.38
244.465	88.38
244.699	77.38
244.932	84.38
245.166	87.38
245.399	94.38
245.633	94.38
245.866	79.38
246.099	86.38
246.333	90.38
246.566	84.38
246.8	92.38
247.033	80.38
247.266	88.38
247.5	74.38
247.733	85.38
247.966	73.38
248.2	88.38
248.433	74.38
248.666	91.38
248.899	86.38
249.133	79.38
249.366	88.38
249.599	74.38
249.832	98.38
250.066	84.38
250.299	66.38
250.532	86.38
250.765	75.38
250.998	86.38
251.231	66.38
251.465	72.38
251.698	74.38
251.931	74.38
252.164	83.38
252.397	92.38
252.63	73.38
252.863	77.38
253.096	98.38
253.329	94.38
253.562	93.38
253.795	94.38
254.028	70.38
254.261	99.38
254.494	82.38
254.727	85.38
254.96	83.38
255.193	72.38
255.426	87.38
255.659	87.38
255.892	95.38
256.124	98.38
256.357	90.38
256.59	100.38
256.823	81.38
257.056	77.38
257.289	78.38
257.521	78.38
257.754	91.38
257.987	86.38
258.22	86.38
258.452	87.38
258.685	85.38
258.918	79.38
259.151	78.38
259.383	81.38
259.616	88.38
259.849	87.38
260.081	75.38
260.314	78.38
260.547	95.38
260.779	77.38
261.012	92.38
261.244	85.38
261.477	88.38
261.71	87.38
261.942	90.38
262.175	87.38
262.407	98.38
262.64	82.38
262.872	95.38
263.105	92.38
263.337	85.38
263.57	80.38
263.802	86.38
264.035	80.38
264.267	91.38
264.499	92.38
264.732	80.38
264.964	82.38
265.197	84.38
265.429	81.38
265.661	91.38
265.894	90.38
266.126	93.38
266.358	74.38
266.591	77.38
266.823	94.38
267.055	78.38
267.287	78.38
267.52	83.38
267.752	91.38
267.984	86.38
268.216	93.38
268.448	85.38
268.681	71.38
268.913	85.38
269.145	72.38
269.377	89.38
269.609	94.38
269.841	86.38
270.073	74.38
270.306	83.38
270.538	83.38
270.77	98.38
271.002	91.38
271.234	81.38
271.466	101.38
271.698	77.38
271.93	92.38
272.162	85.38
272.394	99.38
272.626	82.38
272.858	71.38
273.09	75.38
273.322	83.38
273.553	84.38
273.785	80.38
274.017	87.38
274.249	88.38
274.481	84.38
274.713	81.38
274.945	97.38
275.176	92.38
275.408	98.38
275.64	76.38
275.872	102.38
276.104	91.38
276.335	81.38
276.567	95.38
276.799	88.38
277.031	74.38
277.262	91.38
277.494	89.38
277.726	93.38
277.957	88.38
278.189	103.38
278.421	102.38
278.652	99.38
278.884	92.38
279.115	95.38
279.347	80.38
279.579	92.38
279.81	87.38
280.042	79.38
280.273	104.38
280.505	86.38
280.736	91.38
280.968	91.38
281.199	77.38
281.431	107.38
281.662	81.38
281.894	88.38
282.125	96.38
282.356	98.38
282.588	92.38
282.819	78.38
283.051	93.38
283.282	88.38
283.513	72.38
283.745	94.38
283.976	74.38
284.207	80.38
284.439	82.38
284.67	86.38
284.901	94.38
285.132	100.38
285.364	96.38
285.595	92.38
285.826	94.38
286.057	85.38
286.288	95.38
286.52	98.38
286.751	84.38
286.982	92.38
287.213	98.38
287.444	87.38
287.675	80.38
287.906	83.38
288.138	92.38
288.369	88.38
288.6	94.38
288.831	83.38
289.062	92.38
289.293	89.38
289.524	83.38
289.755	89.38
289.986	94.38
290.217	69.38
290.448	78.38
290.679	84.38
290.91	82.38
291.141	73.38
291.371	90.38
291.602	83.38
291.833	98.38
292.064	80.38
292.295	84.38
292.526	87.38
292.757	87.38
292.987	88.38
293.218	79.38
293.449	72.38
293.68	87.38
293.91	86.38
294.141	89.38
294.372	83.38
294.603	94.38
294.833	90.38
295.064	95.38
295.295	79.38
295.525	86.38
295.756	94.38
295.987	93.38
296.217	93.38
296.448	74.38
296.679	88.38
296.909	95.38
297.14	92.38
297.37	91.38
297.601	87.38
297.831	92.38
298.062	87.38
298.292	83.38
298.523	83.38
298.753	84.38
298.984	83.38
299.214	102.38
299.445	94.38
299.675	77.38
299.905	98.38
300.136	97.38
300.366	84.38
300.597	78.38
300.827	94.38
301.057	89.38
301.288	81.38
301.518	95.38
301.748	88.38
301.979	87.38
302.209	88.38
302.439	99.38
302.669	72.38
302.9	95.38
303.13	104.38
303.36	79.38
303.59	79.38
303.82	82.38
304.051	84.38
304.281	97.38
304.511	91.38
304.741	76.38
304.971	87.38
305.201	103.38
305.431	80.38
305.661	105.38
305.891	88.38
306.121	96.38
306.352	84.38
306.582	92.38
306.812	85.38
307.042	86.38
307.272	85.38
307.502	85.38
307.731	94.38
307.961	92.38
308.191	98.38
308.421	92.38
308.651	88.38
308.881	92.38
309.111	104.38
309.341	84.38
309.571	90.38
309.8	82.38
310.03	86.38
310.26	102.38
310.49	98.38
310.72	88.38
310.949	92.38
311.179	96.38
311.409	96.38
311.639	92.38
311.868	82.38
312.098	87.38
312.328	93.38
312.557	95.38
312.787	81.38
313.017	89.38
313.246	89.38
313.476	86.38
313.706	87.38
313.935	82.38
314.165	79.38
314.394	97.38
314.624	89.38
314.853	95.38
315.083	98.38
315.312	83.38
315.542	82.38
315.771	83.38
316.001	80.38
316.23	84.38
316.46	84.38
316.689	96.38
316.919	94.38
317.148	108.38
317.377	105.38
317.607	90.38
317.836	100.38
318.065	85.38
318.295	92.38
318.524	91.38
318.753	102.38
318.983	87.38
319.212	92.38
319.441	78.38
319.67	98.38
319.9	96.38
320.129	82.38
320.358	87.38
320.587	80.38
320.816	83.38
321.046	86.38
321.275	93.38
321.504	80.38
321.733	98.38
321.962	96.38
322.191	108.38
322.42	78.38
322.649	83.38
322.878	86.38
323.108	75.38
323.337	84.38
323.566	98.38
323.795	93.38
324.024	78.38
324.253	102.38
324.482	84.38
324.71	80.38
324.939	73.38
325.168	82.38
325.397	87.38
325.626	79.38
325.855	92.38
326.084	90.38
326.313	94.38
326.542	90.38
326.77	91.38
326.999	105.38
327.228	98.38
327.457	94.38
327.686	86.38
327.914	89.38
328.143	98.38
328.372	94.38
328.6	88.38
328.829	91.38
329.058	86.38
329.287	88.38
329.515	85.38
329.744	93.38
329.972	96.38
330.201	87.38
330.43	75.38
330.658	77.38
330.887	85.38
331.115	99.38
331.344	89.38
331.572	90.38
331.801	76.38
332.03	100.38
332.258	81.38
332.486	73.38
332.715	82.38
332.943	80.38
333.172	79.38
333.4	96.38
333.629	89.38
333.857	87.38
334.085	78.38
334.314	96.38
334.542	98.38
334.771	82.38
334.999	80.38
335.227	77.38
335.455	84.38
335.684	86.38
335.912	94.38
336.14	85.38
336.369	82.38
336.597	101.38
336.825	93.38
337.053	94.38
337.281	86.38
337.51	83.38
337.738	83.38
337.966	87.38
338.194	86.38
338.422	95.38
338.65	91.38
338.878	91.38
339.106	81.38
339.334	85.38
339.562	86.38
339.79	96.38
340.018	75.38
340.246	86.38
340.474	88.38
340.702	78.38
340.93	82.38
341.158	98.38
341.386	91.38
341.614	84.38
341.842	93.38
342.07	95.38
342.298	101.38
342.526	99.38
342.754	78.38
342.981	106.38
343.209	78.38
343.437	87.38
343.665	95.38
343.893	85.38
344.12	86.38
344.348	92.38
344.576	93.38
344.804	86.38
345.031	97.38
345.259	96.38
345.487	75.38
345.714	90.38
345.942	76.38
346.17	92.38
346.397	81.38
346.625	88.38
346.853	108.38
347.08	71.38
347.308	73.38
347.535	82.38
347.763	84.38
347.99	80.38
348.218	72.38
348.445	83.38
348.673	83.38
348.9	89.38
349.128	105.38
349.355	90.38
349.583	97.38
349.81	77.38
350.037	94.38
350.265	88.38
350.492	92.38
350.72	90.38
350.947	86.38
351.174	87.38
351.402	93.38
351.629	86.38
351.856	84.38
352.083	92.38
352.311	87.38
352.538	64.38
352.765	84.38
352.992	94.38
353.22	84.38
353.447	83.38
353.674	79.38
353.901	97.38
354.128	95.38
354.355	85.38
354.583	88.38
354.81	70.38
355.037	77.38
355.264	88.38
355.491	94.38
355.718	83.38
355.945	104.38
356.172	88.38
356.399	91.38
356.626	77.38
356.853	79.38
357.08	96.38
357.307	97.38
357.534	95.38
357.761	82.38
357.988	84.38
358.215	92.38
358.441	82.38
358.668	79.38
358.895	89.38
359.122	90.38
359.349	73.38
359.576	81.38
359.802	87.38
360.029	92.38
360.256	86.38
360.483	82.38
360.709	87.38
360.936	97.38
361.163	68.38
361.39	72.38
361.616	88.38
361.843	89.38
362.07	92.38
362.296	86.38
362.523	78.38
362.749	89.38
362.976	83.38
363.203	87.38
363.429	84.38
363.656	104.38
363.882	91.38
364.109	90.38
364.335	98.38
364.562	90.38
364.788	105.38
365.015	98.38
365.241	83.38
365.468	81.38
365.694	73.38
365.92	79.38
366.147	86.38
366.373	87.38
366.599	86.38
366.826	80.38
367.052	91.38
367.278	92.38
367.505	87.38
367.731	76.38
367.957	88.38
368.184	78.38
368.41	75.38
368.636	80.38
368.862	99.38
369.089	99.38
369.315	90.38
369.541	85.38
369.767	86.38
369.993	71.38
370.219	80.38
370.445	82.38
370.672	79.38
370.898	90.38
371.124	79.38
371.35	88.38
371.576	90.38
371.802	88.38
372.028	95.38
372.254	89.38
372.48	96.38
372.706	96.38
372.932	89.38
373.158	87.38
373.384	88.38
373.61	88.38
373.835	95.38
374.061	107.38
374.287	87.38
374.513	100.38
374.739	90.38
374.965	89.38
375.191	86.38
375.416	82.38
375.642	81.38
375.868	95.38
376.094	99.38
376.319	92.38
376.545	71.38
376.771	68.38
376.997	78.38
377.222	82.38
377.448	92.38
377.674	93.38
377.899	90.38
378.125	82.38
378.35	98.38
378.576	101.38
378.802	90.38
379.027	93.38
379.253	83.38
379.478	80.38
379.704	88.38
379.929	87.38
380.155	85.38
380.38	77.38
380.606	82.38
380.831	96.38
381.057	100.38
381.282	88.38
381.507	77.38
381.733	86.38
381.958	80.38
382.184	77.38
382.409	89.38
382.634	93.38
382.86	74.38
383.085	100.38
383.31	97.38
383.535	89.38
383.761	70.38
383.986	95.38
384.211	83.38
384.436	95.38
384.662	83.38
384.887	90.38
385.112	91.38
385.337	80.38
385.562	85.38
385.787	85.38
386.013	103.38
386.238	87.38
386.463	92.38
386.688	85.38
386.913	85.38
387.138	86.38
387.363	97.38
387.588	92.38
387.813	84.38
388.038	91.38
388.263	87.38
388.488	95.38
388.713	100.38
388.938	87.38
389.163	93.38
389.387	90.38
389.612	82.38
389.837	87.38
390.062	84.38
390.287	74.38
390.512	78.38
390.736	94.38
390.961	92.38
391.186	92.38
391.411	96.38
391.636	94.38
391.86	107.38
392.085	86.38
392.31	89.38
392.534	89.38
392.759	79.38
392.984	86.38
393.208	95.38
393.433	87.38
393.658	83.38
393.882	90.38
394.107	96.38
394.331	87.38
394.556	100.38
394.78	85.38
395.005	84.38
395.229	82.38
395.454	92.38
395.678	87.38
395.903	87.38
396.127	91.38
396.352	106.38
396.576	84.38
396.801	87.38
397.025	84.38
397.249	87.38
397.474	98.38
397.698	99.38
397.922	109.38
398.147	81.38
398.371	86.38
398.595	100.38
398.82	86.38
399.044	91.38
399.268	107.38
399.492	98.38
399.717	94.38
399.941	87.38
400.165	107.38
400.389	94.38
400.613	103.38
400.837	98.38
401.062	103.38
401.286	86.38
401.51	100.38
401.734	92.38
401.958	100.38
402.182	103.38
402.406	100.38
402.63	87.38
402.854	90.38
403.078	86.38
403.302	96.38
403.526	94.38
403.75	79.38
403.974	86.38
404.198	92.38
404.422	98.38
404.645	106.38
404.869	91.38
405.093	90.38
405.317	89.38
405.541	82.38
405.765	91.38
405.988	95.38
406.212	98.38
406.436	99.38
406.66	96.38
406.883	102.38
407.107	82.38
407.331	83.38
407.555	78.38
407.778	89.38
408.002	99.38
408.226	85.38
408.449	80.38
408.673	92.38
408.896	107.38
409.12	89.38
409.344	98.38
409.567	87.38
409.791	93.38
410.014	99.38
410.238	80.38
410.461	92.38
410.685	96.38
410.908	91.38
411.132	90.38
411.355	91.38
411.578	95.38
411.802	85.38
412.025	100.38
412.249	89.38
412.472	97.38
412.695	97.38
412.919	90.38
413.142	100.38
413.365	95.38
413.589	102.38
413.812	98.38
414.035	101.38
414.258	88.38
414.482	98.38
414.705	82.38
414.928	101.38
415.151	102.38
415.374	104.38
415.597	93.38
415.821	83.38
416.044	99.38
416.267	99.38
416.49	90.38
416.713	90.38
416.936	84.38
417.159	90.38
417.382	88.38
417.605	93.38
417.828	99.38
418.051	89.38
418.274	86.38
418.497	94.38
418.72	93.38
418.943	109.38
419.166	78.38
419.389	99.38
419.611	96.38
419.834	99.38
420.057	101.38
420.28	103.38
420.503	95.38
420.726	87.38
420.948	97.38
421.171	108.38
421.394	83.38
421.617	91.38
421.839	100.38
422.062	103.38
422.285	96.38
422.507	83.38
422.73	87.38
422.953	91.38
423.175	84.38
423.398	80.38
423.621	99.38
423.843	93.38
424.066	86.38
424.288	96.38
424.511	102.38
424.733	98.38
424.956	89.38
425.178	103.38
425.401	94.38
425.623	90.38
425.846	98.38
426.068	98.38
426.291	110.38
426.513	103.38
426.735	96.38
426.958	92.38
427.18	100.38
427.402	114.38
427.625	107.38
427.847	98.38
428.069	81.38
428.292	81.38
428.514	101.38
428.736	96.38
428.958	106.38
429.181	89.38
429.403	88.38
429.625	88.38
429.847	80.38
430.069	97.38
430.292	102.38
430.514	88.38
430.736	90.38
430.958	93.38
431.18	99.38
431.402	83.38
431.624	103.38
431.846	98.38
432.068	87.38
432.29	90.38
432.512	86.38
432.734	100.38
432.956	102.38
433.178	94.38
433.4	90.38
433.622	104.38
433.844	98.38
434.066	97.38
434.287	79.38
434.509	90.38
434.731	88.38
434.953	99.38
435.175	100.38
435.397	102.38
435.618	90.38
435.84	95.38
436.062	98.38
436.284	97.38
436.505	108.38
436.727	94.38
436.949	102.38
437.17	95.38
437.392	98.38
437.614	96.38
437.835	91.38
438.057	110.38
438.278	90.38
438.5	90.38
438.721	100.38
438.943	95.38
439.165	89.38
439.386	112.38
439.608	102.38
439.829	102.38
440.05	100.38
440.272	106.38
440.493	97.38
440.715	94.38
440.936	107.38
441.158	96.38
441.379	99.38
441.6	103.38
441.822	90.38
442.043	99.38
442.264	97.38
442.486	111.38
442.707	99.38
442.928	111.38
443.149	93.38
443.371	109.38
443.592	98.38
443.813	116.38
444.034	95.38
444.255	82.38
444.476	110.38
444.698	91.38
444.919	93.38
445.14	228.38
445.361	154.38
445.582	102.38
445.803	103.38
446.024	86.38
446.245	108.38
446.466	101.38
446.687	99.38
446.908	100.38
447.129	108.38
447.35	93.38
447.571	104.38
447.792	93.38
448.013	108.38
448.234	97.38
448.455	98.38
448.675	95.38
448.896	112.38
449.117	109.38
449.338	89.38
449.559	87.38
449.779	103.38
450	86.38
450.221	95.38
450.442	101.38
450.662	100.38
450.883	87.38
451.104	86.38
451.324	105.38
451.545	91.38
451.766	94.38
451.986	92.38
452.207	105.38
452.428	79.38
452.648	98.38
452.869	97.38
453.089	92.38
453.31	87.38
453.53	79.38
453.751	93.38
453.971	86.38
454.192	90.38
454.412	96.38
454.633	83.38
454.853	92.38
455.073	89.38
455.294	98.38
455.514	95.38
455.734	78.38
455.955	92.38
456.175	83.38
456.395	91.38
456.616	96.38
456.836	104.38
457.056	103.38
457.276	95.38
457.497	95.38
457.717	101.38
457.937	92.38
458.157	92.38
458.377	85.38
458.598	102.38
458.818	94.38
459.038	89.38
459.258	86.38
459.478	94.38
459.698	88.38
459.918	84.38
460.138	92.38
460.358	86.38
460.578	84.38
460.798	92.38
461.018	84.38
461.238	90.38
461.458	102.38
461.678	91.38
461.898	98.38
462.118	103.38
462.338	88.38
462.558	89.38
462.777	98.38
462.997	95.38
463.217	91.38
463.437	89.38
463.657	93.38
463.876	86.38
464.096	96.38
464.316	99.38
464.536	83.38
464.755	93.38
464.975	88.38
465.195	84.38
465.414	95.38
465.634	86.38
465.854	94.38
466.073	94.38
466.293	99.38
466.512	110.38
466.732	91.38
466.951	106.38
467.171	96.38
467.391	90.38
467.61	109.38
467.829	104.38
468.049	106.38
468.268	101.38
468.488	100.38
468.707	90.38
468.927	99.38
469.146	101.38
469.365	86.38
469.585	94.38
469.804	87.38
470.023	92.38
470.243	103.38
470.462	104.38
470.681	106.38
470.901	109.38
471.12	86.38
471.339	87.38
471.558	109.38
471.777	106.38
471.997	93.38
472.216	104.38
472.435	95.38
472.654	83.38
472.873	90.38
473.092	89.38
473.311	93.38
473.53	91.38
473.749	84.38
473.968	96.38
474.187	104.38
474.406	91.38
474.625	106.38
474.844	91.38
475.063	95.38
475.282	111.38
475.501	89.38
475.72	92.38
475.939	93.38
476.158	92.38
476.377	94.38
476.596	89.38
476.814	84.38
477.033	97.38
477.252	89.38
477.471	94.38
477.69	88.38
477.908	90.38
478.127	103.38
478.346	100.38
478.564	112.38
478.783	92.38
479.002	93.38
479.22	92.38
479.439	108.38
479.658	100.38
479.876	86.38
480.095	95.38
480.313	93.38
480.532	91.38
480.751	93.38
480.969	96.38
481.188	100.38
481.406	85.38
481.624	84.38
481.843	81.38
482.061	104.38
482.28	91.38
482.498	103.38
482.717	76.38
482.935	103.38
483.153	102.38
483.372	107.38
483.59	116.38
483.808	108.38
484.027	94.38
484.245	79.38
484.463	104.38
484.681	108.38
484.9	103.38
485.118	95.38
485.336	105.38
485.554	91.38
485.772	97.38
485.99	93.38
486.209	86.38
486.427	78.38
486.645	106.38
486.863	106.38
487.081	93.38
487.299	109.38
487.517	111.38
487.735	106.38
487.953	104.38
488.171	116.38
488.389	115.38
488.607	109.38
488.825	99.38
489.043	96.38
489.261	108.38
489.479	102.38
489.696	91.38
489.914	91.38
490.132	99.38
490.35	105.38
490.568	100.38
490.786	107.38
491.003	114.38
491.221	89.38
491.439	112.38
491.657	114.38
491.874	119.38
492.092	127.38
492.31	128.38
492.527	135.38
492.745	110.38
492.963	121.38
493.18	110.38
493.398	112.38
493.615	101.38
493.833	98.38
494.05	108.38
494.268	110.38
494.485	101.38
494.703	107.38
494.92	105.38
495.138	110.38
495.355	104.38
495.573	105.38
495.79	118.38
496.008	105.38
496.225	107.38
496.442	105.38
496.66	99.38
496.877	106.38
497.094	104.38
497.312	114.38
497.529	104.38
497.746	102.38
497.963	105.38
498.181	102.38
498.398	99.38
498.615	76.38
498.832	93.38
499.049	95.38
499.267	93.38
499.484	86.38
499.701	97.38
499.918	99.38
500.135	86.38
500.352	105.38
500.569	95.38
500.786	108.38
501.003	103.38
501.22	99.38
501.437	88.38
501.654	100.38
501.871	83.38
502.088	92.38
502.305	100.38
502.522	107.38
502.739	88.38
502.956	109.38
503.172	105.38
503.389	96.38
503.606	111.38
503.823	99.38
504.04	89.38
504.256	101.38
504.473	96.38
504.69	93.38
504.907	102.38
505.123	83.38
505.34	110.38
505.557	95.38
505.773	89.38
505.99	102.38
506.207	109.38
506.423	108.38
506.64	88.38
506.856	91.38
507.073	90.38
507.289	98.38
507.506	86.38
507.722	91.38
507.939	86.38
508.155	100.38
508.372	95.38
508.588	111.38
508.805	94.38
509.021	86.38
509.238	105.38
509.454	102.38
509.67	86.38
509.887	88.38
510.103	88.38
510.319	77.38
510.536	86.38
510.752	78.38
510.968	83.38
511.184	94.38
511.401	94.38
511.617	106.38
511.833	81.38
512.049	95.38
512.265	81.38
512.481	98.38
512.698	83.38
512.914	87.38
513.13	81.38
513.346	91.38
513.562	90.38
513.778	77.38
513.994	85.38
514.21	86.38
514.426	80.38
514.642	90.38
514.858	86.38
515.074	86.38
515.29	93.38
515.506	94.38
515.721	97.38
515.937	95.38
516.153	98.38
516.369	94.38
