Data from Location5.07152019.Energy5.Lamp.07192019.3%Agarose_HRD10591_16-04-13-628.txt Node
Date: Fri Jul 19 16:04:13 EDT 2019
User: cochatt
Spectrometer: HR+D1059
Trigger mode: 1
Integration Time (sec): 1.000000E-1
Scans to average: 1
Electric dark correction enabled: true
Nonlinearity correction enabled: false
Boxcar width: 0
XAxis mode: Wavelengths
Number of Pixels in Spectrum: 2048
>>>>>Begin Spectral Data<<<<<
223.165	-14.81
223.4	-14.81
223.635	-14.81
223.869	2.19
224.104	-15.81
224.338	-11.81
224.573	-23.81
224.808	-13.81
225.042	-11.81
225.277	-5.81
225.511	-3.81
225.746	10.19
225.98	-1.81
226.215	4.19
226.449	13.19
226.683	21.19
226.918	22.19
227.152	30.19
227.387	44.19
227.621	35.19
227.856	53.19
228.09	57.19
228.324	52.19
228.559	64.19
228.793	48.19
229.027	64.19
229.262	58.19
229.496	60.19
229.73	81.19
229.964	84.19
230.199	64.19
230.433	85.19
230.667	74.19
230.901	86.19
231.136	77.19
231.37	78.19
231.604	79.19
231.838	94.19
232.072	87.19
232.306	92.19
232.541	99.19
232.775	81.19
233.009	75.19
233.243	77.19
233.477	80.19
233.711	89.19
233.945	82.19
234.179	75.19
234.413	96.19
234.647	86.19
234.881	79.19
235.115	74.19
235.349	80.19
235.583	88.19
235.817	88.19
236.051	82.19
236.285	73.19
236.519	72.19
236.753	82.19
236.987	74.19
237.221	81.19
237.455	76.19
237.689	79.19
237.922	85.19
238.156	77.19
238.39	81.19
238.624	89.19
238.858	80.19
239.091	88.19
239.325	93.19
239.559	73.19
239.793	71.19
240.027	85.19
240.26	79.19
240.494	78.19
240.728	89.19
240.961	73.19
241.195	77.19
241.429	71.19
241.662	90.19
241.896	84.19
242.13	71.19
242.363	78.19
242.597	85.19
242.83	92.19
243.064	82.19
243.298	76.19
243.531	72.19
243.765	87.19
243.998	84.19
244.232	81.19
244.465	80.19
244.699	78.19
244.932	74.19
245.166	74.19
245.399	90.19
245.633	86.19
245.866	81.19
246.099	73.19
246.333	84.19
246.566	82.19
246.8	84.19
247.033	72.19
247.266	86.19
247.5	79.19
247.733	97.19
247.966	84.19
248.2	80.19
248.433	73.19
248.666	74.19
248.899	74.19
249.133	88.19
249.366	84.19
249.599	72.19
249.832	70.19
250.066	89.19
250.299	92.19
250.532	82.19
250.765	83.19
250.998	71.19
251.231	77.19
251.465	97.19
251.698	86.19
251.931	84.19
252.164	78.19
252.397	84.19
252.63	80.19
252.863	96.19
253.096	81.19
253.329	82.19
253.562	94.19
253.795	83.19
254.028	69.19
254.261	83.19
254.494	83.19
254.727	80.19
254.96	87.19
255.193	85.19
255.426	102.19
255.659	94.19
255.892	88.19
256.124	95.19
256.357	82.19
256.59	71.19
256.823	76.19
257.056	88.19
257.289	92.19
257.521	89.19
257.754	81.19
257.987	88.19
258.22	84.19
258.452	75.19
258.685	102.19
258.918	81.19
259.151	66.19
259.383	90.19
259.616	90.19
259.849	97.19
260.081	96.19
260.314	94.19
260.547	91.19
260.779	73.19
261.012	88.19
261.244	87.19
261.477	81.19
261.71	79.19
261.942	85.19
262.175	86.19
262.407	78.19
262.64	92.19
262.872	87.19
263.105	82.19
263.337	101.19
263.57	89.19
263.802	84.19
264.035	92.19
264.267	101.19
264.499	79.19
264.732	83.19
264.964	82.19
265.197	82.19
265.429	86.19
265.661	97.19
265.894	92.19
266.126	91.19
266.358	81.19
266.591	91.19
266.823	100.19
267.055	95.19
267.287	78.19
267.52	80.19
267.752	95.19
267.984	93.19
268.216	75.19
268.448	80.19
268.681	85.19
268.913	86.19
269.145	74.19
269.377	79.19
269.609	84.19
269.841	94.19
270.073	85.19
270.306	73.19
270.538	99.19
270.77	93.19
271.002	77.19
271.234	88.19
271.466	84.19
271.698	70.19
271.93	83.19
272.162	88.19
272.394	78.19
272.626	78.19
272.858	94.19
273.09	88.19
273.322	89.19
273.553	83.19
273.785	89.19
274.017	81.19
274.249	96.19
274.481	89.19
274.713	93.19
274.945	89.19
275.176	90.19
275.408	85.19
275.64	97.19
275.872	85.19
276.104	92.19
276.335	79.19
276.567	91.19
276.799	84.19
277.031	88.19
277.262	101.19
277.494	92.19
277.726	104.19
277.957	92.19
278.189	90.19
278.421	89.19
278.652	94.19
278.884	95.19
279.115	91.19
279.347	98.19
279.579	86.19
279.81	87.19
280.042	86.19
280.273	96.19
280.505	75.19
280.736	86.19
280.968	99.19
281.199	98.19
281.431	89.19
281.662	94.19
281.894	98.19
282.125	96.19
282.356	100.19
282.588	94.19
282.819	91.19
283.051	81.19
283.282	89.19
283.513	87.19
283.745	82.19
283.976	91.19
284.207	86.19
284.439	89.19
284.67	100.19
284.901	98.19
285.132	82.19
285.364	84.19
285.595	88.19
285.826	90.19
286.057	96.19
286.288	78.19
286.52	89.19
286.751	93.19
286.982	87.19
287.213	82.19
287.444	93.19
287.675	82.19
287.906	99.19
288.138	98.19
288.369	80.19
288.6	86.19
288.831	98.19
289.062	88.19
289.293	97.19
289.524	83.19
289.755	93.19
289.986	89.19
290.217	92.19
290.448	91.19
290.679	98.19
290.91	96.19
291.141	93.19
291.371	94.19
291.602	110.19
291.833	92.19
292.064	104.19
292.295	74.19
292.526	92.19
292.757	97.19
292.987	84.19
293.218	92.19
293.449	107.19
293.68	96.19
293.91	90.19
294.141	94.19
294.372	99.19
294.603	97.19
294.833	97.19
295.064	96.19
295.295	90.19
295.525	91.19
295.756	87.19
295.987	93.19
296.217	93.19
296.448	96.19
296.679	104.19
296.909	98.19
297.14	104.19
297.37	96.19
297.601	94.19
297.831	92.19
298.062	104.19
298.292	101.19
298.523	92.19
298.753	79.19
298.984	86.19
299.214	89.19
299.445	84.19
299.675	89.19
299.905	104.19
300.136	90.19
300.366	109.19
300.597	102.19
300.827	102.19
301.057	100.19
301.288	90.19
301.518	108.19
301.748	86.19
301.979	86.19
302.209	90.19
302.439	78.19
302.669	75.19
302.9	82.19
303.13	102.19
303.36	95.19
303.59	93.19
303.82	85.19
304.051	87.19
304.281	94.19
304.511	98.19
304.741	92.19
304.971	107.19
305.201	94.19
305.431	103.19
305.661	82.19
305.891	94.19
306.121	96.19
306.352	86.19
306.582	108.19
306.812	91.19
307.042	91.19
307.272	88.19
307.502	104.19
307.731	80.19
307.961	90.19
308.191	98.19
308.421	98.19
308.651	79.19
308.881	99.19
309.111	95.19
309.341	93.19
309.571	88.19
309.8	93.19
310.03	97.19
310.26	100.19
310.49	98.19
310.72	77.19
310.949	94.19
311.179	84.19
311.409	100.19
311.639	104.19
311.868	94.19
312.098	98.19
312.328	99.19
312.557	94.19
312.787	102.19
313.017	97.19
313.246	97.19
313.476	92.19
313.706	83.19
313.935	115.19
314.165	96.19
314.394	102.19
314.624	97.19
314.853	91.19
315.083	85.19
315.312	91.19
315.542	91.19
315.771	113.19
316.001	88.19
316.23	87.19
316.46	81.19
316.689	108.19
316.919	86.19
317.148	85.19
317.377	92.19
317.607	95.19
317.836	87.19
318.065	90.19
318.295	97.19
318.524	99.19
318.753	97.19
318.983	105.19
319.212	87.19
319.441	84.19
319.67	100.19
319.9	91.19
320.129	100.19
320.358	111.19
320.587	80.19
320.816	89.19
321.046	81.19
321.275	92.19
321.504	96.19
321.733	81.19
321.962	102.19
322.191	87.19
322.42	98.19
322.649	97.19
322.878	101.19
323.108	85.19
323.337	103.19
323.566	79.19
323.795	93.19
324.024	89.19
324.253	102.19
324.482	104.19
324.71	101.19
324.939	102.19
325.168	106.19
325.397	104.19
325.626	93.19
325.855	102.19
326.084	98.19
326.313	96.19
326.542	79.19
326.77	96.19
326.999	86.19
327.228	102.19
327.457	97.19
327.686	103.19
327.914	86.19
328.143	101.19
328.372	100.19
328.6	87.19
328.829	100.19
329.058	93.19
329.287	97.19
329.515	101.19
329.744	90.19
329.972	93.19
330.201	92.19
330.43	111.19
330.658	94.19
330.887	104.19
331.115	101.19
331.344	105.19
331.572	92.19
331.801	113.19
332.03	80.19
332.258	83.19
332.486	94.19
332.715	91.19
332.943	92.19
333.172	76.19
333.4	105.19
333.629	101.19
333.857	104.19
334.085	107.19
334.314	93.19
334.542	103.19
334.771	106.19
334.999	109.19
335.227	97.19
335.455	108.19
335.684	96.19
335.912	97.19
336.14	101.19
336.369	71.19
336.597	98.19
336.825	105.19
337.053	86.19
337.281	86.19
337.51	88.19
337.738	115.19
337.966	101.19
338.194	91.19
338.422	99.19
338.65	88.19
338.878	97.19
339.106	96.19
339.334	88.19
339.562	94.19
339.79	81.19
340.018	103.19
340.246	89.19
340.474	97.19
340.702	97.19
340.93	103.19
341.158	92.19
341.386	96.19
341.614	104.19
341.842	99.19
342.07	100.19
342.298	92.19
342.526	108.19
342.754	101.19
342.981	94.19
343.209	94.19
343.437	103.19
343.665	89.19
343.893	108.19
344.12	97.19
344.348	94.19
344.576	97.19
344.804	90.19
345.031	99.19
345.259	109.19
345.487	86.19
345.714	101.19
345.942	84.19
346.17	79.19
346.397	101.19
346.625	86.19
346.853	107.19
347.08	81.19
347.308	105.19
347.535	86.19
347.763	92.19
347.99	77.19
348.218	91.19
348.445	89.19
348.673	84.19
348.9	97.19
349.128	84.19
349.355	94.19
349.583	93.19
349.81	91.19
350.037	94.19
350.265	94.19
350.492	110.19
350.72	93.19
350.947	85.19
351.174	99.19
351.402	95.19
351.629	98.19
351.856	107.19
352.083	91.19
352.311	83.19
352.538	82.19
352.765	90.19
352.992	109.19
353.22	94.19
353.447	86.19
353.674	103.19
353.901	97.19
354.128	83.19
354.355	93.19
354.583	85.19
354.81	78.19
355.037	92.19
355.264	96.19
355.491	97.19
355.718	89.19
355.945	92.19
356.172	97.19
356.399	98.19
356.626	92.19
356.853	100.19
357.08	116.19
357.307	95.19
357.534	97.19
357.761	90.19
357.988	107.19
358.215	90.19
358.441	102.19
358.668	97.19
358.895	93.19
359.122	98.19
359.349	98.19
359.576	94.19
359.802	88.19
360.029	90.19
360.256	91.19
360.483	83.19
360.709	99.19
360.936	90.19
361.163	82.19
361.39	104.19
361.616	99.19
361.843	100.19
362.07	89.19
362.296	95.19
362.523	85.19
362.749	95.19
362.976	108.19
363.203	98.19
363.429	85.19
363.656	97.19
363.882	89.19
364.109	99.19
364.335	88.19
364.562	99.19
364.788	106.19
365.015	97.19
365.241	82.19
365.468	78.19
365.694	98.19
365.92	83.19
366.147	96.19
366.373	99.19
366.599	91.19
366.826	92.19
367.052	99.19
367.278	99.19
367.505	100.19
367.731	102.19
367.957	93.19
368.184	78.19
368.41	96.19
368.636	98.19
368.862	100.19
369.089	76.19
369.315	98.19
369.541	96.19
369.767	98.19
369.993	90.19
370.219	93.19
370.445	93.19
370.672	104.19
370.898	81.19
371.124	92.19
371.35	89.19
371.576	84.19
371.802	78.19
372.028	85.19
372.254	86.19
372.48	105.19
372.706	94.19
372.932	102.19
373.158	89.19
373.384	96.19
373.61	100.19
373.835	83.19
374.061	90.19
374.287	83.19
374.513	86.19
374.739	114.19
374.965	105.19
375.191	108.19
375.416	97.19
375.642	95.19
375.868	102.19
376.094	92.19
376.319	89.19
376.545	98.19
376.771	92.19
376.997	78.19
377.222	96.19
377.448	97.19
377.674	97.19
377.899	80.19
378.125	78.19
378.35	95.19
378.576	93.19
378.802	80.19
379.027	89.19
379.253	96.19
379.478	89.19
379.704	95.19
379.929	80.19
380.155	91.19
380.38	83.19
380.606	93.19
380.831	93.19
381.057	115.19
381.282	106.19
381.507	83.19
381.733	90.19
381.958	95.19
382.184	75.19
382.409	100.19
382.634	92.19
382.86	84.19
383.085	100.19
383.31	101.19
383.535	94.19
383.761	92.19
383.986	109.19
384.211	100.19
384.436	92.19
384.662	85.19
384.887	87.19
385.112	104.19
385.337	101.19
385.562	96.19
385.787	104.19
386.013	101.19
386.238	76.19
386.463	97.19
386.688	90.19
386.913	77.19
387.138	88.19
387.363	92.19
387.588	101.19
387.813	95.19
388.038	94.19
388.263	112.19
388.488	78.19
388.713	97.19
388.938	102.19
389.163	96.19
389.387	101.19
389.612	96.19
389.837	110.19
390.062	98.19
390.287	82.19
390.512	86.19
390.736	107.19
390.961	105.19
391.186	101.19
391.411	103.19
391.636	92.19
391.86	97.19
392.085	91.19
392.31	84.19
392.534	101.19
392.759	102.19
392.984	88.19
393.208	89.19
393.433	97.19
393.658	105.19
393.882	96.19
394.107	100.19
394.331	94.19
394.556	93.19
394.78	107.19
395.005	114.19
395.229	105.19
395.454	90.19
395.678	82.19
395.903	97.19
396.127	105.19
396.352	102.19
396.576	97.19
396.801	99.19
397.025	89.19
397.249	102.19
397.474	94.19
397.698	99.19
397.922	123.19
398.147	93.19
398.371	91.19
398.595	94.19
398.82	86.19
399.044	101.19
399.268	120.19
399.492	115.19
399.717	117.19
399.941	104.19
400.165	106.19
400.389	100.19
400.613	99.19
400.837	97.19
401.062	92.19
401.286	90.19
401.51	97.19
401.734	114.19
401.958	98.19
402.182	101.19
402.406	91.19
402.63	87.19
402.854	93.19
403.078	93.19
403.302	94.19
403.526	101.19
403.75	107.19
403.974	104.19
404.198	113.19
404.422	99.19
404.645	87.19
404.869	101.19
405.093	91.19
405.317	107.19
405.541	98.19
405.765	81.19
405.988	93.19
406.212	105.19
406.436	90.19
406.66	105.19
406.883	100.19
407.107	103.19
407.331	86.19
407.555	103.19
407.778	93.19
408.002	108.19
408.226	123.19
408.449	92.19
408.673	96.19
408.896	108.19
409.12	102.19
409.344	98.19
409.567	95.19
409.791	90.19
410.014	113.19
410.238	101.19
410.461	93.19
410.685	101.19
410.908	97.19
411.132	88.19
411.355	88.19
411.578	100.19
411.802	102.19
412.025	102.19
412.249	90.19
412.472	96.19
412.695	96.19
412.919	105.19
413.142	103.19
413.365	105.19
413.589	89.19
413.812	100.19
414.035	94.19
414.258	96.19
414.482	91.19
414.705	88.19
414.928	88.19
415.151	96.19
415.374	103.19
415.597	97.19
415.821	83.19
416.044	106.19
416.267	115.19
416.49	106.19
416.713	90.19
416.936	110.19
417.159	87.19
417.382	102.19
417.605	109.19
417.828	89.19
418.051	95.19
418.274	100.19
418.497	115.19
418.72	101.19
418.943	101.19
419.166	98.19
419.389	105.19
419.611	105.19
419.834	103.19
420.057	113.19
420.28	102.19
420.503	92.19
420.726	87.19
420.948	97.19
421.171	91.19
421.394	110.19
421.617	96.19
421.839	93.19
422.062	97.19
422.285	99.19
422.507	103.19
422.73	95.19
422.953	85.19
423.175	98.19
423.398	107.19
423.621	107.19
423.843	100.19
424.066	95.19
424.288	103.19
424.511	98.19
424.733	99.19
424.956	99.19
425.178	88.19
425.401	98.19
425.623	97.19
425.846	90.19
426.068	88.19
426.291	98.19
426.513	97.19
426.735	97.19
426.958	94.19
427.18	108.19
427.402	91.19
427.625	96.19
427.847	95.19
428.069	104.19
428.292	110.19
428.514	85.19
428.736	92.19
428.958	106.19
429.181	91.19
429.403	87.19
429.625	92.19
429.847	89.19
430.069	97.19
430.292	77.19
430.514	106.19
430.736	98.19
430.958	100.19
431.18	96.19
431.402	93.19
431.624	108.19
431.846	94.19
432.068	88.19
432.29	89.19
432.512	100.19
432.734	96.19
432.956	87.19
433.178	94.19
433.4	115.19
433.622	102.19
433.844	92.19
434.066	92.19
434.287	84.19
434.509	114.19
434.731	81.19
434.953	90.19
435.175	96.19
435.397	100.19
435.618	109.19
435.84	90.19
436.062	99.19
436.284	114.19
436.505	106.19
436.727	94.19
436.949	104.19
437.17	107.19
437.392	101.19
437.614	113.19
437.835	84.19
438.057	93.19
438.278	88.19
438.5	82.19
438.721	100.19
438.943	103.19
439.165	99.19
439.386	105.19
439.608	104.19
439.829	103.19
440.05	97.19
440.272	85.19
440.493	85.19
440.715	96.19
440.936	108.19
441.158	113.19
441.379	93.19
441.6	98.19
441.822	105.19
442.043	95.19
442.264	100.19
442.486	97.19
442.707	92.19
442.928	86.19
443.149	82.19
443.371	110.19
443.592	100.19
443.813	96.19
444.034	104.19
444.255	105.19
444.476	86.19
444.698	106.19
444.919	109.19
445.14	208.19
445.361	153.19
445.582	93.19
445.803	92.19
446.024	100.19
446.245	103.19
446.466	98.19
446.687	102.19
446.908	68.19
447.129	104.19
447.35	117.19
447.571	106.19
447.792	98.19
448.013	103.19
448.234	91.19
448.455	89.19
448.675	93.19
448.896	90.19
449.117	95.19
449.338	85.19
449.559	100.19
449.779	86.19
450	106.19
450.221	98.19
450.442	85.19
450.662	94.19
450.883	90.19
451.104	97.19
451.324	85.19
451.545	99.19
451.766	118.19
451.986	98.19
452.207	90.19
452.428	93.19
452.648	91.19
452.869	98.19
453.089	84.19
453.31	96.19
453.53	106.19
453.751	89.19
453.971	85.19
454.192	96.19
454.412	101.19
454.633	101.19
454.853	89.19
455.073	87.19
455.294	91.19
455.514	91.19
455.734	89.19
455.955	99.19
456.175	95.19
456.395	91.19
456.616	89.19
456.836	98.19
457.056	88.19
457.276	88.19
457.497	105.19
457.717	97.19
457.937	93.19
458.157	87.19
458.377	96.19
458.598	92.19
458.818	100.19
459.038	100.19
459.258	86.19
459.478	92.19
459.698	99.19
459.918	96.19
460.138	99.19
460.358	88.19
460.578	96.19
460.798	93.19
461.018	99.19
461.238	98.19
461.458	100.19
461.678	106.19
461.898	104.19
462.118	104.19
462.338	102.19
462.558	116.19
462.777	107.19
462.997	98.19
463.217	118.19
463.437	96.19
463.657	105.19
463.876	93.19
464.096	114.19
464.316	116.19
464.536	105.19
464.755	119.19
464.975	110.19
465.195	95.19
465.414	101.19
465.634	102.19
465.854	93.19
466.073	110.19
466.293	87.19
466.512	100.19
466.732	97.19
466.951	102.19
467.171	94.19
467.391	105.19
467.61	96.19
467.829	104.19
468.049	108.19
468.268	92.19
468.488	88.19
468.707	90.19
468.927	105.19
469.146	111.19
469.365	89.19
469.585	107.19
469.804	93.19
470.023	104.19
470.243	96.19
470.462	93.19
470.681	100.19
470.901	101.19
471.12	110.19
471.339	102.19
471.558	98.19
471.777	110.19
471.997	93.19
472.216	97.19
472.435	98.19
472.654	97.19
472.873	90.19
473.092	92.19
473.311	107.19
473.53	86.19
473.749	107.19
473.968	103.19
474.187	106.19
474.406	108.19
474.625	95.19
474.844	96.19
475.063	112.19
475.282	105.19
475.501	91.19
475.72	115.19
475.939	93.19
476.158	104.19
476.377	97.19
476.596	98.19
476.814	96.19
477.033	94.19
477.252	93.19
477.471	116.19
477.69	101.19
477.908	110.19
478.127	103.19
478.346	90.19
478.564	100.19
478.783	101.19
479.002	100.19
479.22	100.19
479.439	97.19
479.658	112.19
479.876	103.19
480.095	114.19
480.313	116.19
480.532	109.19
480.751	102.19
480.969	102.19
481.188	106.19
481.406	102.19
481.624	104.19
481.843	102.19
482.061	96.19
482.28	86.19
482.498	108.19
482.717	106.19
482.935	104.19
483.153	98.19
483.372	99.19
483.59	101.19
483.808	98.19
484.027	122.19
484.245	116.19
484.463	105.19
484.681	108.19
484.9	106.19
485.118	108.19
485.336	109.19
485.554	118.19
485.772	107.19
485.99	107.19
486.209	104.19
486.427	116.19
486.645	107.19
486.863	118.19
487.081	97.19
487.299	105.19
487.517	107.19
487.735	85.19
487.953	116.19
488.171	118.19
488.389	116.19
488.607	108.19
488.825	117.19
489.043	122.19
489.261	109.19
489.479	109.19
489.696	118.19
489.914	115.19
490.132	106.19
490.35	120.19
490.568	106.19
490.786	123.19
491.003	107.19
491.221	105.19
491.439	118.19
491.657	105.19
491.874	113.19
492.092	121.19
492.31	128.19
492.527	120.19
492.745	126.19
492.963	113.19
493.18	117.19
493.398	121.19
493.615	119.19
493.833	122.19
494.05	115.19
494.268	122.19
494.485	113.19
494.703	109.19
494.92	113.19
495.138	114.19
495.355	123.19
495.573	106.19
495.79	116.19
496.008	117.19
496.225	102.19
496.442	118.19
496.66	116.19
496.877	113.19
497.094	122.19
497.312	98.19
497.529	118.19
497.746	127.19
497.963	130.19
498.181	128.19
498.398	89.19
498.615	125.19
498.832	122.19
499.049	119.19
499.267	126.19
499.484	125.19
499.701	127.19
499.918	154.19
500.135	151.19
500.352	173.19
500.569	174.19
500.786	169.19
501.003	161.19
501.22	146.19
501.437	149.19
501.654	140.19
501.871	121.19
502.088	122.19
502.305	117.19
502.522	116.19
502.739	129.19
502.956	122.19
503.172	109.19
503.389	110.19
503.606	115.19
503.823	117.19
504.04	112.19
504.256	107.19
504.473	105.19
504.69	104.19
504.907	126.19
505.123	111.19
505.34	120.19
505.557	106.19
505.773	114.19
505.99	104.19
506.207	106.19
506.423	115.19
506.64	120.19
506.856	101.19
507.073	90.19
507.289	98.19
507.506	112.19
507.722	103.19
507.939	103.19
508.155	106.19
508.372	106.19
508.588	103.19
508.805	102.19
509.021	105.19
509.238	98.19
509.454	94.19
509.67	94.19
509.887	94.19
510.103	100.19
510.319	110.19
510.536	107.19
510.752	109.19
510.968	103.19
511.184	91.19
511.401	85.19
511.617	119.19
511.833	94.19
512.049	116.19
512.265	121.19
512.481	99.19
512.698	106.19
512.914	108.19
513.13	119.19
513.346	105.19
