Data from Location5.07152019.Energy5.Lamp.07192019.3%Agarose_HRD10591_15-39-04-387.txt Node
Date: Fri Jul 19 15:39:04 EDT 2019
User: cochatt
Spectrometer: HR+D1059
Trigger mode: 1
Integration Time (sec): 1.000000E-1
Scans to average: 1
Electric dark correction enabled: true
Nonlinearity correction enabled: false
Boxcar width: 0
XAxis mode: Wavelengths
Number of Pixels in Spectrum: 2048
>>>>>Begin Spectral Data<<<<<
223.165	-12.06
223.4	-12.06
223.635	-12.06
223.869	-23.06
224.104	-33.06
224.338	-5.06
224.573	-27.06
224.808	-9.06
225.042	-2.06
225.277	-1.06
225.511	-2.06
225.746	-6.06
225.98	3.94
226.215	5.94
226.449	11.94
226.683	27.94
226.918	33.94
227.152	36.94
227.387	37.94
227.621	35.94
227.856	31.94
228.09	42.94
228.324	42.94
228.559	53.94
228.793	51.94
229.027	65.94
229.262	67.94
229.496	61.94
229.73	77.94
229.964	68.94
230.199	76.94
230.433	83.94
230.667	66.94
230.901	69.94
231.136	82.94
231.37	75.94
231.604	83.94
231.838	84.94
232.072	83.94
232.306	69.94
232.541	75.94
232.775	84.94
233.009	65.94
233.243	72.94
233.477	80.94
233.711	80.94
233.945	93.94
234.179	84.94
234.413	90.94
234.647	88.94
234.881	74.94
235.115	89.94
235.349	80.94
235.583	79.94
235.817	73.94
236.051	82.94
236.285	77.94
236.519	68.94
236.753	70.94
236.987	81.94
237.221	79.94
237.455	70.94
237.689	73.94
237.922	84.94
238.156	86.94
238.39	72.94
238.624	69.94
238.858	86.94
239.091	68.94
239.325	72.94
239.559	79.94
239.793	79.94
240.027	74.94
240.26	83.94
240.494	74.94
240.728	66.94
240.961	65.94
241.195	80.94
241.429	70.94
241.662	74.94
241.896	55.94
242.13	57.94
242.363	67.94
242.597	79.94
242.83	65.94
243.064	67.94
243.298	63.94
243.531	82.94
243.765	82.94
243.998	66.94
244.232	83.94
244.465	70.94
244.699	78.94
244.932	83.94
245.166	88.94
245.399	83.94
245.633	68.94
245.866	85.94
246.099	68.94
246.333	85.94
246.566	68.94
246.8	66.94
247.033	80.94
247.266	83.94
247.5	70.94
247.733	84.94
247.966	79.94
248.2	78.94
248.433	79.94
248.666	74.94
248.899	81.94
249.133	72.94
249.366	82.94
249.599	74.94
249.832	67.94
250.066	74.94
250.299	76.94
250.532	69.94
250.765	85.94
250.998	77.94
251.231	79.94
251.465	69.94
251.698	77.94
251.931	77.94
252.164	83.94
252.397	84.94
252.63	81.94
252.863	79.94
253.096	71.94
253.329	65.94
253.562	74.94
253.795	74.94
254.028	79.94
254.261	80.94
254.494	81.94
254.727	87.94
254.96	89.94
255.193	69.94
255.426	71.94
255.659	77.94
255.892	72.94
256.124	79.94
256.357	78.94
256.59	79.94
256.823	91.94
257.056	76.94
257.289	76.94
257.521	75.94
257.754	86.94
257.987	77.94
258.22	82.94
258.452	83.94
258.685	68.94
258.918	101.94
259.151	76.94
259.383	76.94
259.616	84.94
259.849	74.94
260.081	76.94
260.314	84.94
260.547	69.94
260.779	75.94
261.012	82.94
261.244	77.94
261.477	86.94
261.71	81.94
261.942	79.94
262.175	80.94
262.407	79.94
262.64	77.94
262.872	91.94
263.105	76.94
263.337	88.94
263.57	80.94
263.802	76.94
264.035	79.94
264.267	86.94
264.499	78.94
264.732	84.94
264.964	91.94
265.197	75.94
265.429	85.94
265.661	79.94
265.894	75.94
266.126	75.94
266.358	79.94
266.591	80.94
266.823	78.94
267.055	80.94
267.287	79.94
267.52	77.94
267.752	89.94
267.984	81.94
268.216	84.94
268.448	83.94
268.681	67.94
268.913	71.94
269.145	78.94
269.377	79.94
269.609	81.94
269.841	87.94
270.073	97.94
270.306	73.94
270.538	91.94
270.77	77.94
271.002	74.94
271.234	63.94
271.466	57.94
271.698	80.94
271.93	91.94
272.162	82.94
272.394	75.94
272.626	78.94
272.858	74.94
273.09	87.94
273.322	93.94
273.553	82.94
273.785	67.94
274.017	81.94
274.249	84.94
274.481	79.94
274.713	73.94
274.945	81.94
275.176	92.94
275.408	93.94
275.64	90.94
275.872	85.94
276.104	84.94
276.335	67.94
276.567	81.94
276.799	82.94
277.031	82.94
277.262	92.94
277.494	87.94
277.726	85.94
277.957	82.94
278.189	72.94
278.421	68.94
278.652	74.94
278.884	74.94
279.115	78.94
279.347	85.94
279.579	84.94
279.81	81.94
280.042	85.94
280.273	97.94
280.505	81.94
280.736	75.94
280.968	93.94
281.199	73.94
281.431	78.94
281.662	100.94
281.894	87.94
282.125	66.94
282.356	85.94
282.588	85.94
282.819	90.94
283.051	70.94
283.282	68.94
283.513	81.94
283.745	86.94
283.976	77.94
284.207	87.94
284.439	79.94
284.67	79.94
284.901	84.94
285.132	86.94
285.364	93.94
285.595	89.94
285.826	93.94
286.057	71.94
286.288	79.94
286.52	73.94
286.751	73.94
286.982	79.94
287.213	77.94
287.444	75.94
287.675	75.94
287.906	83.94
288.138	89.94
288.369	79.94
288.6	91.94
288.831	78.94
289.062	82.94
289.293	89.94
289.524	73.94
289.755	83.94
289.986	68.94
290.217	77.94
290.448	80.94
290.679	90.94
290.91	87.94
291.141	89.94
291.371	80.94
291.602	85.94
291.833	84.94
292.064	81.94
292.295	103.94
292.526	81.94
292.757	93.94
292.987	84.94
293.218	76.94
293.449	93.94
293.68	83.94
293.91	78.94
294.141	67.94
294.372	86.94
294.603	89.94
294.833	74.94
295.064	84.94
295.295	83.94
295.525	99.94
295.756	75.94
295.987	85.94
296.217	81.94
296.448	87.94
296.679	89.94
296.909	83.94
297.14	77.94
297.37	79.94
297.601	83.94
297.831	76.94
298.062	80.94
298.292	81.94
298.523	90.94
298.753	93.94
298.984	95.94
299.214	81.94
299.445	81.94
299.675	75.94
299.905	67.94
300.136	71.94
300.366	79.94
300.597	71.94
300.827	85.94
301.057	82.94
301.288	76.94
301.518	83.94
301.748	83.94
301.979	98.94
302.209	77.94
302.439	78.94
302.669	88.94
302.9	86.94
303.13	80.94
303.36	79.94
303.59	79.94
303.82	64.94
304.051	88.94
304.281	71.94
304.511	109.94
304.741	92.94
304.971	84.94
305.201	76.94
305.431	80.94
305.661	73.94
305.891	79.94
306.121	90.94
306.352	87.94
306.582	94.94
306.812	88.94
307.042	97.94
307.272	89.94
307.502	88.94
307.731	98.94
307.961	87.94
308.191	74.94
308.421	75.94
308.651	73.94
308.881	72.94
309.111	77.94
309.341	77.94
309.571	91.94
309.8	84.94
310.03	87.94
310.26	81.94
310.49	83.94
310.72	81.94
310.949	72.94
311.179	81.94
311.409	73.94
311.639	86.94
311.868	86.94
312.098	90.94
312.328	75.94
312.557	73.94
312.787	89.94
313.017	75.94
313.246	71.94
313.476	65.94
313.706	80.94
313.935	95.94
314.165	78.94
314.394	82.94
314.624	79.94
314.853	87.94
315.083	95.94
315.312	92.94
315.542	83.94
315.771	84.94
316.001	77.94
316.23	78.94
316.46	76.94
316.689	81.94
316.919	81.94
317.148	91.94
317.377	92.94
317.607	93.94
317.836	88.94
318.065	85.94
318.295	79.94
318.524	78.94
318.753	87.94
318.983	73.94
319.212	83.94
319.441	82.94
319.67	86.94
319.9	78.94
320.129	77.94
320.358	84.94
320.587	85.94
320.816	77.94
321.046	73.94
321.275	70.94
321.504	82.94
321.733	82.94
321.962	83.94
322.191	88.94
322.42	83.94
322.649	84.94
322.878	88.94
323.108	72.94
323.337	86.94
323.566	79.94
323.795	78.94
324.024	91.94
324.253	73.94
324.482	96.94
324.71	90.94
324.939	90.94
325.168	80.94
325.397	94.94
325.626	72.94
325.855	75.94
326.084	80.94
326.313	85.94
326.542	81.94
326.77	89.94
326.999	79.94
327.228	80.94
327.457	85.94
327.686	87.94
327.914	96.94
328.143	92.94
328.372	89.94
328.6	99.94
328.829	86.94
329.058	90.94
329.287	86.94
329.515	93.94
329.744	75.94
329.972	92.94
330.201	89.94
330.43	84.94
330.658	92.94
330.887	79.94
331.115	86.94
331.344	75.94
331.572	79.94
331.801	78.94
332.03	87.94
332.258	75.94
332.486	89.94
332.715	94.94
332.943	83.94
333.172	79.94
333.4	85.94
333.629	74.94
333.857	84.94
334.085	79.94
334.314	87.94
334.542	91.94
334.771	93.94
334.999	81.94
335.227	89.94
335.455	82.94
335.684	90.94
335.912	87.94
336.14	87.94
336.369	77.94
336.597	79.94
336.825	87.94
337.053	74.94
337.281	88.94
337.51	78.94
337.738	92.94
337.966	73.94
338.194	78.94
338.422	85.94
338.65	91.94
338.878	85.94
339.106	99.94
339.334	90.94
339.562	75.94
339.79	95.94
340.018	89.94
340.246	80.94
340.474	73.94
340.702	85.94
340.93	87.94
341.158	82.94
341.386	92.94
341.614	85.94
341.842	68.94
342.07	79.94
342.298	78.94
342.526	73.94
342.754	71.94
342.981	89.94
343.209	73.94
343.437	89.94
343.665	80.94
343.893	92.94
344.12	83.94
344.348	91.94
344.576	77.94
344.804	76.94
345.031	89.94
345.259	93.94
345.487	84.94
345.714	92.94
345.942	87.94
346.17	85.94
346.397	80.94
346.625	94.94
346.853	82.94
347.08	88.94
347.308	82.94
347.535	80.94
347.763	89.94
347.99	76.94
348.218	79.94
348.445	79.94
348.673	83.94
348.9	97.94
349.128	79.94
349.355	99.94
349.583	84.94
349.81	75.94
350.037	77.94
350.265	86.94
350.492	73.94
350.72	80.94
350.947	90.94
351.174	92.94
351.402	77.94
351.629	76.94
351.856	83.94
352.083	84.94
352.311	75.94
352.538	83.94
352.765	91.94
352.992	82.94
353.22	81.94
353.447	85.94
353.674	84.94
353.901	87.94
354.128	86.94
354.355	74.94
354.583	92.94
354.81	86.94
355.037	71.94
355.264	93.94
355.491	85.94
355.718	70.94
355.945	96.94
356.172	81.94
356.399	89.94
356.626	84.94
356.853	75.94
357.08	86.94
357.307	84.94
357.534	89.94
357.761	92.94
357.988	84.94
358.215	86.94
358.441	89.94
358.668	78.94
358.895	90.94
359.122	81.94
359.349	77.94
359.576	69.94
359.802	74.94
360.029	87.94
360.256	75.94
360.483	93.94
360.709	86.94
360.936	87.94
361.163	97.94
361.39	78.94
361.616	86.94
361.843	74.94
362.07	78.94
362.296	74.94
362.523	78.94
362.749	69.94
362.976	75.94
363.203	79.94
363.429	85.94
363.656	87.94
363.882	75.94
364.109	90.94
364.335	83.94
364.562	77.94
364.788	66.94
365.015	79.94
365.241	91.94
365.468	77.94
365.694	87.94
365.92	85.94
366.147	84.94
366.373	78.94
366.599	71.94
366.826	85.94
367.052	82.94
367.278	73.94
367.505	79.94
367.731	95.94
367.957	97.94
368.184	79.94
368.41	87.94
368.636	70.94
368.862	72.94
369.089	83.94
369.315	78.94
369.541	79.94
369.767	87.94
369.993	88.94
370.219	79.94
370.445	89.94
370.672	91.94
370.898	91.94
371.124	81.94
371.35	83.94
371.576	95.94
371.802	98.94
372.028	75.94
372.254	82.94
372.48	90.94
372.706	84.94
372.932	86.94
373.158	93.94
373.384	78.94
373.61	74.94
373.835	83.94
374.061	79.94
374.287	90.94
374.513	73.94
374.739	85.94
374.965	79.94
375.191	81.94
375.416	81.94
375.642	75.94
375.868	94.94
376.094	89.94
376.319	88.94
376.545	82.94
376.771	87.94
376.997	93.94
377.222	98.94
377.448	79.94
377.674	76.94
377.899	94.94
378.125	75.94
378.35	91.94
378.576	93.94
378.802	80.94
379.027	84.94
379.253	82.94
379.478	85.94
379.704	95.94
379.929	87.94
380.155	72.94
380.38	70.94
380.606	83.94
380.831	82.94
381.057	98.94
381.282	81.94
381.507	87.94
381.733	77.94
381.958	87.94
382.184	77.94
382.409	72.94
382.634	86.94
382.86	83.94
383.085	84.94
383.31	83.94
383.535	91.94
383.761	73.94
383.986	86.94
384.211	82.94
384.436	77.94
384.662	89.94
384.887	96.94
385.112	78.94
385.337	93.94
385.562	86.94
385.787	72.94
386.013	102.94
386.238	78.94
386.463	74.94
386.688	89.94
386.913	78.94
387.138	72.94
387.363	76.94
387.588	90.94
387.813	85.94
388.038	89.94
388.263	80.94
388.488	91.94
388.713	89.94
388.938	87.94
389.163	82.94
389.387	80.94
389.612	73.94
389.837	77.94
390.062	79.94
390.287	87.94
390.512	93.94
390.736	81.94
390.961	80.94
391.186	80.94
391.411	86.94
391.636	92.94
391.86	76.94
392.085	101.94
392.31	91.94
392.534	81.94
392.759	82.94
392.984	83.94
393.208	84.94
393.433	95.94
393.658	91.94
393.882	77.94
394.107	77.94
394.331	92.94
394.556	81.94
394.78	84.94
395.005	87.94
395.229	90.94
395.454	90.94
395.678	95.94
395.903	89.94
396.127	86.94
396.352	83.94
396.576	79.94
396.801	86.94
397.025	79.94
397.249	86.94
397.474	77.94
397.698	88.94
397.922	95.94
398.147	69.94
398.371	85.94
398.595	101.94
398.82	94.94
399.044	81.94
399.268	86.94
399.492	86.94
399.717	89.94
399.941	85.94
400.165	93.94
400.389	85.94
400.613	78.94
400.837	96.94
401.062	75.94
401.286	85.94
401.51	90.94
401.734	92.94
401.958	93.94
402.182	91.94
402.406	88.94
402.63	91.94
402.854	88.94
403.078	78.94
403.302	77.94
403.526	82.94
403.75	94.94
403.974	101.94
404.198	95.94
404.422	72.94
404.645	95.94
404.869	74.94
405.093	88.94
405.317	96.94
405.541	92.94
405.765	90.94
405.988	91.94
406.212	90.94
406.436	81.94
406.66	99.94
406.883	92.94
407.107	102.94
407.331	91.94
407.555	82.94
407.778	94.94
408.002	98.94
408.226	83.94
408.449	93.94
408.673	75.94
408.896	96.94
409.12	94.94
409.344	95.94
409.567	92.94
409.791	94.94
410.014	98.94
410.238	98.94
410.461	89.94
410.685	93.94
410.908	83.94
411.132	77.94
411.355	82.94
411.578	81.94
411.802	81.94
412.025	90.94
412.249	85.94
412.472	84.94
412.695	95.94
412.919	87.94
413.142	102.94
413.365	94.94
413.589	82.94
413.812	100.94
414.035	104.94
414.258	89.94
414.482	102.94
414.705	86.94
414.928	92.94
415.151	85.94
415.374	86.94
415.597	83.94
415.821	93.94
416.044	80.94
416.267	96.94
416.49	88.94
416.713	98.94
416.936	90.94
417.159	96.94
417.382	88.94
417.605	89.94
417.828	95.94
418.051	93.94
418.274	96.94
418.497	90.94
418.72	113.94
418.943	95.94
419.166	103.94
419.389	95.94
419.611	89.94
419.834	100.94
420.057	96.94
420.28	95.94
420.503	87.94
420.726	89.94
420.948	102.94
421.171	86.94
421.394	99.94
421.617	82.94
421.839	95.94
422.062	111.94
422.285	90.94
422.507	98.94
422.73	89.94
422.953	83.94
423.175	96.94
423.398	84.94
423.621	98.94
423.843	94.94
424.066	88.94
424.288	92.94
424.511	100.94
424.733	91.94
424.956	82.94
425.178	102.94
425.401	101.94
425.623	78.94
425.846	91.94
426.068	96.94
426.291	74.94
426.513	98.94
426.735	98.94
426.958	88.94
427.18	79.94
427.402	90.94
427.625	88.94
427.847	82.94
428.069	88.94
428.292	93.94
428.514	85.94
428.736	92.94
428.958	85.94
429.181	89.94
429.403	74.94
429.625	105.94
429.847	86.94
430.069	94.94
430.292	98.94
430.514	83.94
430.736	91.94
430.958	88.94
431.18	97.94
431.402	90.94
431.624	97.94
431.846	88.94
432.068	69.94
432.29	79.94
432.512	87.94
432.734	97.94
432.956	96.94
433.178	98.94
433.4	102.94
433.622	92.94
433.844	94.94
434.066	91.94
434.287	81.94
434.509	82.94
434.731	77.94
434.953	82.94
435.175	98.94
435.397	86.94
435.618	82.94
435.84	93.94
436.062	89.94
436.284	87.94
436.505	85.94
436.727	91.94
436.949	102.94
437.17	90.94
437.392	89.94
437.614	93.94
437.835	86.94
438.057	89.94
438.278	86.94
438.5	98.94
438.721	78.94
438.943	91.94
439.165	97.94
439.386	100.94
439.608	85.94
439.829	102.94
440.05	93.94
440.272	87.94
440.493	105.94
440.715	93.94
440.936	102.94
441.158	101.94
441.379	99.94
441.6	97.94
441.822	96.94
442.043	93.94
442.264	75.94
442.486	87.94
442.707	95.94
442.928	105.94
443.149	103.94
443.371	91.94
443.592	92.94
443.813	90.94
444.034	88.94
444.255	97.94
444.476	113.94
444.698	99.94
444.919	94.94
445.14	218.94
445.361	145.94
445.582	97.94
445.803	96.94
446.024	110.94
446.245	102.94
446.466	99.94
446.687	87.94
446.908	88.94
447.129	104.94
447.35	102.94
447.571	99.94
447.792	100.94
448.013	91.94
448.234	98.94
448.455	89.94
448.675	88.94
448.896	84.94
449.117	93.94
449.338	92.94
449.559	98.94
449.779	87.94
450	99.94
450.221	98.94
450.442	87.94
450.662	94.94
450.883	88.94
451.104	85.94
451.324	95.94
451.545	96.94
451.766	102.94
451.986	91.94
452.207	78.94
452.428	89.94
452.648	86.94
452.869	75.94
453.089	86.94
453.31	89.94
453.53	81.94
453.751	71.94
453.971	89.94
454.192	94.94
454.412	92.94
454.633	87.94
454.853	98.94
455.073	94.94
455.294	97.94
455.514	90.94
455.734	98.94
455.955	77.94
456.175	106.94
456.395	87.94
456.616	90.94
456.836	88.94
457.056	76.94
457.276	72.94
457.497	83.94
457.717	91.94
457.937	87.94
458.157	85.94
458.377	86.94
458.598	75.94
458.818	72.94
459.038	84.94
459.258	82.94
459.478	98.94
459.698	80.94
459.918	81.94
460.138	90.94
460.358	86.94
460.578	95.94
460.798	80.94
461.018	87.94
461.238	88.94
461.458	89.94
461.678	90.94
461.898	94.94
462.118	88.94
462.338	85.94
462.558	94.94
462.777	91.94
462.997	95.94
463.217	84.94
463.437	70.94
463.657	74.94
463.876	78.94
464.096	75.94
464.316	87.94
464.536	85.94
464.755	93.94
464.975	83.94
465.195	86.94
465.414	83.94
465.634	80.94
465.854	97.94
466.073	98.94
466.293	99.94
466.512	89.94
466.732	75.94
466.951	88.94
467.171	95.94
467.391	97.94
467.61	106.94
467.829	95.94
468.049	106.94
468.268	87.94
468.488	85.94
468.707	82.94
468.927	100.94
469.146	87.94
469.365	97.94
469.585	92.94
469.804	96.94
470.023	90.94
470.243	90.94
470.462	92.94
470.681	89.94
470.901	87.94
471.12	107.94
471.339	96.94
471.558	92.94
471.777	91.94
471.997	92.94
472.216	86.94
472.435	87.94
472.654	85.94
472.873	92.94
473.092	74.94
473.311	98.94
473.53	95.94
473.749	97.94
473.968	96.94
474.187	82.94
474.406	78.94
474.625	84.94
474.844	89.94
475.063	94.94
475.282	88.94
475.501	92.94
475.72	96.94
475.939	84.94
476.158	89.94
476.377	79.94
476.596	79.94
476.814	88.94
477.033	99.94
477.252	84.94
477.471	87.94
477.69	99.94
477.908	102.94
478.127	105.94
478.346	94.94
478.564	81.94
478.783	98.94
479.002	96.94
479.22	91.94
479.439	91.94
479.658	93.94
479.876	96.94
480.095	94.94
480.313	88.94
480.532	89.94
480.751	86.94
480.969	102.94
481.188	90.94
481.406	85.94
481.624	81.94
481.843	73.94
482.061	76.94
482.28	75.94
482.498	79.94
482.717	97.94
482.935	95.94
483.153	96.94
483.372	101.94
483.59	106.94
483.808	100.94
484.027	81.94
484.245	99.94
484.463	98.94
484.681	107.94
484.9	98.94
485.118	87.94
485.336	101.94
485.554	86.94
485.772	76.94
485.99	65.94
486.209	91.94
486.427	87.94
486.645	89.94
486.863	92.94
487.081	101.94
487.299	93.94
487.517	88.94
487.735	98.94
487.953	115.94
488.171	118.94
488.389	111.94
488.607	81.94
488.825	104.94
489.043	91.94
489.261	89.94
489.479	103.94
489.696	98.94
489.914	87.94
490.132	111.94
490.35	111.94
490.568	102.94
490.786	114.94
491.003	112.94
491.221	90.94
491.439	109.94
491.657	119.94
491.874	118.94
492.092	126.94
492.31	122.94
492.527	122.94
492.745	112.94
492.963	115.94
493.18	95.94
493.398	95.94
493.615	79.94
493.833	99.94
494.05	104.94
494.268	112.94
494.485	109.94
494.703	106.94
494.92	113.94
495.138	95.94
495.355	114.94
495.573	99.94
495.79	105.94
496.008	94.94
496.225	94.94
496.442	119.94
496.66	110.94
496.877	107.94
497.094	100.94
497.312	112.94
497.529	92.94
497.746	106.94
497.963	93.94
498.181	93.94
498.398	89.94
498.615	100.94
498.832	76.94
499.049	81.94
499.267	91.94
499.484	89.94
499.701	93.94
499.918	92.94
500.135	94.94
500.352	88.94
500.569	89.94
500.786	95.94
501.003	102.94
501.22	101.94
501.437	110.94
501.654	85.94
501.871	76.94
502.088	92.94
502.305	88.94
502.522	82.94
502.739	92.94
502.956	94.94
503.172	87.94
503.389	82.94
503.606	81.94
503.823	100.94
504.04	94.94
504.256	94.94
504.473	83.94
504.69	96.94
504.907	103.94
505.123	94.94
505.34	90.94
505.557	87.94
505.773	89.94
505.99	93.94
506.207	69.94
506.423	89.94
506.64	82.94
506.856	89.94
507.073	84.94
507.289	88.94
507.506	99.94
507.722	89.94
507.939	100.94
508.155	95.94
508.372	90.94
508.588	91.94
508.805	87.94
509.021	86.94
509.238	92.94
509.454	83.94
509.67	80.94
509.887	76.94
510.103	73.94
510.319	94.94
510.536	95.94
510.752	85.94
510.968	84.94
511.184	84.94
511.401	78.94
511.617	91.94
511.833	92.94
512.049	71.94
512.265	86.94
512.481	89.94
512.698	84.94
512.914	93.94
513.13	80.94
513.346	79.94
513.562	81.94
513.778	72.94
513.994	73.94
514.21	78.94
514.426	79.94
514.642	94.94
514.858	91.94
515.074	86.94
515.29	77.94
515.506	81.94
515.721	80.94
515.937	91.94
516.153	88.94
516.369	101.94
516.585	80.94
516.801	84.94
517.016	87.94
517.232	80.94
517.448	87.94
517.664	83.94
517.879	82.94
518.095	89.94
518.311	78.94
