Data from Location5.07152019.Energy5.Lamp.07192019.3%Agarose_HRD10591_16-05-25-629.txt Node
Date: Fri Jul 19 16:05:25 EDT 2019
User: cochatt
Spectrometer: HR+D1059
Trigger mode: 1
Integration Time (sec): 1.000000E-1
Scans to average: 1
Electric dark correction enabled: true
Nonlinearity correction enabled: false
Boxcar width: 0
XAxis mode: Wavelengths
Number of Pixels in Spectrum: 2048
>>>>>Begin Spectral Data<<<<<
223.165	-17.06
223.4	-17.06
223.635	-17.06
223.869	-25.06
224.104	-29.06
224.338	-5.06
224.573	-17.06
224.808	-11.06
225.042	-4.06
225.277	1.94
225.511	-6.06
225.746	9.94
225.98	22.94
226.215	13.94
226.449	11.94
226.683	8.94
226.918	17.94
227.152	26.94
227.387	27.94
227.621	37.94
227.856	29.94
228.09	36.94
228.324	44.94
228.559	47.94
228.793	59.94
229.027	53.94
229.262	70.94
229.496	57.94
229.73	57.94
229.964	64.94
230.199	72.94
230.433	65.94
230.667	62.94
230.901	66.94
231.136	86.94
231.37	88.94
231.604	72.94
231.838	79.94
232.072	74.94
232.306	70.94
232.541	72.94
232.775	87.94
233.009	89.94
233.243	79.94
233.477	82.94
233.711	81.94
233.945	63.94
234.179	81.94
234.413	81.94
234.647	81.94
234.881	85.94
235.115	69.94
235.349	74.94
235.583	80.94
235.817	60.94
236.051	80.94
236.285	63.94
236.519	61.94
236.753	72.94
236.987	85.94
237.221	81.94
237.455	63.94
237.689	85.94
237.922	72.94
238.156	75.94
238.39	72.94
238.624	73.94
238.858	66.94
239.091	77.94
239.325	70.94
239.559	71.94
239.793	71.94
240.027	59.94
240.26	83.94
240.494	80.94
240.728	70.94
240.961	72.94
241.195	81.94
241.429	61.94
241.662	63.94
241.896	75.94
242.13	77.94
242.363	61.94
242.597	92.94
242.83	67.94
243.064	64.94
243.298	67.94
243.531	77.94
243.765	66.94
243.998	89.94
244.232	69.94
244.465	65.94
244.699	78.94
244.932	81.94
245.166	79.94
245.399	83.94
245.633	68.94
245.866	82.94
246.099	64.94
246.333	82.94
246.566	64.94
246.8	71.94
247.033	76.94
247.266	51.94
247.5	79.94
247.733	70.94
247.966	72.94
248.2	88.94
248.433	72.94
248.666	71.94
248.899	75.94
249.133	80.94
249.366	77.94
249.599	89.94
249.832	68.94
250.066	75.94
250.299	80.94
250.532	68.94
250.765	75.94
250.998	73.94
251.231	73.94
251.465	83.94
251.698	68.94
251.931	84.94
252.164	85.94
252.397	87.94
252.63	81.94
252.863	80.94
253.096	77.94
253.329	63.94
253.562	77.94
253.795	79.94
254.028	86.94
254.261	72.94
254.494	89.94
254.727	83.94
254.96	67.94
255.193	85.94
255.426	68.94
255.659	82.94
255.892	74.94
256.124	87.94
256.357	82.94
256.59	90.94
256.823	67.94
257.056	86.94
257.289	81.94
257.521	76.94
257.754	90.94
257.987	67.94
258.22	93.94
258.452	73.94
258.685	73.94
258.918	84.94
259.151	77.94
259.383	79.94
259.616	76.94
259.849	72.94
260.081	81.94
260.314	100.94
260.547	75.94
260.779	71.94
261.012	72.94
261.244	69.94
261.477	80.94
261.71	81.94
261.942	84.94
262.175	89.94
262.407	80.94
262.64	80.94
262.872	82.94
263.105	81.94
263.337	80.94
263.57	75.94
263.802	73.94
264.035	78.94
264.267	87.94
264.499	79.94
264.732	84.94
264.964	88.94
265.197	82.94
265.429	77.94
265.661	77.94
265.894	78.94
266.126	63.94
266.358	82.94
266.591	87.94
266.823	83.94
267.055	87.94
267.287	84.94
267.52	87.94
267.752	76.94
267.984	81.94
268.216	91.94
268.448	76.94
268.681	85.94
268.913	80.94
269.145	80.94
269.377	73.94
269.609	79.94
269.841	99.94
270.073	84.94
270.306	69.94
270.538	74.94
270.77	89.94
271.002	86.94
271.234	73.94
271.466	96.94
271.698	86.94
271.93	71.94
272.162	88.94
272.394	79.94
272.626	85.94
272.858	81.94
273.09	93.94
273.322	87.94
273.553	89.94
273.785	80.94
274.017	82.94
274.249	81.94
274.481	71.94
274.713	74.94
274.945	94.94
275.176	73.94
275.408	82.94
275.64	79.94
275.872	91.94
276.104	89.94
276.335	97.94
276.567	72.94
276.799	76.94
277.031	83.94
277.262	93.94
277.494	75.94
277.726	78.94
277.957	72.94
278.189	86.94
278.421	92.94
278.652	97.94
278.884	85.94
279.115	83.94
279.347	72.94
279.579	93.94
279.81	80.94
280.042	89.94
280.273	80.94
280.505	78.94
280.736	87.94
280.968	84.94
281.199	87.94
281.431	87.94
281.662	74.94
281.894	93.94
282.125	68.94
282.356	83.94
282.588	76.94
282.819	94.94
283.051	80.94
283.282	76.94
283.513	87.94
283.745	81.94
283.976	101.94
284.207	78.94
284.439	83.94
284.67	84.94
284.901	93.94
285.132	67.94
285.364	72.94
285.595	79.94
285.826	76.94
286.057	84.94
286.288	72.94
286.52	75.94
286.751	84.94
286.982	77.94
287.213	95.94
287.444	88.94
287.675	93.94
287.906	109.94
288.138	86.94
288.369	75.94
288.6	93.94
288.831	79.94
289.062	59.94
289.293	78.94
289.524	76.94
289.755	102.94
289.986	87.94
290.217	79.94
290.448	88.94
290.679	87.94
290.91	110.94
291.141	75.94
291.371	77.94
291.602	93.94
291.833	81.94
292.064	87.94
292.295	82.94
292.526	78.94
292.757	109.94
292.987	85.94
293.218	84.94
293.449	94.94
293.68	81.94
293.91	79.94
294.141	83.94
294.372	94.94
294.603	97.94
294.833	95.94
295.064	79.94
295.295	93.94
295.525	88.94
295.756	74.94
295.987	87.94
296.217	88.94
296.448	90.94
296.679	78.94
296.909	99.94
297.14	97.94
297.37	83.94
297.601	83.94
297.831	95.94
298.062	85.94
298.292	93.94
298.523	88.94
298.753	96.94
298.984	90.94
299.214	90.94
299.445	90.94
299.675	82.94
299.905	76.94
300.136	73.94
300.366	89.94
300.597	74.94
300.827	75.94
301.057	95.94
301.288	92.94
301.518	78.94
301.748	90.94
301.979	77.94
302.209	87.94
302.439	80.94
302.669	84.94
302.9	99.94
303.13	98.94
303.36	83.94
303.59	79.94
303.82	94.94
304.051	89.94
304.281	77.94
304.511	78.94
304.741	92.94
304.971	84.94
305.201	81.94
305.431	85.94
305.661	98.94
305.891	72.94
306.121	92.94
306.352	85.94
306.582	92.94
306.812	72.94
307.042	83.94
307.272	87.94
307.502	70.94
307.731	82.94
307.961	88.94
308.191	91.94
308.421	81.94
308.651	91.94
308.881	76.94
309.111	79.94
309.341	75.94
309.571	72.94
309.8	74.94
310.03	79.94
310.26	89.94
310.49	99.94
310.72	93.94
310.949	85.94
311.179	77.94
311.409	82.94
311.639	77.94
311.868	87.94
312.098	71.94
312.328	96.94
312.557	97.94
312.787	86.94
313.017	86.94
313.246	82.94
313.476	100.94
313.706	111.94
313.935	80.94
314.165	103.94
314.394	86.94
314.624	70.94
314.853	83.94
315.083	87.94
315.312	86.94
315.542	78.94
315.771	101.94
316.001	92.94
316.23	111.94
316.46	84.94
316.689	89.94
316.919	94.94
317.148	92.94
317.377	81.94
317.607	102.94
317.836	84.94
318.065	87.94
318.295	94.94
318.524	91.94
318.753	92.94
318.983	92.94
319.212	90.94
319.441	93.94
319.67	86.94
319.9	85.94
320.129	92.94
320.358	101.94
320.587	73.94
320.816	81.94
321.046	84.94
321.275	78.94
321.504	79.94
321.733	88.94
321.962	83.94
322.191	91.94
322.42	91.94
322.649	89.94
322.878	92.94
323.108	95.94
323.337	93.94
323.566	82.94
323.795	75.94
324.024	91.94
324.253	91.94
324.482	76.94
324.71	86.94
324.939	84.94
325.168	69.94
325.397	81.94
325.626	77.94
325.855	92.94
326.084	88.94
326.313	90.94
326.542	88.94
326.77	102.94
326.999	86.94
327.228	88.94
327.457	90.94
327.686	99.94
327.914	86.94
328.143	86.94
328.372	94.94
328.6	90.94
328.829	80.94
329.058	85.94
329.287	89.94
329.515	76.94
329.744	82.94
329.972	94.94
330.201	80.94
330.43	87.94
330.658	80.94
330.887	91.94
331.115	91.94
331.344	87.94
331.572	89.94
331.801	93.94
332.03	86.94
332.258	90.94
332.486	84.94
332.715	92.94
332.943	89.94
333.172	94.94
333.4	93.94
333.629	96.94
333.857	88.94
334.085	92.94
334.314	93.94
334.542	94.94
334.771	96.94
334.999	81.94
335.227	92.94
335.455	98.94
335.684	77.94
335.912	97.94
336.14	93.94
336.369	93.94
336.597	97.94
336.825	85.94
337.053	73.94
337.281	87.94
337.51	82.94
337.738	82.94
337.966	82.94
338.194	76.94
338.422	74.94
338.65	80.94
338.878	85.94
339.106	82.94
339.334	81.94
339.562	93.94
339.79	102.94
340.018	93.94
340.246	90.94
340.474	87.94
340.702	71.94
340.93	71.94
341.158	93.94
341.386	85.94
341.614	86.94
341.842	88.94
342.07	85.94
342.298	67.94
342.526	89.94
342.754	68.94
342.981	87.94
343.209	94.94
343.437	91.94
343.665	86.94
343.893	91.94
344.12	86.94
344.348	92.94
344.576	94.94
344.804	83.94
345.031	91.94
345.259	79.94
345.487	80.94
345.714	87.94
345.942	81.94
346.17	84.94
346.397	85.94
346.625	91.94
346.853	88.94
347.08	91.94
347.308	95.94
347.535	84.94
347.763	78.94
347.99	84.94
348.218	81.94
348.445	91.94
348.673	78.94
348.9	79.94
349.128	89.94
349.355	91.94
349.583	91.94
349.81	82.94
350.037	86.94
350.265	87.94
350.492	87.94
350.72	91.94
350.947	72.94
351.174	87.94
351.402	79.94
351.629	102.94
351.856	99.94
352.083	82.94
352.311	78.94
352.538	97.94
352.765	77.94
352.992	91.94
353.22	94.94
353.447	99.94
353.674	88.94
353.901	94.94
354.128	92.94
354.355	75.94
354.583	83.94
354.81	91.94
355.037	78.94
355.264	88.94
355.491	85.94
355.718	94.94
355.945	106.94
356.172	84.94
356.399	81.94
356.626	82.94
356.853	84.94
357.08	85.94
357.307	97.94
357.534	92.94
357.761	98.94
357.988	86.94
358.215	100.94
358.441	82.94
358.668	83.94
358.895	80.94
359.122	89.94
359.349	74.94
359.576	76.94
359.802	85.94
360.029	82.94
360.256	77.94
360.483	89.94
360.709	88.94
360.936	80.94
361.163	84.94
361.39	81.94
361.616	89.94
361.843	89.94
362.07	73.94
362.296	84.94
362.523	85.94
362.749	75.94
362.976	79.94
363.203	84.94
363.429	79.94
363.656	91.94
363.882	98.94
364.109	90.94
364.335	76.94
364.562	67.94
364.788	96.94
365.015	83.94
365.241	89.94
365.468	78.94
365.694	85.94
365.92	56.94
366.147	78.94
366.373	75.94
366.599	81.94
366.826	89.94
367.052	92.94
367.278	97.94
367.505	84.94
367.731	93.94
367.957	82.94
368.184	76.94
368.41	92.94
368.636	89.94
368.862	101.94
369.089	80.94
369.315	92.94
369.541	100.94
369.767	83.94
369.993	76.94
370.219	91.94
370.445	84.94
370.672	82.94
370.898	84.94
371.124	89.94
371.35	80.94
371.576	81.94
371.802	96.94
372.028	89.94
372.254	73.94
372.48	83.94
372.706	88.94
372.932	80.94
373.158	92.94
373.384	92.94
373.61	85.94
373.835	78.94
374.061	95.94
374.287	82.94
374.513	100.94
374.739	82.94
374.965	81.94
375.191	81.94
375.416	101.94
375.642	90.94
375.868	82.94
376.094	80.94
376.319	91.94
376.545	94.94
376.771	96.94
376.997	97.94
377.222	85.94
377.448	87.94
377.674	90.94
377.899	96.94
378.125	68.94
378.35	103.94
378.576	83.94
378.802	78.94
379.027	82.94
379.253	83.94
379.478	88.94
379.704	85.94
379.929	91.94
380.155	87.94
380.38	97.94
380.606	87.94
380.831	102.94
381.057	104.94
381.282	73.94
381.507	79.94
381.733	98.94
381.958	82.94
382.184	85.94
382.409	86.94
382.634	79.94
382.86	86.94
383.085	95.94
383.31	85.94
383.535	105.94
383.761	82.94
383.986	82.94
384.211	73.94
384.436	99.94
384.662	79.94
384.887	91.94
385.112	88.94
385.337	72.94
385.562	78.94
385.787	76.94
386.013	85.94
386.238	89.94
386.463	79.94
386.688	87.94
386.913	86.94
387.138	74.94
387.363	92.94
387.588	91.94
387.813	87.94
388.038	100.94
388.263	93.94
388.488	85.94
388.713	81.94
388.938	79.94
389.163	86.94
389.387	95.94
389.612	91.94
389.837	81.94
390.062	92.94
390.287	77.94
390.512	85.94
390.736	87.94
390.961	82.94
391.186	88.94
391.411	83.94
391.636	80.94
391.86	88.94
392.085	84.94
392.31	96.94
392.534	85.94
392.759	89.94
392.984	87.94
393.208	92.94
393.433	99.94
393.658	85.94
393.882	91.94
394.107	81.94
394.331	97.94
394.556	96.94
394.78	95.94
395.005	96.94
395.229	73.94
395.454	103.94
395.678	79.94
395.903	97.94
396.127	79.94
396.352	85.94
396.576	76.94
396.801	97.94
397.025	78.94
397.249	93.94
397.474	88.94
397.698	101.94
397.922	93.94
398.147	83.94
398.371	83.94
398.595	89.94
398.82	79.94
399.044	84.94
399.268	102.94
399.492	99.94
399.717	110.94
399.941	90.94
400.165	90.94
400.389	88.94
400.613	86.94
400.837	93.94
401.062	90.94
401.286	93.94
401.51	76.94
401.734	85.94
401.958	85.94
402.182	85.94
402.406	103.94
402.63	87.94
402.854	91.94
403.078	89.94
403.302	95.94
403.526	93.94
403.75	104.94
403.974	100.94
404.198	92.94
404.422	108.94
404.645	91.94
404.869	89.94
405.093	97.94
405.317	93.94
405.541	85.94
405.765	82.94
405.988	85.94
406.212	95.94
406.436	84.94
406.66	98.94
406.883	96.94
407.107	88.94
407.331	88.94
407.555	75.94
407.778	90.94
408.002	84.94
408.226	88.94
408.449	92.94
408.673	89.94
408.896	101.94
409.12	88.94
409.344	95.94
409.567	92.94
409.791	79.94
410.014	93.94
410.238	75.94
410.461	67.94
410.685	80.94
410.908	88.94
411.132	83.94
411.355	93.94
411.578	81.94
411.802	83.94
412.025	92.94
412.249	80.94
412.472	84.94
412.695	83.94
412.919	103.94
413.142	81.94
413.365	91.94
413.589	97.94
413.812	95.94
414.035	97.94
414.258	73.94
414.482	87.94
414.705	100.94
414.928	78.94
415.151	88.94
415.374	92.94
415.597	86.94
415.821	88.94
416.044	79.94
416.267	79.94
416.49	89.94
416.713	76.94
416.936	73.94
417.159	80.94
417.382	95.94
417.605	85.94
417.828	95.94
418.051	95.94
418.274	87.94
418.497	91.94
418.72	96.94
418.943	78.94
419.166	95.94
419.389	101.94
419.611	91.94
419.834	87.94
420.057	100.94
420.28	72.94
420.503	86.94
420.726	80.94
420.948	85.94
421.171	85.94
421.394	85.94
421.617	84.94
421.839	82.94
422.062	102.94
422.285	98.94
422.507	81.94
422.73	94.94
422.953	80.94
423.175	95.94
423.398	95.94
423.621	96.94
423.843	67.94
424.066	92.94
424.288	91.94
424.511	101.94
424.733	89.94
424.956	96.94
425.178	90.94
425.401	89.94
425.623	85.94
425.846	79.94
426.068	91.94
426.291	82.94
426.513	87.94
426.735	78.94
426.958	90.94
427.18	99.94
427.402	85.94
427.625	77.94
427.847	75.94
428.069	84.94
428.292	87.94
428.514	77.94
428.736	86.94
428.958	92.94
429.181	82.94
429.403	91.94
429.625	82.94
429.847	88.94
430.069	94.94
430.292	79.94
430.514	85.94
430.736	84.94
430.958	100.94
431.18	81.94
431.402	78.94
431.624	93.94
431.846	86.94
432.068	96.94
432.29	79.94
432.512	83.94
432.734	75.94
432.956	87.94
433.178	72.94
433.4	93.94
433.622	84.94
433.844	80.94
434.066	75.94
434.287	80.94
434.509	77.94
434.731	77.94
434.953	86.94
435.175	89.94
435.397	78.94
435.618	94.94
435.84	89.94
436.062	87.94
436.284	86.94
436.505	73.94
436.727	86.94
436.949	79.94
437.17	73.94
437.392	85.94
437.614	91.94
437.835	67.94
438.057	95.94
438.278	74.94
438.5	82.94
438.721	87.94
438.943	88.94
439.165	80.94
439.386	87.94
439.608	96.94
439.829	91.94
440.05	81.94
440.272	89.94
440.493	85.94
440.715	73.94
440.936	95.94
441.158	94.94
441.379	81.94
441.6	89.94
441.822	75.94
442.043	104.94
442.264	93.94
442.486	88.94
442.707	87.94
442.928	84.94
443.149	83.94
443.371	94.94
443.592	92.94
443.813	89.94
444.034	90.94
444.255	95.94
444.476	92.94
444.698	90.94
444.919	79.94
445.14	204.94
445.361	128.94
445.582	92.94
445.803	87.94
446.024	79.94
446.245	96.94
446.466	79.94
446.687	85.94
446.908	83.94
447.129	84.94
447.35	87.94
447.571	98.94
447.792	84.94
448.013	89.94
448.234	88.94
448.455	82.94
448.675	73.94
448.896	91.94
449.117	90.94
449.338	84.94
449.559	83.94
449.779	66.94
450	80.94
450.221	81.94
450.442	76.94
450.662	87.94
450.883	93.94
451.104	87.94
451.324	94.94
451.545	92.94
451.766	77.94
451.986	95.94
452.207	82.94
452.428	99.94
452.648	76.94
452.869	86.94
453.089	86.94
453.31	86.94
453.53	80.94
453.751	86.94
453.971	94.94
454.192	90.94
454.412	92.94
454.633	94.94
454.853	88.94
455.073	86.94
455.294	93.94
455.514	91.94
455.734	81.94
455.955	77.94
456.175	87.94
456.395	103.94
456.616	87.94
456.836	90.94
457.056	81.94
457.276	91.94
457.497	93.94
457.717	79.94
457.937	73.94
458.157	79.94
458.377	70.94
458.598	80.94
458.818	94.94
459.038	88.94
459.258	75.94
459.478	72.94
459.698	77.94
459.918	96.94
460.138	81.94
460.358	100.94
460.578	73.94
460.798	103.94
461.018	103.94
461.238	93.94
461.458	107.94
461.678	89.94
461.898	90.94
462.118	95.94
462.338	97.94
462.558	91.94
462.777	91.94
462.997	87.94
463.217	101.94
463.437	89.94
463.657	83.94
463.876	93.94
464.096	83.94
464.316	87.94
464.536	96.94
464.755	86.94
464.975	93.94
465.195	98.94
465.414	92.94
465.634	89.94
465.854	81.94
466.073	70.94
466.293	75.94
466.512	87.94
466.732	88.94
466.951	74.94
467.171	87.94
467.391	94.94
467.61	89.94
467.829	78.94
468.049	67.94
468.268	93.94
468.488	80.94
468.707	93.94
468.927	80.94
469.146	89.94
469.365	94.94
469.585	79.94
469.804	90.94
470.023	87.94
470.243	91.94
470.462	94.94
470.681	85.94
470.901	87.94
471.12	77.94
471.339	94.94
471.558	83.94
471.777	101.94
471.997	88.94
472.216	95.94
472.435	89.94
472.654	89.94
472.873	77.94
473.092	91.94
473.311	84.94
473.53	75.94
473.749	82.94
473.968	94.94
474.187	103.94
474.406	95.94
474.625	90.94
474.844	88.94
475.063	93.94
475.282	97.94
475.501	80.94
475.72	82.94
475.939	91.94
476.158	109.94
476.377	91.94
476.596	78.94
476.814	90.94
477.033	86.94
477.252	108.94
477.471	92.94
477.69	90.94
477.908	106.94
478.127	96.94
478.346	76.94
478.564	94.94
478.783	113.94
479.002	95.94
479.22	88.94
479.439	93.94
479.658	80.94
479.876	93.94
480.095	85.94
480.313	83.94
480.532	103.94
480.751	102.94
480.969	97.94
481.188	97.94
481.406	85.94
481.624	94.94
481.843	94.94
482.061	102.94
482.28	95.94
482.498	94.94
482.717	85.94
482.935	89.94
483.153	90.94
483.372	94.94
483.59	95.94
483.808	98.94
484.027	96.94
484.245	89.94
484.463	81.94
484.681	98.94
484.9	91.94
485.118	91.94
485.336	88.94
485.554	87.94
485.772	86.94
485.99	87.94
486.209	86.94
486.427	95.94
486.645	87.94
486.863	93.94
487.081	93.94
487.299	85.94
487.517	100.94
487.735	95.94
487.953	100.94
488.171	97.94
488.389	93.94
488.607	101.94
488.825	96.94
489.043	79.94
489.261	98.94
489.479	83.94
489.696	94.94
489.914	94.94
490.132	101.94
490.35	111.94
490.568	102.94
490.786	79.94
491.003	86.94
491.221	107.94
491.439	103.94
491.657	99.94
491.874	113.94
492.092	102.94
492.31	113.94
492.527	121.94
492.745	96.94
492.963	95.94
493.18	117.94
493.398	113.94
493.615	93.94
493.833	103.94
494.05	97.94
494.268	107.94
494.485	103.94
494.703	102.94
494.92	95.94
495.138	106.94
495.355	90.94
495.573	103.94
495.79	102.94
496.008	101.94
496.225	96.94
496.442	107.94
496.66	98.94
496.877	100.94
497.094	89.94
497.312	93.94
497.529	101.94
497.746	110.94
497.963	98.94
498.181	107.94
498.398	95.94
498.615	100.94
498.832	117.94
499.049	100.94
499.267	112.94
499.484	122.94
499.701	113.94
499.918	129.94
500.135	120.94
500.352	137.94
500.569	135.94
500.786	129.94
501.003	131.94
501.22	129.94
501.437	119.94
501.654	107.94
501.871	108.94
502.088	120.94
502.305	109.94
502.522	100.94
502.739	99.94
502.956	115.94
503.172	111.94
503.389	95.94
503.606	100.94
503.823	90.94
504.04	87.94
504.256	105.94
504.473	94.94
504.69	100.94
504.907	105.94
505.123	120.94
505.34	82.94
505.557	88.94
505.773	95.94
505.99	91.94
506.207	95.94
506.423	84.94
506.64	100.94
506.856	85.94
507.073	100.94
507.289	111.94
507.506	100.94
507.722	102.94
507.939	96.94
508.155	92.94
508.372	86.94
508.588	89.94
508.805	99.94
509.021	100.94
509.238	94.94
509.454	80.94
509.67	93.94
509.887	92.94
510.103	90.94
510.319	85.94
510.536	99.94
510.752	112.94
510.968	93.94
511.184	88.94
511.401	84.94
511.617	103.94
511.833	90.94
512.049	77.94
512.265	82.94
512.481	100.94
512.698	95.94
512.914	87.94
513.13	82.94
513.346	84.94
513.562	94.94
513.778	86.94
513.994	73.94
514.21	93.94
514.426	97.94
514.642	92.94
514.858	100.94
515.074	96.94
515.29	90.94
515.506	94.94
515.721	89.94
515.937	85.94
516.153	97.94
516.369	96.94
516.585	93.94
516.801	100.94
517.016	99.94
517.232	92.94
517.448	87.94
517.664	102.94
