Data from Location5.07152019.Energy5.Lamp.07192019.3%Agarose_HRD10591_16-02-55-628.txt Node
Date: Fri Jul 19 16:02:55 EDT 2019
User: cochatt
Spectrometer: HR+D1059
Trigger mode: 1
Integration Time (sec): 1.000000E-1
Scans to average: 1
Electric dark correction enabled: true
Nonlinearity correction enabled: false
Boxcar width: 0
XAxis mode: Wavelengths
Number of Pixels in Spectrum: 2048
>>>>>Begin Spectral Data<<<<<
223.165	-27.81
223.4	-27.81
223.635	-27.81
223.869	-13.81
224.104	-15.81
224.338	-18.81
224.573	-3.81
224.808	-9.81
225.042	-8.81
225.277	-5.81
225.511	-2.81
225.746	0.19
225.98	-3.81
226.215	11.19
226.449	21.19
226.683	26.19
226.918	17.19
227.152	35.19
227.387	23.19
227.621	47.19
227.856	20.19
228.09	34.19
228.324	38.19
228.559	45.19
228.793	63.19
229.027	54.19
229.262	49.19
229.496	62.19
229.73	67.19
229.964	64.19
230.199	78.19
230.433	61.19
230.667	78.19
230.901	70.19
231.136	69.19
231.37	82.19
231.604	80.19
231.838	75.19
232.072	70.19
232.306	87.19
232.541	73.19
232.775	70.19
233.009	64.19
233.243	75.19
233.477	71.19
233.711	73.19
233.945	75.19
234.179	77.19
234.413	76.19
234.647	90.19
234.881	71.19
235.115	86.19
235.349	64.19
235.583	80.19
235.817	78.19
236.051	74.19
236.285	75.19
236.519	87.19
236.753	73.19
236.987	58.19
237.221	72.19
237.455	76.19
237.689	62.19
237.922	82.19
238.156	75.19
238.39	73.19
238.624	68.19
238.858	70.19
239.091	75.19
239.325	77.19
239.559	79.19
239.793	55.19
240.027	70.19
240.26	69.19
240.494	73.19
240.728	70.19
240.961	76.19
241.195	75.19
241.429	67.19
241.662	78.19
241.896	77.19
242.13	71.19
242.363	89.19
242.597	78.19
242.83	74.19
243.064	80.19
243.298	77.19
243.531	71.19
243.765	77.19
243.998	74.19
244.232	86.19
244.465	74.19
244.699	82.19
244.932	82.19
245.166	85.19
245.399	78.19
245.633	67.19
245.866	61.19
246.099	64.19
246.333	79.19
246.566	76.19
246.8	66.19
247.033	60.19
247.266	69.19
247.5	66.19
247.733	75.19
247.966	79.19
248.2	71.19
248.433	89.19
248.666	68.19
248.899	83.19
249.133	80.19
249.366	65.19
249.599	79.19
249.832	70.19
250.066	80.19
250.299	94.19
250.532	78.19
250.765	78.19
250.998	82.19
251.231	79.19
251.465	70.19
251.698	71.19
251.931	80.19
252.164	81.19
252.397	74.19
252.63	75.19
252.863	78.19
253.096	71.19
253.329	81.19
253.562	67.19
253.795	80.19
254.028	81.19
254.261	78.19
254.494	84.19
254.727	71.19
254.96	66.19
255.193	73.19
255.426	84.19
255.659	81.19
255.892	80.19
256.124	66.19
256.357	82.19
256.59	87.19
256.823	69.19
257.056	74.19
257.289	71.19
257.521	77.19
257.754	84.19
257.987	71.19
258.22	87.19
258.452	67.19
258.685	78.19
258.918	67.19
259.151	67.19
259.383	78.19
259.616	82.19
259.849	80.19
260.081	85.19
260.314	79.19
260.547	79.19
260.779	97.19
261.012	85.19
261.244	66.19
261.477	80.19
261.71	84.19
261.942	83.19
262.175	77.19
262.407	83.19
262.64	68.19
262.872	99.19
263.105	80.19
263.337	79.19
263.57	78.19
263.802	83.19
264.035	77.19
264.267	75.19
264.499	79.19
264.732	71.19
264.964	74.19
265.197	89.19
265.429	78.19
265.661	82.19
265.894	76.19
266.126	77.19
266.358	88.19
266.591	90.19
266.823	80.19
267.055	79.19
267.287	93.19
267.52	90.19
267.752	79.19
267.984	96.19
268.216	75.19
268.448	84.19
268.681	79.19
268.913	85.19
269.145	78.19
269.377	85.19
269.609	84.19
269.841	83.19
270.073	79.19
270.306	92.19
270.538	85.19
270.77	92.19
271.002	81.19
271.234	89.19
271.466	95.19
271.698	84.19
271.93	80.19
272.162	71.19
272.394	82.19
272.626	78.19
272.858	73.19
273.09	85.19
273.322	85.19
273.553	86.19
273.785	72.19
274.017	78.19
274.249	84.19
274.481	75.19
274.713	76.19
274.945	92.19
275.176	78.19
275.408	73.19
275.64	86.19
275.872	73.19
276.104	85.19
276.335	86.19
276.567	79.19
276.799	82.19
277.031	83.19
277.262	69.19
277.494	80.19
277.726	77.19
277.957	83.19
278.189	67.19
278.421	76.19
278.652	85.19
278.884	71.19
279.115	87.19
279.347	81.19
279.579	78.19
279.81	77.19
280.042	69.19
280.273	77.19
280.505	65.19
280.736	71.19
280.968	70.19
281.199	107.19
281.431	82.19
281.662	84.19
281.894	69.19
282.125	79.19
282.356	88.19
282.588	87.19
282.819	79.19
283.051	74.19
283.282	91.19
283.513	77.19
283.745	84.19
283.976	78.19
284.207	94.19
284.439	94.19
284.67	73.19
284.901	72.19
285.132	75.19
285.364	90.19
285.595	80.19
285.826	80.19
286.057	92.19
286.288	83.19
286.52	91.19
286.751	84.19
286.982	91.19
287.213	88.19
287.444	71.19
287.675	85.19
287.906	83.19
288.138	87.19
288.369	91.19
288.6	79.19
288.831	81.19
289.062	105.19
289.293	87.19
289.524	75.19
289.755	91.19
289.986	77.19
290.217	83.19
290.448	84.19
290.679	78.19
290.91	75.19
291.141	80.19
291.371	81.19
291.602	79.19
291.833	90.19
292.064	75.19
292.295	107.19
292.526	75.19
292.757	84.19
292.987	79.19
293.218	86.19
293.449	86.19
293.68	95.19
293.91	69.19
294.141	90.19
294.372	101.19
294.603	85.19
294.833	82.19
295.064	83.19
295.295	93.19
295.525	81.19
295.756	81.19
295.987	77.19
296.217	79.19
296.448	85.19
296.679	93.19
296.909	95.19
297.14	87.19
297.37	94.19
297.601	67.19
297.831	86.19
298.062	78.19
298.292	88.19
298.523	86.19
298.753	78.19
298.984	83.19
299.214	71.19
299.445	87.19
299.675	80.19
299.905	87.19
300.136	93.19
300.366	83.19
300.597	78.19
300.827	78.19
301.057	85.19
301.288	86.19
301.518	87.19
301.748	83.19
301.979	97.19
302.209	97.19
302.439	74.19
302.669	85.19
302.9	91.19
303.13	86.19
303.36	90.19
303.59	94.19
303.82	97.19
304.051	71.19
304.281	84.19
304.511	98.19
304.741	84.19
304.971	79.19
305.201	99.19
305.431	98.19
305.661	80.19
305.891	85.19
306.121	86.19
306.352	102.19
306.582	91.19
306.812	80.19
307.042	106.19
307.272	82.19
307.502	78.19
307.731	79.19
307.961	86.19
308.191	84.19
308.421	84.19
308.651	84.19
308.881	78.19
309.111	72.19
309.341	80.19
309.571	70.19
309.8	76.19
310.03	85.19
310.26	98.19
310.49	90.19
310.72	93.19
310.949	95.19
311.179	83.19
311.409	89.19
311.639	93.19
311.868	91.19
312.098	79.19
312.328	79.19
312.557	78.19
312.787	79.19
313.017	75.19
313.246	89.19
313.476	91.19
313.706	82.19
313.935	101.19
314.165	91.19
314.394	71.19
314.624	80.19
314.853	101.19
315.083	74.19
315.312	102.19
315.542	83.19
315.771	94.19
316.001	92.19
316.23	95.19
316.46	85.19
316.689	81.19
316.919	84.19
317.148	84.19
317.377	78.19
317.607	91.19
317.836	100.19
318.065	88.19
318.295	81.19
318.524	68.19
318.753	92.19
318.983	85.19
319.212	91.19
319.441	82.19
319.67	94.19
319.9	92.19
320.129	90.19
320.358	71.19
320.587	79.19
320.816	93.19
321.046	82.19
321.275	94.19
321.504	88.19
321.733	90.19
321.962	87.19
322.191	77.19
322.42	79.19
322.649	96.19
322.878	87.19
323.108	92.19
323.337	93.19
323.566	94.19
323.795	90.19
324.024	94.19
324.253	89.19
324.482	84.19
324.71	93.19
324.939	82.19
325.168	84.19
325.397	96.19
325.626	86.19
325.855	83.19
326.084	78.19
326.313	75.19
326.542	93.19
326.77	98.19
326.999	91.19
327.228	95.19
327.457	94.19
327.686	95.19
327.914	79.19
328.143	82.19
328.372	85.19
328.6	93.19
328.829	92.19
329.058	83.19
329.287	86.19
329.515	89.19
329.744	95.19
329.972	77.19
330.201	83.19
330.43	83.19
330.658	94.19
330.887	82.19
331.115	77.19
331.344	82.19
331.572	75.19
331.801	84.19
332.03	83.19
332.258	83.19
332.486	84.19
332.715	93.19
332.943	88.19
333.172	94.19
333.4	92.19
333.629	82.19
333.857	93.19
334.085	94.19
334.314	90.19
334.542	100.19
334.771	78.19
334.999	106.19
335.227	89.19
335.455	79.19
335.684	90.19
335.912	90.19
336.14	94.19
336.369	95.19
336.597	91.19
336.825	98.19
337.053	99.19
337.281	100.19
337.51	97.19
337.738	87.19
337.966	88.19
338.194	82.19
338.422	105.19
338.65	82.19
338.878	70.19
339.106	74.19
339.334	88.19
339.562	93.19
339.79	76.19
340.018	75.19
340.246	85.19
340.474	75.19
340.702	71.19
340.93	79.19
341.158	91.19
341.386	84.19
341.614	86.19
341.842	76.19
342.07	82.19
342.298	81.19
342.526	93.19
342.754	80.19
342.981	84.19
343.209	91.19
343.437	100.19
343.665	100.19
343.893	91.19
344.12	86.19
344.348	86.19
344.576	87.19
344.804	90.19
345.031	78.19
345.259	94.19
345.487	92.19
345.714	97.19
345.942	85.19
346.17	81.19
346.397	79.19
346.625	63.19
346.853	87.19
347.08	87.19
347.308	100.19
347.535	74.19
347.763	71.19
347.99	78.19
348.218	79.19
348.445	97.19
348.673	85.19
348.9	94.19
349.128	87.19
349.355	80.19
349.583	80.19
349.81	92.19
350.037	80.19
350.265	94.19
350.492	92.19
350.72	87.19
350.947	91.19
351.174	91.19
351.402	82.19
351.629	84.19
351.856	80.19
352.083	79.19
352.311	102.19
352.538	84.19
352.765	89.19
352.992	74.19
353.22	103.19
353.447	97.19
353.674	75.19
353.901	77.19
354.128	84.19
354.355	74.19
354.583	80.19
354.81	86.19
355.037	79.19
355.264	83.19
355.491	90.19
355.718	82.19
355.945	97.19
356.172	105.19
356.399	83.19
356.626	90.19
356.853	99.19
357.08	88.19
357.307	88.19
357.534	82.19
357.761	94.19
357.988	95.19
358.215	93.19
358.441	81.19
358.668	82.19
358.895	98.19
359.122	85.19
359.349	82.19
359.576	75.19
359.802	99.19
360.029	88.19
360.256	90.19
360.483	96.19
360.709	80.19
360.936	83.19
361.163	85.19
361.39	89.19
361.616	81.19
361.843	89.19
362.07	90.19
362.296	78.19
362.523	75.19
362.749	103.19
362.976	81.19
363.203	102.19
363.429	74.19
363.656	98.19
363.882	84.19
364.109	88.19
364.335	87.19
364.562	94.19
364.788	89.19
365.015	91.19
365.241	93.19
365.468	94.19
365.694	98.19
365.92	91.19
366.147	86.19
366.373	77.19
366.599	101.19
366.826	86.19
367.052	90.19
367.278	84.19
367.505	80.19
367.731	82.19
367.957	95.19
368.184	93.19
368.41	93.19
368.636	83.19
368.862	98.19
369.089	80.19
369.315	74.19
369.541	91.19
369.767	84.19
369.993	95.19
370.219	83.19
370.445	87.19
370.672	91.19
370.898	94.19
371.124	90.19
371.35	91.19
371.576	94.19
371.802	87.19
372.028	78.19
372.254	84.19
372.48	86.19
372.706	89.19
372.932	97.19
373.158	90.19
373.384	86.19
373.61	87.19
373.835	94.19
374.061	89.19
374.287	98.19
374.513	90.19
374.739	100.19
374.965	84.19
375.191	91.19
375.416	91.19
375.642	94.19
375.868	89.19
376.094	78.19
376.319	89.19
376.545	88.19
376.771	87.19
376.997	94.19
377.222	83.19
377.448	86.19
377.674	75.19
377.899	104.19
378.125	84.19
378.35	98.19
378.576	79.19
378.802	83.19
379.027	92.19
379.253	89.19
379.478	82.19
379.704	89.19
379.929	87.19
380.155	83.19
380.38	80.19
380.606	94.19
380.831	87.19
381.057	89.19
381.282	90.19
381.507	77.19
381.733	86.19
381.958	87.19
382.184	93.19
382.409	90.19
382.634	107.19
382.86	100.19
383.085	91.19
383.31	94.19
383.535	85.19
383.761	91.19
383.986	85.19
384.211	92.19
384.436	81.19
384.662	85.19
384.887	81.19
385.112	88.19
385.337	79.19
385.562	75.19
385.787	85.19
386.013	90.19
386.238	96.19
386.463	97.19
386.688	90.19
386.913	82.19
387.138	67.19
387.363	92.19
387.588	93.19
387.813	97.19
388.038	85.19
388.263	87.19
388.488	85.19
388.713	83.19
388.938	91.19
389.163	98.19
389.387	91.19
389.612	90.19
389.837	74.19
390.062	90.19
390.287	83.19
390.512	85.19
390.736	96.19
390.961	85.19
391.186	104.19
391.411	89.19
391.636	82.19
391.86	86.19
392.085	83.19
392.31	77.19
392.534	91.19
392.759	111.19
392.984	111.19
393.208	98.19
393.433	88.19
393.658	90.19
393.882	90.19
394.107	74.19
394.331	88.19
394.556	90.19
394.78	95.19
395.005	65.19
395.229	99.19
395.454	76.19
395.678	79.19
395.903	90.19
396.127	82.19
396.352	83.19
396.576	96.19
396.801	102.19
397.025	99.19
397.249	105.19
397.474	98.19
397.698	89.19
397.922	92.19
398.147	87.19
398.371	94.19
398.595	97.19
398.82	92.19
399.044	91.19
399.268	86.19
399.492	97.19
399.717	100.19
399.941	107.19
400.165	91.19
400.389	95.19
400.613	111.19
400.837	100.19
401.062	95.19
401.286	95.19
401.51	81.19
401.734	98.19
401.958	87.19
402.182	101.19
402.406	71.19
402.63	92.19
402.854	86.19
403.078	114.19
403.302	93.19
403.526	79.19
403.75	104.19
403.974	101.19
404.198	96.19
404.422	90.19
404.645	108.19
404.869	90.19
405.093	100.19
405.317	99.19
405.541	96.19
405.765	110.19
405.988	100.19
406.212	95.19
406.436	89.19
406.66	84.19
406.883	99.19
407.107	105.19
407.331	93.19
407.555	91.19
407.778	91.19
408.002	92.19
408.226	96.19
408.449	93.19
408.673	99.19
408.896	93.19
409.12	99.19
409.344	100.19
409.567	92.19
409.791	96.19
410.014	78.19
410.238	76.19
410.461	95.19
410.685	90.19
410.908	102.19
411.132	90.19
411.355	77.19
411.578	101.19
411.802	88.19
412.025	95.19
412.249	82.19
412.472	90.19
412.695	89.19
412.919	89.19
413.142	92.19
413.365	107.19
413.589	94.19
413.812	100.19
414.035	96.19
414.258	98.19
414.482	108.19
414.705	84.19
414.928	102.19
415.151	94.19
415.374	90.19
415.597	81.19
415.821	89.19
416.044	83.19
416.267	94.19
416.49	98.19
416.713	90.19
416.936	93.19
417.159	89.19
417.382	89.19
417.605	77.19
417.828	76.19
418.051	90.19
418.274	85.19
418.497	100.19
418.72	102.19
418.943	93.19
419.166	101.19
419.389	100.19
419.611	88.19
419.834	85.19
420.057	97.19
420.28	100.19
420.503	89.19
420.726	90.19
420.948	93.19
421.171	100.19
421.394	83.19
421.617	89.19
421.839	84.19
422.062	105.19
422.285	91.19
422.507	94.19
422.73	85.19
422.953	94.19
423.175	97.19
423.398	102.19
423.621	95.19
423.843	98.19
424.066	96.19
424.288	87.19
424.511	91.19
424.733	90.19
424.956	90.19
425.178	98.19
425.401	75.19
425.623	92.19
425.846	94.19
426.068	84.19
426.291	87.19
426.513	81.19
426.735	81.19
426.958	79.19
427.18	92.19
427.402	93.19
427.625	84.19
427.847	81.19
428.069	97.19
428.292	74.19
428.514	92.19
428.736	73.19
428.958	103.19
429.181	85.19
429.403	84.19
429.625	99.19
429.847	81.19
430.069	90.19
430.292	89.19
430.514	90.19
430.736	83.19
430.958	94.19
431.18	96.19
431.402	90.19
431.624	79.19
431.846	87.19
432.068	79.19
432.29	91.19
432.512	95.19
432.734	89.19
432.956	95.19
433.178	89.19
433.4	89.19
433.622	91.19
433.844	89.19
434.066	86.19
434.287	87.19
434.509	85.19
434.731	87.19
434.953	92.19
435.175	101.19
435.397	97.19
435.618	98.19
435.84	85.19
436.062	91.19
436.284	78.19
436.505	91.19
436.727	84.19
436.949	83.19
437.17	92.19
437.392	97.19
437.614	91.19
437.835	72.19
438.057	86.19
438.278	80.19
438.5	86.19
438.721	74.19
438.943	93.19
439.165	95.19
439.386	87.19
439.608	108.19
439.829	94.19
440.05	86.19
440.272	97.19
440.493	82.19
440.715	77.19
440.936	98.19
441.158	80.19
441.379	93.19
441.6	95.19
441.822	99.19
442.043	75.19
442.264	86.19
442.486	87.19
442.707	90.19
442.928	99.19
443.149	96.19
443.371	84.19
443.592	97.19
443.813	98.19
444.034	94.19
444.255	85.19
444.476	89.19
444.698	90.19
444.919	107.19
445.14	221.19
445.361	156.19
445.582	94.19
445.803	84.19
446.024	88.19
446.245	80.19
446.466	89.19
446.687	89.19
446.908	93.19
447.129	96.19
447.35	93.19
447.571	80.19
447.792	87.19
448.013	111.19
448.234	95.19
448.455	80.19
448.675	79.19
448.896	77.19
449.117	90.19
449.338	87.19
449.559	95.19
449.779	98.19
450	91.19
450.221	78.19
450.442	94.19
450.662	82.19
450.883	73.19
451.104	97.19
451.324	88.19
451.545	91.19
451.766	87.19
451.986	95.19
452.207	91.19
452.428	85.19
452.648	105.19
452.869	96.19
453.089	87.19
453.31	71.19
453.53	90.19
453.751	88.19
453.971	82.19
454.192	76.19
454.412	83.19
454.633	85.19
454.853	81.19
455.073	82.19
455.294	97.19
455.514	93.19
455.734	100.19
455.955	89.19
456.175	89.19
456.395	72.19
456.616	78.19
456.836	91.19
457.056	84.19
457.276	74.19
457.497	98.19
457.717	74.19
457.937	86.19
458.157	87.19
458.377	91.19
458.598	86.19
458.818	89.19
459.038	92.19
459.258	107.19
459.478	95.19
459.698	77.19
459.918	96.19
460.138	73.19
460.358	101.19
460.578	104.19
460.798	92.19
461.018	95.19
461.238	91.19
461.458	95.19
461.678	92.19
461.898	102.19
462.118	91.19
462.338	96.19
462.558	92.19
462.777	89.19
462.997	105.19
463.217	94.19
463.437	99.19
463.657	91.19
463.876	85.19
464.096	97.19
464.316	91.19
464.536	99.19
464.755	85.19
464.975	109.19
465.195	95.19
465.414	84.19
465.634	89.19
465.854	82.19
466.073	90.19
466.293	83.19
466.512	80.19
466.732	92.19
466.951	103.19
467.171	91.19
467.391	84.19
467.61	89.19
467.829	89.19
468.049	82.19
468.268	87.19
468.488	100.19
468.707	92.19
468.927	87.19
469.146	78.19
469.365	109.19
469.585	91.19
469.804	86.19
470.023	95.19
470.243	90.19
470.462	94.19
470.681	94.19
470.901	109.19
471.12	98.19
471.339	101.19
471.558	99.19
471.777	113.19
471.997	102.19
472.216	84.19
472.435	85.19
472.654	102.19
472.873	84.19
473.092	76.19
473.311	99.19
473.53	77.19
473.749	86.19
473.968	102.19
474.187	81.19
474.406	84.19
474.625	102.19
474.844	109.19
475.063	101.19
475.282	95.19
475.501	86.19
475.72	89.19
475.939	99.19
476.158	98.19
476.377	100.19
476.596	83.19
476.814	94.19
477.033	82.19
477.252	95.19
477.471	101.19
477.69	97.19
477.908	110.19
478.127	108.19
478.346	111.19
478.564	100.19
478.783	74.19
479.002	98.19
479.22	94.19
479.439	115.19
479.658	112.19
479.876	110.19
480.095	98.19
480.313	96.19
480.532	93.19
480.751	89.19
480.969	91.19
481.188	100.19
481.406	95.19
481.624	87.19
481.843	101.19
482.061	85.19
482.28	97.19
482.498	109.19
482.717	96.19
482.935	109.19
483.153	90.19
483.372	105.19
483.59	99.19
483.808	96.19
484.027	101.19
484.245	98.19
484.463	99.19
484.681	105.19
484.9	109.19
485.118	105.19
485.336	93.19
485.554	92.19
485.772	97.19
485.99	91.19
486.209	102.19
486.427	110.19
486.645	103.19
486.863	105.19
487.081	93.19
487.299	105.19
487.517	94.19
487.735	105.19
487.953	93.19
488.171	84.19
488.389	98.19
488.607	81.19
488.825	94.19
489.043	99.19
489.261	116.19
489.479	101.19
489.696	100.19
489.914	102.19
490.132	103.19
490.35	107.19
490.568	108.19
490.786	100.19
491.003	101.19
491.221	105.19
491.439	101.19
491.657	106.19
491.874	103.19
492.092	103.19
492.31	124.19
492.527	113.19
492.745	109.19
492.963	112.19
493.18	113.19
493.398	111.19
493.615	114.19
493.833	111.19
494.05	101.19
494.268	107.19
494.485	106.19
494.703	114.19
494.92	111.19
495.138	105.19
495.355	110.19
495.573	106.19
495.79	100.19
496.008	93.19
496.225	107.19
496.442	107.19
496.66	112.19
496.877	102.19
497.094	122.19
497.312	115.19
497.529	101.19
497.746	107.19
497.963	115.19
498.181	101.19
498.398	115.19
498.615	109.19
498.832	102.19
499.049	109.19
499.267	118.19
499.484	131.19
499.701	133.19
499.918	123.19
500.135	149.19
500.352	163.19
500.569	142.19
500.786	150.19
501.003	146.19
501.22	130.19
501.437	122.19
501.654	114.19
501.871	116.19
502.088	127.19
502.305	137.19
502.522	106.19
502.739	105.19
502.956	109.19
503.172	108.19
503.389	121.19
503.606	107.19
503.823	115.19
504.04	110.19
504.256	93.19
504.473	105.19
504.69	106.19
504.907	109.19
505.123	98.19
505.34	95.19
505.557	108.19
505.773	98.19
505.99	105.19
506.207	88.19
506.423	93.19
506.64	94.19
506.856	99.19
507.073	107.19
507.289	99.19
507.506	95.19
507.722	106.19
507.939	101.19
508.155	109.19
508.372	101.19
508.588	85.19
508.805	93.19
509.021	105.19
509.238	99.19
509.454	91.19
509.67	106.19
509.887	94.19
510.103	94.19
510.319	91.19
510.536	88.19
510.752	97.19
510.968	101.19
511.184	88.19
511.401	95.19
511.617	97.19
511.833	89.19
512.049	101.19
512.265	104.19
512.481	84.19
512.698	107.19
512.914	92.19
513.13	92.19
513.346	86.19
513.562	94.19
513.778	111.19
513.994	95.19
514.21	86.19
514.426	101.19
514.642	102.19
514.858	109.19
515.074	111.19
515.29	103.19
515.506	93.19
515.721	102.19
515.937	87.19
516.153	95.19
516.369	83.19
516.585	87.19
