Data from Location5.07152019.Energy5.Lamp.07192019.3%Agarose_HRD10591_16-03-54-629.txt Node
Date: Fri Jul 19 16:03:54 EDT 2019
User: cochatt
Spectrometer: HR+D1059
Trigger mode: 1
Integration Time (sec): 1.000000E-1
Scans to average: 1
Electric dark correction enabled: true
Nonlinearity correction enabled: false
Boxcar width: 0
XAxis mode: Wavelengths
Number of Pixels in Spectrum: 2048
>>>>>Begin Spectral Data<<<<<
223.165	-16.06
223.4	-16.06
223.635	-16.06
223.869	-26.06
224.104	-16.06
224.338	-11.06
224.573	-14.06
224.808	-20.06
225.042	-10.06
225.277	-24.06
225.511	8.94
225.746	-0.06
225.98	3.94
226.215	12.94
226.449	26.94
226.683	13.94
226.918	32.94
227.152	37.94
227.387	39.94
227.621	21.94
227.856	53.94
228.09	44.94
228.324	56.94
228.559	59.94
228.793	68.94
229.027	76.94
229.262	64.94
229.496	64.94
229.73	78.94
229.964	68.94
230.199	63.94
230.433	72.94
230.667	83.94
230.901	55.94
231.136	102.94
231.37	73.94
231.604	74.94
231.838	90.94
232.072	80.94
232.306	74.94
232.541	85.94
232.775	95.94
233.009	84.94
233.243	81.94
233.477	95.94
233.711	81.94
233.945	104.94
234.179	75.94
234.413	71.94
234.647	75.94
234.881	76.94
235.115	73.94
235.349	71.94
235.583	86.94
235.817	83.94
236.051	79.94
236.285	67.94
236.519	83.94
236.753	80.94
236.987	77.94
237.221	81.94
237.455	88.94
237.689	75.94
237.922	82.94
238.156	82.94
238.39	82.94
238.624	82.94
238.858	87.94
239.091	80.94
239.325	77.94
239.559	89.94
239.793	86.94
240.027	89.94
240.26	79.94
240.494	77.94
240.728	83.94
240.961	75.94
241.195	84.94
241.429	78.94
241.662	96.94
241.896	71.94
242.13	75.94
242.363	63.94
242.597	71.94
242.83	81.94
243.064	75.94
243.298	87.94
243.531	64.94
243.765	72.94
243.998	72.94
244.232	77.94
244.465	83.94
244.699	74.94
244.932	78.94
245.166	81.94
245.399	83.94
245.633	92.94
245.866	96.94
246.099	81.94
246.333	87.94
246.566	79.94
246.8	93.94
247.033	85.94
247.266	81.94
247.5	84.94
247.733	98.94
247.966	75.94
248.2	91.94
248.433	85.94
248.666	69.94
248.899	74.94
249.133	92.94
249.366	90.94
249.599	83.94
249.832	80.94
250.066	95.94
250.299	66.94
250.532	89.94
250.765	74.94
250.998	74.94
251.231	77.94
251.465	90.94
251.698	78.94
251.931	81.94
252.164	88.94
252.397	78.94
252.63	87.94
252.863	92.94
253.096	63.94
253.329	73.94
253.562	72.94
253.795	74.94
254.028	72.94
254.261	95.94
254.494	82.94
254.727	73.94
254.96	72.94
255.193	92.94
255.426	89.94
255.659	67.94
255.892	94.94
256.124	83.94
256.357	80.94
256.59	89.94
256.823	91.94
257.056	79.94
257.289	75.94
257.521	80.94
257.754	90.94
257.987	76.94
258.22	85.94
258.452	89.94
258.685	77.94
258.918	71.94
259.151	85.94
259.383	83.94
259.616	92.94
259.849	89.94
260.081	75.94
260.314	79.94
260.547	88.94
260.779	86.94
261.012	87.94
261.244	80.94
261.477	78.94
261.71	100.94
261.942	80.94
262.175	78.94
262.407	86.94
262.64	90.94
262.872	85.94
263.105	90.94
263.337	92.94
263.57	89.94
263.802	91.94
264.035	96.94
264.267	86.94
264.499	95.94
264.732	91.94
264.964	90.94
265.197	86.94
265.429	76.94
265.661	91.94
265.894	98.94
266.126	85.94
266.358	88.94
266.591	80.94
266.823	81.94
267.055	89.94
267.287	99.94
267.52	93.94
267.752	93.94
267.984	101.94
268.216	81.94
268.448	84.94
268.681	95.94
268.913	88.94
269.145	80.94
269.377	80.94
269.609	80.94
269.841	82.94
270.073	83.94
270.306	92.94
270.538	91.94
270.77	65.94
271.002	83.94
271.234	82.94
271.466	76.94
271.698	97.94
271.93	90.94
272.162	94.94
272.394	91.94
272.626	99.94
272.858	90.94
273.09	90.94
273.322	81.94
273.553	81.94
273.785	101.94
274.017	89.94
274.249	81.94
274.481	90.94
274.713	83.94
274.945	73.94
275.176	87.94
275.408	83.94
275.64	80.94
275.872	87.94
276.104	77.94
276.335	94.94
276.567	83.94
276.799	101.94
277.031	91.94
277.262	83.94
277.494	94.94
277.726	85.94
277.957	83.94
278.189	94.94
278.421	89.94
278.652	89.94
278.884	91.94
279.115	86.94
279.347	85.94
279.579	87.94
279.81	101.94
280.042	103.94
280.273	96.94
280.505	95.94
280.736	88.94
280.968	89.94
281.199	84.94
281.431	89.94
281.662	100.94
281.894	97.94
282.125	75.94
282.356	88.94
282.588	81.94
282.819	94.94
283.051	83.94
283.282	92.94
283.513	90.94
283.745	91.94
283.976	85.94
284.207	93.94
284.439	98.94
284.67	87.94
284.901	81.94
285.132	91.94
285.364	104.94
285.595	90.94
285.826	93.94
286.057	85.94
286.288	99.94
286.52	85.94
286.751	77.94
286.982	86.94
287.213	86.94
287.444	89.94
287.675	94.94
287.906	92.94
288.138	84.94
288.369	108.94
288.6	103.94
288.831	94.94
289.062	80.94
289.293	85.94
289.524	74.94
289.755	90.94
289.986	90.94
290.217	95.94
290.448	95.94
290.679	85.94
290.91	93.94
291.141	89.94
291.371	106.94
291.602	93.94
291.833	84.94
292.064	81.94
292.295	85.94
292.526	90.94
292.757	90.94
292.987	95.94
293.218	85.94
293.449	90.94
293.68	95.94
293.91	98.94
294.141	81.94
294.372	105.94
294.603	84.94
294.833	95.94
295.064	85.94
295.295	95.94
295.525	91.94
295.756	93.94
295.987	76.94
296.217	84.94
296.448	96.94
296.679	90.94
296.909	86.94
297.14	89.94
297.37	94.94
297.601	94.94
297.831	102.94
298.062	106.94
298.292	109.94
298.523	108.94
298.753	86.94
298.984	98.94
299.214	101.94
299.445	104.94
299.675	92.94
299.905	82.94
300.136	76.94
300.366	96.94
300.597	98.94
300.827	90.94
301.057	99.94
301.288	69.94
301.518	88.94
301.748	104.94
301.979	99.94
302.209	90.94
302.439	91.94
302.669	94.94
302.9	90.94
303.13	89.94
303.36	112.94
303.59	94.94
303.82	93.94
304.051	89.94
304.281	90.94
304.511	90.94
304.741	91.94
304.971	87.94
305.201	87.94
305.431	98.94
305.661	99.94
305.891	87.94
306.121	86.94
306.352	99.94
306.582	88.94
306.812	97.94
307.042	105.94
307.272	91.94
307.502	87.94
307.731	95.94
307.961	88.94
308.191	95.94
308.421	92.94
308.651	89.94
308.881	100.94
309.111	103.94
309.341	92.94
309.571	85.94
309.8	92.94
310.03	92.94
310.26	93.94
310.49	87.94
310.72	86.94
310.949	91.94
311.179	99.94
311.409	90.94
311.639	104.94
311.868	89.94
312.098	100.94
312.328	85.94
312.557	93.94
312.787	89.94
313.017	94.94
313.246	85.94
313.476	106.94
313.706	97.94
313.935	93.94
314.165	104.94
314.394	104.94
314.624	96.94
314.853	92.94
315.083	106.94
315.312	96.94
315.542	94.94
315.771	88.94
316.001	107.94
316.23	88.94
316.46	100.94
316.689	81.94
316.919	91.94
317.148	98.94
317.377	101.94
317.607	92.94
317.836	97.94
318.065	90.94
318.295	89.94
318.524	91.94
318.753	100.94
318.983	78.94
319.212	95.94
319.441	88.94
319.67	95.94
319.9	94.94
320.129	87.94
320.358	92.94
320.587	97.94
320.816	100.94
321.046	81.94
321.275	85.94
321.504	84.94
321.733	92.94
321.962	87.94
322.191	103.94
322.42	94.94
322.649	100.94
322.878	102.94
323.108	95.94
323.337	100.94
323.566	90.94
323.795	90.94
324.024	106.94
324.253	95.94
324.482	89.94
324.71	93.94
324.939	82.94
325.168	89.94
325.397	91.94
325.626	82.94
325.855	88.94
326.084	104.94
326.313	95.94
326.542	83.94
326.77	98.94
326.999	100.94
327.228	89.94
327.457	92.94
327.686	90.94
327.914	99.94
328.143	97.94
328.372	82.94
328.6	93.94
328.829	77.94
329.058	80.94
329.287	103.94
329.515	85.94
329.744	108.94
329.972	84.94
330.201	91.94
330.43	93.94
330.658	102.94
330.887	87.94
331.115	90.94
331.344	92.94
331.572	106.94
331.801	100.94
332.03	86.94
332.258	113.94
332.486	90.94
332.715	100.94
332.943	90.94
333.172	98.94
333.4	96.94
333.629	104.94
333.857	97.94
334.085	99.94
334.314	101.94
334.542	102.94
334.771	108.94
334.999	82.94
335.227	83.94
335.455	89.94
335.684	92.94
335.912	99.94
336.14	95.94
336.369	101.94
336.597	93.94
336.825	102.94
337.053	96.94
337.281	117.94
337.51	97.94
337.738	97.94
337.966	99.94
338.194	105.94
338.422	97.94
338.65	109.94
338.878	83.94
339.106	93.94
339.334	101.94
339.562	93.94
339.79	88.94
340.018	84.94
340.246	90.94
340.474	106.94
340.702	101.94
340.93	90.94
341.158	90.94
341.386	99.94
341.614	93.94
341.842	95.94
342.07	85.94
342.298	89.94
342.526	92.94
342.754	87.94
342.981	92.94
343.209	98.94
343.437	96.94
343.665	97.94
343.893	104.94
344.12	112.94
344.348	83.94
344.576	102.94
344.804	89.94
345.031	89.94
345.259	93.94
345.487	103.94
345.714	95.94
345.942	103.94
346.17	88.94
346.397	89.94
346.625	96.94
346.853	78.94
347.08	109.94
347.308	98.94
347.535	108.94
347.763	93.94
347.99	105.94
348.218	99.94
348.445	90.94
348.673	101.94
348.9	88.94
349.128	90.94
349.355	93.94
349.583	101.94
349.81	99.94
350.037	90.94
350.265	95.94
350.492	89.94
350.72	101.94
350.947	94.94
351.174	95.94
351.402	103.94
351.629	98.94
351.856	91.94
352.083	101.94
352.311	107.94
352.538	81.94
352.765	91.94
352.992	99.94
353.22	101.94
353.447	96.94
353.674	83.94
353.901	98.94
354.128	96.94
354.355	91.94
354.583	86.94
354.81	101.94
355.037	94.94
355.264	84.94
355.491	97.94
355.718	90.94
355.945	81.94
356.172	84.94
356.399	109.94
356.626	80.94
356.853	106.94
357.08	100.94
357.307	104.94
357.534	92.94
357.761	81.94
357.988	92.94
358.215	84.94
358.441	87.94
358.668	94.94
358.895	95.94
359.122	74.94
359.349	86.94
359.576	81.94
359.802	86.94
360.029	88.94
360.256	90.94
360.483	101.94
360.709	80.94
360.936	88.94
361.163	102.94
361.39	95.94
361.616	81.94
361.843	94.94
362.07	95.94
362.296	90.94
362.523	95.94
362.749	92.94
362.976	85.94
363.203	102.94
363.429	111.94
363.656	103.94
363.882	92.94
364.109	95.94
364.335	106.94
364.562	92.94
364.788	91.94
365.015	104.94
365.241	83.94
365.468	100.94
365.694	105.94
365.92	118.94
366.147	89.94
366.373	99.94
366.599	96.94
366.826	97.94
367.052	92.94
367.278	93.94
367.505	86.94
367.731	93.94
367.957	93.94
368.184	88.94
368.41	101.94
368.636	97.94
368.862	94.94
369.089	103.94
369.315	97.94
369.541	104.94
369.767	113.94
369.993	96.94
370.219	105.94
370.445	83.94
370.672	92.94
370.898	85.94
371.124	93.94
371.35	90.94
371.576	91.94
371.802	92.94
372.028	92.94
372.254	90.94
372.48	108.94
372.706	89.94
372.932	84.94
373.158	89.94
373.384	100.94
373.61	95.94
373.835	88.94
374.061	107.94
374.287	96.94
374.513	102.94
374.739	80.94
374.965	98.94
375.191	92.94
375.416	89.94
375.642	92.94
375.868	88.94
376.094	99.94
376.319	85.94
376.545	101.94
376.771	103.94
376.997	100.94
377.222	96.94
377.448	85.94
377.674	86.94
377.899	93.94
378.125	94.94
378.35	98.94
378.576	84.94
378.802	98.94
379.027	80.94
379.253	95.94
379.478	108.94
379.704	88.94
379.929	98.94
380.155	86.94
380.38	94.94
380.606	91.94
380.831	102.94
381.057	106.94
381.282	102.94
381.507	84.94
381.733	105.94
381.958	97.94
382.184	87.94
382.409	87.94
382.634	110.94
382.86	105.94
383.085	104.94
383.31	99.94
383.535	106.94
383.761	95.94
383.986	97.94
384.211	89.94
384.436	105.94
384.662	95.94
384.887	88.94
385.112	96.94
385.337	101.94
385.562	94.94
385.787	100.94
386.013	100.94
386.238	89.94
386.463	101.94
386.688	86.94
386.913	113.94
387.138	92.94
387.363	91.94
387.588	90.94
387.813	113.94
388.038	110.94
388.263	89.94
388.488	104.94
388.713	90.94
388.938	93.94
389.163	96.94
389.387	89.94
389.612	106.94
389.837	94.94
390.062	90.94
390.287	83.94
390.512	87.94
390.736	112.94
390.961	104.94
391.186	101.94
391.411	93.94
391.636	81.94
391.86	105.94
392.085	117.94
392.31	98.94
392.534	101.94
392.759	89.94
392.984	100.94
393.208	91.94
393.433	88.94
393.658	108.94
393.882	105.94
394.107	93.94
394.331	90.94
394.556	97.94
394.78	93.94
395.005	90.94
395.229	92.94
395.454	101.94
395.678	94.94
395.903	101.94
396.127	104.94
396.352	103.94
396.576	88.94
396.801	99.94
397.025	100.94
397.249	97.94
397.474	107.94
397.698	93.94
397.922	103.94
398.147	97.94
398.371	112.94
398.595	113.94
398.82	106.94
399.044	92.94
399.268	99.94
399.492	103.94
399.717	100.94
399.941	109.94
400.165	109.94
400.389	97.94
400.613	102.94
400.837	98.94
401.062	115.94
401.286	101.94
401.51	99.94
401.734	113.94
401.958	94.94
402.182	101.94
402.406	105.94
402.63	100.94
402.854	114.94
403.078	105.94
403.302	99.94
403.526	107.94
403.75	118.94
403.974	107.94
404.198	100.94
404.422	113.94
404.645	111.94
404.869	97.94
405.093	103.94
405.317	99.94
405.541	104.94
405.765	106.94
405.988	104.94
406.212	99.94
406.436	114.94
406.66	102.94
406.883	106.94
407.107	119.94
407.331	102.94
407.555	109.94
407.778	110.94
408.002	106.94
408.226	101.94
408.449	109.94
408.673	115.94
408.896	92.94
409.12	107.94
409.344	100.94
409.567	98.94
409.791	103.94
410.014	108.94
410.238	93.94
410.461	112.94
410.685	98.94
410.908	103.94
411.132	96.94
411.355	100.94
411.578	97.94
411.802	102.94
412.025	98.94
412.249	104.94
412.472	99.94
412.695	101.94
412.919	108.94
413.142	107.94
413.365	108.94
413.589	101.94
413.812	111.94
414.035	108.94
414.258	75.94
414.482	94.94
414.705	106.94
414.928	97.94
415.151	96.94
415.374	113.94
415.597	102.94
415.821	81.94
416.044	97.94
416.267	101.94
416.49	105.94
416.713	100.94
416.936	100.94
417.159	101.94
417.382	99.94
417.605	106.94
417.828	118.94
418.051	90.94
418.274	99.94
418.497	93.94
418.72	105.94
418.943	101.94
419.166	103.94
419.389	100.94
419.611	101.94
419.834	111.94
420.057	103.94
420.28	115.94
420.503	91.94
420.726	118.94
420.948	105.94
421.171	105.94
421.394	86.94
421.617	104.94
421.839	107.94
422.062	100.94
422.285	100.94
422.507	107.94
422.73	89.94
422.953	113.94
423.175	115.94
423.398	91.94
423.621	87.94
423.843	96.94
424.066	104.94
424.288	92.94
424.511	94.94
424.733	91.94
424.956	99.94
425.178	100.94
425.401	107.94
425.623	103.94
425.846	104.94
426.068	93.94
426.291	100.94
426.513	105.94
426.735	98.94
426.958	102.94
427.18	98.94
427.402	91.94
427.625	99.94
427.847	98.94
428.069	99.94
428.292	98.94
428.514	91.94
428.736	83.94
428.958	111.94
429.181	89.94
429.403	106.94
429.625	107.94
429.847	84.94
430.069	102.94
430.292	111.94
430.514	101.94
430.736	110.94
430.958	105.94
431.18	74.94
431.402	106.94
431.624	90.94
431.846	98.94
432.068	97.94
432.29	96.94
432.512	93.94
432.734	100.94
432.956	100.94
433.178	96.94
433.4	103.94
433.622	102.94
433.844	99.94
434.066	104.94
434.287	99.94
434.509	97.94
434.731	97.94
434.953	91.94
435.175	97.94
435.397	102.94
435.618	98.94
435.84	104.94
436.062	114.94
436.284	83.94
436.505	110.94
436.727	99.94
436.949	82.94
437.17	93.94
437.392	88.94
437.614	105.94
437.835	84.94
438.057	102.94
438.278	89.94
438.5	85.94
438.721	102.94
438.943	95.94
439.165	85.94
439.386	101.94
439.608	103.94
439.829	103.94
440.05	100.94
440.272	100.94
440.493	105.94
440.715	107.94
440.936	111.94
441.158	95.94
441.379	84.94
441.6	96.94
441.822	101.94
442.043	94.94
442.264	109.94
442.486	88.94
442.707	99.94
442.928	97.94
443.149	99.94
443.371	104.94
443.592	108.94
443.813	108.94
444.034	103.94
444.255	90.94
444.476	101.94
444.698	104.94
444.919	115.94
445.14	193.94
445.361	148.94
445.582	113.94
445.803	101.94
446.024	90.94
446.245	93.94
446.466	101.94
446.687	108.94
446.908	114.94
447.129	103.94
447.35	113.94
447.571	104.94
447.792	105.94
448.013	108.94
448.234	102.94
448.455	92.94
448.675	98.94
448.896	82.94
449.117	101.94
449.338	92.94
449.559	93.94
449.779	82.94
450	97.94
450.221	98.94
450.442	107.94
450.662	86.94
450.883	91.94
451.104	103.94
451.324	85.94
451.545	89.94
451.766	97.94
451.986	88.94
452.207	86.94
452.428	90.94
452.648	87.94
452.869	85.94
453.089	98.94
453.31	107.94
453.53	90.94
453.751	91.94
453.971	92.94
454.192	96.94
454.412	101.94
454.633	101.94
454.853	97.94
455.073	91.94
455.294	97.94
455.514	98.94
455.734	91.94
455.955	94.94
456.175	88.94
456.395	98.94
456.616	89.94
456.836	87.94
457.056	97.94
457.276	86.94
457.497	94.94
457.717	86.94
457.937	90.94
458.157	111.94
458.377	104.94
458.598	100.94
458.818	83.94
459.038	82.94
459.258	89.94
459.478	91.94
459.698	81.94
459.918	103.94
460.138	99.94
460.358	102.94
460.578	104.94
460.798	106.94
461.018	101.94
461.238	103.94
461.458	84.94
461.678	99.94
461.898	111.94
462.118	96.94
462.338	104.94
462.558	106.94
462.777	105.94
462.997	114.94
463.217	122.94
463.437	103.94
463.657	108.94
463.876	107.94
464.096	109.94
464.316	105.94
464.536	104.94
464.755	113.94
464.975	117.94
465.195	105.94
465.414	97.94
465.634	113.94
465.854	98.94
466.073	91.94
466.293	98.94
466.512	106.94
466.732	96.94
466.951	116.94
467.171	97.94
467.391	114.94
467.61	98.94
467.829	94.94
468.049	95.94
468.268	88.94
468.488	99.94
468.707	105.94
468.927	105.94
469.146	88.94
469.365	95.94
469.585	101.94
469.804	111.94
470.023	106.94
470.243	84.94
470.462	97.94
470.681	103.94
470.901	100.94
471.12	102.94
471.339	113.94
471.558	91.94
471.777	112.94
471.997	100.94
472.216	102.94
472.435	102.94
472.654	99.94
472.873	90.94
473.092	96.94
473.311	85.94
473.53	111.94
473.749	105.94
473.968	92.94
474.187	103.94
474.406	91.94
474.625	102.94
474.844	89.94
475.063	119.94
475.282	90.94
475.501	93.94
475.72	98.94
475.939	99.94
476.158	100.94
476.377	107.94
476.596	85.94
476.814	103.94
477.033	92.94
477.252	106.94
477.471	81.94
477.69	100.94
477.908	101.94
478.127	97.94
478.346	96.94
478.564	106.94
478.783	101.94
479.002	108.94
479.22	89.94
479.439	108.94
479.658	113.94
479.876	93.94
480.095	93.94
480.313	94.94
480.532	107.94
480.751	117.94
480.969	98.94
481.188	112.94
481.406	113.94
481.624	82.94
481.843	101.94
482.061	100.94
482.28	111.94
482.498	94.94
482.717	98.94
482.935	93.94
483.153	113.94
483.372	111.94
483.59	108.94
483.808	108.94
484.027	97.94
484.245	118.94
484.463	99.94
484.681	121.94
484.9	109.94
485.118	123.94
485.336	98.94
485.554	95.94
485.772	101.94
485.99	90.94
486.209	96.94
486.427	98.94
486.645	99.94
486.863	98.94
487.081	116.94
487.299	97.94
487.517	102.94
487.735	102.94
487.953	102.94
488.171	113.94
488.389	96.94
488.607	119.94
488.825	89.94
489.043	102.94
489.261	100.94
489.479	112.94
489.696	105.94
489.914	114.94
490.132	104.94
490.35	104.94
490.568	115.94
490.786	115.94
491.003	104.94
491.221	114.94
491.439	122.94
491.657	120.94
491.874	111.94
492.092	121.94
492.31	117.94
492.527	122.94
492.745	102.94
492.963	119.94
493.18	121.94
493.398	100.94
493.615	115.94
493.833	101.94
494.05	126.94
494.268	115.94
494.485	119.94
494.703	123.94
494.92	103.94
495.138	119.94
495.355	113.94
495.573	97.94
495.79	114.94
496.008	108.94
496.225	94.94
496.442	113.94
496.66	117.94
496.877	107.94
497.094	124.94
497.312	120.94
497.529	104.94
497.746	115.94
497.963	109.94
498.181	102.94
498.398	112.94
498.615	114.94
498.832	100.94
499.049	116.94
499.267	131.94
499.484	142.94
499.701	130.94
499.918	145.94
500.135	158.94
500.352	167.94
500.569	161.94
500.786	157.94
501.003	147.94
501.22	145.94
501.437	142.94
501.654	135.94
501.871	113.94
502.088	116.94
502.305	124.94
502.522	116.94
502.739	121.94
502.956	102.94
503.172	112.94
503.389	111.94
503.606	105.94
503.823	105.94
504.04	121.94
504.256	129.94
504.473	125.94
504.69	124.94
504.907	127.94
505.123	127.94
505.34	101.94
505.557	112.94
505.773	103.94
505.99	91.94
506.207	89.94
506.423	112.94
506.64	96.94
506.856	99.94
507.073	102.94
507.289	107.94
507.506	104.94
507.722	93.94
507.939	103.94
508.155	121.94
508.372	103.94
508.588	113.94
508.805	109.94
509.021	106.94
509.238	83.94
509.454	91.94
509.67	96.94
509.887	109.94
510.103	101.94
510.319	112.94
510.536	97.94
510.752	107.94
510.968	108.94
511.184	98.94
511.401	115.94
511.617	101.94
511.833	94.94
512.049	104.94
512.265	94.94
512.481	95.94
512.698	94.94
512.914	101.94
