Data from Location5.07152019.Energy5.Lamp.07192019.3%Agarose_HRD10591_15-36-26-388.txt Node
Date: Fri Jul 19 15:36:26 EDT 2019
User: cochatt
Spectrometer: HR+D1059
Trigger mode: 1
Integration Time (sec): 1.000000E-1
Scans to average: 1
Electric dark correction enabled: true
Nonlinearity correction enabled: false
Boxcar width: 0
XAxis mode: Wavelengths
Number of Pixels in Spectrum: 2048
>>>>>Begin Spectral Data<<<<<
223.165	-12.75
223.4	-12.75
223.635	-12.75
223.869	-15.75
224.104	-31.75
224.338	-16.75
224.573	-22.75
224.808	-29.75
225.042	-0.75
225.277	-5.75
225.511	6.25
225.746	14.25
225.98	10.25
226.215	15.25
226.449	12.25
226.683	31.25
226.918	23.25
227.152	23.25
227.387	28.25
227.621	47.25
227.856	34.25
228.09	44.25
228.324	53.25
228.559	44.25
228.793	38.25
229.027	56.25
229.262	78.25
229.496	60.25
229.73	74.25
229.964	73.25
230.199	77.25
230.433	73.25
230.667	76.25
230.901	71.25
231.136	85.25
231.37	85.25
231.604	88.25
231.838	73.25
232.072	77.25
232.306	77.25
232.541	76.25
232.775	77.25
233.009	70.25
233.243	69.25
233.477	71.25
233.711	81.25
233.945	81.25
234.179	80.25
234.413	90.25
234.647	76.25
234.881	78.25
235.115	60.25
235.349	69.25
235.583	98.25
235.817	71.25
236.051	78.25
236.285	90.25
236.519	66.25
236.753	79.25
236.987	68.25
237.221	69.25
237.455	81.25
237.689	81.25
237.922	86.25
238.156	76.25
238.39	63.25
238.624	68.25
238.858	79.25
239.091	75.25
239.325	83.25
239.559	70.25
239.793	73.25
240.027	76.25
240.26	71.25
240.494	73.25
240.728	76.25
240.961	86.25
241.195	80.25
241.429	89.25
241.662	69.25
241.896	74.25
242.13	63.25
242.363	65.25
242.597	76.25
242.83	81.25
243.064	76.25
243.298	70.25
243.531	76.25
243.765	81.25
243.998	72.25
244.232	86.25
244.465	74.25
244.699	77.25
244.932	51.25
245.166	68.25
245.399	72.25
245.633	75.25
245.866	82.25
246.099	67.25
246.333	72.25
246.566	71.25
246.8	68.25
247.033	75.25
247.266	79.25
247.5	79.25
247.733	76.25
247.966	87.25
248.2	68.25
248.433	76.25
248.666	76.25
248.899	79.25
249.133	81.25
249.366	77.25
249.599	85.25
249.832	73.25
250.066	90.25
250.299	73.25
250.532	78.25
250.765	79.25
250.998	76.25
251.231	94.25
251.465	80.25
251.698	79.25
251.931	85.25
252.164	80.25
252.397	78.25
252.63	89.25
252.863	75.25
253.096	72.25
253.329	68.25
253.562	72.25
253.795	91.25
254.028	84.25
254.261	77.25
254.494	80.25
254.727	87.25
254.96	88.25
255.193	66.25
255.426	62.25
255.659	87.25
255.892	81.25
256.124	76.25
256.357	87.25
256.59	89.25
256.823	80.25
257.056	82.25
257.289	82.25
257.521	67.25
257.754	73.25
257.987	68.25
258.22	87.25
258.452	80.25
258.685	73.25
258.918	87.25
259.151	70.25
259.383	75.25
259.616	72.25
259.849	79.25
260.081	89.25
260.314	77.25
260.547	80.25
260.779	69.25
261.012	82.25
261.244	80.25
261.477	89.25
261.71	84.25
261.942	88.25
262.175	81.25
262.407	97.25
262.64	88.25
262.872	81.25
263.105	84.25
263.337	89.25
263.57	85.25
263.802	80.25
264.035	79.25
264.267	86.25
264.499	86.25
264.732	68.25
264.964	87.25
265.197	86.25
265.429	76.25
265.661	94.25
265.894	68.25
266.126	88.25
266.358	68.25
266.591	86.25
266.823	92.25
267.055	83.25
267.287	69.25
267.52	69.25
267.752	79.25
267.984	87.25
268.216	79.25
268.448	75.25
268.681	77.25
268.913	83.25
269.145	79.25
269.377	91.25
269.609	67.25
269.841	75.25
270.073	84.25
270.306	104.25
270.538	84.25
270.77	72.25
271.002	73.25
271.234	85.25
271.466	74.25
271.698	68.25
271.93	74.25
272.162	71.25
272.394	88.25
272.626	93.25
272.858	69.25
273.09	75.25
273.322	67.25
273.553	80.25
273.785	96.25
274.017	81.25
274.249	75.25
274.481	78.25
274.713	79.25
274.945	88.25
275.176	83.25
275.408	86.25
275.64	81.25
275.872	76.25
276.104	98.25
276.335	87.25
276.567	75.25
276.799	95.25
277.031	91.25
277.262	83.25
277.494	81.25
277.726	77.25
277.957	80.25
278.189	81.25
278.421	85.25
278.652	92.25
278.884	88.25
279.115	79.25
279.347	77.25
279.579	89.25
279.81	76.25
280.042	80.25
280.273	79.25
280.505	83.25
280.736	82.25
280.968	87.25
281.199	92.25
281.431	90.25
281.662	86.25
281.894	82.25
282.125	80.25
282.356	78.25
282.588	84.25
282.819	93.25
283.051	70.25
283.282	92.25
283.513	61.25
283.745	87.25
283.976	76.25
284.207	82.25
284.439	80.25
284.67	84.25
284.901	81.25
285.132	83.25
285.364	74.25
285.595	69.25
285.826	86.25
286.057	95.25
286.288	87.25
286.52	77.25
286.751	97.25
286.982	72.25
287.213	74.25
287.444	86.25
287.675	75.25
287.906	90.25
288.138	78.25
288.369	82.25
288.6	99.25
288.831	91.25
289.062	88.25
289.293	80.25
289.524	87.25
289.755	80.25
289.986	84.25
290.217	69.25
290.448	83.25
290.679	80.25
290.91	79.25
291.141	88.25
291.371	97.25
291.602	77.25
291.833	101.25
292.064	82.25
292.295	76.25
292.526	89.25
292.757	73.25
292.987	79.25
293.218	76.25
293.449	87.25
293.68	77.25
293.91	82.25
294.141	85.25
294.372	85.25
294.603	76.25
294.833	82.25
295.064	91.25
295.295	98.25
295.525	73.25
295.756	80.25
295.987	83.25
296.217	84.25
296.448	96.25
296.679	81.25
296.909	80.25
297.14	86.25
297.37	89.25
297.601	88.25
297.831	84.25
298.062	86.25
298.292	81.25
298.523	85.25
298.753	75.25
298.984	94.25
299.214	79.25
299.445	71.25
299.675	96.25
299.905	72.25
300.136	83.25
300.366	85.25
300.597	104.25
300.827	76.25
301.057	92.25
301.288	84.25
301.518	94.25
301.748	75.25
301.979	76.25
302.209	74.25
302.439	91.25
302.669	76.25
302.9	91.25
303.13	95.25
303.36	82.25
303.59	95.25
303.82	82.25
304.051	76.25
304.281	81.25
304.511	91.25
304.741	88.25
304.971	92.25
305.201	92.25
305.431	80.25
305.661	81.25
305.891	89.25
306.121	96.25
306.352	87.25
306.582	85.25
306.812	83.25
307.042	79.25
307.272	100.25
307.502	73.25
307.731	81.25
307.961	89.25
308.191	89.25
308.421	94.25
308.651	84.25
308.881	94.25
309.111	89.25
309.341	78.25
309.571	80.25
309.8	80.25
310.03	82.25
310.26	89.25
310.49	85.25
310.72	78.25
310.949	77.25
311.179	90.25
311.409	86.25
311.639	73.25
311.868	86.25
312.098	88.25
312.328	94.25
312.557	76.25
312.787	70.25
313.017	80.25
313.246	86.25
313.476	91.25
313.706	94.25
313.935	88.25
314.165	78.25
314.394	84.25
314.624	79.25
314.853	87.25
315.083	72.25
315.312	92.25
315.542	81.25
315.771	93.25
316.001	88.25
316.23	76.25
316.46	79.25
316.689	75.25
316.919	83.25
317.148	94.25
317.377	86.25
317.607	94.25
317.836	80.25
318.065	96.25
318.295	82.25
318.524	90.25
318.753	85.25
318.983	97.25
319.212	81.25
319.441	87.25
319.67	94.25
319.9	87.25
320.129	86.25
320.358	89.25
320.587	75.25
320.816	88.25
321.046	95.25
321.275	82.25
321.504	80.25
321.733	90.25
321.962	77.25
322.191	84.25
322.42	86.25
322.649	93.25
322.878	91.25
323.108	87.25
323.337	81.25
323.566	84.25
323.795	77.25
324.024	92.25
324.253	77.25
324.482	67.25
324.71	91.25
324.939	98.25
325.168	89.25
325.397	83.25
325.626	78.25
325.855	88.25
326.084	92.25
326.313	87.25
326.542	87.25
326.77	89.25
326.999	88.25
327.228	80.25
327.457	85.25
327.686	78.25
327.914	91.25
328.143	72.25
328.372	94.25
328.6	97.25
328.829	95.25
329.058	85.25
329.287	97.25
329.515	90.25
329.744	98.25
329.972	80.25
330.201	79.25
330.43	87.25
330.658	76.25
330.887	88.25
331.115	74.25
331.344	85.25
331.572	78.25
331.801	78.25
332.03	90.25
332.258	85.25
332.486	69.25
332.715	74.25
332.943	83.25
333.172	71.25
333.4	78.25
333.629	76.25
333.857	85.25
334.085	87.25
334.314	81.25
334.542	81.25
334.771	89.25
334.999	79.25
335.227	81.25
335.455	93.25
335.684	94.25
335.912	90.25
336.14	83.25
336.369	71.25
336.597	68.25
336.825	77.25
337.053	81.25
337.281	95.25
337.51	77.25
337.738	74.25
337.966	83.25
338.194	66.25
338.422	75.25
338.65	80.25
338.878	88.25
339.106	88.25
339.334	96.25
339.562	84.25
339.79	78.25
340.018	79.25
340.246	76.25
340.474	69.25
340.702	81.25
340.93	87.25
341.158	84.25
341.386	83.25
341.614	77.25
341.842	89.25
342.07	87.25
342.298	74.25
342.526	95.25
342.754	80.25
342.981	97.25
343.209	79.25
343.437	96.25
343.665	86.25
343.893	91.25
344.12	85.25
344.348	83.25
344.576	99.25
344.804	78.25
345.031	83.25
345.259	85.25
345.487	78.25
345.714	84.25
345.942	90.25
346.17	81.25
346.397	89.25
346.625	89.25
346.853	85.25
347.08	85.25
347.308	86.25
347.535	92.25
347.763	81.25
347.99	90.25
348.218	88.25
348.445	81.25
348.673	79.25
348.9	81.25
349.128	92.25
349.355	76.25
349.583	85.25
349.81	82.25
350.037	81.25
350.265	71.25
350.492	85.25
350.72	75.25
350.947	72.25
351.174	85.25
351.402	75.25
351.629	81.25
351.856	88.25
352.083	95.25
352.311	87.25
352.538	79.25
352.765	89.25
352.992	84.25
353.22	85.25
353.447	74.25
353.674	81.25
353.901	77.25
354.128	77.25
354.355	85.25
354.583	75.25
354.81	77.25
355.037	90.25
355.264	85.25
355.491	89.25
355.718	97.25
355.945	67.25
356.172	78.25
356.399	88.25
356.626	91.25
356.853	83.25
357.08	78.25
357.307	76.25
357.534	84.25
357.761	82.25
357.988	84.25
358.215	77.25
358.441	79.25
358.668	73.25
358.895	84.25
359.122	97.25
359.349	100.25
359.576	94.25
359.802	80.25
360.029	73.25
360.256	88.25
360.483	81.25
360.709	87.25
360.936	68.25
361.163	77.25
361.39	93.25
361.616	81.25
361.843	100.25
362.07	81.25
362.296	63.25
362.523	68.25
362.749	78.25
362.976	72.25
363.203	77.25
363.429	80.25
363.656	89.25
363.882	98.25
364.109	89.25
364.335	84.25
364.562	88.25
364.788	76.25
365.015	67.25
365.241	88.25
365.468	85.25
365.694	82.25
365.92	86.25
366.147	79.25
366.373	79.25
366.599	80.25
366.826	73.25
367.052	104.25
367.278	83.25
367.505	87.25
367.731	71.25
367.957	75.25
368.184	81.25
368.41	90.25
368.636	99.25
368.862	86.25
369.089	78.25
369.315	75.25
369.541	90.25
369.767	96.25
369.993	88.25
370.219	86.25
370.445	85.25
370.672	87.25
370.898	87.25
371.124	78.25
371.35	93.25
371.576	74.25
371.802	73.25
372.028	74.25
372.254	93.25
372.48	77.25
372.706	77.25
372.932	77.25
373.158	92.25
373.384	86.25
373.61	84.25
373.835	88.25
374.061	73.25
374.287	79.25
374.513	90.25
374.739	81.25
374.965	74.25
375.191	88.25
375.416	90.25
375.642	86.25
375.868	95.25
376.094	76.25
376.319	90.25
376.545	78.25
376.771	89.25
376.997	92.25
377.222	87.25
377.448	95.25
377.674	83.25
377.899	84.25
378.125	88.25
378.35	94.25
378.576	82.25
378.802	83.25
379.027	87.25
379.253	95.25
379.478	75.25
379.704	72.25
379.929	80.25
380.155	81.25
380.38	84.25
380.606	67.25
380.831	80.25
381.057	91.25
381.282	106.25
381.507	87.25
381.733	91.25
381.958	95.25
382.184	81.25
382.409	81.25
382.634	89.25
382.86	89.25
383.085	83.25
383.31	105.25
383.535	83.25
383.761	88.25
383.986	94.25
384.211	80.25
384.436	80.25
384.662	71.25
384.887	79.25
385.112	80.25
385.337	90.25
385.562	94.25
385.787	82.25
386.013	94.25
386.238	93.25
386.463	87.25
386.688	89.25
386.913	80.25
387.138	74.25
387.363	83.25
387.588	79.25
387.813	82.25
388.038	94.25
388.263	85.25
388.488	87.25
388.713	80.25
388.938	76.25
389.163	83.25
389.387	85.25
389.612	99.25
389.837	91.25
390.062	94.25
390.287	98.25
390.512	82.25
390.736	79.25
390.961	89.25
391.186	90.25
391.411	83.25
391.636	93.25
391.86	97.25
392.085	86.25
392.31	88.25
392.534	87.25
392.759	100.25
392.984	96.25
393.208	96.25
393.433	83.25
393.658	74.25
393.882	97.25
394.107	86.25
394.331	87.25
394.556	85.25
394.78	94.25
395.005	80.25
395.229	94.25
395.454	84.25
395.678	86.25
395.903	87.25
396.127	87.25
396.352	90.25
396.576	95.25
396.801	73.25
397.025	90.25
397.249	94.25
397.474	80.25
397.698	91.25
397.922	86.25
398.147	106.25
398.371	80.25
398.595	81.25
398.82	91.25
399.044	102.25
399.268	85.25
399.492	94.25
399.717	90.25
399.941	92.25
400.165	91.25
400.389	84.25
400.613	94.25
400.837	86.25
401.062	92.25
401.286	81.25
401.51	98.25
401.734	78.25
401.958	83.25
402.182	89.25
402.406	77.25
402.63	69.25
402.854	92.25
403.078	89.25
403.302	85.25
403.526	88.25
403.75	98.25
403.974	96.25
404.198	92.25
404.422	83.25
404.645	95.25
404.869	97.25
405.093	96.25
405.317	84.25
405.541	98.25
405.765	92.25
405.988	99.25
406.212	95.25
406.436	76.25
406.66	100.25
406.883	92.25
407.107	83.25
407.331	94.25
407.555	82.25
407.778	86.25
408.002	95.25
408.226	84.25
408.449	83.25
408.673	99.25
408.896	93.25
409.12	101.25
409.344	77.25
409.567	84.25
409.791	97.25
410.014	91.25
410.238	98.25
410.461	69.25
410.685	70.25
410.908	89.25
411.132	81.25
411.355	80.25
411.578	88.25
411.802	70.25
412.025	78.25
412.249	86.25
412.472	94.25
412.695	86.25
412.919	91.25
413.142	105.25
413.365	86.25
413.589	81.25
413.812	89.25
414.035	94.25
414.258	103.25
414.482	84.25
414.705	99.25
414.928	88.25
415.151	79.25
415.374	77.25
415.597	82.25
415.821	74.25
416.044	79.25
416.267	76.25
416.49	95.25
416.713	97.25
416.936	84.25
417.159	94.25
417.382	84.25
417.605	112.25
417.828	97.25
418.051	83.25
418.274	91.25
418.497	70.25
418.72	87.25
418.943	98.25
419.166	93.25
419.389	87.25
419.611	92.25
419.834	100.25
420.057	103.25
420.28	76.25
420.503	75.25
420.726	87.25
420.948	95.25
421.171	85.25
421.394	104.25
421.617	99.25
421.839	91.25
422.062	98.25
422.285	92.25
422.507	95.25
422.73	99.25
422.953	87.25
423.175	98.25
423.398	99.25
423.621	89.25
423.843	99.25
424.066	103.25
424.288	96.25
424.511	101.25
424.733	88.25
424.956	88.25
425.178	82.25
425.401	88.25
425.623	93.25
425.846	96.25
426.068	91.25
426.291	92.25
426.513	88.25
426.735	99.25
426.958	108.25
427.18	108.25
427.402	97.25
427.625	93.25
427.847	91.25
428.069	87.25
428.292	85.25
428.514	95.25
428.736	80.25
428.958	73.25
429.181	93.25
429.403	94.25
429.625	83.25
429.847	92.25
430.069	93.25
430.292	89.25
430.514	91.25
430.736	79.25
430.958	85.25
431.18	85.25
431.402	78.25
431.624	100.25
431.846	82.25
432.068	94.25
432.29	83.25
432.512	82.25
432.734	91.25
432.956	92.25
433.178	91.25
433.4	93.25
433.622	95.25
433.844	95.25
434.066	93.25
434.287	76.25
434.509	90.25
434.731	87.25
434.953	80.25
435.175	91.25
435.397	93.25
435.618	79.25
435.84	90.25
436.062	92.25
436.284	80.25
436.505	80.25
436.727	96.25
436.949	95.25
437.17	84.25
437.392	98.25
437.614	95.25
437.835	87.25
438.057	95.25
438.278	88.25
438.5	77.25
438.721	97.25
438.943	100.25
439.165	85.25
439.386	92.25
439.608	82.25
439.829	89.25
440.05	89.25
440.272	93.25
440.493	111.25
440.715	104.25
440.936	101.25
441.158	96.25
441.379	99.25
441.6	81.25
441.822	95.25
442.043	105.25
442.264	99.25
442.486	87.25
442.707	89.25
442.928	88.25
443.149	91.25
443.371	102.25
443.592	99.25
443.813	96.25
444.034	92.25
444.255	98.25
444.476	107.25
444.698	76.25
444.919	99.25
445.14	227.25
445.361	147.25
445.582	113.25
445.803	83.25
446.024	103.25
446.245	100.25
446.466	96.25
446.687	89.25
446.908	92.25
447.129	100.25
447.35	92.25
447.571	98.25
447.792	83.25
448.013	88.25
448.234	106.25
448.455	88.25
448.675	98.25
448.896	101.25
449.117	89.25
449.338	104.25
449.559	87.25
449.779	89.25
450	87.25
450.221	103.25
450.442	100.25
450.662	81.25
450.883	94.25
451.104	105.25
451.324	92.25
451.545	86.25
451.766	84.25
451.986	86.25
452.207	100.25
452.428	87.25
452.648	96.25
452.869	88.25
453.089	95.25
453.31	96.25
453.53	86.25
453.751	93.25
453.971	91.25
454.192	97.25
454.412	82.25
454.633	95.25
454.853	82.25
455.073	88.25
455.294	83.25
455.514	82.25
455.734	88.25
455.955	92.25
456.175	78.25
456.395	92.25
456.616	85.25
456.836	91.25
457.056	91.25
457.276	81.25
457.497	82.25
457.717	79.25
457.937	81.25
458.157	89.25
458.377	97.25
458.598	83.25
458.818	79.25
459.038	77.25
459.258	89.25
459.478	87.25
459.698	80.25
459.918	92.25
460.138	75.25
460.358	84.25
460.578	80.25
460.798	88.25
461.018	86.25
461.238	99.25
461.458	88.25
461.678	89.25
461.898	89.25
462.118	93.25
462.338	80.25
462.558	90.25
462.777	83.25
462.997	94.25
463.217	86.25
463.437	101.25
463.657	92.25
463.876	97.25
464.096	90.25
464.316	75.25
464.536	81.25
464.755	73.25
464.975	85.25
465.195	81.25
465.414	87.25
465.634	86.25
465.854	93.25
466.073	85.25
466.293	102.25
466.512	88.25
466.732	89.25
466.951	78.25
467.171	90.25
467.391	93.25
467.61	91.25
467.829	112.25
468.049	103.25
468.268	87.25
468.488	95.25
468.707	92.25
468.927	95.25
469.146	81.25
469.365	86.25
469.585	93.25
469.804	111.25
470.023	111.25
470.243	108.25
470.462	105.25
470.681	100.25
470.901	100.25
471.12	104.25
471.339	91.25
471.558	106.25
471.777	105.25
471.997	114.25
472.216	101.25
472.435	87.25
472.654	83.25
472.873	86.25
473.092	98.25
473.311	88.25
473.53	106.25
473.749	98.25
473.968	100.25
474.187	95.25
474.406	72.25
474.625	93.25
474.844	106.25
475.063	95.25
475.282	80.25
475.501	88.25
475.72	84.25
475.939	86.25
476.158	98.25
476.377	104.25
476.596	93.25
476.814	89.25
477.033	90.25
477.252	69.25
477.471	92.25
477.69	104.25
477.908	96.25
478.127	86.25
478.346	96.25
478.564	93.25
478.783	85.25
479.002	88.25
479.22	93.25
479.439	92.25
479.658	81.25
479.876	107.25
480.095	87.25
480.313	90.25
480.532	102.25
480.751	97.25
480.969	88.25
481.188	80.25
481.406	80.25
481.624	80.25
481.843	83.25
482.061	99.25
482.28	87.25
482.498	78.25
482.717	83.25
482.935	97.25
483.153	123.25
483.372	91.25
483.59	97.25
483.808	96.25
484.027	101.25
484.245	91.25
484.463	96.25
484.681	102.25
484.9	105.25
485.118	91.25
485.336	95.25
485.554	91.25
485.772	89.25
485.99	92.25
486.209	94.25
486.427	77.25
486.645	97.25
486.863	113.25
487.081	99.25
487.299	89.25
487.517	81.25
487.735	104.25
487.953	114.25
488.171	109.25
488.389	108.25
488.607	104.25
488.825	88.25
489.043	84.25
489.261	89.25
489.479	87.25
489.696	95.25
489.914	102.25
490.132	102.25
490.35	117.25
490.568	91.25
490.786	103.25
491.003	114.25
491.221	105.25
491.439	122.25
491.657	97.25
491.874	123.25
492.092	120.25
492.31	123.25
492.527	120.25
492.745	119.25
492.963	105.25
493.18	111.25
493.398	122.25
493.615	104.25
493.833	119.25
494.05	108.25
494.268	97.25
494.485	116.25
494.703	104.25
494.92	112.25
495.138	111.25
495.355	119.25
495.573	128.25
495.79	87.25
496.008	101.25
496.225	109.25
496.442	101.25
496.66	103.25
496.877	93.25
497.094	103.25
497.312	120.25
497.529	120.25
497.746	100.25
497.963	103.25
498.181	84.25
498.398	92.25
498.615	87.25
498.832	82.25
499.049	94.25
499.267	86.25
499.484	96.25
499.701	104.25
499.918	100.25
500.135	102.25
500.352	102.25
500.569	92.25
500.786	100.25
501.003	101.25
501.22	112.25
501.437	101.25
501.654	99.25
501.871	81.25
502.088	100.25
502.305	99.25
502.522	99.25
502.739	104.25
502.956	90.25
503.172	82.25
503.389	88.25
503.606	89.25
503.823	87.25
504.04	85.25
504.256	83.25
504.473	94.25
504.69	86.25
504.907	92.25
505.123	94.25
505.34	92.25
505.557	100.25
505.773	95.25
505.99	94.25
506.207	90.25
506.423	77.25
506.64	95.25
506.856	102.25
507.073	98.25
507.289	92.25
507.506	75.25
507.722	95.25
507.939	83.25
508.155	98.25
508.372	82.25
508.588	98.25
508.805	92.25
509.021	85.25
509.238	87.25
509.454	93.25
509.67	80.25
509.887	85.25
510.103	89.25
510.319	82.25
510.536	87.25
510.752	95.25
510.968	97.25
511.184	79.25
511.401	83.25
511.617	78.25
511.833	68.25
512.049	72.25
512.265	73.25
512.481	84.25
512.698	89.25
512.914	85.25
513.13	88.25
513.346	78.25
513.562	87.25
513.778	80.25
513.994	95.25
514.21	88.25
514.426	87.25
514.642	85.25
514.858	81.25
515.074	87.25
515.29	88.25
515.506	101.25
515.721	86.25
515.937	86.25
516.153	90.25
516.369	87.25
516.585	84.25
516.801	79.25
517.016	82.25
517.232	89.25
517.448	96.25
517.664	87.25
