Data from Location5.07152019.Energy5.Lamp.07192019.3%Agarose_HRD10591_16-04-15-629.txt Node
Date: Fri Jul 19 16:04:15 EDT 2019
User: cochatt
Spectrometer: HR+D1059
Trigger mode: 1
Integration Time (sec): 1.000000E-1
Scans to average: 1
Electric dark correction enabled: true
Nonlinearity correction enabled: false
Boxcar width: 0
XAxis mode: Wavelengths
Number of Pixels in Spectrum: 2048
>>>>>Begin Spectral Data<<<<<
223.165	-14.62
223.4	-14.62
223.635	-14.62
223.869	-11.62
224.104	-24.62
224.338	-6.62
224.573	-23.62
224.808	5.38
225.042	-13.62
225.277	-3.62
225.511	-7.62
225.746	0.38
225.98	4.38
226.215	0.38
226.449	22.38
226.683	15.38
226.918	34.38
227.152	23.38
227.387	31.38
227.621	42.38
227.856	32.38
228.09	46.38
228.324	44.38
228.559	63.38
228.793	65.38
229.027	71.38
229.262	79.38
229.496	76.38
229.73	73.38
229.964	74.38
230.199	74.38
230.433	88.38
230.667	76.38
230.901	75.38
231.136	78.38
231.37	71.38
231.604	88.38
231.838	74.38
232.072	69.38
232.306	72.38
232.541	75.38
232.775	80.38
233.009	86.38
233.243	72.38
233.477	86.38
233.711	80.38
233.945	90.38
234.179	78.38
234.413	92.38
234.647	97.38
234.881	81.38
235.115	64.38
235.349	88.38
235.583	95.38
235.817	83.38
236.051	76.38
236.285	78.38
236.519	75.38
236.753	87.38
236.987	92.38
237.221	79.38
237.455	59.38
237.689	89.38
237.922	95.38
238.156	72.38
238.39	82.38
238.624	84.38
238.858	83.38
239.091	88.38
239.325	87.38
239.559	78.38
239.793	87.38
240.027	78.38
240.26	88.38
240.494	94.38
240.728	80.38
240.961	75.38
241.195	79.38
241.429	97.38
241.662	85.38
241.896	84.38
242.13	91.38
242.363	98.38
242.597	100.38
242.83	90.38
243.064	74.38
243.298	62.38
243.531	78.38
243.765	80.38
243.998	87.38
244.232	91.38
244.465	92.38
244.699	78.38
244.932	87.38
245.166	92.38
245.399	92.38
245.633	91.38
245.866	83.38
246.099	94.38
246.333	76.38
246.566	89.38
246.8	91.38
247.033	76.38
247.266	77.38
247.5	85.38
247.733	94.38
247.966	80.38
248.2	85.38
248.433	87.38
248.666	77.38
248.899	75.38
249.133	86.38
249.366	80.38
249.599	86.38
249.832	93.38
250.066	99.38
250.299	78.38
250.532	78.38
250.765	80.38
250.998	72.38
251.231	90.38
251.465	94.38
251.698	99.38
251.931	93.38
252.164	76.38
252.397	80.38
252.63	75.38
252.863	79.38
253.096	80.38
253.329	87.38
253.562	79.38
253.795	96.38
254.028	94.38
254.261	84.38
254.494	74.38
254.727	84.38
254.96	72.38
255.193	80.38
255.426	83.38
255.659	90.38
255.892	105.38
256.124	82.38
256.357	83.38
256.59	91.38
256.823	82.38
257.056	95.38
257.289	91.38
257.521	95.38
257.754	86.38
257.987	73.38
258.22	80.38
258.452	93.38
258.685	94.38
258.918	82.38
259.151	88.38
259.383	93.38
259.616	96.38
259.849	79.38
260.081	71.38
260.314	91.38
260.547	90.38
260.779	86.38
261.012	84.38
261.244	88.38
261.477	89.38
261.71	85.38
261.942	90.38
262.175	71.38
262.407	90.38
262.64	84.38
262.872	83.38
263.105	83.38
263.337	92.38
263.57	85.38
263.802	79.38
264.035	81.38
264.267	86.38
264.499	105.38
264.732	99.38
264.964	89.38
265.197	86.38
265.429	91.38
265.661	94.38
265.894	94.38
266.126	80.38
266.358	89.38
266.591	98.38
266.823	90.38
267.055	98.38
267.287	93.38
267.52	91.38
267.752	75.38
267.984	85.38
268.216	88.38
268.448	85.38
268.681	105.38
268.913	90.38
269.145	93.38
269.377	99.38
269.609	101.38
269.841	83.38
270.073	75.38
270.306	83.38
270.538	94.38
270.77	88.38
271.002	98.38
271.234	86.38
271.466	90.38
271.698	77.38
271.93	94.38
272.162	91.38
272.394	97.38
272.626	84.38
272.858	92.38
273.09	99.38
273.322	98.38
273.553	91.38
273.785	95.38
274.017	85.38
274.249	88.38
274.481	100.38
274.713	79.38
274.945	80.38
275.176	92.38
275.408	81.38
275.64	87.38
275.872	85.38
276.104	89.38
276.335	97.38
276.567	90.38
276.799	96.38
277.031	89.38
277.262	107.38
277.494	103.38
277.726	88.38
277.957	88.38
278.189	74.38
278.421	91.38
278.652	94.38
278.884	89.38
279.115	94.38
279.347	100.38
279.579	86.38
279.81	91.38
280.042	96.38
280.273	98.38
280.505	96.38
280.736	107.38
280.968	97.38
281.199	96.38
281.431	72.38
281.662	91.38
281.894	92.38
282.125	82.38
282.356	95.38
282.588	92.38
282.819	96.38
283.051	96.38
283.282	82.38
283.513	74.38
283.745	106.38
283.976	96.38
284.207	74.38
284.439	80.38
284.67	80.38
284.901	89.38
285.132	93.38
285.364	105.38
285.595	87.38
285.826	88.38
286.057	93.38
286.288	108.38
286.52	89.38
286.751	91.38
286.982	94.38
287.213	81.38
287.444	88.38
287.675	87.38
287.906	99.38
288.138	98.38
288.369	108.38
288.6	83.38
288.831	100.38
289.062	93.38
289.293	94.38
289.524	86.38
289.755	98.38
289.986	89.38
290.217	90.38
290.448	95.38
290.679	94.38
290.91	109.38
291.141	98.38
291.371	108.38
291.602	86.38
291.833	98.38
292.064	103.38
292.295	98.38
292.526	99.38
292.757	86.38
292.987	104.38
293.218	82.38
293.449	91.38
293.68	90.38
293.91	93.38
294.141	95.38
294.372	93.38
294.603	93.38
294.833	86.38
295.064	92.38
295.295	92.38
295.525	93.38
295.756	103.38
295.987	106.38
296.217	101.38
296.448	101.38
296.679	108.38
296.909	91.38
297.14	108.38
297.37	100.38
297.601	89.38
297.831	90.38
298.062	115.38
298.292	97.38
298.523	97.38
298.753	95.38
298.984	102.38
299.214	94.38
299.445	92.38
299.675	99.38
299.905	97.38
300.136	102.38
300.366	100.38
300.597	106.38
300.827	92.38
301.057	103.38
301.288	96.38
301.518	98.38
301.748	79.38
301.979	86.38
302.209	96.38
302.439	99.38
302.669	92.38
302.9	79.38
303.13	97.38
303.36	98.38
303.59	118.38
303.82	103.38
304.051	98.38
304.281	102.38
304.511	104.38
304.741	114.38
304.971	103.38
305.201	93.38
305.431	104.38
305.661	95.38
305.891	89.38
306.121	97.38
306.352	102.38
306.582	92.38
306.812	91.38
307.042	94.38
307.272	88.38
307.502	108.38
307.731	101.38
307.961	86.38
308.191	102.38
308.421	116.38
308.651	92.38
308.881	116.38
309.111	106.38
309.341	110.38
309.571	101.38
309.8	99.38
310.03	97.38
310.26	92.38
310.49	96.38
310.72	105.38
310.949	102.38
311.179	94.38
311.409	86.38
311.639	102.38
311.868	99.38
312.098	105.38
312.328	105.38
312.557	100.38
312.787	106.38
313.017	87.38
313.246	91.38
313.476	102.38
313.706	111.38
313.935	95.38
314.165	108.38
314.394	99.38
314.624	78.38
314.853	104.38
315.083	101.38
315.312	80.38
315.542	105.38
315.771	88.38
316.001	86.38
316.23	100.38
316.46	95.38
316.689	79.38
316.919	99.38
317.148	100.38
317.377	114.38
317.607	96.38
317.836	98.38
318.065	103.38
318.295	94.38
318.524	90.38
318.753	100.38
318.983	109.38
319.212	89.38
319.441	91.38
319.67	98.38
319.9	114.38
320.129	92.38
320.358	94.38
320.587	85.38
320.816	87.38
321.046	73.38
321.275	98.38
321.504	97.38
321.733	112.38
321.962	99.38
322.191	89.38
322.42	119.38
322.649	90.38
322.878	110.38
323.108	83.38
323.337	118.38
323.566	99.38
323.795	103.38
324.024	106.38
324.253	95.38
324.482	94.38
324.71	68.38
324.939	107.38
325.168	88.38
325.397	96.38
325.626	91.38
325.855	89.38
326.084	93.38
326.313	97.38
326.542	98.38
326.77	108.38
326.999	93.38
327.228	99.38
327.457	95.38
327.686	98.38
327.914	99.38
328.143	107.38
328.372	104.38
328.6	108.38
328.829	98.38
329.058	98.38
329.287	106.38
329.515	94.38
329.744	92.38
329.972	85.38
330.201	82.38
330.43	98.38
330.658	105.38
330.887	108.38
331.115	105.38
331.344	106.38
331.572	97.38
331.801	98.38
332.03	101.38
332.258	95.38
332.486	106.38
332.715	109.38
332.943	109.38
333.172	105.38
333.4	92.38
333.629	95.38
333.857	103.38
334.085	114.38
334.314	102.38
334.542	107.38
334.771	102.38
334.999	104.38
335.227	102.38
335.455	101.38
335.684	107.38
335.912	90.38
336.14	94.38
336.369	104.38
336.597	111.38
336.825	93.38
337.053	99.38
337.281	102.38
337.51	103.38
337.738	111.38
337.966	105.38
338.194	101.38
338.422	90.38
338.65	101.38
338.878	108.38
339.106	103.38
339.334	97.38
339.562	92.38
339.79	95.38
340.018	90.38
340.246	94.38
340.474	115.38
340.702	101.38
340.93	110.38
341.158	92.38
341.386	100.38
341.614	91.38
341.842	86.38
342.07	94.38
342.298	109.38
342.526	106.38
342.754	94.38
342.981	107.38
343.209	91.38
343.437	95.38
343.665	105.38
343.893	102.38
344.12	103.38
344.348	101.38
344.576	90.38
344.804	91.38
345.031	99.38
345.259	89.38
345.487	95.38
345.714	96.38
345.942	101.38
346.17	93.38
346.397	100.38
346.625	85.38
346.853	110.38
347.08	89.38
347.308	111.38
347.535	96.38
347.763	91.38
347.99	92.38
348.218	84.38
348.445	87.38
348.673	100.38
348.9	94.38
349.128	104.38
349.355	84.38
349.583	88.38
349.81	95.38
350.037	108.38
350.265	109.38
350.492	111.38
350.72	94.38
350.947	80.38
351.174	99.38
351.402	102.38
351.629	117.38
351.856	84.38
352.083	100.38
352.311	88.38
352.538	98.38
352.765	93.38
352.992	103.38
353.22	109.38
353.447	104.38
353.674	108.38
353.901	95.38
354.128	91.38
354.355	99.38
354.583	97.38
354.81	111.38
355.037	101.38
355.264	82.38
355.491	94.38
355.718	100.38
355.945	96.38
356.172	90.38
356.399	94.38
356.626	94.38
356.853	101.38
357.08	101.38
357.307	89.38
357.534	99.38
357.761	94.38
357.988	107.38
358.215	84.38
358.441	81.38
358.668	85.38
358.895	90.38
359.122	89.38
359.349	121.38
359.576	110.38
359.802	87.38
360.029	107.38
360.256	108.38
360.483	97.38
360.709	87.38
360.936	95.38
361.163	104.38
361.39	107.38
361.616	100.38
361.843	94.38
362.07	90.38
362.296	83.38
362.523	106.38
362.749	94.38
362.976	99.38
363.203	96.38
363.429	99.38
363.656	93.38
363.882	89.38
364.109	87.38
364.335	96.38
364.562	86.38
364.788	98.38
365.015	99.38
365.241	88.38
365.468	95.38
365.694	91.38
365.92	106.38
366.147	76.38
366.373	79.38
366.599	84.38
366.826	99.38
367.052	99.38
367.278	108.38
367.505	88.38
367.731	94.38
367.957	89.38
368.184	97.38
368.41	91.38
368.636	88.38
368.862	90.38
369.089	91.38
369.315	92.38
369.541	92.38
369.767	107.38
369.993	114.38
370.219	90.38
370.445	99.38
370.672	101.38
370.898	87.38
371.124	92.38
371.35	90.38
371.576	98.38
371.802	106.38
372.028	91.38
372.254	99.38
372.48	105.38
372.706	99.38
372.932	88.38
373.158	91.38
373.384	99.38
373.61	106.38
373.835	92.38
374.061	87.38
374.287	100.38
374.513	107.38
374.739	106.38
374.965	102.38
375.191	101.38
375.416	99.38
375.642	107.38
375.868	108.38
376.094	96.38
376.319	99.38
376.545	83.38
376.771	96.38
376.997	99.38
377.222	90.38
377.448	95.38
377.674	109.38
377.899	88.38
378.125	94.38
378.35	92.38
378.576	95.38
378.802	89.38
379.027	107.38
379.253	84.38
379.478	92.38
379.704	97.38
379.929	90.38
380.155	103.38
380.38	105.38
380.606	78.38
380.831	104.38
381.057	110.38
381.282	102.38
381.507	88.38
381.733	88.38
381.958	87.38
382.184	97.38
382.409	98.38
382.634	106.38
382.86	105.38
383.085	95.38
383.31	98.38
383.535	98.38
383.761	90.38
383.986	88.38
384.211	95.38
384.436	94.38
384.662	105.38
384.887	102.38
385.112	104.38
385.337	87.38
385.562	98.38
385.787	98.38
386.013	86.38
386.238	92.38
386.463	92.38
386.688	101.38
386.913	103.38
387.138	101.38
387.363	109.38
387.588	100.38
387.813	94.38
388.038	90.38
388.263	102.38
388.488	108.38
388.713	93.38
388.938	103.38
389.163	94.38
389.387	112.38
389.612	111.38
389.837	95.38
390.062	101.38
390.287	79.38
390.512	114.38
390.736	94.38
390.961	87.38
391.186	103.38
391.411	94.38
391.636	107.38
391.86	80.38
392.085	94.38
392.31	112.38
392.534	95.38
392.759	94.38
392.984	112.38
393.208	94.38
393.433	100.38
393.658	90.38
393.882	99.38
394.107	112.38
394.331	100.38
394.556	98.38
394.78	91.38
395.005	111.38
395.229	91.38
395.454	100.38
395.678	94.38
395.903	106.38
396.127	104.38
396.352	97.38
396.576	107.38
396.801	102.38
397.025	115.38
397.249	94.38
397.474	96.38
397.698	117.38
397.922	95.38
398.147	98.38
398.371	98.38
398.595	110.38
398.82	118.38
399.044	120.38
399.268	105.38
399.492	110.38
399.717	100.38
399.941	95.38
400.165	115.38
400.389	109.38
400.613	114.38
400.837	113.38
401.062	107.38
401.286	108.38
401.51	99.38
401.734	92.38
401.958	100.38
402.182	106.38
402.406	101.38
402.63	99.38
402.854	107.38
403.078	96.38
403.302	103.38
403.526	107.38
403.75	96.38
403.974	99.38
404.198	106.38
404.422	112.38
404.645	108.38
404.869	102.38
405.093	103.38
405.317	106.38
405.541	96.38
405.765	100.38
405.988	113.38
406.212	95.38
406.436	98.38
406.66	110.38
406.883	108.38
407.107	121.38
407.331	104.38
407.555	105.38
407.778	113.38
408.002	96.38
408.226	107.38
408.449	110.38
408.673	126.38
408.896	111.38
409.12	104.38
409.344	112.38
409.567	113.38
409.791	111.38
410.014	87.38
410.238	99.38
410.461	114.38
410.685	98.38
410.908	104.38
411.132	96.38
411.355	94.38
411.578	95.38
411.802	107.38
412.025	104.38
412.249	85.38
412.472	94.38
412.695	105.38
412.919	101.38
413.142	107.38
413.365	99.38
413.589	99.38
413.812	87.38
414.035	102.38
414.258	95.38
414.482	96.38
414.705	96.38
414.928	115.38
415.151	98.38
415.374	83.38
415.597	107.38
415.821	102.38
416.044	94.38
416.267	107.38
416.49	86.38
416.713	94.38
416.936	103.38
417.159	97.38
417.382	101.38
417.605	92.38
417.828	110.38
418.051	101.38
418.274	108.38
418.497	102.38
418.72	110.38
418.943	106.38
419.166	89.38
419.389	98.38
419.611	116.38
419.834	116.38
420.057	103.38
420.28	106.38
420.503	96.38
420.726	93.38
420.948	103.38
421.171	88.38
421.394	109.38
421.617	95.38
421.839	104.38
422.062	108.38
422.285	111.38
422.507	99.38
422.73	105.38
422.953	91.38
423.175	100.38
423.398	100.38
423.621	92.38
423.843	112.38
424.066	98.38
424.288	99.38
424.511	107.38
424.733	102.38
424.956	108.38
425.178	107.38
425.401	109.38
425.623	98.38
425.846	112.38
426.068	95.38
426.291	93.38
426.513	90.38
426.735	92.38
426.958	93.38
427.18	101.38
427.402	99.38
427.625	92.38
427.847	89.38
428.069	93.38
428.292	93.38
428.514	100.38
428.736	107.38
428.958	109.38
429.181	92.38
429.403	92.38
429.625	107.38
429.847	105.38
430.069	96.38
430.292	95.38
430.514	93.38
430.736	96.38
430.958	108.38
431.18	94.38
431.402	104.38
431.624	106.38
431.846	88.38
432.068	93.38
432.29	109.38
432.512	97.38
432.734	95.38
432.956	98.38
433.178	107.38
433.4	109.38
433.622	103.38
433.844	105.38
434.066	95.38
434.287	98.38
434.509	84.38
434.731	106.38
434.953	94.38
435.175	106.38
435.397	95.38
435.618	91.38
435.84	96.38
436.062	112.38
436.284	94.38
436.505	108.38
436.727	89.38
436.949	105.38
437.17	95.38
437.392	101.38
437.614	97.38
437.835	106.38
438.057	96.38
438.278	95.38
438.5	100.38
438.721	97.38
438.943	102.38
439.165	92.38
439.386	114.38
439.608	95.38
439.829	100.38
440.05	96.38
440.272	99.38
440.493	95.38
440.715	101.38
440.936	109.38
441.158	100.38
441.379	98.38
441.6	109.38
441.822	122.38
442.043	112.38
442.264	94.38
442.486	94.38
442.707	99.38
442.928	93.38
443.149	92.38
443.371	99.38
443.592	114.38
443.813	104.38
444.034	110.38
444.255	108.38
444.476	114.38
444.698	98.38
444.919	103.38
445.14	211.38
445.361	156.38
445.582	99.38
445.803	96.38
446.024	96.38
446.245	95.38
446.466	97.38
446.687	92.38
446.908	97.38
447.129	105.38
447.35	98.38
447.571	91.38
447.792	99.38
448.013	98.38
448.234	99.38
448.455	91.38
448.675	94.38
448.896	80.38
449.117	101.38
449.338	104.38
449.559	116.38
449.779	98.38
450	98.38
450.221	98.38
450.442	104.38
450.662	90.38
450.883	88.38
451.104	95.38
451.324	100.38
451.545	87.38
451.766	80.38
451.986	99.38
452.207	94.38
452.428	96.38
452.648	117.38
452.869	93.38
453.089	97.38
453.31	95.38
453.53	80.38
453.751	99.38
453.971	97.38
454.192	99.38
454.412	108.38
454.633	84.38
454.853	93.38
455.073	91.38
455.294	95.38
455.514	83.38
455.734	108.38
455.955	97.38
456.175	99.38
456.395	106.38
456.616	97.38
456.836	99.38
457.056	99.38
457.276	83.38
457.497	90.38
457.717	102.38
457.937	87.38
458.157	94.38
458.377	73.38
458.598	99.38
458.818	99.38
459.038	90.38
459.258	90.38
459.478	95.38
459.698	90.38
459.918	99.38
460.138	118.38
460.358	97.38
460.578	98.38
460.798	103.38
461.018	93.38
461.238	100.38
461.458	110.38
461.678	98.38
461.898	105.38
462.118	103.38
462.338	105.38
462.558	97.38
462.777	104.38
462.997	106.38
463.217	92.38
463.437	117.38
463.657	108.38
463.876	112.38
464.096	116.38
464.316	101.38
464.536	120.38
464.755	95.38
464.975	87.38
465.195	90.38
465.414	117.38
465.634	109.38
465.854	97.38
466.073	96.38
466.293	95.38
466.512	94.38
466.732	103.38
466.951	95.38
467.171	98.38
467.391	92.38
467.61	97.38
467.829	111.38
468.049	103.38
468.268	104.38
468.488	111.38
468.707	100.38
468.927	107.38
469.146	108.38
469.365	118.38
469.585	107.38
469.804	94.38
470.023	95.38
470.243	101.38
470.462	99.38
470.681	95.38
470.901	110.38
471.12	104.38
471.339	107.38
471.558	101.38
471.777	93.38
471.997	80.38
472.216	100.38
472.435	104.38
472.654	108.38
472.873	107.38
473.092	106.38
473.311	111.38
473.53	87.38
473.749	100.38
473.968	109.38
474.187	103.38
474.406	118.38
474.625	100.38
474.844	122.38
475.063	102.38
475.282	110.38
475.501	89.38
475.72	101.38
475.939	104.38
476.158	103.38
476.377	102.38
476.596	93.38
476.814	96.38
477.033	124.38
477.252	106.38
477.471	89.38
477.69	121.38
477.908	103.38
478.127	105.38
478.346	104.38
478.564	97.38
478.783	98.38
479.002	100.38
479.22	101.38
479.439	105.38
479.658	103.38
479.876	95.38
480.095	103.38
480.313	103.38
480.532	115.38
480.751	107.38
480.969	112.38
481.188	98.38
481.406	95.38
481.624	114.38
481.843	107.38
482.061	119.38
482.28	102.38
482.498	86.38
482.717	103.38
482.935	114.38
483.153	115.38
483.372	101.38
483.59	104.38
483.808	108.38
484.027	110.38
484.245	102.38
484.463	109.38
484.681	111.38
484.9	102.38
485.118	98.38
485.336	107.38
485.554	110.38
485.772	105.38
485.99	96.38
486.209	104.38
486.427	107.38
486.645	119.38
486.863	101.38
487.081	102.38
487.299	105.38
487.517	99.38
487.735	113.38
487.953	133.38
488.171	108.38
488.389	102.38
488.607	109.38
488.825	90.38
489.043	96.38
489.261	93.38
489.479	131.38
489.696	90.38
489.914	112.38
490.132	116.38
490.35	92.38
490.568	107.38
490.786	110.38
491.003	94.38
491.221	110.38
491.439	114.38
491.657	116.38
491.874	132.38
492.092	113.38
492.31	119.38
492.527	120.38
492.745	136.38
492.963	115.38
493.18	102.38
493.398	106.38
493.615	103.38
493.833	116.38
494.05	118.38
494.268	129.38
494.485	124.38
494.703	124.38
494.92	114.38
495.138	99.38
495.355	102.38
495.573	114.38
495.79	120.38
496.008	126.38
496.225	114.38
496.442	117.38
496.66	116.38
496.877	104.38
497.094	124.38
497.312	111.38
497.529	119.38
497.746	110.38
497.963	115.38
498.181	110.38
498.398	117.38
498.615	117.38
498.832	123.38
499.049	125.38
499.267	127.38
499.484	135.38
499.701	129.38
499.918	134.38
500.135	152.38
500.352	170.38
500.569	178.38
500.786	173.38
501.003	132.38
501.22	148.38
501.437	158.38
501.654	141.38
501.871	137.38
502.088	123.38
502.305	118.38
502.522	121.38
502.739	141.38
502.956	121.38
503.172	116.38
503.389	117.38
503.606	102.38
503.823	109.38
504.04	115.38
504.256	106.38
504.473	114.38
504.69	114.38
504.907	114.38
505.123	107.38
505.34	102.38
505.557	110.38
505.773	111.38
505.99	100.38
506.207	102.38
506.423	110.38
506.64	120.38
506.856	105.38
507.073	118.38
507.289	117.38
507.506	109.38
507.722	103.38
507.939	103.38
508.155	103.38
508.372	106.38
508.588	113.38
508.805	100.38
509.021	100.38
509.238	98.38
509.454	100.38
509.67	107.38
509.887	103.38
510.103	108.38
510.319	108.38
510.536	102.38
510.752	93.38
510.968	102.38
511.184	116.38
511.401	93.38
511.617	100.38
511.833	103.38
512.049	91.38
