Data from Location5.07152019.Energy5.Lamp.07192019.3%Agarose_HRD10591_15-36-33-387.txt Node
Date: Fri Jul 19 15:36:33 EDT 2019
User: cochatt
Spectrometer: HR+D1059
Trigger mode: 1
Integration Time (sec): 1.000000E-1
Scans to average: 1
Electric dark correction enabled: true
Nonlinearity correction enabled: false
Boxcar width: 0
XAxis mode: Wavelengths
Number of Pixels in Spectrum: 2048
>>>>>Begin Spectral Data<<<<<
223.165	-8.94
223.4	-8.94
223.635	-8.94
223.869	-8.94
224.104	-14.94
224.338	-17.94
224.573	-25.94
224.808	-19.94
225.042	3.06
225.277	-2.94
225.511	2.06
225.746	-5.94
225.98	11.06
226.215	6.06
226.449	12.06
226.683	20.06
226.918	32.06
227.152	19.06
227.387	38.06
227.621	37.06
227.856	47.06
228.09	51.06
228.324	40.06
228.559	43.06
228.793	64.06
229.027	71.06
229.262	56.06
229.496	69.06
229.73	70.06
229.964	74.06
230.199	70.06
230.433	64.06
230.667	79.06
230.901	79.06
231.136	82.06
231.37	93.06
231.604	96.06
231.838	86.06
232.072	76.06
232.306	85.06
232.541	89.06
232.775	65.06
233.009	85.06
233.243	92.06
233.477	84.06
233.711	81.06
233.945	86.06
234.179	83.06
234.413	77.06
234.647	85.06
234.881	84.06
235.115	102.06
235.349	85.06
235.583	90.06
235.817	83.06
236.051	79.06
236.285	77.06
236.519	81.06
236.753	77.06
236.987	72.06
237.221	76.06
237.455	76.06
237.689	69.06
237.922	87.06
238.156	92.06
238.39	74.06
238.624	79.06
238.858	88.06
239.091	83.06
239.325	66.06
239.559	74.06
239.793	84.06
240.027	67.06
240.26	87.06
240.494	77.06
240.728	74.06
240.961	77.06
241.195	65.06
241.429	75.06
241.662	76.06
241.896	75.06
242.13	76.06
242.363	62.06
242.597	74.06
242.83	63.06
243.064	86.06
243.298	69.06
243.531	80.06
243.765	75.06
243.998	68.06
244.232	82.06
244.465	81.06
244.699	70.06
244.932	88.06
245.166	87.06
245.399	78.06
245.633	76.06
245.866	78.06
246.099	66.06
246.333	73.06
246.566	79.06
246.8	87.06
247.033	76.06
247.266	63.06
247.5	91.06
247.733	89.06
247.966	90.06
248.2	81.06
248.433	83.06
248.666	73.06
248.899	80.06
249.133	83.06
249.366	85.06
249.599	92.06
249.832	82.06
250.066	87.06
250.299	88.06
250.532	75.06
250.765	78.06
250.998	83.06
251.231	81.06
251.465	73.06
251.698	85.06
251.931	88.06
252.164	76.06
252.397	92.06
252.63	77.06
252.863	89.06
253.096	71.06
253.329	83.06
253.562	86.06
253.795	79.06
254.028	81.06
254.261	79.06
254.494	81.06
254.727	77.06
254.96	91.06
255.193	89.06
255.426	101.06
255.659	82.06
255.892	78.06
256.124	89.06
256.357	81.06
256.59	83.06
256.823	89.06
257.056	89.06
257.289	69.06
257.521	74.06
257.754	77.06
257.987	94.06
258.22	98.06
258.452	85.06
258.685	91.06
258.918	90.06
259.151	80.06
259.383	87.06
259.616	77.06
259.849	87.06
260.081	75.06
260.314	89.06
260.547	77.06
260.779	68.06
261.012	99.06
261.244	70.06
261.477	87.06
261.71	78.06
261.942	89.06
262.175	67.06
262.407	82.06
262.64	71.06
262.872	77.06
263.105	84.06
263.337	78.06
263.57	100.06
263.802	78.06
264.035	77.06
264.267	80.06
264.499	88.06
264.732	94.06
264.964	94.06
265.197	97.06
265.429	83.06
265.661	85.06
265.894	84.06
266.126	103.06
266.358	91.06
266.591	73.06
266.823	86.06
267.055	80.06
267.287	76.06
267.52	81.06
267.752	86.06
267.984	89.06
268.216	87.06
268.448	97.06
268.681	96.06
268.913	85.06
269.145	87.06
269.377	81.06
269.609	72.06
269.841	93.06
270.073	85.06
270.306	102.06
270.538	94.06
270.77	72.06
271.002	89.06
271.234	88.06
271.466	85.06
271.698	87.06
271.93	93.06
272.162	84.06
272.394	92.06
272.626	90.06
272.858	78.06
273.09	77.06
273.322	83.06
273.553	79.06
273.785	85.06
274.017	85.06
274.249	89.06
274.481	108.06
274.713	85.06
274.945	85.06
275.176	82.06
275.408	79.06
275.64	87.06
275.872	86.06
276.104	88.06
276.335	81.06
276.567	78.06
276.799	73.06
277.031	86.06
277.262	84.06
277.494	73.06
277.726	98.06
277.957	91.06
278.189	85.06
278.421	90.06
278.652	70.06
278.884	92.06
279.115	87.06
279.347	85.06
279.579	94.06
279.81	88.06
280.042	80.06
280.273	71.06
280.505	85.06
280.736	82.06
280.968	79.06
281.199	83.06
281.431	86.06
281.662	95.06
281.894	83.06
282.125	77.06
282.356	96.06
282.588	93.06
282.819	93.06
283.051	89.06
283.282	71.06
283.513	97.06
283.745	77.06
283.976	95.06
284.207	86.06
284.439	91.06
284.67	88.06
284.901	94.06
285.132	102.06
285.364	90.06
285.595	84.06
285.826	98.06
286.057	100.06
286.288	90.06
286.52	86.06
286.751	88.06
286.982	73.06
287.213	88.06
287.444	85.06
287.675	90.06
287.906	80.06
288.138	101.06
288.369	86.06
288.6	82.06
288.831	100.06
289.062	95.06
289.293	90.06
289.524	75.06
289.755	74.06
289.986	90.06
290.217	81.06
290.448	76.06
290.679	89.06
290.91	92.06
291.141	81.06
291.371	101.06
291.602	95.06
291.833	91.06
292.064	90.06
292.295	72.06
292.526	87.06
292.757	89.06
292.987	84.06
293.218	81.06
293.449	83.06
293.68	75.06
293.91	89.06
294.141	86.06
294.372	97.06
294.603	82.06
294.833	77.06
295.064	88.06
295.295	87.06
295.525	88.06
295.756	87.06
295.987	79.06
296.217	85.06
296.448	76.06
296.679	91.06
296.909	101.06
297.14	80.06
297.37	102.06
297.601	87.06
297.831	93.06
298.062	90.06
298.292	94.06
298.523	86.06
298.753	87.06
298.984	86.06
299.214	97.06
299.445	87.06
299.675	102.06
299.905	84.06
300.136	85.06
300.366	94.06
300.597	72.06
300.827	80.06
301.057	90.06
301.288	88.06
301.518	88.06
301.748	93.06
301.979	91.06
302.209	72.06
302.439	89.06
302.669	87.06
302.9	81.06
303.13	75.06
303.36	83.06
303.59	93.06
303.82	89.06
304.051	91.06
304.281	94.06
304.511	97.06
304.741	81.06
304.971	76.06
305.201	97.06
305.431	91.06
305.661	89.06
305.891	93.06
306.121	101.06
306.352	96.06
306.582	95.06
306.812	79.06
307.042	84.06
307.272	99.06
307.502	90.06
307.731	83.06
307.961	88.06
308.191	86.06
308.421	84.06
308.651	85.06
308.881	89.06
309.111	84.06
309.341	90.06
309.571	93.06
309.8	93.06
310.03	89.06
310.26	87.06
310.49	64.06
310.72	100.06
310.949	87.06
311.179	91.06
311.409	97.06
311.639	84.06
311.868	77.06
312.098	94.06
312.328	81.06
312.557	97.06
312.787	75.06
313.017	92.06
313.246	93.06
313.476	97.06
313.706	92.06
313.935	92.06
314.165	90.06
314.394	87.06
314.624	91.06
314.853	101.06
315.083	85.06
315.312	77.06
315.542	92.06
315.771	81.06
316.001	95.06
316.23	98.06
316.46	82.06
316.689	99.06
316.919	91.06
317.148	91.06
317.377	95.06
317.607	89.06
317.836	94.06
318.065	78.06
318.295	81.06
318.524	74.06
318.753	77.06
318.983	98.06
319.212	91.06
319.441	90.06
319.67	89.06
319.9	90.06
320.129	74.06
320.358	89.06
320.587	87.06
320.816	89.06
321.046	91.06
321.275	95.06
321.504	90.06
321.733	74.06
321.962	95.06
322.191	83.06
322.42	73.06
322.649	78.06
322.878	93.06
323.108	76.06
323.337	94.06
323.566	95.06
323.795	103.06
324.024	89.06
324.253	89.06
324.482	93.06
324.71	95.06
324.939	91.06
325.168	86.06
325.397	88.06
325.626	87.06
325.855	86.06
326.084	91.06
326.313	91.06
326.542	85.06
326.77	81.06
326.999	82.06
327.228	90.06
327.457	81.06
327.686	71.06
327.914	98.06
328.143	103.06
328.372	77.06
328.6	100.06
328.829	86.06
329.058	89.06
329.287	88.06
329.515	92.06
329.744	86.06
329.972	93.06
330.201	86.06
330.43	82.06
330.658	84.06
330.887	101.06
331.115	93.06
331.344	89.06
331.572	83.06
331.801	81.06
332.03	84.06
332.258	87.06
332.486	86.06
332.715	90.06
332.943	69.06
333.172	76.06
333.4	76.06
333.629	82.06
333.857	92.06
334.085	81.06
334.314	90.06
334.542	92.06
334.771	80.06
334.999	83.06
335.227	91.06
335.455	79.06
335.684	81.06
335.912	68.06
336.14	100.06
336.369	93.06
336.597	94.06
336.825	89.06
337.053	99.06
337.281	78.06
337.51	88.06
337.738	97.06
337.966	79.06
338.194	95.06
338.422	86.06
338.65	93.06
338.878	84.06
339.106	81.06
339.334	78.06
339.562	87.06
339.79	86.06
340.018	104.06
340.246	91.06
340.474	94.06
340.702	76.06
340.93	85.06
341.158	99.06
341.386	90.06
341.614	97.06
341.842	89.06
342.07	85.06
342.298	87.06
342.526	85.06
342.754	88.06
342.981	100.06
343.209	83.06
343.437	78.06
343.665	101.06
343.893	92.06
344.12	88.06
344.348	74.06
344.576	65.06
344.804	89.06
345.031	80.06
345.259	92.06
345.487	95.06
345.714	91.06
345.942	98.06
346.17	77.06
346.397	96.06
346.625	102.06
346.853	96.06
347.08	83.06
347.308	81.06
347.535	85.06
347.763	92.06
347.99	79.06
348.218	76.06
348.445	90.06
348.673	91.06
348.9	79.06
349.128	100.06
349.355	91.06
349.583	94.06
349.81	87.06
350.037	72.06
350.265	99.06
350.492	87.06
350.72	88.06
350.947	88.06
351.174	74.06
351.402	90.06
351.629	75.06
351.856	82.06
352.083	94.06
352.311	99.06
352.538	78.06
352.765	102.06
352.992	89.06
353.22	91.06
353.447	81.06
353.674	73.06
353.901	87.06
354.128	92.06
354.355	92.06
354.583	90.06
354.81	88.06
355.037	87.06
355.264	82.06
355.491	104.06
355.718	84.06
355.945	81.06
356.172	94.06
356.399	70.06
356.626	77.06
356.853	93.06
357.08	98.06
357.307	94.06
357.534	98.06
357.761	90.06
357.988	90.06
358.215	85.06
358.441	81.06
358.668	80.06
358.895	94.06
359.122	78.06
359.349	87.06
359.576	93.06
359.802	80.06
360.029	73.06
360.256	77.06
360.483	79.06
360.709	92.06
360.936	97.06
361.163	85.06
361.39	97.06
361.616	94.06
361.843	81.06
362.07	83.06
362.296	93.06
362.523	74.06
362.749	81.06
362.976	79.06
363.203	78.06
363.429	90.06
363.656	97.06
363.882	93.06
364.109	91.06
364.335	89.06
364.562	85.06
364.788	83.06
365.015	90.06
365.241	86.06
365.468	83.06
365.694	84.06
365.92	84.06
366.147	86.06
366.373	86.06
366.599	96.06
366.826	89.06
367.052	73.06
367.278	97.06
367.505	79.06
367.731	85.06
367.957	82.06
368.184	79.06
368.41	77.06
368.636	85.06
368.862	86.06
369.089	85.06
369.315	78.06
369.541	100.06
369.767	78.06
369.993	86.06
370.219	95.06
370.445	74.06
370.672	86.06
370.898	98.06
371.124	87.06
371.35	93.06
371.576	79.06
371.802	76.06
372.028	96.06
372.254	82.06
372.48	99.06
372.706	88.06
372.932	79.06
373.158	81.06
373.384	90.06
373.61	98.06
373.835	90.06
374.061	87.06
374.287	85.06
374.513	88.06
374.739	89.06
374.965	78.06
375.191	89.06
375.416	92.06
375.642	83.06
375.868	87.06
376.094	79.06
376.319	85.06
376.545	87.06
376.771	86.06
376.997	88.06
377.222	95.06
377.448	89.06
377.674	99.06
377.899	90.06
378.125	101.06
378.35	88.06
378.576	80.06
378.802	83.06
379.027	83.06
379.253	93.06
379.478	86.06
379.704	80.06
379.929	78.06
380.155	91.06
380.38	87.06
380.606	77.06
380.831	70.06
381.057	99.06
381.282	73.06
381.507	101.06
381.733	87.06
381.958	93.06
382.184	106.06
382.409	89.06
382.634	86.06
382.86	80.06
383.085	81.06
383.31	87.06
383.535	85.06
383.761	77.06
383.986	78.06
384.211	81.06
384.436	84.06
384.662	78.06
384.887	79.06
385.112	75.06
385.337	95.06
385.562	78.06
385.787	83.06
386.013	103.06
386.238	86.06
386.463	82.06
386.688	91.06
386.913	88.06
387.138	90.06
387.363	93.06
387.588	85.06
387.813	81.06
388.038	83.06
388.263	97.06
388.488	89.06
388.713	85.06
388.938	86.06
389.163	100.06
389.387	94.06
389.612	89.06
389.837	97.06
390.062	86.06
390.287	89.06
390.512	85.06
390.736	98.06
390.961	102.06
391.186	102.06
391.411	74.06
391.636	93.06
391.86	84.06
392.085	97.06
392.31	77.06
392.534	75.06
392.759	82.06
392.984	88.06
393.208	82.06
393.433	92.06
393.658	83.06
393.882	101.06
394.107	86.06
394.331	85.06
394.556	101.06
394.78	91.06
395.005	88.06
395.229	87.06
395.454	95.06
395.678	85.06
395.903	86.06
396.127	87.06
396.352	91.06
396.576	91.06
396.801	92.06
397.025	95.06
397.249	91.06
397.474	91.06
397.698	91.06
397.922	92.06
398.147	91.06
398.371	89.06
398.595	87.06
398.82	95.06
399.044	102.06
399.268	96.06
399.492	81.06
399.717	97.06
399.941	94.06
400.165	92.06
400.389	77.06
400.613	84.06
400.837	79.06
401.062	91.06
401.286	88.06
401.51	82.06
401.734	71.06
401.958	87.06
402.182	86.06
402.406	93.06
402.63	94.06
402.854	94.06
403.078	78.06
403.302	102.06
403.526	100.06
403.75	98.06
403.974	95.06
404.198	100.06
404.422	103.06
404.645	89.06
404.869	92.06
405.093	94.06
405.317	95.06
405.541	87.06
405.765	74.06
405.988	103.06
406.212	79.06
406.436	83.06
406.66	96.06
406.883	83.06
407.107	103.06
407.331	96.06
407.555	90.06
407.778	91.06
408.002	86.06
408.226	85.06
408.449	102.06
408.673	85.06
408.896	100.06
409.12	88.06
409.344	89.06
409.567	85.06
409.791	101.06
410.014	84.06
410.238	102.06
410.461	108.06
410.685	86.06
410.908	78.06
411.132	97.06
411.355	97.06
411.578	110.06
411.802	107.06
412.025	94.06
412.249	97.06
412.472	106.06
412.695	112.06
412.919	89.06
413.142	97.06
413.365	90.06
413.589	97.06
413.812	97.06
414.035	92.06
414.258	84.06
414.482	81.06
414.705	81.06
414.928	101.06
415.151	101.06
415.374	89.06
415.597	85.06
415.821	93.06
416.044	94.06
416.267	101.06
416.49	100.06
416.713	89.06
416.936	85.06
417.159	101.06
417.382	100.06
417.605	84.06
417.828	85.06
418.051	97.06
418.274	93.06
418.497	92.06
418.72	106.06
418.943	89.06
419.166	106.06
419.389	110.06
419.611	97.06
419.834	93.06
420.057	92.06
420.28	84.06
420.503	89.06
420.726	94.06
420.948	91.06
421.171	100.06
421.394	86.06
421.617	90.06
421.839	98.06
422.062	104.06
422.285	99.06
422.507	100.06
422.73	101.06
422.953	96.06
423.175	88.06
423.398	85.06
423.621	94.06
423.843	96.06
424.066	96.06
424.288	107.06
424.511	101.06
424.733	85.06
424.956	103.06
425.178	93.06
425.401	105.06
425.623	89.06
425.846	97.06
426.068	104.06
426.291	98.06
426.513	102.06
426.735	93.06
426.958	100.06
427.18	98.06
427.402	104.06
427.625	105.06
427.847	105.06
428.069	100.06
428.292	93.06
428.514	108.06
428.736	84.06
428.958	90.06
429.181	109.06
429.403	110.06
429.625	95.06
429.847	95.06
430.069	98.06
430.292	108.06
430.514	89.06
430.736	77.06
430.958	98.06
431.18	83.06
431.402	109.06
431.624	95.06
431.846	90.06
432.068	89.06
432.29	86.06
432.512	89.06
432.734	91.06
432.956	86.06
433.178	110.06
433.4	113.06
433.622	95.06
433.844	99.06
434.066	89.06
434.287	79.06
434.509	98.06
434.731	96.06
434.953	90.06
435.175	85.06
435.397	84.06
435.618	90.06
435.84	89.06
436.062	79.06
436.284	78.06
436.505	82.06
436.727	92.06
436.949	99.06
437.17	101.06
437.392	97.06
437.614	82.06
437.835	92.06
438.057	94.06
438.278	82.06
438.5	92.06
438.721	90.06
438.943	89.06
439.165	89.06
439.386	99.06
439.608	92.06
439.829	100.06
440.05	94.06
440.272	82.06
440.493	98.06
440.715	100.06
440.936	87.06
441.158	92.06
441.379	90.06
441.6	78.06
441.822	86.06
442.043	93.06
442.264	102.06
442.486	99.06
442.707	97.06
442.928	108.06
443.149	92.06
443.371	91.06
443.592	94.06
443.813	104.06
444.034	104.06
444.255	110.06
444.476	95.06
444.698	82.06
444.919	102.06
445.14	219.06
445.361	153.06
445.582	103.06
445.803	111.06
446.024	111.06
446.245	93.06
446.466	83.06
446.687	99.06
446.908	101.06
447.129	97.06
447.35	107.06
447.571	99.06
447.792	90.06
448.013	108.06
448.234	105.06
448.455	106.06
448.675	90.06
448.896	100.06
449.117	99.06
449.338	82.06
449.559	98.06
449.779	103.06
450	90.06
450.221	91.06
450.442	90.06
450.662	97.06
450.883	84.06
451.104	90.06
451.324	95.06
451.545	102.06
451.766	98.06
451.986	110.06
452.207	99.06
452.428	93.06
452.648	75.06
452.869	97.06
453.089	95.06
453.31	87.06
453.53	83.06
453.751	85.06
453.971	98.06
454.192	75.06
454.412	93.06
454.633	91.06
454.853	90.06
455.073	81.06
455.294	96.06
455.514	89.06
455.734	98.06
455.955	108.06
456.175	93.06
456.395	88.06
456.616	91.06
456.836	93.06
457.056	80.06
457.276	83.06
457.497	95.06
457.717	92.06
457.937	89.06
458.157	81.06
458.377	75.06
458.598	98.06
458.818	93.06
459.038	83.06
459.258	92.06
459.478	94.06
459.698	80.06
459.918	94.06
460.138	101.06
460.358	85.06
460.578	83.06
460.798	104.06
461.018	100.06
461.238	94.06
461.458	88.06
461.678	89.06
461.898	107.06
462.118	101.06
462.338	97.06
462.558	93.06
462.777	79.06
462.997	100.06
463.217	97.06
463.437	93.06
463.657	93.06
463.876	94.06
464.096	98.06
464.316	92.06
464.536	90.06
464.755	77.06
464.975	88.06
465.195	89.06
465.414	84.06
465.634	100.06
465.854	85.06
466.073	98.06
466.293	97.06
466.512	96.06
466.732	84.06
466.951	98.06
467.171	90.06
467.391	99.06
467.61	92.06
467.829	91.06
468.049	95.06
468.268	94.06
468.488	92.06
468.707	97.06
468.927	95.06
469.146	97.06
469.365	113.06
469.585	103.06
469.804	95.06
470.023	95.06
470.243	94.06
470.462	90.06
470.681	100.06
470.901	107.06
471.12	104.06
471.339	98.06
471.558	108.06
471.777	96.06
471.997	93.06
472.216	93.06
472.435	82.06
472.654	81.06
472.873	87.06
473.092	97.06
473.311	96.06
473.53	92.06
473.749	93.06
473.968	79.06
474.187	81.06
474.406	78.06
474.625	94.06
474.844	94.06
475.063	94.06
475.282	93.06
475.501	87.06
475.72	89.06
475.939	105.06
476.158	105.06
476.377	98.06
476.596	92.06
476.814	94.06
477.033	94.06
477.252	94.06
477.471	108.06
477.69	102.06
477.908	93.06
478.127	103.06
478.346	89.06
478.564	104.06
478.783	93.06
479.002	96.06
479.22	89.06
479.439	84.06
479.658	95.06
479.876	88.06
480.095	90.06
480.313	106.06
480.532	98.06
480.751	100.06
480.969	96.06
481.188	85.06
481.406	88.06
481.624	66.06
481.843	77.06
482.061	91.06
482.28	89.06
482.498	96.06
482.717	95.06
482.935	89.06
483.153	98.06
483.372	121.06
483.59	99.06
483.808	104.06
484.027	98.06
484.245	105.06
484.463	86.06
484.681	108.06
484.9	98.06
485.118	96.06
485.336	120.06
485.554	98.06
485.772	94.06
485.99	86.06
486.209	90.06
486.427	98.06
486.645	91.06
486.863	97.06
487.081	95.06
487.299	97.06
487.517	102.06
487.735	94.06
487.953	123.06
488.171	123.06
488.389	113.06
488.607	100.06
488.825	106.06
489.043	97.06
489.261	98.06
489.479	107.06
489.696	83.06
489.914	104.06
490.132	101.06
490.35	105.06
490.568	110.06
490.786	111.06
491.003	113.06
491.221	107.06
491.439	110.06
491.657	119.06
491.874	107.06
492.092	117.06
492.31	123.06
492.527	118.06
492.745	107.06
492.963	115.06
493.18	95.06
493.398	120.06
493.615	110.06
493.833	97.06
494.05	96.06
494.268	94.06
494.485	93.06
494.703	109.06
494.92	101.06
495.138	89.06
495.355	112.06
495.573	110.06
495.79	95.06
496.008	117.06
496.225	102.06
496.442	107.06
496.66	106.06
496.877	109.06
497.094	110.06
497.312	116.06
497.529	100.06
497.746	111.06
497.963	96.06
498.181	92.06
498.398	88.06
498.615	87.06
498.832	80.06
499.049	87.06
499.267	110.06
499.484	103.06
499.701	116.06
499.918	113.06
500.135	107.06
500.352	92.06
500.569	88.06
500.786	99.06
501.003	98.06
501.22	100.06
501.437	98.06
501.654	105.06
501.871	104.06
502.088	89.06
502.305	101.06
502.522	94.06
502.739	94.06
502.956	97.06
503.172	108.06
503.389	85.06
503.606	95.06
503.823	87.06
504.04	101.06
504.256	83.06
504.473	89.06
504.69	94.06
504.907	93.06
505.123	95.06
505.34	105.06
505.557	91.06
505.773	98.06
505.99	97.06
506.207	106.06
506.423	105.06
506.64	96.06
506.856	84.06
507.073	105.06
507.289	87.06
507.506	90.06
507.722	91.06
507.939	102.06
508.155	97.06
508.372	93.06
508.588	102.06
508.805	98.06
509.021	90.06
509.238	81.06
509.454	74.06
509.67	86.06
509.887	88.06
510.103	97.06
510.319	97.06
510.536	92.06
510.752	90.06
510.968	74.06
511.184	91.06
511.401	89.06
511.617	81.06
511.833	87.06
512.049	91.06
512.265	87.06
512.481	103.06
512.698	87.06
512.914	99.06
513.13	78.06
513.346	80.06
513.562	85.06
513.778	98.06
513.994	87.06
514.21	88.06
514.426	91.06
514.642	87.06
514.858	79.06
515.074	83.06
515.29	90.06
515.506	83.06
515.721	86.06
515.937	84.06
516.153	70.06
516.369	86.06
516.585	68.06
516.801	83.06
