Data from Location5.07152019.Energy5.Lamp.07192019.3%Agarose_HRD10591_15-38-50-390.txt Node
Date: Fri Jul 19 15:38:50 EDT 2019
User: cochatt
Spectrometer: HR+D1059
Trigger mode: 1
Integration Time (sec): 1.000000E-1
Scans to average: 1
Electric dark correction enabled: true
Nonlinearity correction enabled: false
Boxcar width: 0
XAxis mode: Wavelengths
Number of Pixels in Spectrum: 2048
>>>>>Begin Spectral Data<<<<<
223.165	-15.81
223.4	-15.81
223.635	-15.81
223.869	-24.81
224.104	-8.81
224.338	-20.81
224.573	-10.81
224.808	-20.81
225.042	-10.81
225.277	7.19
225.511	-5.81
225.746	5.19
225.98	11.19
226.215	2.19
226.449	14.19
226.683	7.19
226.918	30.19
227.152	41.19
227.387	37.19
227.621	39.19
227.856	38.19
228.09	52.19
228.324	49.19
228.559	70.19
228.793	60.19
229.027	46.19
229.262	50.19
229.496	62.19
229.73	72.19
229.964	78.19
230.199	65.19
230.433	74.19
230.667	90.19
230.901	90.19
231.136	73.19
231.37	83.19
231.604	85.19
231.838	106.19
232.072	90.19
232.306	86.19
232.541	85.19
232.775	72.19
233.009	89.19
233.243	78.19
233.477	94.19
233.711	100.19
233.945	91.19
234.179	90.19
234.413	90.19
234.647	91.19
234.881	74.19
235.115	77.19
235.349	76.19
235.583	90.19
235.817	75.19
236.051	90.19
236.285	81.19
236.519	75.19
236.753	86.19
236.987	63.19
237.221	81.19
237.455	86.19
237.689	83.19
237.922	88.19
238.156	96.19
238.39	66.19
238.624	84.19
238.858	88.19
239.091	84.19
239.325	89.19
239.559	87.19
239.793	67.19
240.027	94.19
240.26	85.19
240.494	90.19
240.728	75.19
240.961	75.19
241.195	85.19
241.429	91.19
241.662	79.19
241.896	75.19
242.13	92.19
242.363	88.19
242.597	88.19
242.83	95.19
243.064	75.19
243.298	84.19
243.531	77.19
243.765	86.19
243.998	90.19
244.232	84.19
244.465	82.19
244.699	78.19
244.932	87.19
245.166	70.19
245.399	78.19
245.633	87.19
245.866	72.19
246.099	83.19
246.333	62.19
246.566	81.19
246.8	86.19
247.033	79.19
247.266	79.19
247.5	78.19
247.733	75.19
247.966	87.19
248.2	78.19
248.433	76.19
248.666	83.19
248.899	86.19
249.133	83.19
249.366	85.19
249.599	80.19
249.832	95.19
250.066	66.19
250.299	90.19
250.532	88.19
250.765	83.19
250.998	80.19
251.231	103.19
251.465	99.19
251.698	72.19
251.931	76.19
252.164	80.19
252.397	67.19
252.63	79.19
252.863	85.19
253.096	76.19
253.329	80.19
253.562	80.19
253.795	78.19
254.028	87.19
254.261	80.19
254.494	70.19
254.727	84.19
254.96	95.19
255.193	78.19
255.426	90.19
255.659	72.19
255.892	93.19
256.124	86.19
256.357	79.19
256.59	80.19
256.823	81.19
257.056	81.19
257.289	90.19
257.521	82.19
257.754	83.19
257.987	88.19
258.22	104.19
258.452	83.19
258.685	99.19
258.918	86.19
259.151	78.19
259.383	92.19
259.616	70.19
259.849	74.19
260.081	83.19
260.314	96.19
260.547	85.19
260.779	84.19
261.012	86.19
261.244	86.19
261.477	98.19
261.71	86.19
261.942	94.19
262.175	78.19
262.407	79.19
262.64	76.19
262.872	74.19
263.105	77.19
263.337	101.19
263.57	83.19
263.802	90.19
264.035	87.19
264.267	84.19
264.499	77.19
264.732	87.19
264.964	88.19
265.197	77.19
265.429	78.19
265.661	87.19
265.894	79.19
266.126	86.19
266.358	89.19
266.591	89.19
266.823	78.19
267.055	84.19
267.287	85.19
267.52	98.19
267.752	65.19
267.984	87.19
268.216	81.19
268.448	80.19
268.681	93.19
268.913	86.19
269.145	75.19
269.377	78.19
269.609	78.19
269.841	80.19
270.073	79.19
270.306	93.19
270.538	77.19
270.77	84.19
271.002	95.19
271.234	82.19
271.466	80.19
271.698	85.19
271.93	94.19
272.162	84.19
272.394	87.19
272.626	104.19
272.858	76.19
273.09	85.19
273.322	90.19
273.553	94.19
273.785	93.19
274.017	86.19
274.249	80.19
274.481	84.19
274.713	93.19
274.945	85.19
275.176	95.19
275.408	90.19
275.64	78.19
275.872	105.19
276.104	83.19
276.335	85.19
276.567	98.19
276.799	90.19
277.031	87.19
277.262	90.19
277.494	80.19
277.726	86.19
277.957	94.19
278.189	84.19
278.421	82.19
278.652	88.19
278.884	84.19
279.115	90.19
279.347	94.19
279.579	80.19
279.81	91.19
280.042	83.19
280.273	63.19
280.505	100.19
280.736	84.19
280.968	78.19
281.199	75.19
281.431	95.19
281.662	95.19
281.894	94.19
282.125	94.19
282.356	81.19
282.588	88.19
282.819	90.19
283.051	80.19
283.282	104.19
283.513	87.19
283.745	90.19
283.976	73.19
284.207	90.19
284.439	89.19
284.67	89.19
284.901	79.19
285.132	77.19
285.364	83.19
285.595	88.19
285.826	88.19
286.057	85.19
286.288	74.19
286.52	81.19
286.751	90.19
286.982	89.19
287.213	97.19
287.444	86.19
287.675	69.19
287.906	90.19
288.138	90.19
288.369	84.19
288.6	78.19
288.831	92.19
289.062	81.19
289.293	96.19
289.524	92.19
289.755	87.19
289.986	88.19
290.217	85.19
290.448	95.19
290.679	90.19
290.91	98.19
291.141	87.19
291.371	77.19
291.602	89.19
291.833	91.19
292.064	96.19
292.295	98.19
292.526	92.19
292.757	100.19
292.987	78.19
293.218	85.19
293.449	75.19
293.68	90.19
293.91	72.19
294.141	106.19
294.372	88.19
294.603	77.19
294.833	89.19
295.064	98.19
295.295	98.19
295.525	87.19
295.756	77.19
295.987	83.19
296.217	92.19
296.448	85.19
296.679	88.19
296.909	80.19
297.14	88.19
297.37	84.19
297.601	91.19
297.831	95.19
298.062	90.19
298.292	80.19
298.523	86.19
298.753	92.19
298.984	82.19
299.214	87.19
299.445	106.19
299.675	108.19
299.905	93.19
300.136	94.19
300.366	95.19
300.597	80.19
300.827	73.19
301.057	86.19
301.288	84.19
301.518	85.19
301.748	87.19
301.979	72.19
302.209	89.19
302.439	92.19
302.669	91.19
302.9	91.19
303.13	90.19
303.36	100.19
303.59	83.19
303.82	99.19
304.051	81.19
304.281	82.19
304.511	98.19
304.741	92.19
304.971	100.19
305.201	89.19
305.431	86.19
305.661	94.19
305.891	83.19
306.121	84.19
306.352	80.19
306.582	96.19
306.812	99.19
307.042	85.19
307.272	89.19
307.502	86.19
307.731	92.19
307.961	82.19
308.191	76.19
308.421	100.19
308.651	95.19
308.881	90.19
309.111	96.19
309.341	87.19
309.571	77.19
309.8	88.19
310.03	80.19
310.26	91.19
310.49	83.19
310.72	88.19
310.949	90.19
311.179	87.19
311.409	72.19
311.639	88.19
311.868	89.19
312.098	92.19
312.328	84.19
312.557	91.19
312.787	92.19
313.017	73.19
313.246	90.19
313.476	101.19
313.706	92.19
313.935	98.19
314.165	93.19
314.394	96.19
314.624	100.19
314.853	93.19
315.083	92.19
315.312	109.19
315.542	99.19
315.771	95.19
316.001	83.19
316.23	91.19
316.46	105.19
316.689	87.19
316.919	94.19
317.148	96.19
317.377	96.19
317.607	91.19
317.836	92.19
318.065	93.19
318.295	88.19
318.524	92.19
318.753	93.19
318.983	82.19
319.212	77.19
319.441	88.19
319.67	80.19
319.9	83.19
320.129	86.19
320.358	78.19
320.587	91.19
320.816	86.19
321.046	100.19
321.275	84.19
321.504	80.19
321.733	81.19
321.962	98.19
322.191	72.19
322.42	83.19
322.649	89.19
322.878	98.19
323.108	106.19
323.337	91.19
323.566	87.19
323.795	77.19
324.024	90.19
324.253	90.19
324.482	85.19
324.71	76.19
324.939	86.19
325.168	80.19
325.397	88.19
325.626	90.19
325.855	102.19
326.084	83.19
326.313	85.19
326.542	80.19
326.77	88.19
326.999	88.19
327.228	104.19
327.457	97.19
327.686	81.19
327.914	89.19
328.143	88.19
328.372	96.19
328.6	85.19
328.829	87.19
329.058	72.19
329.287	91.19
329.515	78.19
329.744	94.19
329.972	94.19
330.201	89.19
330.43	89.19
330.658	76.19
330.887	88.19
331.115	77.19
331.344	83.19
331.572	99.19
331.801	108.19
332.03	103.19
332.258	86.19
332.486	81.19
332.715	83.19
332.943	79.19
333.172	87.19
333.4	84.19
333.629	88.19
333.857	93.19
334.085	83.19
334.314	91.19
334.542	101.19
334.771	87.19
334.999	93.19
335.227	93.19
335.455	86.19
335.684	84.19
335.912	88.19
336.14	85.19
336.369	85.19
336.597	88.19
336.825	92.19
337.053	82.19
337.281	82.19
337.51	80.19
337.738	99.19
337.966	90.19
338.194	82.19
338.422	89.19
338.65	97.19
338.878	72.19
339.106	91.19
339.334	92.19
339.562	87.19
339.79	91.19
340.018	93.19
340.246	89.19
340.474	85.19
340.702	90.19
340.93	96.19
341.158	81.19
341.386	88.19
341.614	84.19
341.842	71.19
342.07	87.19
342.298	88.19
342.526	96.19
342.754	95.19
342.981	87.19
343.209	82.19
343.437	103.19
343.665	87.19
343.893	83.19
344.12	87.19
344.348	78.19
344.576	78.19
344.804	94.19
345.031	92.19
345.259	92.19
345.487	82.19
345.714	82.19
345.942	102.19
346.17	82.19
346.397	90.19
346.625	85.19
346.853	93.19
347.08	94.19
347.308	93.19
347.535	78.19
347.763	74.19
347.99	102.19
348.218	91.19
348.445	95.19
348.673	78.19
348.9	98.19
349.128	96.19
349.355	94.19
349.583	91.19
349.81	84.19
350.037	82.19
350.265	93.19
350.492	88.19
350.72	80.19
350.947	93.19
351.174	85.19
351.402	90.19
351.629	73.19
351.856	87.19
352.083	91.19
352.311	79.19
352.538	98.19
352.765	74.19
352.992	91.19
353.22	88.19
353.447	85.19
353.674	96.19
353.901	103.19
354.128	83.19
354.355	76.19
354.583	75.19
354.81	75.19
355.037	87.19
355.264	84.19
355.491	96.19
355.718	84.19
355.945	77.19
356.172	91.19
356.399	90.19
356.626	87.19
356.853	91.19
357.08	102.19
357.307	91.19
357.534	90.19
357.761	83.19
357.988	102.19
358.215	87.19
358.441	94.19
358.668	90.19
358.895	82.19
359.122	84.19
359.349	69.19
359.576	81.19
359.802	96.19
360.029	80.19
360.256	95.19
360.483	93.19
360.709	102.19
360.936	100.19
361.163	93.19
361.39	104.19
361.616	99.19
361.843	88.19
362.07	85.19
362.296	93.19
362.523	87.19
362.749	91.19
362.976	90.19
363.203	106.19
363.429	95.19
363.656	93.19
363.882	87.19
364.109	75.19
364.335	94.19
364.562	100.19
364.788	89.19
365.015	86.19
365.241	88.19
365.468	89.19
365.694	82.19
365.92	96.19
366.147	100.19
366.373	93.19
366.599	90.19
366.826	91.19
367.052	94.19
367.278	81.19
367.505	80.19
367.731	84.19
367.957	71.19
368.184	97.19
368.41	92.19
368.636	97.19
368.862	87.19
369.089	72.19
369.315	78.19
369.541	96.19
369.767	83.19
369.993	103.19
370.219	102.19
370.445	100.19
370.672	90.19
370.898	84.19
371.124	80.19
371.35	85.19
371.576	80.19
371.802	77.19
372.028	91.19
372.254	93.19
372.48	84.19
372.706	90.19
372.932	91.19
373.158	86.19
373.384	94.19
373.61	96.19
373.835	84.19
374.061	88.19
374.287	89.19
374.513	99.19
374.739	86.19
374.965	87.19
375.191	76.19
375.416	100.19
375.642	77.19
375.868	90.19
376.094	91.19
376.319	89.19
376.545	86.19
376.771	96.19
376.997	81.19
377.222	87.19
377.448	91.19
377.674	88.19
377.899	88.19
378.125	87.19
378.35	94.19
378.576	92.19
378.802	90.19
379.027	95.19
379.253	83.19
379.478	98.19
379.704	85.19
379.929	79.19
380.155	79.19
380.38	90.19
380.606	94.19
380.831	87.19
381.057	101.19
381.282	86.19
381.507	93.19
381.733	98.19
381.958	86.19
382.184	78.19
382.409	87.19
382.634	103.19
382.86	90.19
383.085	95.19
383.31	86.19
383.535	85.19
383.761	88.19
383.986	89.19
384.211	96.19
384.436	94.19
384.662	74.19
384.887	80.19
385.112	91.19
385.337	87.19
385.562	81.19
385.787	82.19
386.013	95.19
386.238	94.19
386.463	94.19
386.688	72.19
386.913	92.19
387.138	97.19
387.363	93.19
387.588	96.19
387.813	94.19
388.038	80.19
388.263	92.19
388.488	99.19
388.713	82.19
388.938	80.19
389.163	94.19
389.387	88.19
389.612	91.19
389.837	86.19
390.062	108.19
390.287	90.19
390.512	88.19
390.736	102.19
390.961	94.19
391.186	101.19
391.411	99.19
391.636	91.19
391.86	83.19
392.085	93.19
392.31	92.19
392.534	75.19
392.759	91.19
392.984	100.19
393.208	109.19
393.433	85.19
393.658	90.19
393.882	99.19
394.107	98.19
394.331	80.19
394.556	91.19
394.78	79.19
395.005	75.19
395.229	93.19
395.454	101.19
395.678	84.19
395.903	85.19
396.127	92.19
396.352	95.19
396.576	97.19
396.801	90.19
397.025	73.19
397.249	86.19
397.474	94.19
397.698	83.19
397.922	102.19
398.147	87.19
398.371	106.19
398.595	97.19
398.82	85.19
399.044	86.19
399.268	87.19
399.492	101.19
399.717	86.19
399.941	100.19
400.165	84.19
400.389	80.19
400.613	84.19
400.837	102.19
401.062	100.19
401.286	84.19
401.51	94.19
401.734	99.19
401.958	82.19
402.182	104.19
402.406	89.19
402.63	93.19
402.854	102.19
403.078	98.19
403.302	90.19
403.526	106.19
403.75	98.19
403.974	91.19
404.198	88.19
404.422	97.19
404.645	96.19
404.869	85.19
405.093	84.19
405.317	98.19
405.541	101.19
405.765	103.19
405.988	86.19
406.212	93.19
406.436	96.19
406.66	90.19
406.883	92.19
407.107	109.19
407.331	72.19
407.555	93.19
407.778	93.19
408.002	93.19
408.226	91.19
408.449	103.19
408.673	87.19
408.896	101.19
409.12	91.19
409.344	86.19
409.567	104.19
409.791	97.19
410.014	90.19
410.238	101.19
410.461	95.19
410.685	104.19
410.908	93.19
411.132	94.19
411.355	91.19
411.578	102.19
411.802	86.19
412.025	104.19
412.249	105.19
412.472	88.19
412.695	89.19
412.919	97.19
413.142	93.19
413.365	106.19
413.589	78.19
413.812	92.19
414.035	79.19
414.258	90.19
414.482	91.19
414.705	91.19
414.928	95.19
415.151	101.19
415.374	85.19
415.597	89.19
415.821	103.19
416.044	95.19
416.267	98.19
416.49	112.19
416.713	107.19
416.936	93.19
417.159	91.19
417.382	93.19
417.605	100.19
417.828	106.19
418.051	98.19
418.274	99.19
418.497	107.19
418.72	101.19
418.943	103.19
419.166	104.19
419.389	95.19
419.611	109.19
419.834	91.19
420.057	91.19
420.28	102.19
420.503	113.19
420.726	109.19
420.948	95.19
421.171	96.19
421.394	106.19
421.617	98.19
421.839	100.19
422.062	92.19
422.285	94.19
422.507	95.19
422.73	90.19
422.953	99.19
423.175	97.19
423.398	103.19
423.621	101.19
423.843	97.19
424.066	92.19
424.288	91.19
424.511	96.19
424.733	92.19
424.956	112.19
425.178	100.19
425.401	84.19
425.623	87.19
425.846	95.19
426.068	103.19
426.291	106.19
426.513	100.19
426.735	99.19
426.958	88.19
427.18	110.19
427.402	96.19
427.625	98.19
427.847	101.19
428.069	97.19
428.292	97.19
428.514	85.19
428.736	95.19
428.958	91.19
429.181	98.19
429.403	93.19
429.625	94.19
429.847	96.19
430.069	95.19
430.292	96.19
430.514	88.19
430.736	93.19
430.958	90.19
431.18	99.19
431.402	115.19
431.624	95.19
431.846	80.19
432.068	93.19
432.29	90.19
432.512	90.19
432.734	94.19
432.956	81.19
433.178	98.19
433.4	99.19
433.622	100.19
433.844	91.19
434.066	112.19
434.287	89.19
434.509	98.19
434.731	82.19
434.953	86.19
435.175	90.19
435.397	99.19
435.618	87.19
435.84	106.19
436.062	102.19
436.284	93.19
436.505	92.19
436.727	105.19
436.949	100.19
437.17	91.19
437.392	87.19
437.614	98.19
437.835	84.19
438.057	91.19
438.278	92.19
438.5	98.19
438.721	99.19
438.943	89.19
439.165	100.19
439.386	89.19
439.608	98.19
439.829	93.19
440.05	99.19
440.272	95.19
440.493	109.19
440.715	91.19
440.936	93.19
441.158	107.19
441.379	88.19
441.6	94.19
441.822	100.19
442.043	98.19
442.264	106.19
442.486	98.19
442.707	103.19
442.928	100.19
443.149	89.19
443.371	104.19
443.592	98.19
443.813	104.19
444.034	83.19
444.255	115.19
444.476	99.19
444.698	100.19
444.919	111.19
445.14	224.19
445.361	150.19
445.582	112.19
445.803	101.19
446.024	109.19
446.245	94.19
446.466	96.19
446.687	99.19
446.908	103.19
447.129	114.19
447.35	95.19
447.571	108.19
447.792	87.19
448.013	108.19
448.234	93.19
448.455	92.19
448.675	98.19
448.896	94.19
449.117	111.19
449.338	99.19
449.559	104.19
449.779	102.19
450	98.19
450.221	101.19
450.442	84.19
450.662	89.19
450.883	96.19
451.104	94.19
451.324	83.19
451.545	111.19
451.766	94.19
451.986	94.19
452.207	95.19
452.428	99.19
452.648	101.19
452.869	105.19
453.089	99.19
453.31	79.19
453.53	93.19
453.751	92.19
453.971	87.19
454.192	94.19
454.412	88.19
454.633	88.19
454.853	89.19
455.073	85.19
455.294	111.19
455.514	100.19
455.734	88.19
455.955	99.19
456.175	102.19
456.395	92.19
456.616	89.19
456.836	95.19
457.056	93.19
457.276	91.19
457.497	81.19
457.717	87.19
457.937	92.19
458.157	86.19
458.377	100.19
458.598	97.19
458.818	75.19
459.038	71.19
459.258	80.19
459.478	78.19
459.698	76.19
459.918	92.19
460.138	77.19
460.358	84.19
460.578	88.19
460.798	97.19
461.018	92.19
461.238	92.19
461.458	92.19
461.678	107.19
461.898	94.19
462.118	87.19
462.338	87.19
462.558	98.19
462.777	84.19
462.997	98.19
463.217	85.19
463.437	91.19
463.657	104.19
463.876	90.19
464.096	99.19
464.316	104.19
464.536	94.19
464.755	99.19
464.975	78.19
465.195	102.19
465.414	96.19
465.634	98.19
465.854	100.19
466.073	105.19
466.293	100.19
466.512	101.19
466.732	92.19
466.951	87.19
467.171	93.19
467.391	99.19
467.61	100.19
467.829	99.19
468.049	104.19
468.268	101.19
468.488	94.19
468.707	97.19
468.927	109.19
469.146	103.19
469.365	110.19
469.585	111.19
469.804	102.19
470.023	104.19
470.243	98.19
470.462	92.19
470.681	91.19
470.901	108.19
471.12	94.19
471.339	103.19
471.558	103.19
471.777	100.19
471.997	102.19
472.216	109.19
472.435	109.19
472.654	64.19
472.873	91.19
473.092	88.19
473.311	99.19
473.53	79.19
473.749	104.19
473.968	92.19
474.187	98.19
474.406	89.19
474.625	84.19
474.844	99.19
475.063	90.19
475.282	89.19
475.501	104.19
475.72	91.19
475.939	96.19
476.158	111.19
476.377	103.19
476.596	74.19
476.814	82.19
477.033	82.19
477.252	87.19
477.471	96.19
477.69	101.19
477.908	97.19
478.127	103.19
478.346	112.19
478.564	111.19
478.783	88.19
479.002	109.19
479.22	110.19
479.439	102.19
479.658	91.19
479.876	99.19
480.095	76.19
480.313	96.19
480.532	103.19
480.751	96.19
480.969	92.19
481.188	82.19
481.406	84.19
481.624	83.19
481.843	86.19
482.061	80.19
482.28	98.19
482.498	95.19
482.717	88.19
482.935	72.19
483.153	104.19
483.372	95.19
483.59	107.19
483.808	95.19
484.027	101.19
484.245	93.19
484.463	91.19
484.681	99.19
484.9	96.19
485.118	103.19
485.336	90.19
485.554	105.19
485.772	89.19
485.99	101.19
486.209	107.19
486.427	101.19
486.645	78.19
486.863	93.19
487.081	100.19
487.299	100.19
487.517	86.19
487.735	103.19
487.953	108.19
488.171	119.19
488.389	111.19
488.607	103.19
488.825	100.19
489.043	87.19
489.261	107.19
489.479	90.19
489.696	100.19
489.914	95.19
490.132	102.19
490.35	98.19
490.568	103.19
490.786	111.19
491.003	110.19
491.221	102.19
491.439	119.19
491.657	104.19
491.874	120.19
492.092	121.19
492.31	113.19
492.527	112.19
492.745	120.19
492.963	110.19
493.18	122.19
493.398	113.19
493.615	120.19
493.833	122.19
494.05	106.19
494.268	105.19
494.485	102.19
494.703	111.19
494.92	104.19
495.138	97.19
495.355	107.19
495.573	125.19
495.79	111.19
496.008	112.19
496.225	111.19
496.442	116.19
496.66	123.19
496.877	103.19
497.094	116.19
497.312	108.19
497.529	95.19
497.746	96.19
497.963	98.19
498.181	115.19
498.398	88.19
498.615	89.19
498.832	95.19
499.049	99.19
499.267	95.19
499.484	104.19
499.701	96.19
499.918	109.19
500.135	103.19
500.352	97.19
500.569	111.19
500.786	94.19
501.003	96.19
501.22	103.19
501.437	112.19
501.654	119.19
501.871	107.19
502.088	95.19
502.305	104.19
502.522	96.19
502.739	93.19
502.956	107.19
503.172	100.19
503.389	102.19
503.606	99.19
503.823	106.19
504.04	107.19
504.256	92.19
504.473	91.19
504.69	97.19
504.907	88.19
505.123	96.19
505.34	86.19
505.557	98.19
505.773	117.19
505.99	92.19
506.207	99.19
506.423	97.19
506.64	94.19
506.856	88.19
507.073	100.19
507.289	97.19
507.506	95.19
507.722	87.19
507.939	102.19
508.155	97.19
508.372	91.19
508.588	87.19
508.805	106.19
509.021	85.19
509.238	98.19
509.454	96.19
509.67	88.19
509.887	88.19
510.103	76.19
510.319	82.19
510.536	88.19
510.752	91.19
510.968	78.19
511.184	96.19
511.401	83.19
511.617	80.19
511.833	86.19
512.049	75.19
512.265	91.19
512.481	99.19
512.698	87.19
512.914	95.19
513.13	86.19
513.346	87.19
513.562	87.19
513.778	95.19
513.994	83.19
514.21	77.19
514.426	84.19
514.642	93.19
514.858	102.19
515.074	96.19
515.29	90.19
515.506	83.19
515.721	78.19
515.937	86.19
516.153	97.19
