Data from Location5.07152019.Energy5.Lamp.07192019.3%Agarose_HRD10591_15-38-28-389.txt Node
Date: Fri Jul 19 15:38:28 EDT 2019
User: cochatt
Spectrometer: HR+D1059
Trigger mode: 1
Integration Time (sec): 1.000000E-1
Scans to average: 1
Electric dark correction enabled: true
Nonlinearity correction enabled: false
Boxcar width: 0
XAxis mode: Wavelengths
Number of Pixels in Spectrum: 2048
>>>>>Begin Spectral Data<<<<<
223.165	-24.06
223.4	-24.06
223.635	-24.06
223.869	-2.06
224.104	-11.06
224.338	-16.06
224.573	-22.06
224.808	7.94
225.042	-9.06
225.277	-24.06
225.511	-22.06
225.746	6.94
225.98	13.94
226.215	3.94
226.449	22.94
226.683	15.94
226.918	22.94
227.152	35.94
227.387	44.94
227.621	55.94
227.856	43.94
228.09	42.94
228.324	53.94
228.559	48.94
228.793	62.94
229.027	64.94
229.262	69.94
229.496	79.94
229.73	68.94
229.964	55.94
230.199	71.94
230.433	76.94
230.667	69.94
230.901	77.94
231.136	76.94
231.37	70.94
231.604	74.94
231.838	89.94
232.072	72.94
232.306	72.94
232.541	74.94
232.775	77.94
233.009	68.94
233.243	74.94
233.477	76.94
233.711	73.94
233.945	91.94
234.179	74.94
234.413	93.94
234.647	70.94
234.881	94.94
235.115	78.94
235.349	83.94
235.583	89.94
235.817	78.94
236.051	72.94
236.285	69.94
236.519	77.94
236.753	81.94
236.987	73.94
237.221	92.94
237.455	85.94
237.689	77.94
237.922	77.94
238.156	82.94
238.39	83.94
238.624	69.94
238.858	75.94
239.091	82.94
239.325	75.94
239.559	71.94
239.793	82.94
240.027	82.94
240.26	72.94
240.494	84.94
240.728	77.94
240.961	83.94
241.195	85.94
241.429	65.94
241.662	85.94
241.896	73.94
242.13	77.94
242.363	59.94
242.597	68.94
242.83	78.94
243.064	73.94
243.298	70.94
243.531	69.94
243.765	83.94
243.998	73.94
244.232	94.94
244.465	89.94
244.699	69.94
244.932	71.94
245.166	82.94
245.399	73.94
245.633	82.94
245.866	75.94
246.099	84.94
246.333	82.94
246.566	84.94
246.8	72.94
247.033	71.94
247.266	80.94
247.5	75.94
247.733	92.94
247.966	92.94
248.2	85.94
248.433	84.94
248.666	67.94
248.899	90.94
249.133	74.94
249.366	76.94
249.599	93.94
249.832	79.94
250.066	89.94
250.299	76.94
250.532	101.94
250.765	97.94
250.998	79.94
251.231	64.94
251.465	84.94
251.698	80.94
251.931	79.94
252.164	79.94
252.397	76.94
252.63	79.94
252.863	82.94
253.096	82.94
253.329	87.94
253.562	77.94
253.795	75.94
254.028	79.94
254.261	76.94
254.494	72.94
254.727	83.94
254.96	75.94
255.193	66.94
255.426	70.94
255.659	74.94
255.892	70.94
256.124	79.94
256.357	81.94
256.59	84.94
256.823	75.94
257.056	83.94
257.289	83.94
257.521	77.94
257.754	79.94
257.987	61.94
258.22	71.94
258.452	76.94
258.685	81.94
258.918	73.94
259.151	83.94
259.383	84.94
259.616	69.94
259.849	82.94
260.081	84.94
260.314	87.94
260.547	74.94
260.779	74.94
261.012	91.94
261.244	77.94
261.477	99.94
261.71	81.94
261.942	72.94
262.175	76.94
262.407	83.94
262.64	77.94
262.872	104.94
263.105	96.94
263.337	87.94
263.57	77.94
263.802	73.94
264.035	81.94
264.267	91.94
264.499	84.94
264.732	69.94
264.964	77.94
265.197	74.94
265.429	100.94
265.661	81.94
265.894	87.94
266.126	84.94
266.358	84.94
266.591	93.94
266.823	73.94
267.055	83.94
267.287	80.94
267.52	70.94
267.752	69.94
267.984	88.94
268.216	84.94
268.448	91.94
268.681	78.94
268.913	81.94
269.145	80.94
269.377	79.94
269.609	77.94
269.841	82.94
270.073	79.94
270.306	76.94
270.538	81.94
270.77	74.94
271.002	76.94
271.234	77.94
271.466	86.94
271.698	77.94
271.93	76.94
272.162	83.94
272.394	92.94
272.626	82.94
272.858	88.94
273.09	89.94
273.322	82.94
273.553	75.94
273.785	100.94
274.017	75.94
274.249	75.94
274.481	80.94
274.713	75.94
274.945	97.94
275.176	78.94
275.408	88.94
275.64	90.94
275.872	90.94
276.104	78.94
276.335	77.94
276.567	86.94
276.799	91.94
277.031	90.94
277.262	86.94
277.494	90.94
277.726	85.94
277.957	75.94
278.189	86.94
278.421	92.94
278.652	91.94
278.884	75.94
279.115	79.94
279.347	68.94
279.579	78.94
279.81	87.94
280.042	85.94
280.273	83.94
280.505	92.94
280.736	71.94
280.968	85.94
281.199	91.94
281.431	94.94
281.662	89.94
281.894	80.94
282.125	88.94
282.356	86.94
282.588	72.94
282.819	85.94
283.051	89.94
283.282	84.94
283.513	78.94
283.745	81.94
283.976	80.94
284.207	88.94
284.439	94.94
284.67	87.94
284.901	90.94
285.132	97.94
285.364	92.94
285.595	91.94
285.826	82.94
286.057	73.94
286.288	89.94
286.52	89.94
286.751	74.94
286.982	84.94
287.213	78.94
287.444	59.94
287.675	71.94
287.906	82.94
288.138	76.94
288.369	81.94
288.6	82.94
288.831	84.94
289.062	87.94
289.293	88.94
289.524	75.94
289.755	75.94
289.986	93.94
290.217	83.94
290.448	64.94
290.679	95.94
290.91	73.94
291.141	90.94
291.371	84.94
291.602	95.94
291.833	79.94
292.064	74.94
292.295	88.94
292.526	93.94
292.757	95.94
292.987	105.94
293.218	82.94
293.449	88.94
293.68	87.94
293.91	84.94
294.141	87.94
294.372	90.94
294.603	95.94
294.833	98.94
295.064	93.94
295.295	93.94
295.525	79.94
295.756	82.94
295.987	81.94
296.217	85.94
296.448	91.94
296.679	81.94
296.909	68.94
297.14	84.94
297.37	76.94
297.601	87.94
297.831	90.94
298.062	95.94
298.292	91.94
298.523	93.94
298.753	85.94
298.984	91.94
299.214	85.94
299.445	81.94
299.675	93.94
299.905	85.94
300.136	89.94
300.366	82.94
300.597	88.94
300.827	76.94
301.057	95.94
301.288	91.94
301.518	77.94
301.748	84.94
301.979	81.94
302.209	73.94
302.439	94.94
302.669	82.94
302.9	85.94
303.13	79.94
303.36	83.94
303.59	82.94
303.82	85.94
304.051	77.94
304.281	92.94
304.511	91.94
304.741	83.94
304.971	82.94
305.201	95.94
305.431	92.94
305.661	76.94
305.891	72.94
306.121	83.94
306.352	83.94
306.582	88.94
306.812	74.94
307.042	89.94
307.272	92.94
307.502	81.94
307.731	86.94
307.961	87.94
308.191	88.94
308.421	86.94
308.651	89.94
308.881	88.94
309.111	73.94
309.341	74.94
309.571	91.94
309.8	84.94
310.03	88.94
310.26	66.94
310.49	98.94
310.72	88.94
310.949	77.94
311.179	75.94
311.409	75.94
311.639	83.94
311.868	82.94
312.098	81.94
312.328	83.94
312.557	69.94
312.787	86.94
313.017	77.94
313.246	75.94
313.476	95.94
313.706	83.94
313.935	76.94
314.165	81.94
314.394	81.94
314.624	78.94
314.853	84.94
315.083	87.94
315.312	81.94
315.542	85.94
315.771	82.94
316.001	84.94
316.23	72.94
316.46	75.94
316.689	77.94
316.919	86.94
317.148	90.94
317.377	83.94
317.607	92.94
317.836	87.94
318.065	92.94
318.295	95.94
318.524	89.94
318.753	92.94
318.983	90.94
319.212	80.94
319.441	82.94
319.67	91.94
319.9	84.94
320.129	72.94
320.358	79.94
320.587	78.94
320.816	87.94
321.046	83.94
321.275	80.94
321.504	84.94
321.733	86.94
321.962	90.94
322.191	96.94
322.42	84.94
322.649	87.94
322.878	90.94
323.108	95.94
323.337	77.94
323.566	99.94
323.795	80.94
324.024	88.94
324.253	88.94
324.482	80.94
324.71	93.94
324.939	83.94
325.168	81.94
325.397	75.94
325.626	86.94
325.855	69.94
326.084	86.94
326.313	95.94
326.542	93.94
326.77	95.94
326.999	87.94
327.228	77.94
327.457	81.94
327.686	89.94
327.914	81.94
328.143	80.94
328.372	77.94
328.6	98.94
328.829	79.94
329.058	92.94
329.287	71.94
329.515	72.94
329.744	84.94
329.972	84.94
330.201	90.94
330.43	89.94
330.658	83.94
330.887	94.94
331.115	89.94
331.344	95.94
331.572	80.94
331.801	105.94
332.03	89.94
332.258	87.94
332.486	82.94
332.715	82.94
332.943	82.94
333.172	74.94
333.4	71.94
333.629	88.94
333.857	87.94
334.085	87.94
334.314	90.94
334.542	93.94
334.771	96.94
334.999	81.94
335.227	85.94
335.455	84.94
335.684	82.94
335.912	89.94
336.14	85.94
336.369	85.94
336.597	80.94
336.825	91.94
337.053	86.94
337.281	85.94
337.51	91.94
337.738	85.94
337.966	89.94
338.194	86.94
338.422	77.94
338.65	88.94
338.878	79.94
339.106	77.94
339.334	71.94
339.562	79.94
339.79	85.94
340.018	96.94
340.246	87.94
340.474	93.94
340.702	76.94
340.93	84.94
341.158	101.94
341.386	84.94
341.614	77.94
341.842	78.94
342.07	75.94
342.298	86.94
342.526	94.94
342.754	84.94
342.981	84.94
343.209	76.94
343.437	82.94
343.665	91.94
343.893	75.94
344.12	85.94
344.348	89.94
344.576	85.94
344.804	77.94
345.031	92.94
345.259	81.94
345.487	79.94
345.714	80.94
345.942	74.94
346.17	87.94
346.397	83.94
346.625	86.94
346.853	89.94
347.08	91.94
347.308	83.94
347.535	89.94
347.763	88.94
347.99	85.94
348.218	88.94
348.445	85.94
348.673	84.94
348.9	78.94
349.128	101.94
349.355	88.94
349.583	78.94
349.81	78.94
350.037	89.94
350.265	87.94
350.492	80.94
350.72	83.94
350.947	83.94
351.174	87.94
351.402	76.94
351.629	71.94
351.856	76.94
352.083	72.94
352.311	81.94
352.538	91.94
352.765	82.94
352.992	85.94
353.22	72.94
353.447	76.94
353.674	89.94
353.901	84.94
354.128	88.94
354.355	87.94
354.583	83.94
354.81	83.94
355.037	77.94
355.264	91.94
355.491	89.94
355.718	76.94
355.945	77.94
356.172	76.94
356.399	90.94
356.626	97.94
356.853	83.94
357.08	75.94
357.307	93.94
357.534	72.94
357.761	82.94
357.988	96.94
358.215	76.94
358.441	80.94
358.668	89.94
358.895	84.94
359.122	80.94
359.349	88.94
359.576	82.94
359.802	80.94
360.029	81.94
360.256	86.94
360.483	83.94
360.709	80.94
360.936	76.94
361.163	85.94
361.39	87.94
361.616	76.94
361.843	82.94
362.07	81.94
362.296	84.94
362.523	84.94
362.749	84.94
362.976	82.94
363.203	79.94
363.429	84.94
363.656	78.94
363.882	92.94
364.109	95.94
364.335	88.94
364.562	92.94
364.788	85.94
365.015	70.94
365.241	91.94
365.468	82.94
365.694	84.94
365.92	88.94
366.147	79.94
366.373	83.94
366.599	72.94
366.826	86.94
367.052	82.94
367.278	72.94
367.505	81.94
367.731	85.94
367.957	108.94
368.184	77.94
368.41	87.94
368.636	84.94
368.862	87.94
369.089	88.94
369.315	79.94
369.541	80.94
369.767	88.94
369.993	92.94
370.219	74.94
370.445	89.94
370.672	94.94
370.898	89.94
371.124	86.94
371.35	90.94
371.576	74.94
371.802	66.94
372.028	77.94
372.254	92.94
372.48	73.94
372.706	84.94
372.932	84.94
373.158	96.94
373.384	94.94
373.61	83.94
373.835	86.94
374.061	76.94
374.287	79.94
374.513	76.94
374.739	61.94
374.965	74.94
375.191	76.94
375.416	82.94
375.642	94.94
375.868	89.94
376.094	92.94
376.319	95.94
376.545	80.94
376.771	92.94
376.997	85.94
377.222	88.94
377.448	79.94
377.674	87.94
377.899	68.94
378.125	68.94
378.35	91.94
378.576	78.94
378.802	81.94
379.027	87.94
379.253	104.94
379.478	77.94
379.704	103.94
379.929	92.94
380.155	92.94
380.38	95.94
380.606	92.94
380.831	85.94
381.057	91.94
381.282	92.94
381.507	86.94
381.733	81.94
381.958	87.94
382.184	82.94
382.409	85.94
382.634	94.94
382.86	79.94
383.085	77.94
383.31	74.94
383.535	89.94
383.761	91.94
383.986	78.94
384.211	80.94
384.436	75.94
384.662	79.94
384.887	76.94
385.112	82.94
385.337	91.94
385.562	86.94
385.787	77.94
386.013	96.94
386.238	90.94
386.463	87.94
386.688	85.94
386.913	88.94
387.138	88.94
387.363	100.94
387.588	91.94
387.813	98.94
388.038	102.94
388.263	84.94
388.488	74.94
388.713	83.94
388.938	78.94
389.163	82.94
389.387	70.94
389.612	85.94
389.837	86.94
390.062	87.94
390.287	91.94
390.512	98.94
390.736	83.94
390.961	84.94
391.186	105.94
391.411	88.94
391.636	79.94
391.86	92.94
392.085	88.94
392.31	80.94
392.534	74.94
392.759	103.94
392.984	87.94
393.208	81.94
393.433	74.94
393.658	73.94
393.882	88.94
394.107	71.94
394.331	93.94
394.556	79.94
394.78	84.94
395.005	95.94
395.229	91.94
395.454	88.94
395.678	72.94
395.903	79.94
396.127	90.94
396.352	97.94
396.576	92.94
396.801	80.94
397.025	92.94
397.249	89.94
397.474	89.94
397.698	91.94
397.922	90.94
398.147	91.94
398.371	79.94
398.595	88.94
398.82	87.94
399.044	89.94
399.268	89.94
399.492	85.94
399.717	82.94
399.941	76.94
400.165	73.94
400.389	84.94
400.613	83.94
400.837	92.94
401.062	75.94
401.286	89.94
401.51	90.94
401.734	90.94
401.958	84.94
402.182	95.94
402.406	98.94
402.63	77.94
402.854	84.94
403.078	100.94
403.302	92.94
403.526	96.94
403.75	96.94
403.974	103.94
404.198	89.94
404.422	90.94
404.645	91.94
404.869	96.94
405.093	96.94
405.317	92.94
405.541	85.94
405.765	101.94
405.988	87.94
406.212	89.94
406.436	76.94
406.66	92.94
406.883	86.94
407.107	87.94
407.331	92.94
407.555	89.94
407.778	105.94
408.002	101.94
408.226	94.94
408.449	97.94
408.673	95.94
408.896	82.94
409.12	107.94
409.344	100.94
409.567	92.94
409.791	104.94
410.014	91.94
410.238	85.94
410.461	91.94
410.685	93.94
410.908	100.94
411.132	93.94
411.355	92.94
411.578	82.94
411.802	96.94
412.025	99.94
412.249	99.94
412.472	85.94
412.695	79.94
412.919	95.94
413.142	96.94
413.365	90.94
413.589	100.94
413.812	83.94
414.035	93.94
414.258	97.94
414.482	83.94
414.705	101.94
414.928	83.94
415.151	89.94
415.374	93.94
415.597	91.94
415.821	96.94
416.044	86.94
416.267	92.94
416.49	97.94
416.713	88.94
416.936	86.94
417.159	84.94
417.382	83.94
417.605	94.94
417.828	76.94
418.051	91.94
418.274	77.94
418.497	84.94
418.72	94.94
418.943	84.94
419.166	104.94
419.389	101.94
419.611	88.94
419.834	74.94
420.057	94.94
420.28	91.94
420.503	95.94
420.726	103.94
420.948	89.94
421.171	92.94
421.394	99.94
421.617	95.94
421.839	87.94
422.062	92.94
422.285	93.94
422.507	83.94
422.73	86.94
422.953	91.94
423.175	92.94
423.398	80.94
423.621	93.94
423.843	93.94
424.066	89.94
424.288	77.94
424.511	102.94
424.733	85.94
424.956	86.94
425.178	89.94
425.401	96.94
425.623	90.94
425.846	83.94
426.068	88.94
426.291	105.94
426.513	84.94
426.735	92.94
426.958	82.94
427.18	82.94
427.402	98.94
427.625	92.94
427.847	96.94
428.069	88.94
428.292	93.94
428.514	87.94
428.736	89.94
428.958	95.94
429.181	75.94
429.403	96.94
429.625	91.94
429.847	83.94
430.069	88.94
430.292	88.94
430.514	88.94
430.736	91.94
430.958	98.94
431.18	105.94
431.402	87.94
431.624	96.94
431.846	84.94
432.068	93.94
432.29	77.94
432.512	98.94
432.734	100.94
432.956	102.94
433.178	87.94
433.4	91.94
433.622	96.94
433.844	100.94
434.066	97.94
434.287	102.94
434.509	74.94
434.731	88.94
434.953	86.94
435.175	92.94
435.397	87.94
435.618	98.94
435.84	92.94
436.062	93.94
436.284	81.94
436.505	96.94
436.727	91.94
436.949	97.94
437.17	89.94
437.392	93.94
437.614	75.94
437.835	92.94
438.057	91.94
438.278	84.94
438.5	102.94
438.721	93.94
438.943	91.94
439.165	90.94
439.386	90.94
439.608	89.94
439.829	101.94
440.05	94.94
440.272	93.94
440.493	90.94
440.715	108.94
440.936	89.94
441.158	113.94
441.379	100.94
441.6	91.94
441.822	84.94
442.043	100.94
442.264	85.94
442.486	90.94
442.707	91.94
442.928	80.94
443.149	87.94
443.371	92.94
443.592	92.94
443.813	93.94
444.034	83.94
444.255	113.94
444.476	96.94
444.698	89.94
444.919	94.94
445.14	214.94
445.361	180.94
445.582	98.94
445.803	94.94
446.024	97.94
446.245	106.94
446.466	98.94
446.687	88.94
446.908	87.94
447.129	91.94
447.35	92.94
447.571	88.94
447.792	95.94
448.013	83.94
448.234	102.94
448.455	105.94
448.675	97.94
448.896	98.94
449.117	92.94
449.338	76.94
449.559	101.94
449.779	95.94
450	107.94
450.221	97.94
450.442	91.94
450.662	100.94
450.883	88.94
451.104	96.94
451.324	98.94
451.545	94.94
451.766	100.94
451.986	100.94
452.207	81.94
452.428	99.94
452.648	83.94
452.869	93.94
453.089	82.94
453.31	89.94
453.53	88.94
453.751	85.94
453.971	80.94
454.192	85.94
454.412	84.94
454.633	83.94
454.853	92.94
455.073	81.94
455.294	85.94
455.514	89.94
455.734	103.94
455.955	83.94
456.175	94.94
456.395	85.94
456.616	76.94
456.836	85.94
457.056	70.94
457.276	83.94
457.497	85.94
457.717	74.94
457.937	75.94
458.157	80.94
458.377	86.94
458.598	82.94
458.818	94.94
459.038	80.94
459.258	84.94
459.478	88.94
459.698	76.94
459.918	104.94
460.138	86.94
460.358	89.94
460.578	88.94
460.798	95.94
461.018	78.94
461.238	88.94
461.458	82.94
461.678	89.94
461.898	85.94
462.118	92.94
462.338	80.94
462.558	102.94
462.777	95.94
462.997	87.94
463.217	83.94
463.437	87.94
463.657	87.94
463.876	91.94
464.096	93.94
464.316	86.94
464.536	74.94
464.755	98.94
464.975	89.94
465.195	88.94
465.414	93.94
465.634	87.94
465.854	90.94
466.073	89.94
466.293	95.94
466.512	102.94
466.732	91.94
466.951	79.94
467.171	87.94
467.391	98.94
467.61	95.94
467.829	95.94
468.049	93.94
468.268	84.94
468.488	92.94
468.707	104.94
468.927	93.94
469.146	91.94
469.365	101.94
469.585	97.94
469.804	88.94
470.023	81.94
470.243	96.94
470.462	89.94
470.681	89.94
470.901	105.94
471.12	86.94
471.339	109.94
471.558	85.94
471.777	91.94
471.997	85.94
472.216	86.94
472.435	83.94
472.654	74.94
472.873	86.94
473.092	92.94
473.311	91.94
473.53	86.94
473.749	93.94
473.968	85.94
474.187	88.94
474.406	81.94
474.625	102.94
474.844	99.94
475.063	100.94
475.282	110.94
475.501	90.94
475.72	94.94
475.939	97.94
476.158	91.94
476.377	93.94
476.596	95.94
476.814	92.94
477.033	90.94
477.252	88.94
477.471	95.94
477.69	83.94
477.908	83.94
478.127	94.94
478.346	93.94
478.564	103.94
478.783	76.94
479.002	95.94
479.22	97.94
479.439	99.94
479.658	96.94
479.876	93.94
480.095	95.94
480.313	84.94
480.532	87.94
480.751	111.94
480.969	79.94
481.188	95.94
481.406	83.94
481.624	92.94
481.843	88.94
482.061	103.94
482.28	80.94
482.498	77.94
482.717	74.94
482.935	90.94
483.153	87.94
483.372	97.94
483.59	105.94
483.808	106.94
484.027	98.94
484.245	94.94
484.463	107.94
484.681	100.94
484.9	105.94
485.118	85.94
485.336	91.94
485.554	102.94
485.772	91.94
485.99	80.94
486.209	77.94
486.427	75.94
486.645	90.94
486.863	99.94
487.081	92.94
487.299	79.94
487.517	86.94
487.735	91.94
487.953	98.94
488.171	114.94
488.389	106.94
488.607	93.94
488.825	93.94
489.043	99.94
489.261	103.94
489.479	88.94
489.696	90.94
489.914	108.94
490.132	98.94
490.35	104.94
490.568	96.94
490.786	113.94
491.003	100.94
491.221	103.94
491.439	111.94
491.657	114.94
491.874	111.94
492.092	103.94
492.31	134.94
492.527	120.94
492.745	117.94
492.963	115.94
493.18	102.94
493.398	107.94
493.615	105.94
493.833	102.94
494.05	100.94
494.268	102.94
494.485	107.94
494.703	98.94
494.92	105.94
495.138	104.94
495.355	111.94
495.573	111.94
495.79	107.94
496.008	93.94
496.225	104.94
496.442	97.94
496.66	97.94
496.877	95.94
497.094	111.94
497.312	106.94
497.529	88.94
497.746	98.94
497.963	96.94
498.181	92.94
498.398	98.94
498.615	67.94
498.832	95.94
499.049	68.94
499.267	77.94
499.484	92.94
499.701	78.94
499.918	101.94
500.135	95.94
500.352	85.94
500.569	97.94
500.786	101.94
501.003	101.94
501.22	88.94
501.437	103.94
501.654	101.94
501.871	97.94
502.088	94.94
502.305	89.94
502.522	88.94
502.739	85.94
502.956	95.94
503.172	84.94
503.389	98.94
503.606	92.94
503.823	90.94
504.04	93.94
504.256	100.94
504.473	96.94
504.69	85.94
504.907	90.94
505.123	93.94
505.34	93.94
505.557	104.94
505.773	89.94
505.99	87.94
506.207	88.94
506.423	106.94
506.64	96.94
506.856	91.94
507.073	83.94
507.289	81.94
507.506	83.94
507.722	86.94
507.939	103.94
508.155	88.94
508.372	93.94
508.588	83.94
508.805	66.94
509.021	91.94
509.238	100.94
509.454	95.94
509.67	91.94
509.887	88.94
510.103	86.94
510.319	98.94
510.536	85.94
510.752	83.94
510.968	78.94
511.184	92.94
511.401	87.94
511.617	86.94
511.833	87.94
512.049	96.94
512.265	87.94
512.481	92.94
512.698	83.94
512.914	78.94
513.13	78.94
513.346	92.94
513.562	93.94
513.778	87.94
513.994	79.94
514.21	90.94
514.426	94.94
514.642	91.94
514.858	76.94
515.074	77.94
515.29	95.94
515.506	76.94
515.721	80.94
515.937	89.94
516.153	81.94
516.369	99.94
516.585	91.94
516.801	74.94
517.016	82.94
517.232	88.94
517.448	87.94
517.664	79.94
517.879	88.94
