Data from Location5.07152019.Energy5.Lamp.07192019.3%Agarose_HRD10591_16-02-56-628.txt Node
Date: Fri Jul 19 16:02:56 EDT 2019
User: cochatt
Spectrometer: HR+D1059
Trigger mode: 1
Integration Time (sec): 1.000000E-1
Scans to average: 1
Electric dark correction enabled: true
Nonlinearity correction enabled: false
Boxcar width: 0
XAxis mode: Wavelengths
Number of Pixels in Spectrum: 2048
>>>>>Begin Spectral Data<<<<<
223.165	-21.5
223.4	-21.5
223.635	-21.5
223.869	-4.5
224.104	-15.5
224.338	-9.5
224.573	2.5
224.808	-17.5
225.042	-5.5
225.277	-5.5
225.511	-2.5
225.746	-10.5
225.98	3.5
226.215	15.5
226.449	16.5
226.683	16.5
226.918	28.5
227.152	9.5
227.387	37.5
227.621	40.5
227.856	34.5
228.09	32.5
228.324	48.5
228.559	39.5
228.793	54.5
229.027	70.5
229.262	63.5
229.496	58.5
229.73	63.5
229.964	64.5
230.199	70.5
230.433	75.5
230.667	74.5
230.901	71.5
231.136	66.5
231.37	82.5
231.604	83.5
231.838	83.5
232.072	80.5
232.306	75.5
232.541	75.5
232.775	81.5
233.009	87.5
233.243	81.5
233.477	72.5
233.711	87.5
233.945	99.5
234.179	81.5
234.413	78.5
234.647	76.5
234.881	74.5
235.115	85.5
235.349	75.5
235.583	95.5
235.817	70.5
236.051	79.5
236.285	84.5
236.519	83.5
236.753	79.5
236.987	65.5
237.221	59.5
237.455	72.5
237.689	58.5
237.922	76.5
238.156	63.5
238.39	71.5
238.624	74.5
238.858	83.5
239.091	76.5
239.325	75.5
239.559	70.5
239.793	80.5
240.027	84.5
240.26	88.5
240.494	82.5
240.728	83.5
240.961	73.5
241.195	78.5
241.429	73.5
241.662	78.5
241.896	94.5
242.13	93.5
242.363	80.5
242.597	80.5
242.83	75.5
243.064	84.5
243.298	83.5
243.531	75.5
243.765	80.5
243.998	70.5
244.232	75.5
244.465	58.5
244.699	74.5
244.932	73.5
245.166	75.5
245.399	63.5
245.633	76.5
245.866	90.5
246.099	79.5
246.333	75.5
246.566	79.5
246.8	77.5
247.033	83.5
247.266	79.5
247.5	80.5
247.733	92.5
247.966	93.5
248.2	70.5
248.433	64.5
248.666	66.5
248.899	83.5
249.133	73.5
249.366	93.5
249.599	86.5
249.832	73.5
250.066	86.5
250.299	80.5
250.532	88.5
250.765	80.5
250.998	74.5
251.231	83.5
251.465	75.5
251.698	85.5
251.931	93.5
252.164	87.5
252.397	84.5
252.63	68.5
252.863	72.5
253.096	73.5
253.329	76.5
253.562	83.5
253.795	94.5
254.028	74.5
254.261	95.5
254.494	78.5
254.727	83.5
254.96	87.5
255.193	89.5
255.426	78.5
255.659	76.5
255.892	79.5
256.124	84.5
256.357	93.5
256.59	92.5
256.823	84.5
257.056	85.5
257.289	77.5
257.521	95.5
257.754	91.5
257.987	75.5
258.22	76.5
258.452	92.5
258.685	71.5
258.918	73.5
259.151	87.5
259.383	80.5
259.616	81.5
259.849	86.5
260.081	95.5
260.314	79.5
260.547	76.5
260.779	86.5
261.012	91.5
261.244	68.5
261.477	83.5
261.71	83.5
261.942	82.5
262.175	92.5
262.407	84.5
262.64	89.5
262.872	74.5
263.105	86.5
263.337	90.5
263.57	74.5
263.802	78.5
264.035	90.5
264.267	84.5
264.499	83.5
264.732	78.5
264.964	90.5
265.197	73.5
265.429	77.5
265.661	87.5
265.894	94.5
266.126	94.5
266.358	95.5
266.591	96.5
266.823	87.5
267.055	94.5
267.287	86.5
267.52	92.5
267.752	85.5
267.984	97.5
268.216	91.5
268.448	95.5
268.681	90.5
268.913	84.5
269.145	88.5
269.377	72.5
269.609	86.5
269.841	80.5
270.073	76.5
270.306	93.5
270.538	89.5
270.77	89.5
271.002	85.5
271.234	82.5
271.466	92.5
271.698	84.5
271.93	97.5
272.162	87.5
272.394	89.5
272.626	86.5
272.858	72.5
273.09	86.5
273.322	84.5
273.553	80.5
273.785	79.5
274.017	89.5
274.249	98.5
274.481	88.5
274.713	90.5
274.945	102.5
275.176	95.5
275.408	95.5
275.64	90.5
275.872	88.5
276.104	94.5
276.335	80.5
276.567	86.5
276.799	85.5
277.031	77.5
277.262	100.5
277.494	89.5
277.726	77.5
277.957	82.5
278.189	76.5
278.421	88.5
278.652	94.5
278.884	86.5
279.115	73.5
279.347	89.5
279.579	81.5
279.81	80.5
280.042	85.5
280.273	83.5
280.505	84.5
280.736	87.5
280.968	81.5
281.199	91.5
281.431	88.5
281.662	101.5
281.894	98.5
282.125	101.5
282.356	104.5
282.588	86.5
282.819	77.5
283.051	86.5
283.282	84.5
283.513	86.5
283.745	94.5
283.976	100.5
284.207	98.5
284.439	82.5
284.67	87.5
284.901	95.5
285.132	87.5
285.364	83.5
285.595	84.5
285.826	94.5
286.057	86.5
286.288	88.5
286.52	75.5
286.751	93.5
286.982	92.5
287.213	90.5
287.444	92.5
287.675	87.5
287.906	76.5
288.138	92.5
288.369	75.5
288.6	84.5
288.831	90.5
289.062	89.5
289.293	93.5
289.524	72.5
289.755	84.5
289.986	82.5
290.217	73.5
290.448	84.5
290.679	86.5
290.91	99.5
291.141	104.5
291.371	110.5
291.602	88.5
291.833	102.5
292.064	98.5
292.295	80.5
292.526	88.5
292.757	114.5
292.987	95.5
293.218	94.5
293.449	96.5
293.68	95.5
293.91	104.5
294.141	81.5
294.372	87.5
294.603	86.5
294.833	84.5
295.064	94.5
295.295	99.5
295.525	72.5
295.756	85.5
295.987	102.5
296.217	99.5
296.448	84.5
296.679	97.5
296.909	73.5
297.14	92.5
297.37	81.5
297.601	90.5
297.831	101.5
298.062	94.5
298.292	88.5
298.523	99.5
298.753	86.5
298.984	90.5
299.214	91.5
299.445	86.5
299.675	94.5
299.905	88.5
300.136	110.5
300.366	111.5
300.597	99.5
300.827	100.5
301.057	96.5
301.288	92.5
301.518	94.5
301.748	100.5
301.979	83.5
302.209	82.5
302.439	92.5
302.669	114.5
302.9	88.5
303.13	91.5
303.36	95.5
303.59	94.5
303.82	91.5
304.051	84.5
304.281	97.5
304.511	98.5
304.741	79.5
304.971	98.5
305.201	107.5
305.431	88.5
305.661	71.5
305.891	98.5
306.121	91.5
306.352	98.5
306.582	102.5
306.812	87.5
307.042	100.5
307.272	92.5
307.502	99.5
307.731	82.5
307.961	100.5
308.191	93.5
308.421	91.5
308.651	78.5
308.881	91.5
309.111	94.5
309.341	100.5
309.571	98.5
309.8	86.5
310.03	76.5
310.26	82.5
310.49	95.5
310.72	90.5
310.949	102.5
311.179	89.5
311.409	84.5
311.639	69.5
311.868	100.5
312.098	106.5
312.328	102.5
312.557	97.5
312.787	86.5
313.017	101.5
313.246	75.5
313.476	90.5
313.706	100.5
313.935	87.5
314.165	105.5
314.394	96.5
314.624	93.5
314.853	91.5
315.083	84.5
315.312	92.5
315.542	98.5
315.771	90.5
316.001	112.5
316.23	90.5
316.46	84.5
316.689	90.5
316.919	96.5
317.148	96.5
317.377	95.5
317.607	111.5
317.836	77.5
318.065	90.5
318.295	87.5
318.524	105.5
318.753	114.5
318.983	105.5
319.212	95.5
319.441	75.5
319.67	89.5
319.9	91.5
320.129	93.5
320.358	103.5
320.587	98.5
320.816	102.5
321.046	92.5
321.275	89.5
321.504	93.5
321.733	109.5
321.962	90.5
322.191	100.5
322.42	83.5
322.649	92.5
322.878	112.5
323.108	94.5
323.337	100.5
323.566	92.5
323.795	93.5
324.024	95.5
324.253	103.5
324.482	81.5
324.71	82.5
324.939	99.5
325.168	92.5
325.397	102.5
325.626	106.5
325.855	91.5
326.084	87.5
326.313	85.5
326.542	85.5
326.77	107.5
326.999	98.5
327.228	91.5
327.457	92.5
327.686	96.5
327.914	86.5
328.143	92.5
328.372	87.5
328.6	85.5
328.829	81.5
329.058	82.5
329.287	96.5
329.515	89.5
329.744	98.5
329.972	98.5
330.201	86.5
330.43	84.5
330.658	94.5
330.887	93.5
331.115	89.5
331.344	103.5
331.572	90.5
331.801	98.5
332.03	103.5
332.258	95.5
332.486	86.5
332.715	107.5
332.943	94.5
333.172	74.5
333.4	92.5
333.629	101.5
333.857	99.5
334.085	94.5
334.314	76.5
334.542	99.5
334.771	88.5
334.999	81.5
335.227	105.5
335.455	97.5
335.684	106.5
335.912	99.5
336.14	89.5
336.369	87.5
336.597	99.5
336.825	102.5
337.053	95.5
337.281	88.5
337.51	111.5
337.738	77.5
337.966	99.5
338.194	91.5
338.422	85.5
338.65	90.5
338.878	102.5
339.106	78.5
339.334	98.5
339.562	94.5
339.79	91.5
340.018	102.5
340.246	100.5
340.474	92.5
340.702	104.5
340.93	99.5
341.158	106.5
341.386	95.5
341.614	89.5
341.842	83.5
342.07	90.5
342.298	91.5
342.526	86.5
342.754	92.5
342.981	105.5
343.209	92.5
343.437	91.5
343.665	100.5
343.893	95.5
344.12	97.5
344.348	92.5
344.576	104.5
344.804	97.5
345.031	103.5
345.259	101.5
345.487	91.5
345.714	76.5
345.942	105.5
346.17	94.5
346.397	90.5
346.625	99.5
346.853	108.5
347.08	89.5
347.308	106.5
347.535	98.5
347.763	98.5
347.99	109.5
348.218	95.5
348.445	88.5
348.673	84.5
348.9	88.5
349.128	90.5
349.355	87.5
349.583	77.5
349.81	74.5
350.037	89.5
350.265	90.5
350.492	97.5
350.72	98.5
350.947	84.5
351.174	82.5
351.402	91.5
351.629	93.5
351.856	92.5
352.083	103.5
352.311	100.5
352.538	94.5
352.765	94.5
352.992	96.5
353.22	103.5
353.447	90.5
353.674	92.5
353.901	85.5
354.128	83.5
354.355	84.5
354.583	91.5
354.81	73.5
355.037	97.5
355.264	102.5
355.491	103.5
355.718	87.5
355.945	94.5
356.172	84.5
356.399	90.5
356.626	95.5
356.853	103.5
357.08	97.5
357.307	92.5
357.534	81.5
357.761	92.5
357.988	98.5
358.215	98.5
358.441	83.5
358.668	98.5
358.895	99.5
359.122	86.5
359.349	101.5
359.576	99.5
359.802	97.5
360.029	85.5
360.256	92.5
360.483	82.5
360.709	85.5
360.936	87.5
361.163	85.5
361.39	90.5
361.616	91.5
361.843	83.5
362.07	79.5
362.296	96.5
362.523	106.5
362.749	100.5
362.976	101.5
363.203	99.5
363.429	94.5
363.656	94.5
363.882	92.5
364.109	96.5
364.335	91.5
364.562	97.5
364.788	87.5
365.015	91.5
365.241	99.5
365.468	95.5
365.694	89.5
365.92	101.5
366.147	90.5
366.373	83.5
366.599	81.5
366.826	87.5
367.052	91.5
367.278	92.5
367.505	87.5
367.731	92.5
367.957	93.5
368.184	104.5
368.41	89.5
368.636	87.5
368.862	78.5
369.089	97.5
369.315	88.5
369.541	104.5
369.767	81.5
369.993	96.5
370.219	96.5
370.445	92.5
370.672	104.5
370.898	83.5
371.124	83.5
371.35	95.5
371.576	93.5
371.802	95.5
372.028	87.5
372.254	96.5
372.48	90.5
372.706	100.5
372.932	87.5
373.158	99.5
373.384	104.5
373.61	86.5
373.835	92.5
374.061	104.5
374.287	80.5
374.513	94.5
374.739	93.5
374.965	97.5
375.191	92.5
375.416	91.5
375.642	86.5
375.868	86.5
376.094	97.5
376.319	99.5
376.545	90.5
376.771	95.5
376.997	100.5
377.222	110.5
377.448	100.5
377.674	86.5
377.899	95.5
378.125	80.5
378.35	91.5
378.576	98.5
378.802	97.5
379.027	101.5
379.253	93.5
379.478	91.5
379.704	80.5
379.929	99.5
380.155	93.5
380.38	96.5
380.606	75.5
380.831	86.5
381.057	107.5
381.282	90.5
381.507	104.5
381.733	90.5
381.958	100.5
382.184	90.5
382.409	102.5
382.634	99.5
382.86	89.5
383.085	85.5
383.31	83.5
383.535	111.5
383.761	98.5
383.986	89.5
384.211	94.5
384.436	97.5
384.662	81.5
384.887	90.5
385.112	89.5
385.337	100.5
385.562	83.5
385.787	98.5
386.013	91.5
386.238	93.5
386.463	106.5
386.688	76.5
386.913	103.5
387.138	94.5
387.363	90.5
387.588	95.5
387.813	99.5
388.038	98.5
388.263	99.5
388.488	102.5
388.713	96.5
388.938	91.5
389.163	106.5
389.387	94.5
389.612	90.5
389.837	77.5
390.062	82.5
390.287	97.5
390.512	102.5
390.736	83.5
390.961	88.5
391.186	73.5
391.411	96.5
391.636	91.5
391.86	103.5
392.085	91.5
392.31	108.5
392.534	103.5
392.759	102.5
392.984	95.5
393.208	89.5
393.433	98.5
393.658	100.5
393.882	98.5
394.107	81.5
394.331	84.5
394.556	104.5
394.78	108.5
395.005	89.5
395.229	92.5
395.454	93.5
395.678	109.5
395.903	97.5
396.127	104.5
396.352	101.5
396.576	105.5
396.801	103.5
397.025	102.5
397.249	114.5
397.474	100.5
397.698	90.5
397.922	95.5
398.147	97.5
398.371	103.5
398.595	92.5
398.82	102.5
399.044	102.5
399.268	118.5
399.492	116.5
399.717	104.5
399.941	120.5
400.165	109.5
400.389	91.5
400.613	97.5
400.837	91.5
401.062	92.5
401.286	108.5
401.51	99.5
401.734	90.5
401.958	94.5
402.182	90.5
402.406	80.5
402.63	95.5
402.854	100.5
403.078	95.5
403.302	98.5
403.526	100.5
403.75	95.5
403.974	85.5
404.198	104.5
404.422	91.5
404.645	100.5
404.869	98.5
405.093	85.5
405.317	83.5
405.541	101.5
405.765	82.5
405.988	102.5
406.212	101.5
406.436	114.5
406.66	107.5
406.883	113.5
407.107	113.5
407.331	105.5
407.555	105.5
407.778	95.5
408.002	114.5
408.226	110.5
408.449	101.5
408.673	98.5
408.896	93.5
409.12	100.5
409.344	99.5
409.567	94.5
409.791	102.5
410.014	108.5
410.238	104.5
410.461	116.5
410.685	100.5
410.908	98.5
411.132	97.5
411.355	96.5
411.578	91.5
411.802	79.5
412.025	99.5
412.249	83.5
412.472	117.5
412.695	88.5
412.919	98.5
413.142	96.5
413.365	103.5
413.589	94.5
413.812	92.5
414.035	97.5
414.258	93.5
414.482	110.5
414.705	97.5
414.928	100.5
415.151	98.5
415.374	90.5
415.597	86.5
415.821	102.5
416.044	94.5
416.267	97.5
416.49	96.5
416.713	104.5
416.936	94.5
417.159	92.5
417.382	106.5
417.605	105.5
417.828	99.5
418.051	83.5
418.274	104.5
418.497	97.5
418.72	95.5
418.943	98.5
419.166	103.5
419.389	106.5
419.611	96.5
419.834	99.5
420.057	99.5
420.28	115.5
420.503	105.5
420.726	99.5
420.948	100.5
421.171	97.5
421.394	83.5
421.617	82.5
421.839	89.5
422.062	96.5
422.285	101.5
422.507	89.5
422.73	88.5
422.953	102.5
423.175	97.5
423.398	95.5
423.621	113.5
423.843	112.5
424.066	88.5
424.288	112.5
424.511	96.5
424.733	98.5
424.956	97.5
425.178	108.5
425.401	99.5
425.623	106.5
425.846	102.5
426.068	91.5
426.291	98.5
426.513	83.5
426.735	89.5
426.958	105.5
427.18	81.5
427.402	92.5
427.625	82.5
427.847	87.5
428.069	98.5
428.292	96.5
428.514	106.5
428.736	85.5
428.958	94.5
429.181	92.5
429.403	92.5
429.625	98.5
429.847	78.5
430.069	99.5
430.292	97.5
430.514	80.5
430.736	99.5
430.958	97.5
431.18	98.5
431.402	87.5
431.624	100.5
431.846	94.5
432.068	89.5
432.29	88.5
432.512	95.5
432.734	92.5
432.956	89.5
433.178	87.5
433.4	91.5
433.622	96.5
433.844	96.5
434.066	81.5
434.287	93.5
434.509	91.5
434.731	93.5
434.953	89.5
435.175	89.5
435.397	104.5
435.618	96.5
435.84	83.5
436.062	87.5
436.284	93.5
436.505	93.5
436.727	103.5
436.949	105.5
437.17	95.5
437.392	92.5
437.614	94.5
437.835	88.5
438.057	81.5
438.278	87.5
438.5	83.5
438.721	95.5
438.943	102.5
439.165	106.5
439.386	91.5
439.608	88.5
439.829	80.5
440.05	90.5
440.272	102.5
440.493	91.5
440.715	102.5
440.936	94.5
441.158	90.5
441.379	96.5
441.6	99.5
441.822	96.5
442.043	94.5
442.264	106.5
442.486	96.5
442.707	107.5
442.928	92.5
443.149	89.5
443.371	104.5
443.592	90.5
443.813	96.5
444.034	110.5
444.255	94.5
444.476	90.5
444.698	85.5
444.919	111.5
445.14	231.5
445.361	152.5
445.582	103.5
445.803	105.5
446.024	98.5
446.245	92.5
446.466	102.5
446.687	79.5
446.908	96.5
447.129	103.5
447.35	98.5
447.571	92.5
447.792	80.5
448.013	97.5
448.234	91.5
448.455	82.5
448.675	102.5
448.896	86.5
449.117	81.5
449.338	86.5
449.559	97.5
449.779	87.5
450	96.5
450.221	103.5
450.442	98.5
450.662	93.5
450.883	79.5
451.104	95.5
451.324	99.5
451.545	102.5
451.766	105.5
451.986	95.5
452.207	95.5
452.428	98.5
452.648	93.5
452.869	98.5
453.089	100.5
453.31	94.5
453.53	90.5
453.751	91.5
453.971	91.5
454.192	91.5
454.412	82.5
454.633	101.5
454.853	83.5
455.073	79.5
455.294	86.5
455.514	105.5
455.734	97.5
455.955	98.5
456.175	105.5
456.395	88.5
456.616	105.5
456.836	89.5
457.056	86.5
457.276	90.5
457.497	91.5
457.717	96.5
457.937	108.5
458.157	97.5
458.377	86.5
458.598	99.5
458.818	99.5
459.038	88.5
459.258	99.5
459.478	86.5
459.698	100.5
459.918	111.5
460.138	103.5
460.358	91.5
460.578	100.5
460.798	103.5
461.018	96.5
461.238	92.5
461.458	97.5
461.678	92.5
461.898	88.5
462.118	96.5
462.338	104.5
462.558	102.5
462.777	104.5
462.997	107.5
463.217	115.5
463.437	95.5
463.657	110.5
463.876	100.5
464.096	96.5
464.316	106.5
464.536	102.5
464.755	102.5
464.975	106.5
465.195	96.5
465.414	92.5
465.634	90.5
465.854	89.5
466.073	104.5
466.293	112.5
466.512	100.5
466.732	107.5
466.951	87.5
467.171	96.5
467.391	93.5
467.61	96.5
467.829	95.5
468.049	99.5
468.268	99.5
468.488	91.5
468.707	93.5
468.927	97.5
469.146	96.5
469.365	91.5
469.585	92.5
469.804	97.5
470.023	98.5
470.243	80.5
470.462	99.5
470.681	99.5
470.901	107.5
471.12	105.5
471.339	98.5
471.558	87.5
471.777	97.5
471.997	97.5
472.216	84.5
472.435	105.5
472.654	96.5
472.873	94.5
473.092	91.5
473.311	87.5
473.53	105.5
473.749	95.5
473.968	98.5
474.187	92.5
474.406	82.5
474.625	84.5
474.844	102.5
475.063	98.5
475.282	102.5
475.501	90.5
475.72	100.5
475.939	103.5
476.158	106.5
476.377	92.5
476.596	77.5
476.814	94.5
477.033	84.5
477.252	105.5
477.471	99.5
477.69	116.5
477.908	103.5
478.127	112.5
478.346	103.5
478.564	106.5
478.783	99.5
479.002	107.5
479.22	95.5
479.439	117.5
479.658	105.5
479.876	96.5
480.095	100.5
480.313	113.5
480.532	110.5
480.751	100.5
480.969	93.5
481.188	93.5
481.406	101.5
481.624	89.5
481.843	111.5
482.061	110.5
482.28	118.5
482.498	98.5
482.717	98.5
482.935	79.5
483.153	98.5
483.372	93.5
483.59	113.5
483.808	105.5
484.027	95.5
484.245	92.5
484.463	91.5
484.681	112.5
484.9	105.5
485.118	117.5
485.336	89.5
485.554	100.5
485.772	101.5
485.99	104.5
486.209	94.5
486.427	92.5
486.645	101.5
486.863	117.5
487.081	102.5
487.299	103.5
487.517	110.5
487.735	102.5
487.953	112.5
488.171	114.5
488.389	108.5
488.607	100.5
488.825	118.5
489.043	86.5
489.261	116.5
489.479	119.5
489.696	99.5
489.914	115.5
490.132	118.5
490.35	105.5
490.568	105.5
490.786	107.5
491.003	119.5
491.221	110.5
491.439	88.5
491.657	111.5
491.874	114.5
492.092	113.5
492.31	115.5
492.527	110.5
492.745	120.5
492.963	120.5
493.18	117.5
493.398	120.5
493.615	113.5
493.833	116.5
494.05	105.5
494.268	122.5
494.485	112.5
494.703	99.5
494.92	110.5
495.138	112.5
495.355	117.5
495.573	105.5
495.79	110.5
496.008	109.5
496.225	120.5
496.442	115.5
496.66	117.5
496.877	96.5
497.094	122.5
497.312	127.5
497.529	107.5
497.746	111.5
497.963	118.5
498.181	107.5
498.398	122.5
498.615	115.5
498.832	124.5
499.049	136.5
499.267	132.5
499.484	122.5
499.701	130.5
499.918	147.5
500.135	154.5
500.352	160.5
500.569	165.5
500.786	168.5
501.003	163.5
501.22	144.5
501.437	133.5
501.654	114.5
501.871	126.5
502.088	124.5
502.305	113.5
502.522	119.5
502.739	132.5
502.956	124.5
503.172	111.5
503.389	103.5
503.606	100.5
503.823	103.5
504.04	124.5
504.256	113.5
504.473	115.5
504.69	120.5
504.907	115.5
505.123	115.5
505.34	106.5
505.557	105.5
505.773	115.5
505.99	109.5
506.207	119.5
506.423	125.5
506.64	119.5
506.856	114.5
507.073	102.5
507.289	107.5
507.506	107.5
507.722	101.5
507.939	112.5
508.155	102.5
508.372	93.5
508.588	102.5
508.805	102.5
509.021	100.5
509.238	102.5
509.454	97.5
509.67	115.5
509.887	99.5
510.103	104.5
510.319	91.5
510.536	131.5
510.752	127.5
510.968	117.5
511.184	102.5
511.401	94.5
511.617	97.5
511.833	88.5
512.049	93.5
512.265	91.5
512.481	86.5
512.698	87.5
512.914	96.5
513.13	91.5
513.346	91.5
513.562	107.5
513.778	121.5
513.994	104.5
514.21	100.5
514.426	98.5
514.642	101.5
514.858	98.5
515.074	123.5
515.29	100.5
515.506	106.5
515.721	104.5
515.937	104.5
516.153	93.5
516.369	108.5
516.585	97.5
516.801	104.5
517.016	108.5
517.232	108.5
517.448	116.5
517.664	110.5
517.879	106.5
518.095	102.5
518.311	107.5
518.527	104.5
518.742	107.5
518.958	84.5
519.173	103.5
519.389	102.5
519.605	98.5
519.82	97.5
520.036	105.5
520.251	104.5
520.467	98.5
520.682	106.5
520.898	122.5
521.113	89.5
521.329	90.5
521.544	92.5
521.76	110.5
521.975	103.5
522.19	103.5
522.406	111.5
522.621	88.5
522.836	105.5
523.052	98.5
523.267	98.5
523.482	104.5
523.698	106.5
523.913	103.5
524.128	94.5
524.343	110.5
524.559	92.5
524.774	99.5
524.989	102.5
525.204	99.5
525.419	99.5
525.634	107.5
525.849	103.5
526.064	99.5
526.28	115.5
526.495	101.5
526.71	106.5
526.925	103.5
527.14	105.5
527.355	100.5
527.57	98.5
527.785	107.5
527.999	91.5
528.214	92.5
528.429	103.5
528.644	102.5
528.859	103.5
529.074	84.5
529.289	98.5
529.503	95.5
529.718	102.5
529.933	103.5
530.148	101.5
530.363	98.5
530.577	89.5
530.792	94.5
531.007	102.5
531.221	97.5
531.436	93.5
531.651	114.5
531.865	105.5
532.08	103.5
532.295	96.5
532.509	89.5
532.724	103.5
532.938	93.5
533.153	93.5
533.367	103.5
533.582	88.5
