Data from Location5.07152019.Energy5.Lamp.07192019.3%Agarose_HRD10591_16-03-42-628.txt Node
Date: Fri Jul 19 16:03:42 EDT 2019
User: cochatt
Spectrometer: HR+D1059
Trigger mode: 1
Integration Time (sec): 1.000000E-1
Scans to average: 1
Electric dark correction enabled: true
Nonlinearity correction enabled: false
Boxcar width: 0
XAxis mode: Wavelengths
Number of Pixels in Spectrum: 2048
>>>>>Begin Spectral Data<<<<<
223.165	-15.38
223.4	-15.38
223.635	-15.38
223.869	-6.38
224.104	-30.38
224.338	-18.38
224.573	-12.38
224.808	-23.38
225.042	5.62
225.277	3.62
225.511	-4.38
225.746	9.62
225.98	9.62
226.215	-3.38
226.449	12.62
226.683	17.62
226.918	31.62
227.152	23.62
227.387	21.62
227.621	27.62
227.856	41.62
228.09	25.62
228.324	30.62
228.559	47.62
228.793	52.62
229.027	62.62
229.262	70.62
229.496	60.62
229.73	73.62
229.964	65.62
230.199	77.62
230.433	73.62
230.667	74.62
230.901	59.62
231.136	92.62
231.37	69.62
231.604	75.62
231.838	61.62
232.072	84.62
232.306	82.62
232.541	79.62
232.775	81.62
233.009	70.62
233.243	81.62
233.477	68.62
233.711	76.62
233.945	80.62
234.179	74.62
234.413	83.62
234.647	79.62
234.881	73.62
235.115	80.62
235.349	73.62
235.583	76.62
235.817	68.62
236.051	64.62
236.285	67.62
236.519	80.62
236.753	59.62
236.987	73.62
237.221	71.62
237.455	70.62
237.689	76.62
237.922	96.62
238.156	70.62
238.39	65.62
238.624	79.62
238.858	68.62
239.091	76.62
239.325	66.62
239.559	67.62
239.793	75.62
240.027	72.62
240.26	70.62
240.494	73.62
240.728	61.62
240.961	73.62
241.195	75.62
241.429	73.62
241.662	75.62
241.896	55.62
242.13	70.62
242.363	78.62
242.597	73.62
242.83	77.62
243.064	75.62
243.298	75.62
243.531	60.62
243.765	69.62
243.998	66.62
244.232	71.62
244.465	79.62
244.699	74.62
244.932	89.62
245.166	79.62
245.399	80.62
245.633	74.62
245.866	74.62
246.099	69.62
246.333	74.62
246.566	77.62
246.8	88.62
247.033	71.62
247.266	73.62
247.5	60.62
247.733	70.62
247.966	75.62
248.2	57.62
248.433	65.62
248.666	78.62
248.899	68.62
249.133	74.62
249.366	70.62
249.599	70.62
249.832	82.62
250.066	70.62
250.299	75.62
250.532	83.62
250.765	82.62
250.998	69.62
251.231	64.62
251.465	77.62
251.698	82.62
251.931	81.62
252.164	75.62
252.397	80.62
252.63	81.62
252.863	76.62
253.096	76.62
253.329	78.62
253.562	74.62
253.795	83.62
254.028	75.62
254.261	61.62
254.494	71.62
254.727	80.62
254.96	81.62
255.193	74.62
255.426	82.62
255.659	71.62
255.892	99.62
256.124	85.62
256.357	93.62
256.59	76.62
256.823	76.62
257.056	72.62
257.289	73.62
257.521	77.62
257.754	69.62
257.987	76.62
258.22	86.62
258.452	66.62
258.685	76.62
258.918	83.62
259.151	84.62
259.383	68.62
259.616	65.62
259.849	64.62
260.081	76.62
260.314	76.62
260.547	79.62
260.779	87.62
261.012	80.62
261.244	87.62
261.477	86.62
261.71	86.62
261.942	88.62
262.175	87.62
262.407	82.62
262.64	75.62
262.872	73.62
263.105	62.62
263.337	78.62
263.57	83.62
263.802	70.62
264.035	68.62
264.267	78.62
264.499	88.62
264.732	91.62
264.964	80.62
265.197	76.62
265.429	84.62
265.661	96.62
265.894	74.62
266.126	65.62
266.358	82.62
266.591	95.62
266.823	69.62
267.055	79.62
267.287	87.62
267.52	87.62
267.752	86.62
267.984	97.62
268.216	91.62
268.448	79.62
268.681	81.62
268.913	85.62
269.145	83.62
269.377	94.62
269.609	84.62
269.841	85.62
270.073	88.62
270.306	83.62
270.538	86.62
270.77	75.62
271.002	80.62
271.234	85.62
271.466	85.62
271.698	84.62
271.93	88.62
272.162	77.62
272.394	83.62
272.626	75.62
272.858	79.62
273.09	91.62
273.322	82.62
273.553	85.62
273.785	83.62
274.017	83.62
274.249	79.62
274.481	76.62
274.713	71.62
274.945	85.62
275.176	92.62
275.408	81.62
275.64	87.62
275.872	83.62
276.104	84.62
276.335	67.62
276.567	89.62
276.799	77.62
277.031	84.62
277.262	82.62
277.494	88.62
277.726	83.62
277.957	82.62
278.189	89.62
278.421	94.62
278.652	79.62
278.884	80.62
279.115	91.62
279.347	72.62
279.579	80.62
279.81	83.62
280.042	91.62
280.273	68.62
280.505	91.62
280.736	103.62
280.968	92.62
281.199	88.62
281.431	93.62
281.662	89.62
281.894	91.62
282.125	88.62
282.356	87.62
282.588	87.62
282.819	99.62
283.051	89.62
283.282	93.62
283.513	89.62
283.745	88.62
283.976	79.62
284.207	91.62
284.439	94.62
284.67	86.62
284.901	63.62
285.132	76.62
285.364	79.62
285.595	84.62
285.826	88.62
286.057	92.62
286.288	82.62
286.52	85.62
286.751	89.62
286.982	90.62
287.213	84.62
287.444	88.62
287.675	74.62
287.906	74.62
288.138	79.62
288.369	87.62
288.6	94.62
288.831	77.62
289.062	85.62
289.293	101.62
289.524	87.62
289.755	76.62
289.986	80.62
290.217	84.62
290.448	76.62
290.679	94.62
290.91	102.62
291.141	97.62
291.371	89.62
291.602	87.62
291.833	79.62
292.064	88.62
292.295	86.62
292.526	94.62
292.757	92.62
292.987	95.62
293.218	96.62
293.449	91.62
293.68	89.62
293.91	82.62
294.141	85.62
294.372	98.62
294.603	81.62
294.833	84.62
295.064	84.62
295.295	72.62
295.525	86.62
295.756	97.62
295.987	77.62
296.217	81.62
296.448	101.62
296.679	109.62
296.909	92.62
297.14	96.62
297.37	90.62
297.601	87.62
297.831	101.62
298.062	83.62
298.292	85.62
298.523	96.62
298.753	83.62
298.984	87.62
299.214	79.62
299.445	80.62
299.675	92.62
299.905	98.62
300.136	94.62
300.366	83.62
300.597	93.62
300.827	73.62
301.057	75.62
301.288	86.62
301.518	85.62
301.748	77.62
301.979	83.62
302.209	88.62
302.439	86.62
302.669	94.62
302.9	90.62
303.13	83.62
303.36	78.62
303.59	79.62
303.82	89.62
304.051	77.62
304.281	84.62
304.511	93.62
304.741	90.62
304.971	99.62
305.201	91.62
305.431	83.62
305.661	89.62
305.891	97.62
306.121	77.62
306.352	98.62
306.582	94.62
306.812	87.62
307.042	92.62
307.272	74.62
307.502	83.62
307.731	82.62
307.961	92.62
308.191	86.62
308.421	87.62
308.651	85.62
308.881	87.62
309.111	96.62
309.341	75.62
309.571	96.62
309.8	91.62
310.03	81.62
310.26	82.62
310.49	100.62
310.72	94.62
310.949	77.62
311.179	84.62
311.409	88.62
311.639	83.62
311.868	83.62
312.098	97.62
312.328	90.62
312.557	93.62
312.787	83.62
313.017	94.62
313.246	93.62
313.476	98.62
313.706	92.62
313.935	85.62
314.165	92.62
314.394	105.62
314.624	91.62
314.853	78.62
315.083	83.62
315.312	84.62
315.542	89.62
315.771	97.62
316.001	86.62
316.23	79.62
316.46	66.62
316.689	90.62
316.919	97.62
317.148	102.62
317.377	87.62
317.607	97.62
317.836	95.62
318.065	80.62
318.295	89.62
318.524	90.62
318.753	86.62
318.983	80.62
319.212	92.62
319.441	88.62
319.67	93.62
319.9	104.62
320.129	107.62
320.358	86.62
320.587	94.62
320.816	96.62
321.046	81.62
321.275	85.62
321.504	82.62
321.733	107.62
321.962	98.62
322.191	94.62
322.42	95.62
322.649	88.62
322.878	104.62
323.108	83.62
323.337	67.62
323.566	95.62
323.795	100.62
324.024	90.62
324.253	96.62
324.482	87.62
324.71	92.62
324.939	87.62
325.168	84.62
325.397	91.62
325.626	98.62
325.855	78.62
326.084	88.62
326.313	84.62
326.542	77.62
326.77	87.62
326.999	81.62
327.228	87.62
327.457	101.62
327.686	86.62
327.914	80.62
328.143	91.62
328.372	100.62
328.6	87.62
328.829	87.62
329.058	91.62
329.287	89.62
329.515	91.62
329.744	94.62
329.972	91.62
330.201	81.62
330.43	75.62
330.658	96.62
330.887	97.62
331.115	75.62
331.344	79.62
331.572	102.62
331.801	92.62
332.03	95.62
332.258	96.62
332.486	89.62
332.715	84.62
332.943	85.62
333.172	96.62
333.4	99.62
333.629	98.62
333.857	88.62
334.085	87.62
334.314	109.62
334.542	92.62
334.771	103.62
334.999	89.62
335.227	83.62
335.455	88.62
335.684	82.62
335.912	88.62
336.14	81.62
336.369	82.62
336.597	88.62
336.825	88.62
337.053	106.62
337.281	91.62
337.51	91.62
337.738	93.62
337.966	89.62
338.194	100.62
338.422	100.62
338.65	93.62
338.878	97.62
339.106	94.62
339.334	89.62
339.562	83.62
339.79	80.62
340.018	91.62
340.246	100.62
340.474	89.62
340.702	89.62
340.93	95.62
341.158	72.62
341.386	75.62
341.614	77.62
341.842	84.62
342.07	87.62
342.298	102.62
342.526	95.62
342.754	92.62
342.981	97.62
343.209	92.62
343.437	95.62
343.665	85.62
343.893	84.62
344.12	99.62
344.348	98.62
344.576	92.62
344.804	96.62
345.031	76.62
345.259	100.62
345.487	91.62
345.714	90.62
345.942	93.62
346.17	85.62
346.397	88.62
346.625	89.62
346.853	83.62
347.08	97.62
347.308	86.62
347.535	87.62
347.763	99.62
347.99	74.62
348.218	91.62
348.445	88.62
348.673	90.62
348.9	96.62
349.128	92.62
349.355	98.62
349.583	81.62
349.81	96.62
350.037	86.62
350.265	81.62
350.492	89.62
350.72	92.62
350.947	84.62
351.174	100.62
351.402	93.62
351.629	86.62
351.856	98.62
352.083	91.62
352.311	88.62
352.538	90.62
352.765	100.62
352.992	96.62
353.22	85.62
353.447	88.62
353.674	82.62
353.901	100.62
354.128	94.62
354.355	84.62
354.583	82.62
354.81	82.62
355.037	93.62
355.264	85.62
355.491	89.62
355.718	89.62
355.945	101.62
356.172	84.62
356.399	79.62
356.626	91.62
356.853	84.62
357.08	83.62
357.307	79.62
357.534	93.62
357.761	85.62
357.988	86.62
358.215	91.62
358.441	81.62
358.668	86.62
358.895	83.62
359.122	97.62
359.349	87.62
359.576	87.62
359.802	88.62
360.029	83.62
360.256	84.62
360.483	75.62
360.709	82.62
360.936	89.62
361.163	99.62
361.39	81.62
361.616	90.62
361.843	99.62
362.07	88.62
362.296	81.62
362.523	104.62
362.749	95.62
362.976	94.62
363.203	92.62
363.429	95.62
363.656	82.62
363.882	82.62
364.109	85.62
364.335	86.62
364.562	94.62
364.788	83.62
365.015	84.62
365.241	69.62
365.468	105.62
365.694	73.62
365.92	89.62
366.147	73.62
366.373	76.62
366.599	94.62
366.826	85.62
367.052	92.62
367.278	99.62
367.505	94.62
367.731	99.62
367.957	93.62
368.184	92.62
368.41	76.62
368.636	103.62
368.862	97.62
369.089	76.62
369.315	71.62
369.541	92.62
369.767	92.62
369.993	88.62
370.219	87.62
370.445	88.62
370.672	86.62
370.898	83.62
371.124	88.62
371.35	97.62
371.576	93.62
371.802	81.62
372.028	75.62
372.254	98.62
372.48	86.62
372.706	108.62
372.932	82.62
373.158	78.62
373.384	97.62
373.61	87.62
373.835	88.62
374.061	101.62
374.287	95.62
374.513	98.62
374.739	97.62
374.965	93.62
375.191	90.62
375.416	94.62
375.642	98.62
375.868	96.62
376.094	102.62
376.319	93.62
376.545	97.62
376.771	96.62
376.997	95.62
377.222	80.62
377.448	93.62
377.674	85.62
377.899	79.62
378.125	101.62
378.35	99.62
378.576	93.62
378.802	89.62
379.027	93.62
379.253	87.62
379.478	100.62
379.704	92.62
379.929	79.62
380.155	89.62
380.38	96.62
380.606	83.62
380.831	88.62
381.057	86.62
381.282	102.62
381.507	82.62
381.733	100.62
381.958	94.62
382.184	81.62
382.409	95.62
382.634	94.62
382.86	89.62
383.085	96.62
383.31	93.62
383.535	100.62
383.761	100.62
383.986	91.62
384.211	88.62
384.436	90.62
384.662	96.62
384.887	100.62
385.112	86.62
385.337	89.62
385.562	100.62
385.787	96.62
386.013	96.62
386.238	92.62
386.463	85.62
386.688	87.62
386.913	93.62
387.138	96.62
387.363	89.62
387.588	89.62
387.813	87.62
388.038	86.62
388.263	89.62
388.488	83.62
388.713	83.62
388.938	82.62
389.163	94.62
389.387	92.62
389.612	93.62
389.837	83.62
390.062	86.62
390.287	89.62
390.512	96.62
390.736	89.62
390.961	70.62
391.186	98.62
391.411	92.62
391.636	94.62
391.86	87.62
392.085	93.62
392.31	101.62
392.534	94.62
392.759	89.62
392.984	94.62
393.208	96.62
393.433	84.62
393.658	89.62
393.882	95.62
394.107	91.62
394.331	94.62
394.556	100.62
394.78	99.62
395.005	88.62
395.229	84.62
395.454	87.62
395.678	93.62
395.903	90.62
396.127	93.62
396.352	87.62
396.576	94.62
396.801	91.62
397.025	90.62
397.249	103.62
397.474	92.62
397.698	87.62
397.922	87.62
398.147	87.62
398.371	89.62
398.595	86.62
398.82	109.62
399.044	91.62
399.268	91.62
399.492	116.62
399.717	108.62
399.941	91.62
400.165	84.62
400.389	96.62
400.613	96.62
400.837	87.62
401.062	101.62
401.286	90.62
401.51	95.62
401.734	94.62
401.958	91.62
402.182	94.62
402.406	88.62
402.63	78.62
402.854	103.62
403.078	94.62
403.302	103.62
403.526	94.62
403.75	102.62
403.974	91.62
404.198	95.62
404.422	103.62
404.645	98.62
404.869	108.62
405.093	84.62
405.317	100.62
405.541	110.62
405.765	95.62
405.988	93.62
406.212	88.62
406.436	76.62
406.66	88.62
406.883	102.62
407.107	93.62
407.331	96.62
407.555	108.62
407.778	99.62
408.002	103.62
408.226	82.62
408.449	98.62
408.673	88.62
408.896	102.62
409.12	91.62
409.344	106.62
409.567	94.62
409.791	96.62
410.014	117.62
410.238	89.62
410.461	79.62
410.685	108.62
410.908	86.62
411.132	93.62
411.355	84.62
411.578	98.62
411.802	94.62
412.025	112.62
412.249	88.62
412.472	95.62
412.695	105.62
412.919	93.62
413.142	96.62
413.365	105.62
413.589	102.62
413.812	95.62
414.035	94.62
414.258	97.62
414.482	86.62
414.705	103.62
414.928	105.62
415.151	93.62
415.374	85.62
415.597	93.62
415.821	91.62
416.044	79.62
416.267	104.62
416.49	104.62
416.713	99.62
416.936	83.62
417.159	96.62
417.382	84.62
417.605	82.62
417.828	105.62
418.051	97.62
418.274	83.62
418.497	98.62
418.72	81.62
418.943	94.62
419.166	86.62
419.389	79.62
419.611	90.62
419.834	104.62
420.057	99.62
420.28	95.62
420.503	94.62
420.726	107.62
420.948	94.62
421.171	97.62
421.394	87.62
421.617	102.62
421.839	88.62
422.062	100.62
422.285	90.62
422.507	83.62
422.73	101.62
422.953	108.62
423.175	91.62
423.398	95.62
423.621	101.62
423.843	108.62
424.066	93.62
424.288	102.62
424.511	82.62
424.733	97.62
424.956	101.62
425.178	110.62
425.401	85.62
425.623	88.62
425.846	85.62
426.068	87.62
426.291	103.62
426.513	84.62
426.735	86.62
426.958	114.62
427.18	104.62
427.402	90.62
427.625	88.62
427.847	86.62
428.069	78.62
428.292	88.62
428.514	101.62
428.736	80.62
428.958	94.62
429.181	87.62
429.403	100.62
429.625	81.62
429.847	100.62
430.069	100.62
430.292	79.62
430.514	85.62
430.736	71.62
430.958	107.62
431.18	90.62
431.402	100.62
431.624	90.62
431.846	92.62
432.068	91.62
432.29	116.62
432.512	91.62
432.734	87.62
432.956	83.62
433.178	86.62
433.4	91.62
433.622	84.62
433.844	91.62
434.066	88.62
434.287	97.62
434.509	77.62
434.731	95.62
434.953	89.62
435.175	87.62
435.397	87.62
435.618	96.62
435.84	97.62
436.062	97.62
436.284	81.62
436.505	92.62
436.727	91.62
436.949	85.62
437.17	94.62
437.392	109.62
437.614	84.62
437.835	95.62
438.057	94.62
438.278	88.62
438.5	93.62
438.721	98.62
438.943	94.62
439.165	83.62
439.386	91.62
439.608	98.62
439.829	86.62
440.05	92.62
440.272	91.62
440.493	101.62
440.715	102.62
440.936	77.62
441.158	101.62
441.379	97.62
441.6	102.62
441.822	104.62
442.043	90.62
442.264	90.62
442.486	108.62
442.707	93.62
442.928	104.62
443.149	95.62
443.371	91.62
443.592	96.62
443.813	96.62
444.034	84.62
444.255	98.62
444.476	102.62
444.698	87.62
444.919	91.62
445.14	215.62
445.361	130.62
445.582	86.62
445.803	91.62
446.024	103.62
446.245	85.62
446.466	103.62
446.687	83.62
446.908	93.62
447.129	110.62
447.35	96.62
447.571	98.62
447.792	80.62
448.013	85.62
448.234	89.62
448.455	95.62
448.675	88.62
448.896	81.62
449.117	82.62
449.338	91.62
449.559	106.62
449.779	113.62
450	89.62
450.221	88.62
450.442	104.62
450.662	89.62
450.883	84.62
451.104	96.62
451.324	89.62
451.545	100.62
451.766	110.62
451.986	93.62
452.207	89.62
452.428	107.62
452.648	89.62
452.869	88.62
453.089	96.62
453.31	89.62
453.53	101.62
453.751	95.62
453.971	87.62
454.192	90.62
454.412	78.62
454.633	98.62
454.853	102.62
455.073	86.62
455.294	69.62
455.514	75.62
455.734	100.62
455.955	84.62
456.175	80.62
456.395	93.62
456.616	99.62
456.836	76.62
457.056	80.62
457.276	84.62
457.497	99.62
457.717	102.62
457.937	83.62
458.157	105.62
458.377	101.62
458.598	75.62
458.818	87.62
459.038	76.62
459.258	76.62
459.478	98.62
459.698	89.62
459.918	94.62
460.138	83.62
460.358	95.62
460.578	103.62
460.798	100.62
461.018	95.62
461.238	88.62
461.458	85.62
461.678	88.62
461.898	110.62
462.118	90.62
462.338	97.62
462.558	98.62
462.777	98.62
462.997	111.62
463.217	85.62
463.437	104.62
463.657	89.62
463.876	99.62
464.096	88.62
464.316	87.62
464.536	93.62
464.755	96.62
464.975	106.62
465.195	91.62
465.414	90.62
465.634	104.62
465.854	101.62
466.073	83.62
466.293	92.62
466.512	99.62
466.732	96.62
466.951	77.62
467.171	85.62
467.391	92.62
467.61	92.62
467.829	95.62
468.049	83.62
468.268	76.62
468.488	91.62
468.707	96.62
468.927	99.62
469.146	94.62
469.365	99.62
469.585	87.62
469.804	93.62
470.023	86.62
470.243	99.62
470.462	99.62
470.681	97.62
470.901	95.62
471.12	93.62
471.339	111.62
471.558	91.62
471.777	99.62
471.997	96.62
472.216	88.62
472.435	85.62
472.654	88.62
472.873	85.62
473.092	84.62
473.311	90.62
473.53	95.62
473.749	87.62
473.968	87.62
474.187	84.62
474.406	86.62
474.625	80.62
474.844	98.62
475.063	88.62
475.282	104.62
475.501	88.62
475.72	103.62
475.939	86.62
476.158	85.62
476.377	98.62
476.596	100.62
476.814	93.62
477.033	86.62
477.252	98.62
477.471	104.62
477.69	93.62
477.908	101.62
478.127	108.62
478.346	92.62
478.564	94.62
478.783	92.62
479.002	107.62
479.22	82.62
479.439	99.62
479.658	112.62
479.876	113.62
480.095	96.62
480.313	102.62
480.532	83.62
480.751	95.62
480.969	107.62
481.188	105.62
481.406	83.62
481.624	83.62
481.843	94.62
482.061	94.62
482.28	103.62
482.498	98.62
482.717	107.62
482.935	101.62
483.153	91.62
483.372	99.62
483.59	106.62
483.808	91.62
484.027	105.62
484.245	115.62
484.463	92.62
484.681	107.62
484.9	99.62
485.118	100.62
485.336	100.62
485.554	89.62
485.772	111.62
485.99	95.62
486.209	102.62
486.427	106.62
486.645	98.62
486.863	111.62
487.081	107.62
487.299	105.62
487.517	107.62
487.735	101.62
487.953	99.62
488.171	115.62
488.389	108.62
488.607	95.62
488.825	113.62
489.043	104.62
489.261	107.62
489.479	109.62
489.696	103.62
489.914	85.62
490.132	109.62
490.35	107.62
490.568	95.62
490.786	113.62
491.003	97.62
491.221	99.62
491.439	121.62
491.657	101.62
491.874	124.62
492.092	97.62
492.31	119.62
492.527	113.62
492.745	116.62
492.963	129.62
493.18	113.62
493.398	115.62
493.615	119.62
493.833	119.62
494.05	105.62
494.268	93.62
494.485	99.62
494.703	103.62
494.92	111.62
495.138	110.62
495.355	109.62
495.573	115.62
495.79	99.62
496.008	114.62
496.225	111.62
496.442	108.62
496.66	107.62
496.877	97.62
497.094	104.62
497.312	120.62
497.529	100.62
497.746	114.62
497.963	113.62
498.181	103.62
498.398	100.62
498.615	107.62
498.832	116.62
499.049	117.62
499.267	113.62
499.484	124.62
499.701	117.62
499.918	125.62
500.135	145.62
500.352	155.62
500.569	148.62
500.786	160.62
501.003	153.62
501.22	124.62
501.437	117.62
501.654	141.62
501.871	132.62
502.088	127.62
502.305	112.62
502.522	115.62
502.739	121.62
502.956	99.62
503.172	110.62
503.389	99.62
503.606	104.62
503.823	88.62
504.04	107.62
504.256	119.62
504.473	117.62
504.69	129.62
504.907	121.62
505.123	111.62
505.34	109.62
505.557	107.62
505.773	111.62
505.99	102.62
506.207	97.62
506.423	98.62
506.64	92.62
506.856	99.62
507.073	112.62
507.289	105.62
507.506	103.62
507.722	92.62
507.939	107.62
508.155	109.62
508.372	97.62
508.588	112.62
508.805	101.62
509.021	81.62
509.238	98.62
509.454	100.62
509.67	109.62
509.887	100.62
510.103	86.62
510.319	102.62
510.536	110.62
510.752	93.62
510.968	104.62
511.184	86.62
511.401	100.62
511.617	88.62
511.833	90.62
512.049	111.62
512.265	100.62
512.481	86.62
512.698	119.62
512.914	99.62
513.13	85.62
513.346	96.62
513.562	113.62
513.778	86.62
513.994	100.62
514.21	85.62
514.426	109.62
514.642	100.62
514.858	109.62
515.074	103.62
515.29	100.62
515.506	99.62
515.721	94.62
515.937	88.62
