Data from Location5.07152019.Energy5.Lamp.07192019.3%Agarose_HRD10591_15-37-47-387.txt Node
Date: Fri Jul 19 15:37:47 EDT 2019
User: cochatt
Spectrometer: HR+D1059
Trigger mode: 1
Integration Time (sec): 1.000000E-1
Scans to average: 1
Electric dark correction enabled: true
Nonlinearity correction enabled: false
Boxcar width: 0
XAxis mode: Wavelengths
Number of Pixels in Spectrum: 2048
>>>>>Begin Spectral Data<<<<<
223.165	-30.19
223.4	-30.19
223.635	-30.19
223.869	-13.19
224.104	-18.19
224.338	-25.19
224.573	-6.19
224.808	-11.19
225.042	-2.19
225.277	-17.19
225.511	-4.19
225.746	12.81
225.98	13.81
226.215	7.81
226.449	15.81
226.683	23.81
226.918	23.81
227.152	29.81
227.387	38.81
227.621	29.81
227.856	41.81
228.09	46.81
228.324	45.81
228.559	56.81
228.793	63.81
229.027	58.81
229.262	70.81
229.496	71.81
229.73	52.81
229.964	59.81
230.199	75.81
230.433	71.81
230.667	78.81
230.901	58.81
231.136	64.81
231.37	88.81
231.604	61.81
231.838	79.81
232.072	79.81
232.306	98.81
232.541	69.81
232.775	71.81
233.009	69.81
233.243	76.81
233.477	83.81
233.711	71.81
233.945	70.81
234.179	78.81
234.413	76.81
234.647	81.81
234.881	87.81
235.115	76.81
235.349	85.81
235.583	76.81
235.817	76.81
236.051	78.81
236.285	73.81
236.519	79.81
236.753	78.81
236.987	80.81
237.221	69.81
237.455	65.81
237.689	82.81
237.922	77.81
238.156	93.81
238.39	61.81
238.624	78.81
238.858	68.81
239.091	87.81
239.325	71.81
239.559	89.81
239.793	70.81
240.027	72.81
240.26	68.81
240.494	74.81
240.728	57.81
240.961	79.81
241.195	71.81
241.429	86.81
241.662	81.81
241.896	89.81
242.13	80.81
242.363	73.81
242.597	69.81
242.83	66.81
243.064	76.81
243.298	67.81
243.531	85.81
243.765	81.81
243.998	88.81
244.232	87.81
244.465	87.81
244.699	61.81
244.932	75.81
245.166	70.81
245.399	77.81
245.633	72.81
245.866	73.81
246.099	78.81
246.333	79.81
246.566	75.81
246.8	81.81
247.033	82.81
247.266	64.81
247.5	65.81
247.733	76.81
247.966	85.81
248.2	79.81
248.433	79.81
248.666	77.81
248.899	67.81
249.133	71.81
249.366	86.81
249.599	79.81
249.832	85.81
250.066	79.81
250.299	83.81
250.532	73.81
250.765	83.81
250.998	81.81
251.231	70.81
251.465	73.81
251.698	65.81
251.931	71.81
252.164	73.81
252.397	71.81
252.63	87.81
252.863	81.81
253.096	73.81
253.329	91.81
253.562	77.81
253.795	73.81
254.028	70.81
254.261	80.81
254.494	77.81
254.727	72.81
254.96	85.81
255.193	69.81
255.426	80.81
255.659	70.81
255.892	84.81
256.124	73.81
256.357	73.81
256.59	86.81
256.823	76.81
257.056	89.81
257.289	74.81
257.521	71.81
257.754	81.81
257.987	77.81
258.22	78.81
258.452	78.81
258.685	64.81
258.918	68.81
259.151	65.81
259.383	73.81
259.616	74.81
259.849	83.81
260.081	81.81
260.314	76.81
260.547	84.81
260.779	85.81
261.012	71.81
261.244	93.81
261.477	93.81
261.71	76.81
261.942	85.81
262.175	91.81
262.407	86.81
262.64	85.81
262.872	80.81
263.105	72.81
263.337	65.81
263.57	80.81
263.802	79.81
264.035	77.81
264.267	66.81
264.499	69.81
264.732	85.81
264.964	73.81
265.197	93.81
265.429	83.81
265.661	83.81
265.894	89.81
266.126	76.81
266.358	86.81
266.591	86.81
266.823	78.81
267.055	75.81
267.287	70.81
267.52	73.81
267.752	87.81
267.984	78.81
268.216	73.81
268.448	73.81
268.681	79.81
268.913	70.81
269.145	79.81
269.377	90.81
269.609	79.81
269.841	109.81
270.073	76.81
270.306	84.81
270.538	77.81
270.77	84.81
271.002	82.81
271.234	71.81
271.466	64.81
271.698	69.81
271.93	84.81
272.162	69.81
272.394	84.81
272.626	84.81
272.858	84.81
273.09	73.81
273.322	84.81
273.553	80.81
273.785	93.81
274.017	80.81
274.249	86.81
274.481	84.81
274.713	76.81
274.945	77.81
275.176	79.81
275.408	79.81
275.64	74.81
275.872	92.81
276.104	86.81
276.335	92.81
276.567	84.81
276.799	84.81
277.031	81.81
277.262	74.81
277.494	84.81
277.726	78.81
277.957	88.81
278.189	85.81
278.421	80.81
278.652	73.81
278.884	76.81
279.115	89.81
279.347	67.81
279.579	84.81
279.81	75.81
280.042	92.81
280.273	80.81
280.505	73.81
280.736	81.81
280.968	95.81
281.199	80.81
281.431	78.81
281.662	72.81
281.894	79.81
282.125	78.81
282.356	79.81
282.588	82.81
282.819	96.81
283.051	84.81
283.282	75.81
283.513	99.81
283.745	85.81
283.976	82.81
284.207	72.81
284.439	82.81
284.67	86.81
284.901	79.81
285.132	77.81
285.364	76.81
285.595	85.81
285.826	100.81
286.057	100.81
286.288	81.81
286.52	72.81
286.751	87.81
286.982	76.81
287.213	80.81
287.444	87.81
287.675	91.81
287.906	84.81
288.138	81.81
288.369	77.81
288.6	79.81
288.831	89.81
289.062	83.81
289.293	91.81
289.524	81.81
289.755	88.81
289.986	76.81
290.217	101.81
290.448	80.81
290.679	82.81
290.91	92.81
291.141	67.81
291.371	87.81
291.602	82.81
291.833	88.81
292.064	88.81
292.295	83.81
292.526	84.81
292.757	93.81
292.987	82.81
293.218	73.81
293.449	92.81
293.68	91.81
293.91	79.81
294.141	81.81
294.372	88.81
294.603	70.81
294.833	69.81
295.064	85.81
295.295	80.81
295.525	93.81
295.756	73.81
295.987	84.81
296.217	81.81
296.448	78.81
296.679	72.81
296.909	91.81
297.14	88.81
297.37	67.81
297.601	71.81
297.831	82.81
298.062	85.81
298.292	69.81
298.523	87.81
298.753	89.81
298.984	73.81
299.214	70.81
299.445	86.81
299.675	93.81
299.905	78.81
300.136	75.81
300.366	71.81
300.597	76.81
300.827	84.81
301.057	96.81
301.288	86.81
301.518	81.81
301.748	84.81
301.979	81.81
302.209	80.81
302.439	75.81
302.669	76.81
302.9	78.81
303.13	87.81
303.36	86.81
303.59	87.81
303.82	79.81
304.051	94.81
304.281	78.81
304.511	87.81
304.741	65.81
304.971	67.81
305.201	86.81
305.431	74.81
305.661	83.81
305.891	95.81
306.121	68.81
306.352	73.81
306.582	81.81
306.812	90.81
307.042	85.81
307.272	77.81
307.502	97.81
307.731	67.81
307.961	85.81
308.191	70.81
308.421	81.81
308.651	91.81
308.881	83.81
309.111	76.81
309.341	77.81
309.571	81.81
309.8	81.81
310.03	82.81
310.26	90.81
310.49	79.81
310.72	90.81
310.949	72.81
311.179	86.81
311.409	71.81
311.639	68.81
311.868	89.81
312.098	78.81
312.328	63.81
312.557	89.81
312.787	76.81
313.017	82.81
313.246	92.81
313.476	71.81
313.706	86.81
313.935	82.81
314.165	71.81
314.394	79.81
314.624	65.81
314.853	76.81
315.083	71.81
315.312	91.81
315.542	75.81
315.771	80.81
316.001	73.81
316.23	84.81
316.46	94.81
316.689	79.81
316.919	94.81
317.148	91.81
317.377	83.81
317.607	81.81
317.836	78.81
318.065	67.81
318.295	86.81
318.524	71.81
318.753	75.81
318.983	76.81
319.212	83.81
319.441	94.81
319.67	75.81
319.9	91.81
320.129	72.81
320.358	83.81
320.587	95.81
320.816	98.81
321.046	83.81
321.275	79.81
321.504	80.81
321.733	89.81
321.962	84.81
322.191	86.81
322.42	88.81
322.649	84.81
322.878	73.81
323.108	78.81
323.337	84.81
323.566	83.81
323.795	91.81
324.024	81.81
324.253	82.81
324.482	79.81
324.71	84.81
324.939	91.81
325.168	85.81
325.397	91.81
325.626	70.81
325.855	85.81
326.084	87.81
326.313	85.81
326.542	89.81
326.77	69.81
326.999	96.81
327.228	79.81
327.457	77.81
327.686	76.81
327.914	99.81
328.143	96.81
328.372	91.81
328.6	86.81
328.829	92.81
329.058	65.81
329.287	59.81
329.515	79.81
329.744	91.81
329.972	83.81
330.201	73.81
330.43	74.81
330.658	84.81
330.887	72.81
331.115	87.81
331.344	83.81
331.572	81.81
331.801	80.81
332.03	83.81
332.258	80.81
332.486	87.81
332.715	89.81
332.943	92.81
333.172	65.81
333.4	84.81
333.629	83.81
333.857	84.81
334.085	71.81
334.314	85.81
334.542	79.81
334.771	87.81
334.999	77.81
335.227	84.81
335.455	70.81
335.684	89.81
335.912	80.81
336.14	81.81
336.369	82.81
336.597	77.81
336.825	81.81
337.053	91.81
337.281	82.81
337.51	84.81
337.738	85.81
337.966	82.81
338.194	78.81
338.422	79.81
338.65	73.81
338.878	77.81
339.106	75.81
339.334	79.81
339.562	89.81
339.79	75.81
340.018	85.81
340.246	68.81
340.474	84.81
340.702	80.81
340.93	80.81
341.158	85.81
341.386	91.81
341.614	84.81
341.842	81.81
342.07	77.81
342.298	77.81
342.526	73.81
342.754	86.81
342.981	73.81
343.209	79.81
343.437	75.81
343.665	74.81
343.893	75.81
344.12	95.81
344.348	89.81
344.576	90.81
344.804	87.81
345.031	88.81
345.259	78.81
345.487	82.81
345.714	76.81
345.942	89.81
346.17	94.81
346.397	92.81
346.625	84.81
346.853	91.81
347.08	72.81
347.308	76.81
347.535	85.81
347.763	66.81
347.99	81.81
348.218	83.81
348.445	74.81
348.673	87.81
348.9	83.81
349.128	72.81
349.355	93.81
349.583	83.81
349.81	77.81
350.037	87.81
350.265	91.81
350.492	85.81
350.72	85.81
350.947	79.81
351.174	74.81
351.402	83.81
351.629	90.81
351.856	78.81
352.083	84.81
352.311	84.81
352.538	73.81
352.765	89.81
352.992	92.81
353.22	88.81
353.447	90.81
353.674	76.81
353.901	83.81
354.128	80.81
354.355	75.81
354.583	83.81
354.81	95.81
355.037	91.81
355.264	73.81
355.491	82.81
355.718	81.81
355.945	79.81
356.172	75.81
356.399	69.81
356.626	81.81
356.853	68.81
357.08	87.81
357.307	80.81
357.534	81.81
357.761	88.81
357.988	68.81
358.215	76.81
358.441	79.81
358.668	81.81
358.895	96.81
359.122	87.81
359.349	85.81
359.576	81.81
359.802	77.81
360.029	96.81
360.256	88.81
360.483	89.81
360.709	79.81
360.936	80.81
361.163	76.81
361.39	69.81
361.616	99.81
361.843	93.81
362.07	87.81
362.296	81.81
362.523	82.81
362.749	80.81
362.976	87.81
363.203	85.81
363.429	63.81
363.656	79.81
363.882	80.81
364.109	84.81
364.335	78.81
364.562	93.81
364.788	84.81
365.015	84.81
365.241	96.81
365.468	78.81
365.694	93.81
365.92	76.81
366.147	71.81
366.373	86.81
366.599	82.81
366.826	82.81
367.052	74.81
367.278	72.81
367.505	83.81
367.731	73.81
367.957	87.81
368.184	86.81
368.41	78.81
368.636	77.81
368.862	80.81
369.089	74.81
369.315	63.81
369.541	87.81
369.767	84.81
369.993	85.81
370.219	88.81
370.445	87.81
370.672	81.81
370.898	81.81
371.124	76.81
371.35	74.81
371.576	79.81
371.802	76.81
372.028	75.81
372.254	92.81
372.48	85.81
372.706	86.81
372.932	92.81
373.158	87.81
373.384	80.81
373.61	83.81
373.835	63.81
374.061	88.81
374.287	89.81
374.513	88.81
374.739	78.81
374.965	92.81
375.191	88.81
375.416	96.81
375.642	86.81
375.868	72.81
376.094	72.81
376.319	87.81
376.545	84.81
376.771	73.81
376.997	68.81
377.222	65.81
377.448	99.81
377.674	79.81
377.899	85.81
378.125	98.81
378.35	86.81
378.576	69.81
378.802	73.81
379.027	68.81
379.253	71.81
379.478	76.81
379.704	85.81
379.929	83.81
380.155	63.81
380.38	83.81
380.606	94.81
380.831	96.81
381.057	86.81
381.282	78.81
381.507	75.81
381.733	80.81
381.958	91.81
382.184	83.81
382.409	92.81
382.634	79.81
382.86	77.81
383.085	93.81
383.31	85.81
383.535	82.81
383.761	84.81
383.986	87.81
384.211	87.81
384.436	93.81
384.662	71.81
384.887	78.81
385.112	73.81
385.337	86.81
385.562	74.81
385.787	78.81
386.013	74.81
386.238	89.81
386.463	59.81
386.688	77.81
386.913	78.81
387.138	86.81
387.363	92.81
387.588	92.81
387.813	88.81
388.038	79.81
388.263	79.81
388.488	87.81
388.713	80.81
388.938	85.81
389.163	86.81
389.387	95.81
389.612	95.81
389.837	69.81
390.062	89.81
390.287	90.81
390.512	93.81
390.736	82.81
390.961	69.81
391.186	74.81
391.411	90.81
391.636	75.81
391.86	77.81
392.085	88.81
392.31	91.81
392.534	87.81
392.759	94.81
392.984	73.81
393.208	82.81
393.433	81.81
393.658	90.81
393.882	85.81
394.107	88.81
394.331	90.81
394.556	84.81
394.78	96.81
395.005	71.81
395.229	85.81
395.454	96.81
395.678	88.81
395.903	96.81
396.127	86.81
396.352	88.81
396.576	96.81
396.801	71.81
397.025	73.81
397.249	88.81
397.474	85.81
397.698	99.81
397.922	83.81
398.147	80.81
398.371	84.81
398.595	88.81
398.82	88.81
399.044	74.81
399.268	78.81
399.492	77.81
399.717	80.81
399.941	92.81
400.165	80.81
400.389	81.81
400.613	92.81
400.837	77.81
401.062	78.81
401.286	93.81
401.51	78.81
401.734	87.81
401.958	79.81
402.182	82.81
402.406	79.81
402.63	75.81
402.854	75.81
403.078	81.81
403.302	83.81
403.526	74.81
403.75	79.81
403.974	84.81
404.198	78.81
404.422	91.81
404.645	95.81
404.869	80.81
405.093	77.81
405.317	88.81
405.541	86.81
405.765	92.81
405.988	81.81
406.212	91.81
406.436	80.81
406.66	97.81
406.883	91.81
407.107	82.81
407.331	78.81
407.555	83.81
407.778	84.81
408.002	95.81
408.226	75.81
408.449	84.81
408.673	91.81
408.896	87.81
409.12	89.81
409.344	98.81
409.567	90.81
409.791	97.81
410.014	87.81
410.238	88.81
410.461	88.81
410.685	89.81
410.908	86.81
411.132	93.81
411.355	87.81
411.578	98.81
411.802	92.81
412.025	94.81
412.249	91.81
412.472	99.81
412.695	97.81
412.919	88.81
413.142	80.81
413.365	80.81
413.589	92.81
413.812	86.81
414.035	88.81
414.258	92.81
414.482	78.81
414.705	80.81
414.928	100.81
415.151	81.81
415.374	81.81
415.597	86.81
415.821	84.81
416.044	93.81
416.267	89.81
416.49	97.81
416.713	91.81
416.936	98.81
417.159	95.81
417.382	92.81
417.605	103.81
417.828	99.81
418.051	83.81
418.274	101.81
418.497	88.81
418.72	89.81
418.943	96.81
419.166	93.81
419.389	90.81
419.611	101.81
419.834	101.81
420.057	87.81
420.28	89.81
420.503	100.81
420.726	97.81
420.948	81.81
421.171	94.81
421.394	93.81
421.617	97.81
421.839	108.81
422.062	100.81
422.285	95.81
422.507	92.81
422.73	92.81
422.953	95.81
423.175	72.81
423.398	78.81
423.621	91.81
423.843	95.81
424.066	85.81
424.288	96.81
424.511	85.81
424.733	93.81
424.956	98.81
425.178	108.81
425.401	89.81
425.623	91.81
425.846	77.81
426.068	82.81
426.291	96.81
426.513	84.81
426.735	91.81
426.958	84.81
427.18	91.81
427.402	88.81
427.625	84.81
427.847	88.81
428.069	85.81
428.292	94.81
428.514	91.81
428.736	86.81
428.958	86.81
429.181	71.81
429.403	98.81
429.625	88.81
429.847	95.81
430.069	95.81
430.292	97.81
430.514	85.81
430.736	91.81
430.958	91.81
431.18	115.81
431.402	103.81
431.624	91.81
431.846	86.81
432.068	96.81
432.29	86.81
432.512	85.81
432.734	83.81
432.956	87.81
433.178	94.81
433.4	85.81
433.622	96.81
433.844	96.81
434.066	91.81
434.287	68.81
434.509	86.81
434.731	84.81
434.953	83.81
435.175	91.81
435.397	92.81
435.618	82.81
435.84	84.81
436.062	103.81
436.284	93.81
436.505	89.81
436.727	86.81
436.949	86.81
437.17	85.81
437.392	93.81
437.614	89.81
437.835	90.81
438.057	83.81
438.278	84.81
438.5	74.81
438.721	86.81
438.943	89.81
439.165	80.81
439.386	84.81
439.608	78.81
439.829	86.81
440.05	104.81
440.272	102.81
440.493	90.81
440.715	88.81
440.936	97.81
441.158	96.81
441.379	96.81
441.6	88.81
441.822	104.81
442.043	85.81
442.264	81.81
442.486	93.81
442.707	91.81
442.928	87.81
443.149	93.81
443.371	99.81
443.592	96.81
443.813	78.81
444.034	98.81
444.255	103.81
444.476	105.81
444.698	90.81
444.919	94.81
445.14	228.81
445.361	163.81
445.582	88.81
445.803	87.81
446.024	107.81
446.245	92.81
446.466	88.81
446.687	87.81
446.908	96.81
447.129	93.81
447.35	96.81
447.571	97.81
447.792	99.81
448.013	88.81
448.234	86.81
448.455	92.81
448.675	89.81
448.896	86.81
449.117	90.81
449.338	87.81
449.559	85.81
449.779	86.81
450	81.81
450.221	83.81
450.442	92.81
450.662	87.81
450.883	91.81
451.104	117.81
451.324	91.81
451.545	86.81
451.766	92.81
451.986	91.81
452.207	80.81
452.428	87.81
452.648	90.81
452.869	98.81
453.089	81.81
453.31	71.81
453.53	75.81
453.751	80.81
453.971	89.81
454.192	70.81
454.412	94.81
454.633	82.81
454.853	93.81
455.073	87.81
455.294	92.81
455.514	102.81
455.734	92.81
455.955	85.81
456.175	96.81
456.395	87.81
456.616	85.81
456.836	80.81
457.056	81.81
457.276	80.81
457.497	81.81
457.717	76.81
457.937	88.81
458.157	79.81
458.377	83.81
458.598	93.81
458.818	83.81
459.038	78.81
459.258	86.81
459.478	68.81
459.698	83.81
459.918	92.81
460.138	91.81
460.358	84.81
460.578	76.81
460.798	87.81
461.018	94.81
461.238	89.81
461.458	84.81
461.678	89.81
461.898	107.81
462.118	86.81
462.338	83.81
462.558	85.81
462.777	107.81
462.997	73.81
463.217	69.81
463.437	79.81
463.657	81.81
463.876	78.81
464.096	91.81
464.316	96.81
464.536	89.81
464.755	93.81
464.975	91.81
465.195	89.81
465.414	89.81
465.634	88.81
465.854	105.81
466.073	83.81
466.293	86.81
466.512	84.81
466.732	92.81
466.951	79.81
467.171	98.81
467.391	86.81
467.61	93.81
467.829	91.81
468.049	101.81
468.268	81.81
468.488	84.81
468.707	95.81
468.927	94.81
469.146	99.81
469.365	96.81
469.585	81.81
469.804	81.81
470.023	99.81
470.243	98.81
470.462	102.81
470.681	96.81
470.901	81.81
471.12	105.81
471.339	66.81
471.558	94.81
471.777	86.81
471.997	99.81
472.216	97.81
472.435	93.81
472.654	82.81
472.873	84.81
473.092	86.81
473.311	89.81
473.53	87.81
473.749	90.81
473.968	88.81
474.187	90.81
474.406	102.81
474.625	81.81
474.844	82.81
475.063	107.81
475.282	75.81
475.501	79.81
475.72	95.81
475.939	92.81
476.158	94.81
476.377	89.81
476.596	97.81
476.814	93.81
477.033	84.81
477.252	78.81
477.471	81.81
477.69	93.81
477.908	91.81
478.127	94.81
478.346	104.81
478.564	85.81
478.783	94.81
479.002	94.81
479.22	92.81
479.439	98.81
479.658	82.81
479.876	78.81
480.095	80.81
480.313	83.81
480.532	92.81
480.751	92.81
480.969	92.81
481.188	89.81
481.406	92.81
481.624	84.81
481.843	65.81
482.061	78.81
482.28	85.81
482.498	68.81
482.717	72.81
482.935	95.81
483.153	95.81
483.372	92.81
483.59	83.81
483.808	90.81
484.027	89.81
484.245	80.81
484.463	96.81
484.681	88.81
484.9	81.81
485.118	85.81
485.336	90.81
485.554	110.81
485.772	89.81
485.99	85.81
486.209	88.81
486.427	87.81
486.645	81.81
486.863	95.81
487.081	102.81
487.299	99.81
487.517	94.81
487.735	102.81
487.953	103.81
488.171	97.81
488.389	91.81
488.607	92.81
488.825	95.81
489.043	104.81
489.261	93.81
489.479	89.81
489.696	96.81
489.914	100.81
490.132	97.81
490.35	90.81
490.568	81.81
490.786	114.81
491.003	103.81
491.221	106.81
491.439	107.81
491.657	98.81
491.874	97.81
492.092	120.81
492.31	133.81
492.527	127.81
492.745	102.81
492.963	108.81
493.18	115.81
493.398	116.81
493.615	96.81
493.833	107.81
494.05	103.81
494.268	112.81
494.485	101.81
494.703	114.81
494.92	117.81
495.138	89.81
495.355	100.81
495.573	104.81
495.79	92.81
496.008	94.81
496.225	96.81
496.442	105.81
496.66	104.81
496.877	109.81
497.094	112.81
497.312	94.81
497.529	110.81
497.746	95.81
497.963	94.81
498.181	86.81
498.398	96.81
498.615	84.81
498.832	94.81
499.049	94.81
499.267	100.81
499.484	88.81
499.701	93.81
499.918	93.81
500.135	103.81
500.352	102.81
500.569	101.81
500.786	102.81
501.003	100.81
501.22	90.81
501.437	103.81
501.654	87.81
501.871	96.81
502.088	93.81
502.305	94.81
502.522	89.81
502.739	94.81
502.956	89.81
503.172	89.81
503.389	96.81
503.606	94.81
503.823	90.81
504.04	81.81
504.256	93.81
504.473	96.81
504.69	90.81
504.907	107.81
505.123	89.81
505.34	91.81
505.557	78.81
505.773	81.81
505.99	88.81
506.207	91.81
506.423	79.81
506.64	91.81
506.856	89.81
507.073	87.81
507.289	84.81
507.506	69.81
507.722	93.81
507.939	72.81
508.155	109.81
508.372	85.81
508.588	79.81
508.805	92.81
509.021	90.81
509.238	85.81
509.454	103.81
509.67	67.81
509.887	67.81
510.103	68.81
510.319	85.81
510.536	78.81
510.752	74.81
510.968	81.81
511.184	81.81
511.401	87.81
511.617	73.81
511.833	82.81
512.049	78.81
512.265	75.81
512.481	93.81
512.698	85.81
512.914	82.81
513.13	80.81
513.346	77.81
513.562	80.81
513.778	70.81
513.994	87.81
514.21	85.81
514.426	71.81
514.642	86.81
514.858	84.81
515.074	78.81
515.29	87.81
515.506	64.81
515.721	73.81
515.937	74.81
516.153	79.81
516.369	72.81
516.585	76.81
516.801	79.81
517.016	87.81
517.232	71.81
517.448	97.81
517.664	95.81
517.879	82.81
518.095	94.81
518.311	91.81
518.527	81.81
