Data from Location5.07152019.Energy5.Lamp.07192019.3%Agarose_HRD10591_16-03-47-628.txt Node
Date: Fri Jul 19 16:03:47 EDT 2019
User: cochatt
Spectrometer: HR+D1059
Trigger mode: 1
Integration Time (sec): 1.000000E-1
Scans to average: 1
Electric dark correction enabled: true
Nonlinearity correction enabled: false
Boxcar width: 0
XAxis mode: Wavelengths
Number of Pixels in Spectrum: 2048
>>>>>Begin Spectral Data<<<<<
223.165	-16.12
223.4	-16.12
223.635	-16.12
223.869	-7.12
224.104	-25.12
224.338	-14.12
224.573	-17.12
224.808	-21.12
225.042	-14.12
225.277	-8.12
225.511	-11.12
225.746	11.88
225.98	6.88
226.215	12.88
226.449	17.88
226.683	15.88
226.918	29.88
227.152	38.88
227.387	37.88
227.621	43.88
227.856	49.88
228.09	55.88
228.324	49.88
228.559	65.88
228.793	58.88
229.027	67.88
229.262	62.88
229.496	61.88
229.73	72.88
229.964	63.88
230.199	59.88
230.433	72.88
230.667	78.88
230.901	87.88
231.136	82.88
231.37	79.88
231.604	85.88
231.838	74.88
232.072	79.88
232.306	86.88
232.541	79.88
232.775	74.88
233.009	100.88
233.243	76.88
233.477	72.88
233.711	87.88
233.945	83.88
234.179	82.88
234.413	103.88
234.647	89.88
234.881	93.88
235.115	84.88
235.349	80.88
235.583	82.88
235.817	96.88
236.051	76.88
236.285	83.88
236.519	74.88
236.753	76.88
236.987	72.88
237.221	83.88
237.455	86.88
237.689	75.88
237.922	78.88
238.156	68.88
238.39	64.88
238.624	87.88
238.858	96.88
239.091	85.88
239.325	76.88
239.559	82.88
239.793	77.88
240.027	77.88
240.26	69.88
240.494	84.88
240.728	85.88
240.961	87.88
241.195	97.88
241.429	78.88
241.662	85.88
241.896	94.88
242.13	90.88
242.363	92.88
242.597	69.88
242.83	81.88
243.064	108.88
243.298	85.88
243.531	70.88
243.765	83.88
243.998	83.88
244.232	82.88
244.465	95.88
244.699	84.88
244.932	93.88
245.166	102.88
245.399	92.88
245.633	80.88
245.866	80.88
246.099	86.88
246.333	80.88
246.566	89.88
246.8	78.88
247.033	67.88
247.266	86.88
247.5	73.88
247.733	67.88
247.966	103.88
248.2	97.88
248.433	75.88
248.666	90.88
248.899	75.88
249.133	80.88
249.366	81.88
249.599	71.88
249.832	93.88
250.066	91.88
250.299	88.88
250.532	76.88
250.765	88.88
250.998	77.88
251.231	82.88
251.465	87.88
251.698	87.88
251.931	94.88
252.164	87.88
252.397	90.88
252.63	78.88
252.863	85.88
253.096	81.88
253.329	69.88
253.562	73.88
253.795	97.88
254.028	102.88
254.261	73.88
254.494	76.88
254.727	93.88
254.96	101.88
255.193	82.88
255.426	98.88
255.659	88.88
255.892	90.88
256.124	86.88
256.357	76.88
256.59	97.88
256.823	86.88
257.056	79.88
257.289	81.88
257.521	85.88
257.754	85.88
257.987	90.88
258.22	83.88
258.452	94.88
258.685	98.88
258.918	89.88
259.151	92.88
259.383	73.88
259.616	82.88
259.849	86.88
260.081	80.88
260.314	87.88
260.547	84.88
260.779	84.88
261.012	94.88
261.244	103.88
261.477	93.88
261.71	84.88
261.942	91.88
262.175	90.88
262.407	89.88
262.64	83.88
262.872	92.88
263.105	65.88
263.337	93.88
263.57	77.88
263.802	93.88
264.035	75.88
264.267	83.88
264.499	77.88
264.732	86.88
264.964	92.88
265.197	94.88
265.429	73.88
265.661	90.88
265.894	98.88
266.126	84.88
266.358	84.88
266.591	76.88
266.823	86.88
267.055	88.88
267.287	75.88
267.52	90.88
267.752	92.88
267.984	86.88
268.216	92.88
268.448	108.88
268.681	87.88
268.913	76.88
269.145	96.88
269.377	99.88
269.609	95.88
269.841	107.88
270.073	91.88
270.306	82.88
270.538	92.88
270.77	90.88
271.002	82.88
271.234	91.88
271.466	89.88
271.698	98.88
271.93	94.88
272.162	95.88
272.394	85.88
272.626	101.88
272.858	75.88
273.09	103.88
273.322	100.88
273.553	85.88
273.785	94.88
274.017	96.88
274.249	86.88
274.481	102.88
274.713	83.88
274.945	82.88
275.176	88.88
275.408	94.88
275.64	100.88
275.872	91.88
276.104	102.88
276.335	95.88
276.567	96.88
276.799	93.88
277.031	105.88
277.262	85.88
277.494	85.88
277.726	80.88
277.957	93.88
278.189	93.88
278.421	85.88
278.652	100.88
278.884	92.88
279.115	95.88
279.347	95.88
279.579	81.88
279.81	91.88
280.042	83.88
280.273	97.88
280.505	98.88
280.736	92.88
280.968	84.88
281.199	81.88
281.431	84.88
281.662	85.88
281.894	97.88
282.125	100.88
282.356	93.88
282.588	92.88
282.819	85.88
283.051	82.88
283.282	93.88
283.513	98.88
283.745	88.88
283.976	87.88
284.207	91.88
284.439	90.88
284.67	104.88
284.901	91.88
285.132	99.88
285.364	102.88
285.595	82.88
285.826	93.88
286.057	88.88
286.288	105.88
286.52	97.88
286.751	79.88
286.982	110.88
287.213	106.88
287.444	79.88
287.675	67.88
287.906	83.88
288.138	88.88
288.369	89.88
288.6	88.88
288.831	101.88
289.062	87.88
289.293	105.88
289.524	109.88
289.755	105.88
289.986	100.88
290.217	85.88
290.448	85.88
290.679	87.88
290.91	94.88
291.141	108.88
291.371	90.88
291.602	81.88
291.833	92.88
292.064	101.88
292.295	97.88
292.526	96.88
292.757	73.88
292.987	97.88
293.218	99.88
293.449	97.88
293.68	103.88
293.91	109.88
294.141	100.88
294.372	102.88
294.603	92.88
294.833	88.88
295.064	88.88
295.295	88.88
295.525	107.88
295.756	109.88
295.987	79.88
296.217	91.88
296.448	106.88
296.679	91.88
296.909	105.88
297.14	104.88
297.37	107.88
297.601	95.88
297.831	87.88
298.062	88.88
298.292	82.88
298.523	99.88
298.753	84.88
298.984	106.88
299.214	91.88
299.445	108.88
299.675	95.88
299.905	93.88
300.136	101.88
300.366	96.88
300.597	101.88
300.827	101.88
301.057	98.88
301.288	99.88
301.518	88.88
301.748	87.88
301.979	85.88
302.209	105.88
302.439	82.88
302.669	86.88
302.9	90.88
303.13	88.88
303.36	85.88
303.59	75.88
303.82	95.88
304.051	97.88
304.281	105.88
304.511	112.88
304.741	103.88
304.971	93.88
305.201	83.88
305.431	98.88
305.661	107.88
305.891	99.88
306.121	89.88
306.352	101.88
306.582	95.88
306.812	78.88
307.042	101.88
307.272	82.88
307.502	91.88
307.731	101.88
307.961	114.88
308.191	102.88
308.421	89.88
308.651	78.88
308.881	106.88
309.111	90.88
309.341	100.88
309.571	79.88
309.8	98.88
310.03	91.88
310.26	99.88
310.49	86.88
310.72	95.88
310.949	106.88
311.179	91.88
311.409	95.88
311.639	103.88
311.868	90.88
312.098	98.88
312.328	94.88
312.557	88.88
312.787	97.88
313.017	93.88
313.246	86.88
313.476	99.88
313.706	106.88
313.935	92.88
314.165	89.88
314.394	91.88
314.624	84.88
314.853	101.88
315.083	91.88
315.312	99.88
315.542	96.88
315.771	86.88
316.001	103.88
316.23	82.88
316.46	86.88
316.689	90.88
316.919	80.88
317.148	107.88
317.377	100.88
317.607	110.88
317.836	74.88
318.065	89.88
318.295	80.88
318.524	77.88
318.753	95.88
318.983	100.88
319.212	98.88
319.441	103.88
319.67	99.88
319.9	75.88
320.129	94.88
320.358	101.88
320.587	92.88
320.816	88.88
321.046	96.88
321.275	93.88
321.504	93.88
321.733	92.88
321.962	91.88
322.191	102.88
322.42	100.88
322.649	92.88
322.878	97.88
323.108	93.88
323.337	94.88
323.566	90.88
323.795	87.88
324.024	94.88
324.253	86.88
324.482	98.88
324.71	104.88
324.939	94.88
325.168	86.88
325.397	97.88
325.626	106.88
325.855	91.88
326.084	107.88
326.313	90.88
326.542	99.88
326.77	106.88
326.999	92.88
327.228	108.88
327.457	99.88
327.686	86.88
327.914	96.88
328.143	107.88
328.372	107.88
328.6	109.88
328.829	85.88
329.058	101.88
329.287	97.88
329.515	100.88
329.744	102.88
329.972	78.88
330.201	91.88
330.43	90.88
330.658	89.88
330.887	96.88
331.115	97.88
331.344	95.88
331.572	89.88
331.801	85.88
332.03	106.88
332.258	95.88
332.486	90.88
332.715	98.88
332.943	119.88
333.172	91.88
333.4	105.88
333.629	104.88
333.857	93.88
334.085	96.88
334.314	97.88
334.542	108.88
334.771	91.88
334.999	102.88
335.227	84.88
335.455	104.88
335.684	103.88
335.912	109.88
336.14	100.88
336.369	87.88
336.597	107.88
336.825	105.88
337.053	109.88
337.281	87.88
337.51	88.88
337.738	100.88
337.966	101.88
338.194	100.88
338.422	97.88
338.65	89.88
338.878	95.88
339.106	86.88
339.334	93.88
339.562	90.88
339.79	91.88
340.018	84.88
340.246	99.88
340.474	89.88
340.702	93.88
340.93	81.88
341.158	89.88
341.386	91.88
341.614	82.88
341.842	92.88
342.07	98.88
342.298	88.88
342.526	97.88
342.754	83.88
342.981	88.88
343.209	96.88
343.437	94.88
343.665	83.88
343.893	101.88
344.12	100.88
344.348	84.88
344.576	85.88
344.804	102.88
345.031	106.88
345.259	91.88
345.487	86.88
345.714	97.88
345.942	87.88
346.17	94.88
346.397	92.88
346.625	94.88
346.853	94.88
347.08	106.88
347.308	98.88
347.535	77.88
347.763	76.88
347.99	93.88
348.218	94.88
348.445	101.88
348.673	91.88
348.9	105.88
349.128	93.88
349.355	92.88
349.583	99.88
349.81	92.88
350.037	94.88
350.265	105.88
350.492	98.88
350.72	85.88
350.947	95.88
351.174	108.88
351.402	98.88
351.629	87.88
351.856	85.88
352.083	93.88
352.311	102.88
352.538	74.88
352.765	97.88
352.992	108.88
353.22	85.88
353.447	95.88
353.674	102.88
353.901	92.88
354.128	82.88
354.355	94.88
354.583	79.88
354.81	118.88
355.037	104.88
355.264	98.88
355.491	93.88
355.718	103.88
355.945	85.88
356.172	98.88
356.399	101.88
356.626	105.88
356.853	86.88
357.08	102.88
357.307	99.88
357.534	102.88
357.761	94.88
357.988	78.88
358.215	95.88
358.441	92.88
358.668	89.88
358.895	103.88
359.122	95.88
359.349	97.88
359.576	78.88
359.802	79.88
360.029	89.88
360.256	89.88
360.483	83.88
360.709	99.88
360.936	95.88
361.163	86.88
361.39	82.88
361.616	94.88
361.843	80.88
362.07	75.88
362.296	87.88
362.523	95.88
362.749	76.88
362.976	91.88
363.203	98.88
363.429	93.88
363.656	90.88
363.882	94.88
364.109	90.88
364.335	88.88
364.562	108.88
364.788	97.88
365.015	96.88
365.241	89.88
365.468	99.88
365.694	95.88
365.92	91.88
366.147	100.88
366.373	98.88
366.599	109.88
366.826	99.88
367.052	94.88
367.278	106.88
367.505	105.88
367.731	95.88
367.957	98.88
368.184	89.88
368.41	99.88
368.636	113.88
368.862	88.88
369.089	80.88
369.315	95.88
369.541	100.88
369.767	86.88
369.993	115.88
370.219	98.88
370.445	96.88
370.672	85.88
370.898	97.88
371.124	106.88
371.35	91.88
371.576	83.88
371.802	88.88
372.028	98.88
372.254	96.88
372.48	99.88
372.706	87.88
372.932	96.88
373.158	92.88
373.384	93.88
373.61	110.88
373.835	96.88
374.061	88.88
374.287	94.88
374.513	90.88
374.739	92.88
374.965	102.88
375.191	81.88
375.416	100.88
375.642	86.88
375.868	97.88
376.094	105.88
376.319	93.88
376.545	87.88
376.771	100.88
376.997	97.88
377.222	94.88
377.448	94.88
377.674	96.88
377.899	87.88
378.125	103.88
378.35	99.88
378.576	103.88
378.802	98.88
379.027	88.88
379.253	90.88
379.478	86.88
379.704	85.88
379.929	101.88
380.155	85.88
380.38	88.88
380.606	88.88
380.831	86.88
381.057	100.88
381.282	81.88
381.507	96.88
381.733	86.88
381.958	89.88
382.184	99.88
382.409	93.88
382.634	97.88
382.86	92.88
383.085	90.88
383.31	102.88
383.535	91.88
383.761	86.88
383.986	92.88
384.211	77.88
384.436	109.88
384.662	94.88
384.887	104.88
385.112	108.88
385.337	103.88
385.562	91.88
385.787	85.88
386.013	115.88
386.238	106.88
386.463	83.88
386.688	90.88
386.913	86.88
387.138	87.88
387.363	91.88
387.588	99.88
387.813	97.88
388.038	94.88
388.263	99.88
388.488	96.88
388.713	96.88
388.938	101.88
389.163	85.88
389.387	99.88
389.612	102.88
389.837	98.88
390.062	92.88
390.287	100.88
390.512	105.88
390.736	103.88
390.961	98.88
391.186	94.88
391.411	90.88
391.636	93.88
391.86	103.88
392.085	95.88
392.31	104.88
392.534	107.88
392.759	103.88
392.984	104.88
393.208	103.88
393.433	93.88
393.658	98.88
393.882	102.88
394.107	98.88
394.331	92.88
394.556	106.88
394.78	81.88
395.005	94.88
395.229	105.88
395.454	96.88
395.678	92.88
395.903	92.88
396.127	97.88
396.352	110.88
396.576	92.88
396.801	95.88
397.025	102.88
397.249	86.88
397.474	109.88
397.698	98.88
397.922	93.88
398.147	98.88
398.371	93.88
398.595	99.88
398.82	106.88
399.044	94.88
399.268	99.88
399.492	107.88
399.717	118.88
399.941	103.88
400.165	98.88
400.389	97.88
400.613	100.88
400.837	106.88
401.062	98.88
401.286	97.88
401.51	98.88
401.734	103.88
401.958	101.88
402.182	101.88
402.406	100.88
402.63	102.88
402.854	100.88
403.078	100.88
403.302	109.88
403.526	95.88
403.75	104.88
403.974	101.88
404.198	91.88
404.422	106.88
404.645	100.88
404.869	109.88
405.093	98.88
405.317	100.88
405.541	123.88
405.765	113.88
405.988	117.88
406.212	101.88
406.436	99.88
406.66	106.88
406.883	105.88
407.107	101.88
407.331	116.88
407.555	110.88
407.778	81.88
408.002	106.88
408.226	105.88
408.449	110.88
408.673	98.88
408.896	92.88
409.12	104.88
409.344	107.88
409.567	101.88
409.791	105.88
410.014	92.88
410.238	99.88
410.461	101.88
410.685	107.88
410.908	107.88
411.132	101.88
411.355	90.88
411.578	98.88
411.802	103.88
412.025	90.88
412.249	105.88
412.472	90.88
412.695	89.88
412.919	105.88
413.142	110.88
413.365	108.88
413.589	102.88
413.812	104.88
414.035	96.88
414.258	107.88
414.482	100.88
414.705	109.88
414.928	107.88
415.151	103.88
415.374	95.88
415.597	95.88
415.821	101.88
416.044	89.88
416.267	115.88
416.49	113.88
416.713	82.88
416.936	102.88
417.159	98.88
417.382	101.88
417.605	95.88
417.828	97.88
418.051	91.88
418.274	101.88
418.497	101.88
418.72	101.88
418.943	92.88
419.166	93.88
419.389	101.88
419.611	87.88
419.834	120.88
420.057	106.88
420.28	94.88
420.503	86.88
420.726	94.88
420.948	94.88
421.171	101.88
421.394	89.88
421.617	94.88
421.839	93.88
422.062	106.88
422.285	97.88
422.507	95.88
422.73	109.88
422.953	101.88
423.175	102.88
423.398	96.88
423.621	89.88
423.843	90.88
424.066	96.88
424.288	97.88
424.511	95.88
424.733	97.88
424.956	102.88
425.178	107.88
425.401	104.88
425.623	96.88
425.846	92.88
426.068	97.88
426.291	100.88
426.513	107.88
426.735	87.88
426.958	92.88
427.18	91.88
427.402	90.88
427.625	97.88
427.847	82.88
428.069	107.88
428.292	102.88
428.514	99.88
428.736	97.88
428.958	105.88
429.181	108.88
429.403	98.88
429.625	102.88
429.847	100.88
430.069	97.88
430.292	89.88
430.514	94.88
430.736	98.88
430.958	93.88
431.18	91.88
431.402	102.88
431.624	104.88
431.846	92.88
432.068	93.88
432.29	101.88
432.512	96.88
432.734	97.88
432.956	89.88
433.178	93.88
433.4	92.88
433.622	110.88
433.844	103.88
434.066	94.88
434.287	97.88
434.509	99.88
434.731	100.88
434.953	99.88
435.175	110.88
435.397	97.88
435.618	107.88
435.84	111.88
436.062	103.88
436.284	102.88
436.505	93.88
436.727	93.88
436.949	97.88
437.17	96.88
437.392	99.88
437.614	100.88
437.835	86.88
438.057	76.88
438.278	95.88
438.5	93.88
438.721	92.88
438.943	90.88
439.165	93.88
439.386	91.88
439.608	92.88
439.829	92.88
440.05	98.88
440.272	107.88
440.493	100.88
440.715	89.88
440.936	109.88
441.158	97.88
441.379	92.88
441.6	97.88
441.822	95.88
442.043	97.88
442.264	105.88
442.486	105.88
442.707	108.88
442.928	97.88
443.149	69.88
443.371	92.88
443.592	109.88
443.813	96.88
444.034	85.88
444.255	97.88
444.476	108.88
444.698	86.88
444.919	108.88
445.14	171.88
445.361	136.88
445.582	106.88
445.803	100.88
446.024	95.88
446.245	100.88
446.466	95.88
446.687	104.88
446.908	111.88
447.129	84.88
447.35	95.88
447.571	95.88
447.792	95.88
448.013	93.88
448.234	104.88
448.455	86.88
448.675	85.88
448.896	85.88
449.117	109.88
449.338	92.88
449.559	105.88
449.779	81.88
450	91.88
450.221	94.88
450.442	103.88
450.662	89.88
450.883	88.88
451.104	98.88
451.324	106.88
451.545	88.88
451.766	87.88
451.986	90.88
452.207	92.88
452.428	100.88
452.648	85.88
452.869	87.88
453.089	112.88
453.31	100.88
453.53	85.88
453.751	86.88
453.971	105.88
454.192	99.88
454.412	99.88
454.633	98.88
454.853	95.88
455.073	88.88
455.294	107.88
455.514	108.88
455.734	84.88
455.955	96.88
456.175	91.88
456.395	91.88
456.616	97.88
456.836	104.88
457.056	93.88
457.276	96.88
457.497	82.88
457.717	92.88
457.937	108.88
458.157	85.88
458.377	95.88
458.598	87.88
458.818	98.88
459.038	85.88
459.258	94.88
459.478	104.88
459.698	105.88
459.918	97.88
460.138	105.88
460.358	98.88
460.578	97.88
460.798	113.88
461.018	104.88
461.238	91.88
461.458	102.88
461.678	98.88
461.898	92.88
462.118	106.88
462.338	99.88
462.558	92.88
462.777	104.88
462.997	100.88
463.217	101.88
463.437	113.88
463.657	91.88
463.876	93.88
464.096	99.88
464.316	108.88
464.536	102.88
464.755	114.88
464.975	94.88
465.195	97.88
465.414	99.88
465.634	102.88
465.854	99.88
466.073	103.88
466.293	104.88
466.512	86.88
466.732	105.88
466.951	96.88
467.171	123.88
467.391	98.88
467.61	91.88
467.829	80.88
468.049	100.88
468.268	100.88
468.488	103.88
468.707	92.88
468.927	109.88
469.146	87.88
469.365	106.88
469.585	97.88
469.804	108.88
470.023	98.88
470.243	99.88
470.462	97.88
470.681	89.88
470.901	98.88
471.12	108.88
471.339	94.88
471.558	111.88
471.777	85.88
471.997	89.88
472.216	95.88
472.435	99.88
472.654	99.88
472.873	92.88
473.092	97.88
473.311	90.88
473.53	115.88
473.749	81.88
473.968	107.88
474.187	102.88
474.406	89.88
474.625	101.88
474.844	102.88
475.063	103.88
475.282	99.88
475.501	98.88
475.72	116.88
475.939	106.88
476.158	113.88
476.377	98.88
476.596	94.88
476.814	110.88
477.033	96.88
477.252	102.88
477.471	98.88
477.69	114.88
477.908	119.88
478.127	113.88
478.346	117.88
478.564	109.88
478.783	94.88
479.002	105.88
479.22	107.88
479.439	110.88
479.658	100.88
479.876	103.88
480.095	102.88
480.313	93.88
480.532	91.88
480.751	88.88
480.969	125.88
481.188	113.88
481.406	97.88
481.624	117.88
481.843	89.88
482.061	107.88
482.28	106.88
482.498	93.88
482.717	110.88
482.935	97.88
483.153	110.88
483.372	116.88
483.59	101.88
483.808	104.88
484.027	107.88
484.245	105.88
484.463	100.88
484.681	98.88
484.9	103.88
485.118	94.88
485.336	108.88
485.554	100.88
485.772	109.88
485.99	115.88
486.209	101.88
486.427	103.88
486.645	102.88
486.863	91.88
487.081	100.88
487.299	84.88
487.517	123.88
487.735	119.88
487.953	119.88
488.171	110.88
488.389	125.88
488.607	117.88
488.825	90.88
489.043	125.88
489.261	113.88
489.479	117.88
489.696	123.88
489.914	106.88
490.132	105.88
490.35	117.88
490.568	118.88
490.786	104.88
491.003	121.88
491.221	137.88
491.439	102.88
491.657	105.88
491.874	127.88
492.092	114.88
492.31	114.88
492.527	108.88
492.745	104.88
492.963	107.88
493.18	107.88
493.398	120.88
493.615	102.88
493.833	94.88
494.05	117.88
494.268	123.88
494.485	116.88
494.703	114.88
494.92	108.88
495.138	111.88
495.355	107.88
495.573	113.88
495.79	127.88
496.008	121.88
496.225	108.88
496.442	110.88
496.66	122.88
496.877	109.88
497.094	125.88
497.312	102.88
497.529	113.88
497.746	118.88
497.963	116.88
498.181	123.88
498.398	114.88
498.615	115.88
498.832	125.88
499.049	118.88
499.267	138.88
499.484	124.88
499.701	144.88
499.918	147.88
500.135	150.88
500.352	165.88
500.569	167.88
500.786	160.88
501.003	135.88
501.22	149.88
501.437	149.88
501.654	136.88
501.871	134.88
502.088	133.88
502.305	125.88
502.522	123.88
502.739	109.88
502.956	125.88
503.172	119.88
503.389	116.88
503.606	113.88
503.823	130.88
504.04	111.88
504.256	117.88
504.473	115.88
504.69	110.88
504.907	107.88
505.123	111.88
505.34	105.88
505.557	95.88
505.773	113.88
505.99	108.88
506.207	110.88
506.423	105.88
506.64	109.88
506.856	115.88
507.073	103.88
507.289	109.88
507.506	106.88
507.722	105.88
507.939	117.88
508.155	115.88
508.372	115.88
508.588	94.88
508.805	101.88
509.021	119.88
509.238	101.88
509.454	115.88
509.67	117.88
509.887	89.88
510.103	104.88
510.319	113.88
510.536	115.88
510.752	103.88
510.968	113.88
511.184	101.88
511.401	101.88
511.617	110.88
511.833	108.88
512.049	116.88
512.265	103.88
512.481	93.88
512.698	91.88
512.914	91.88
