Data from Location5.07152019.Energy5.Lamp.07192019.3%Agarose_HRD10591_16-05-06-629.txt Node
Date: Fri Jul 19 16:05:06 EDT 2019
User: cochatt
Spectrometer: HR+D1059
Trigger mode: 1
Integration Time (sec): 1.000000E-1
Scans to average: 1
Electric dark correction enabled: true
Nonlinearity correction enabled: false
Boxcar width: 0
XAxis mode: Wavelengths
Number of Pixels in Spectrum: 2048
>>>>>Begin Spectral Data<<<<<
223.165	-23.38
223.4	-23.38
223.635	-23.38
223.869	-16.38
224.104	-13.38
224.338	-20.38
224.573	-5.38
224.808	-18.38
225.042	7.62
225.277	-9.38
225.511	-14.38
225.746	13.62
225.98	5.62
226.215	0.62
226.449	23.62
226.683	-0.38
226.918	17.62
227.152	52.62
227.387	28.62
227.621	48.62
227.856	46.62
228.09	44.62
228.324	34.62
228.559	52.62
228.793	49.62
229.027	48.62
229.262	66.62
229.496	62.62
229.73	62.62
229.964	70.62
230.199	71.62
230.433	70.62
230.667	76.62
230.901	80.62
231.136	72.62
231.37	72.62
231.604	72.62
231.838	90.62
232.072	76.62
232.306	86.62
232.541	91.62
232.775	56.62
233.009	68.62
233.243	76.62
233.477	92.62
233.711	90.62
233.945	92.62
234.179	75.62
234.413	75.62
234.647	72.62
234.881	75.62
235.115	73.62
235.349	87.62
235.583	68.62
235.817	75.62
236.051	77.62
236.285	64.62
236.519	80.62
236.753	81.62
236.987	86.62
237.221	87.62
237.455	82.62
237.689	75.62
237.922	83.62
238.156	63.62
238.39	68.62
238.624	80.62
238.858	63.62
239.091	78.62
239.325	73.62
239.559	82.62
239.793	61.62
240.027	65.62
240.26	81.62
240.494	92.62
240.728	82.62
240.961	71.62
241.195	90.62
241.429	73.62
241.662	87.62
241.896	84.62
242.13	78.62
242.363	72.62
242.597	71.62
242.83	83.62
243.064	80.62
243.298	69.62
243.531	62.62
243.765	56.62
243.998	72.62
244.232	76.62
244.465	82.62
244.699	78.62
244.932	76.62
245.166	91.62
245.399	74.62
245.633	72.62
245.866	80.62
246.099	78.62
246.333	75.62
246.566	74.62
246.8	80.62
247.033	79.62
247.266	72.62
247.5	78.62
247.733	78.62
247.966	85.62
248.2	79.62
248.433	74.62
248.666	80.62
248.899	71.62
249.133	80.62
249.366	91.62
249.599	81.62
249.832	72.62
250.066	78.62
250.299	82.62
250.532	78.62
250.765	63.62
250.998	71.62
251.231	76.62
251.465	74.62
251.698	78.62
251.931	81.62
252.164	83.62
252.397	85.62
252.63	79.62
252.863	75.62
253.096	74.62
253.329	84.62
253.562	77.62
253.795	74.62
254.028	71.62
254.261	71.62
254.494	82.62
254.727	79.62
254.96	70.62
255.193	75.62
255.426	82.62
255.659	72.62
255.892	80.62
256.124	83.62
256.357	87.62
256.59	81.62
256.823	79.62
257.056	81.62
257.289	84.62
257.521	82.62
257.754	76.62
257.987	83.62
258.22	79.62
258.452	83.62
258.685	81.62
258.918	89.62
259.151	86.62
259.383	64.62
259.616	83.62
259.849	85.62
260.081	96.62
260.314	82.62
260.547	76.62
260.779	90.62
261.012	82.62
261.244	71.62
261.477	97.62
261.71	74.62
261.942	75.62
262.175	66.62
262.407	82.62
262.64	92.62
262.872	77.62
263.105	71.62
263.337	82.62
263.57	85.62
263.802	76.62
264.035	72.62
264.267	78.62
264.499	84.62
264.732	76.62
264.964	88.62
265.197	100.62
265.429	83.62
265.661	83.62
265.894	77.62
266.126	79.62
266.358	78.62
266.591	83.62
266.823	69.62
267.055	84.62
267.287	85.62
267.52	79.62
267.752	70.62
267.984	89.62
268.216	90.62
268.448	79.62
268.681	90.62
268.913	87.62
269.145	77.62
269.377	78.62
269.609	67.62
269.841	74.62
270.073	83.62
270.306	79.62
270.538	83.62
270.77	81.62
271.002	77.62
271.234	91.62
271.466	81.62
271.698	74.62
271.93	86.62
272.162	86.62
272.394	97.62
272.626	83.62
272.858	81.62
273.09	67.62
273.322	86.62
273.553	90.62
273.785	72.62
274.017	82.62
274.249	92.62
274.481	78.62
274.713	79.62
274.945	80.62
275.176	92.62
275.408	91.62
275.64	77.62
275.872	80.62
276.104	88.62
276.335	84.62
276.567	93.62
276.799	87.62
277.031	79.62
277.262	78.62
277.494	87.62
277.726	77.62
277.957	94.62
278.189	80.62
278.421	73.62
278.652	79.62
278.884	86.62
279.115	96.62
279.347	86.62
279.579	88.62
279.81	81.62
280.042	76.62
280.273	95.62
280.505	79.62
280.736	81.62
280.968	86.62
281.199	90.62
281.431	90.62
281.662	73.62
281.894	87.62
282.125	96.62
282.356	95.62
282.588	96.62
282.819	85.62
283.051	85.62
283.282	83.62
283.513	101.62
283.745	72.62
283.976	82.62
284.207	89.62
284.439	71.62
284.67	84.62
284.901	80.62
285.132	95.62
285.364	82.62
285.595	88.62
285.826	88.62
286.057	72.62
286.288	79.62
286.52	91.62
286.751	71.62
286.982	85.62
287.213	80.62
287.444	74.62
287.675	69.62
287.906	90.62
288.138	91.62
288.369	86.62
288.6	97.62
288.831	87.62
289.062	76.62
289.293	87.62
289.524	92.62
289.755	84.62
289.986	90.62
290.217	92.62
290.448	92.62
290.679	82.62
290.91	95.62
291.141	83.62
291.371	81.62
291.602	84.62
291.833	86.62
292.064	89.62
292.295	88.62
292.526	94.62
292.757	85.62
292.987	71.62
293.218	102.62
293.449	83.62
293.68	85.62
293.91	88.62
294.141	98.62
294.372	88.62
294.603	92.62
294.833	86.62
295.064	95.62
295.295	81.62
295.525	92.62
295.756	98.62
295.987	91.62
296.217	80.62
296.448	94.62
296.679	82.62
296.909	90.62
297.14	84.62
297.37	80.62
297.601	90.62
297.831	88.62
298.062	83.62
298.292	89.62
298.523	81.62
298.753	71.62
298.984	89.62
299.214	94.62
299.445	93.62
299.675	83.62
299.905	80.62
300.136	92.62
300.366	76.62
300.597	79.62
300.827	82.62
301.057	83.62
301.288	86.62
301.518	86.62
301.748	85.62
301.979	87.62
302.209	88.62
302.439	88.62
302.669	82.62
302.9	87.62
303.13	93.62
303.36	91.62
303.59	99.62
303.82	98.62
304.051	83.62
304.281	98.62
304.511	92.62
304.741	101.62
304.971	78.62
305.201	90.62
305.431	98.62
305.661	78.62
305.891	84.62
306.121	105.62
306.352	94.62
306.582	93.62
306.812	90.62
307.042	89.62
307.272	89.62
307.502	75.62
307.731	81.62
307.961	95.62
308.191	100.62
308.421	93.62
308.651	83.62
308.881	93.62
309.111	80.62
309.341	86.62
309.571	92.62
309.8	93.62
310.03	89.62
310.26	75.62
310.49	77.62
310.72	80.62
310.949	97.62
311.179	83.62
311.409	89.62
311.639	82.62
311.868	86.62
312.098	88.62
312.328	82.62
312.557	79.62
312.787	104.62
313.017	81.62
313.246	85.62
313.476	92.62
313.706	91.62
313.935	88.62
314.165	97.62
314.394	98.62
314.624	86.62
314.853	81.62
315.083	72.62
315.312	94.62
315.542	85.62
315.771	94.62
316.001	87.62
316.23	106.62
316.46	82.62
316.689	76.62
316.919	88.62
317.148	94.62
317.377	98.62
317.607	83.62
317.836	81.62
318.065	87.62
318.295	92.62
318.524	96.62
318.753	78.62
318.983	89.62
319.212	110.62
319.441	76.62
319.67	98.62
319.9	103.62
320.129	100.62
320.358	97.62
320.587	73.62
320.816	91.62
321.046	85.62
321.275	101.62
321.504	92.62
321.733	92.62
321.962	86.62
322.191	80.62
322.42	95.62
322.649	98.62
322.878	91.62
323.108	87.62
323.337	79.62
323.566	100.62
323.795	93.62
324.024	93.62
324.253	82.62
324.482	89.62
324.71	86.62
324.939	81.62
325.168	85.62
325.397	86.62
325.626	92.62
325.855	82.62
326.084	92.62
326.313	96.62
326.542	87.62
326.77	92.62
326.999	96.62
327.228	89.62
327.457	88.62
327.686	98.62
327.914	84.62
328.143	76.62
328.372	96.62
328.6	93.62
328.829	76.62
329.058	94.62
329.287	79.62
329.515	95.62
329.744	92.62
329.972	96.62
330.201	81.62
330.43	96.62
330.658	78.62
330.887	102.62
331.115	90.62
331.344	86.62
331.572	90.62
331.801	92.62
332.03	87.62
332.258	103.62
332.486	75.62
332.715	78.62
332.943	94.62
333.172	90.62
333.4	91.62
333.629	98.62
333.857	91.62
334.085	86.62
334.314	78.62
334.542	92.62
334.771	102.62
334.999	95.62
335.227	92.62
335.455	86.62
335.684	83.62
335.912	103.62
336.14	97.62
336.369	102.62
336.597	81.62
336.825	88.62
337.053	79.62
337.281	83.62
337.51	96.62
337.738	83.62
337.966	91.62
338.194	81.62
338.422	99.62
338.65	85.62
338.878	92.62
339.106	72.62
339.334	86.62
339.562	96.62
339.79	94.62
340.018	96.62
340.246	87.62
340.474	73.62
340.702	102.62
340.93	85.62
341.158	85.62
341.386	82.62
341.614	95.62
341.842	84.62
342.07	91.62
342.298	90.62
342.526	92.62
342.754	91.62
342.981	76.62
343.209	82.62
343.437	85.62
343.665	94.62
343.893	107.62
344.12	97.62
344.348	78.62
344.576	91.62
344.804	106.62
345.031	96.62
345.259	81.62
345.487	85.62
345.714	83.62
345.942	87.62
346.17	84.62
346.397	82.62
346.625	106.62
346.853	90.62
347.08	89.62
347.308	81.62
347.535	90.62
347.763	91.62
347.99	98.62
348.218	72.62
348.445	97.62
348.673	87.62
348.9	90.62
349.128	96.62
349.355	80.62
349.583	87.62
349.81	101.62
350.037	83.62
350.265	81.62
350.492	87.62
350.72	84.62
350.947	88.62
351.174	82.62
351.402	86.62
351.629	81.62
351.856	79.62
352.083	86.62
352.311	95.62
352.538	83.62
352.765	88.62
352.992	80.62
353.22	93.62
353.447	90.62
353.674	86.62
353.901	84.62
354.128	87.62
354.355	100.62
354.583	89.62
354.81	68.62
355.037	94.62
355.264	82.62
355.491	83.62
355.718	92.62
355.945	99.62
356.172	85.62
356.399	88.62
356.626	76.62
356.853	70.62
357.08	93.62
357.307	82.62
357.534	93.62
357.761	80.62
357.988	92.62
358.215	91.62
358.441	69.62
358.668	86.62
358.895	94.62
359.122	99.62
359.349	78.62
359.576	86.62
359.802	93.62
360.029	93.62
360.256	88.62
360.483	78.62
360.709	87.62
360.936	106.62
361.163	95.62
361.39	85.62
361.616	98.62
361.843	87.62
362.07	89.62
362.296	93.62
362.523	78.62
362.749	86.62
362.976	92.62
363.203	97.62
363.429	83.62
363.656	86.62
363.882	75.62
364.109	91.62
364.335	82.62
364.562	100.62
364.788	97.62
365.015	72.62
365.241	80.62
365.468	100.62
365.694	86.62
365.92	99.62
366.147	92.62
366.373	83.62
366.599	91.62
366.826	85.62
367.052	87.62
367.278	94.62
367.505	97.62
367.731	73.62
367.957	96.62
368.184	103.62
368.41	86.62
368.636	79.62
368.862	88.62
369.089	79.62
369.315	91.62
369.541	82.62
369.767	93.62
369.993	93.62
370.219	92.62
370.445	103.62
370.672	102.62
370.898	84.62
371.124	83.62
371.35	86.62
371.576	84.62
371.802	77.62
372.028	95.62
372.254	89.62
372.48	75.62
372.706	85.62
372.932	79.62
373.158	85.62
373.384	101.62
373.61	86.62
373.835	91.62
374.061	83.62
374.287	93.62
374.513	78.62
374.739	87.62
374.965	90.62
375.191	90.62
375.416	97.62
375.642	87.62
375.868	84.62
376.094	80.62
376.319	88.62
376.545	100.62
376.771	83.62
376.997	83.62
377.222	80.62
377.448	88.62
377.674	97.62
377.899	99.62
378.125	90.62
378.35	101.62
378.576	70.62
378.802	81.62
379.027	95.62
379.253	82.62
379.478	79.62
379.704	87.62
379.929	97.62
380.155	90.62
380.38	87.62
380.606	100.62
380.831	90.62
381.057	87.62
381.282	85.62
381.507	91.62
381.733	88.62
381.958	94.62
382.184	84.62
382.409	86.62
382.634	95.62
382.86	90.62
383.085	100.62
383.31	82.62
383.535	93.62
383.761	98.62
383.986	89.62
384.211	81.62
384.436	95.62
384.662	84.62
384.887	101.62
385.112	93.62
385.337	95.62
385.562	88.62
385.787	81.62
386.013	105.62
386.238	95.62
386.463	93.62
386.688	80.62
386.913	91.62
387.138	76.62
387.363	89.62
387.588	76.62
387.813	84.62
388.038	94.62
388.263	84.62
388.488	86.62
388.713	84.62
388.938	102.62
389.163	104.62
389.387	93.62
389.612	94.62
389.837	85.62
390.062	79.62
390.287	84.62
390.512	95.62
390.736	82.62
390.961	79.62
391.186	88.62
391.411	85.62
391.636	89.62
391.86	90.62
392.085	89.62
392.31	98.62
392.534	95.62
392.759	92.62
392.984	96.62
393.208	83.62
393.433	83.62
393.658	89.62
393.882	105.62
394.107	108.62
394.331	82.62
394.556	94.62
394.78	79.62
395.005	97.62
395.229	98.62
395.454	82.62
395.678	99.62
395.903	91.62
396.127	90.62
396.352	97.62
396.576	85.62
396.801	87.62
397.025	96.62
397.249	97.62
397.474	100.62
397.698	93.62
397.922	92.62
398.147	100.62
398.371	95.62
398.595	98.62
398.82	99.62
399.044	99.62
399.268	98.62
399.492	82.62
399.717	97.62
399.941	107.62
400.165	93.62
400.389	106.62
400.613	89.62
400.837	88.62
401.062	87.62
401.286	104.62
401.51	91.62
401.734	106.62
401.958	93.62
402.182	93.62
402.406	92.62
402.63	90.62
402.854	85.62
403.078	107.62
403.302	95.62
403.526	96.62
403.75	100.62
403.974	98.62
404.198	91.62
404.422	86.62
404.645	94.62
404.869	91.62
405.093	98.62
405.317	94.62
405.541	97.62
405.765	92.62
405.988	97.62
406.212	93.62
406.436	94.62
406.66	104.62
406.883	99.62
407.107	92.62
407.331	100.62
407.555	120.62
407.778	106.62
408.002	83.62
408.226	98.62
408.449	95.62
408.673	85.62
408.896	86.62
409.12	98.62
409.344	98.62
409.567	89.62
409.791	89.62
410.014	98.62
410.238	87.62
410.461	95.62
410.685	90.62
410.908	89.62
411.132	103.62
411.355	95.62
411.578	95.62
411.802	84.62
412.025	84.62
412.249	107.62
412.472	93.62
412.695	100.62
412.919	80.62
413.142	86.62
413.365	97.62
413.589	88.62
413.812	86.62
414.035	83.62
414.258	101.62
414.482	92.62
414.705	109.62
414.928	90.62
415.151	97.62
415.374	82.62
415.597	90.62
415.821	90.62
416.044	101.62
416.267	82.62
416.49	98.62
416.713	92.62
416.936	91.62
417.159	90.62
417.382	91.62
417.605	98.62
417.828	87.62
418.051	92.62
418.274	101.62
418.497	83.62
418.72	94.62
418.943	77.62
419.166	90.62
419.389	79.62
419.611	93.62
419.834	97.62
420.057	96.62
420.28	87.62
420.503	91.62
420.726	97.62
420.948	95.62
421.171	91.62
421.394	86.62
421.617	91.62
421.839	98.62
422.062	87.62
422.285	80.62
422.507	91.62
422.73	100.62
422.953	96.62
423.175	104.62
423.398	84.62
423.621	95.62
423.843	91.62
424.066	102.62
424.288	98.62
424.511	99.62
424.733	99.62
424.956	95.62
425.178	80.62
425.401	82.62
425.623	92.62
425.846	98.62
426.068	98.62
426.291	96.62
426.513	82.62
426.735	91.62
426.958	91.62
427.18	83.62
427.402	88.62
427.625	88.62
427.847	91.62
428.069	83.62
428.292	84.62
428.514	83.62
428.736	90.62
428.958	99.62
429.181	96.62
429.403	89.62
429.625	68.62
429.847	95.62
430.069	86.62
430.292	87.62
430.514	78.62
430.736	81.62
430.958	98.62
431.18	77.62
431.402	84.62
431.624	90.62
431.846	89.62
432.068	79.62
432.29	87.62
432.512	95.62
432.734	93.62
432.956	94.62
433.178	86.62
433.4	86.62
433.622	107.62
433.844	86.62
434.066	104.62
434.287	104.62
434.509	87.62
434.731	91.62
434.953	97.62
435.175	86.62
435.397	90.62
435.618	87.62
435.84	85.62
436.062	96.62
436.284	94.62
436.505	92.62
436.727	71.62
436.949	93.62
437.17	75.62
437.392	86.62
437.614	85.62
437.835	72.62
438.057	78.62
438.278	78.62
438.5	87.62
438.721	84.62
438.943	84.62
439.165	84.62
439.386	89.62
439.608	86.62
439.829	78.62
440.05	93.62
440.272	105.62
440.493	90.62
440.715	86.62
440.936	84.62
441.158	105.62
441.379	95.62
441.6	95.62
441.822	88.62
442.043	96.62
442.264	95.62
442.486	90.62
442.707	90.62
442.928	89.62
443.149	87.62
443.371	91.62
443.592	99.62
443.813	83.62
444.034	88.62
444.255	98.62
444.476	92.62
444.698	95.62
444.919	90.62
445.14	216.62
445.361	135.62
445.582	96.62
445.803	83.62
446.024	78.62
446.245	89.62
446.466	95.62
446.687	82.62
446.908	103.62
447.129	99.62
447.35	75.62
447.571	103.62
447.792	94.62
448.013	90.62
448.234	91.62
448.455	87.62
448.675	93.62
448.896	81.62
449.117	79.62
449.338	96.62
449.559	85.62
449.779	73.62
450	102.62
450.221	98.62
450.442	97.62
450.662	98.62
450.883	84.62
451.104	98.62
451.324	96.62
451.545	88.62
451.766	91.62
451.986	90.62
452.207	94.62
452.428	87.62
452.648	85.62
452.869	91.62
453.089	91.62
453.31	96.62
453.53	88.62
453.751	77.62
453.971	95.62
454.192	85.62
454.412	84.62
454.633	72.62
454.853	86.62
455.073	87.62
455.294	96.62
455.514	85.62
455.734	86.62
455.955	77.62
456.175	98.62
456.395	89.62
456.616	95.62
456.836	88.62
457.056	92.62
457.276	85.62
457.497	75.62
457.717	101.62
457.937	85.62
458.157	81.62
458.377	83.62
458.598	85.62
458.818	68.62
459.038	93.62
459.258	97.62
459.478	96.62
459.698	96.62
459.918	76.62
460.138	89.62
460.358	94.62
460.578	93.62
460.798	107.62
461.018	98.62
461.238	92.62
461.458	85.62
461.678	94.62
461.898	97.62
462.118	82.62
462.338	100.62
462.558	97.62
462.777	109.62
462.997	86.62
463.217	95.62
463.437	105.62
463.657	94.62
463.876	96.62
464.096	113.62
464.316	86.62
464.536	83.62
464.755	100.62
464.975	85.62
465.195	92.62
465.414	90.62
465.634	91.62
465.854	92.62
466.073	94.62
466.293	97.62
466.512	96.62
466.732	79.62
466.951	92.62
467.171	99.62
467.391	92.62
467.61	91.62
467.829	87.62
468.049	80.62
468.268	87.62
468.488	83.62
468.707	87.62
468.927	85.62
469.146	92.62
469.365	97.62
469.585	100.62
469.804	95.62
470.023	89.62
470.243	90.62
470.462	92.62
470.681	107.62
470.901	107.62
471.12	91.62
471.339	92.62
471.558	99.62
471.777	104.62
471.997	88.62
472.216	98.62
472.435	91.62
472.654	88.62
472.873	91.62
473.092	86.62
473.311	82.62
473.53	88.62
473.749	91.62
473.968	96.62
474.187	92.62
474.406	83.62
474.625	101.62
474.844	85.62
475.063	91.62
475.282	75.62
475.501	81.62
475.72	98.62
475.939	107.62
476.158	81.62
476.377	99.62
476.596	81.62
476.814	83.62
477.033	84.62
477.252	86.62
477.471	91.62
477.69	97.62
477.908	95.62
478.127	106.62
478.346	108.62
478.564	85.62
478.783	87.62
479.002	101.62
479.22	101.62
479.439	107.62
479.658	100.62
479.876	107.62
480.095	86.62
480.313	100.62
480.532	108.62
480.751	94.62
480.969	98.62
481.188	99.62
481.406	87.62
481.624	85.62
481.843	77.62
482.061	95.62
482.28	113.62
482.498	93.62
482.717	100.62
482.935	95.62
483.153	99.62
483.372	81.62
483.59	91.62
483.808	108.62
484.027	100.62
484.245	91.62
484.463	94.62
484.681	110.62
484.9	91.62
485.118	86.62
485.336	99.62
485.554	87.62
485.772	93.62
485.99	95.62
486.209	110.62
486.427	98.62
486.645	98.62
486.863	100.62
487.081	104.62
487.299	95.62
487.517	100.62
487.735	94.62
487.953	102.62
488.171	108.62
488.389	109.62
488.607	104.62
488.825	93.62
489.043	79.62
489.261	86.62
489.479	89.62
489.696	96.62
489.914	96.62
490.132	99.62
490.35	103.62
490.568	107.62
490.786	100.62
491.003	102.62
491.221	110.62
491.439	84.62
491.657	104.62
491.874	115.62
492.092	109.62
492.31	115.62
492.527	117.62
492.745	115.62
492.963	104.62
493.18	105.62
493.398	111.62
493.615	117.62
493.833	99.62
494.05	104.62
494.268	95.62
494.485	109.62
494.703	109.62
494.92	117.62
495.138	117.62
495.355	104.62
495.573	108.62
495.79	108.62
496.008	106.62
496.225	116.62
496.442	104.62
496.66	94.62
496.877	106.62
497.094	106.62
497.312	101.62
497.529	110.62
497.746	91.62
497.963	104.62
498.181	107.62
498.398	102.62
498.615	96.62
498.832	107.62
499.049	124.62
499.267	116.62
499.484	123.62
499.701	135.62
499.918	127.62
500.135	117.62
500.352	158.62
500.569	156.62
500.786	157.62
501.003	150.62
501.22	137.62
501.437	121.62
501.654	109.62
501.871	112.62
502.088	109.62
502.305	133.62
502.522	112.62
502.739	109.62
502.956	114.62
503.172	111.62
503.389	108.62
503.606	110.62
503.823	106.62
504.04	111.62
504.256	113.62
504.473	112.62
504.69	112.62
504.907	108.62
505.123	94.62
505.34	110.62
505.557	98.62
505.773	94.62
505.99	92.62
506.207	104.62
506.423	85.62
506.64	100.62
506.856	95.62
507.073	97.62
507.289	115.62
507.506	90.62
507.722	98.62
507.939	95.62
508.155	99.62
508.372	108.62
508.588	93.62
508.805	90.62
509.021	94.62
509.238	92.62
509.454	95.62
509.67	100.62
509.887	111.62
510.103	92.62
510.319	110.62
510.536	93.62
510.752	90.62
510.968	83.62
511.184	96.62
511.401	95.62
511.617	97.62
511.833	96.62
512.049	97.62
512.265	84.62
512.481	68.62
512.698	101.62
512.914	91.62
513.13	102.62
513.346	89.62
513.562	107.62
513.778	96.62
513.994	101.62
514.21	112.62
514.426	92.62
514.642	106.62
514.858	92.62
515.074	86.62
515.29	84.62
515.506	85.62
515.721	110.62
515.937	103.62
516.153	92.62
516.369	101.62
516.585	97.62
516.801	111.62
