Data from Location5.07152019.Energy5.Lamp.07192019.3%Agarose_HRD10591_16-05-42-629.txt Node
Date: Fri Jul 19 16:05:42 EDT 2019
User: cochatt
Spectrometer: HR+D1059
Trigger mode: 1
Integration Time (sec): 1.000000E-1
Scans to average: 1
Electric dark correction enabled: true
Nonlinearity correction enabled: false
Boxcar width: 0
XAxis mode: Wavelengths
Number of Pixels in Spectrum: 2048
>>>>>Begin Spectral Data<<<<<
223.165	-22.44
223.4	-22.44
223.635	-22.44
223.869	-11.44
224.104	-23.44
224.338	0.56
224.573	-23.44
224.808	-3.44
225.042	-7.44
225.277	-17.44
225.511	-3.44
225.746	-6.44
225.98	-9.44
226.215	30.56
226.449	30.56
226.683	16.56
226.918	16.56
227.152	33.56
227.387	33.56
227.621	33.56
227.856	36.56
228.09	56.56
228.324	62.56
228.559	52.56
228.793	42.56
229.027	49.56
229.262	73.56
229.496	56.56
229.73	57.56
229.964	54.56
230.199	70.56
230.433	68.56
230.667	74.56
230.901	90.56
231.136	86.56
231.37	71.56
231.604	83.56
231.838	78.56
232.072	73.56
232.306	76.56
232.541	71.56
232.775	92.56
233.009	97.56
233.243	79.56
233.477	86.56
233.711	94.56
233.945	92.56
234.179	81.56
234.413	78.56
234.647	65.56
234.881	82.56
235.115	74.56
235.349	77.56
235.583	75.56
235.817	83.56
236.051	86.56
236.285	68.56
236.519	82.56
236.753	86.56
236.987	74.56
237.221	57.56
237.455	69.56
237.689	74.56
237.922	62.56
238.156	74.56
238.39	57.56
238.624	70.56
238.858	66.56
239.091	81.56
239.325	80.56
239.559	82.56
239.793	73.56
240.027	80.56
240.26	81.56
240.494	84.56
240.728	78.56
240.961	80.56
241.195	83.56
241.429	86.56
241.662	83.56
241.896	52.56
242.13	81.56
242.363	63.56
242.597	57.56
242.83	67.56
243.064	72.56
243.298	90.56
243.531	75.56
243.765	85.56
243.998	64.56
244.232	64.56
244.465	78.56
244.699	70.56
244.932	88.56
245.166	65.56
245.399	76.56
245.633	68.56
245.866	72.56
246.099	77.56
246.333	91.56
246.566	74.56
246.8	73.56
247.033	75.56
247.266	82.56
247.5	82.56
247.733	69.56
247.966	72.56
248.2	69.56
248.433	89.56
248.666	87.56
248.899	83.56
249.133	81.56
249.366	74.56
249.599	71.56
249.832	81.56
250.066	90.56
250.299	80.56
250.532	58.56
250.765	61.56
250.998	85.56
251.231	73.56
251.465	71.56
251.698	79.56
251.931	73.56
252.164	89.56
252.397	71.56
252.63	81.56
252.863	84.56
253.096	73.56
253.329	85.56
253.562	82.56
253.795	77.56
254.028	80.56
254.261	85.56
254.494	80.56
254.727	83.56
254.96	70.56
255.193	81.56
255.426	82.56
255.659	88.56
255.892	80.56
256.124	92.56
256.357	88.56
256.59	81.56
256.823	70.56
257.056	91.56
257.289	74.56
257.521	86.56
257.754	84.56
257.987	69.56
258.22	84.56
258.452	68.56
258.685	79.56
258.918	70.56
259.151	66.56
259.383	93.56
259.616	94.56
259.849	85.56
260.081	85.56
260.314	87.56
260.547	92.56
260.779	86.56
261.012	73.56
261.244	83.56
261.477	87.56
261.71	91.56
261.942	82.56
262.175	65.56
262.407	71.56
262.64	87.56
262.872	81.56
263.105	80.56
263.337	95.56
263.57	76.56
263.802	88.56
264.035	71.56
264.267	78.56
264.499	79.56
264.732	80.56
264.964	77.56
265.197	98.56
265.429	84.56
265.661	91.56
265.894	94.56
266.126	80.56
266.358	91.56
266.591	76.56
266.823	78.56
267.055	61.56
267.287	71.56
267.52	79.56
267.752	73.56
267.984	89.56
268.216	71.56
268.448	88.56
268.681	81.56
268.913	88.56
269.145	93.56
269.377	70.56
269.609	83.56
269.841	84.56
270.073	86.56
270.306	83.56
270.538	89.56
270.77	92.56
271.002	87.56
271.234	90.56
271.466	84.56
271.698	81.56
271.93	85.56
272.162	83.56
272.394	72.56
272.626	87.56
272.858	87.56
273.09	77.56
273.322	79.56
273.553	98.56
273.785	88.56
274.017	86.56
274.249	97.56
274.481	90.56
274.713	84.56
274.945	92.56
275.176	79.56
275.408	92.56
275.64	85.56
275.872	75.56
276.104	85.56
276.335	87.56
276.567	90.56
276.799	90.56
277.031	73.56
277.262	100.56
277.494	82.56
277.726	93.56
277.957	83.56
278.189	69.56
278.421	85.56
278.652	85.56
278.884	82.56
279.115	87.56
279.347	80.56
279.579	82.56
279.81	81.56
280.042	88.56
280.273	86.56
280.505	73.56
280.736	80.56
280.968	74.56
281.199	96.56
281.431	89.56
281.662	93.56
281.894	88.56
282.125	102.56
282.356	90.56
282.588	79.56
282.819	82.56
283.051	89.56
283.282	86.56
283.513	85.56
283.745	101.56
283.976	81.56
284.207	83.56
284.439	98.56
284.67	79.56
284.901	90.56
285.132	88.56
285.364	78.56
285.595	77.56
285.826	80.56
286.057	82.56
286.288	85.56
286.52	90.56
286.751	91.56
286.982	81.56
287.213	80.56
287.444	84.56
287.675	94.56
287.906	78.56
288.138	81.56
288.369	76.56
288.6	88.56
288.831	80.56
289.062	92.56
289.293	89.56
289.524	89.56
289.755	94.56
289.986	91.56
290.217	82.56
290.448	100.56
290.679	79.56
290.91	101.56
291.141	106.56
291.371	87.56
291.602	88.56
291.833	85.56
292.064	71.56
292.295	90.56
292.526	85.56
292.757	96.56
292.987	102.56
293.218	96.56
293.449	90.56
293.68	95.56
293.91	92.56
294.141	86.56
294.372	77.56
294.603	93.56
294.833	88.56
295.064	78.56
295.295	89.56
295.525	92.56
295.756	91.56
295.987	96.56
296.217	76.56
296.448	89.56
296.679	79.56
296.909	85.56
297.14	105.56
297.37	89.56
297.601	89.56
297.831	86.56
298.062	100.56
298.292	77.56
298.523	78.56
298.753	99.56
298.984	87.56
299.214	92.56
299.445	82.56
299.675	73.56
299.905	82.56
300.136	84.56
300.366	82.56
300.597	75.56
300.827	104.56
301.057	99.56
301.288	82.56
301.518	88.56
301.748	83.56
301.979	90.56
302.209	80.56
302.439	96.56
302.669	89.56
302.9	100.56
303.13	88.56
303.36	102.56
303.59	87.56
303.82	87.56
304.051	93.56
304.281	102.56
304.511	97.56
304.741	84.56
304.971	83.56
305.201	94.56
305.431	97.56
305.661	84.56
305.891	78.56
306.121	82.56
306.352	84.56
306.582	89.56
306.812	83.56
307.042	86.56
307.272	87.56
307.502	85.56
307.731	93.56
307.961	91.56
308.191	77.56
308.421	81.56
308.651	76.56
308.881	94.56
309.111	91.56
309.341	80.56
309.571	96.56
309.8	72.56
310.03	79.56
310.26	87.56
310.49	87.56
310.72	96.56
310.949	94.56
311.179	70.56
311.409	84.56
311.639	89.56
311.868	90.56
312.098	103.56
312.328	94.56
312.557	90.56
312.787	76.56
313.017	85.56
313.246	82.56
313.476	86.56
313.706	85.56
313.935	91.56
314.165	83.56
314.394	98.56
314.624	100.56
314.853	100.56
315.083	83.56
315.312	91.56
315.542	82.56
315.771	93.56
316.001	91.56
316.23	93.56
316.46	91.56
316.689	82.56
316.919	79.56
317.148	80.56
317.377	73.56
317.607	92.56
317.836	90.56
318.065	77.56
318.295	94.56
318.524	72.56
318.753	80.56
318.983	85.56
319.212	88.56
319.441	85.56
319.67	94.56
319.9	88.56
320.129	80.56
320.358	90.56
320.587	96.56
320.816	102.56
321.046	82.56
321.275	89.56
321.504	81.56
321.733	79.56
321.962	103.56
322.191	94.56
322.42	71.56
322.649	97.56
322.878	94.56
323.108	79.56
323.337	84.56
323.566	85.56
323.795	84.56
324.024	95.56
324.253	67.56
324.482	88.56
324.71	92.56
324.939	95.56
325.168	84.56
325.397	100.56
325.626	89.56
325.855	89.56
326.084	94.56
326.313	80.56
326.542	91.56
326.77	74.56
326.999	73.56
327.228	82.56
327.457	88.56
327.686	89.56
327.914	90.56
328.143	97.56
328.372	89.56
328.6	96.56
328.829	95.56
329.058	96.56
329.287	90.56
329.515	90.56
329.744	88.56
329.972	88.56
330.201	88.56
330.43	104.56
330.658	88.56
330.887	81.56
331.115	89.56
331.344	97.56
331.572	89.56
331.801	79.56
332.03	91.56
332.258	104.56
332.486	94.56
332.715	95.56
332.943	80.56
333.172	86.56
333.4	81.56
333.629	87.56
333.857	91.56
334.085	103.56
334.314	102.56
334.542	99.56
334.771	94.56
334.999	98.56
335.227	69.56
335.455	86.56
335.684	98.56
335.912	90.56
336.14	88.56
336.369	92.56
336.597	104.56
336.825	81.56
337.053	83.56
337.281	102.56
337.51	97.56
337.738	97.56
337.966	89.56
338.194	76.56
338.422	87.56
338.65	87.56
338.878	95.56
339.106	90.56
339.334	91.56
339.562	98.56
339.79	99.56
340.018	97.56
340.246	91.56
340.474	93.56
340.702	92.56
340.93	83.56
341.158	95.56
341.386	94.56
341.614	108.56
341.842	99.56
342.07	76.56
342.298	94.56
342.526	97.56
342.754	85.56
342.981	88.56
343.209	96.56
343.437	103.56
343.665	102.56
343.893	99.56
344.12	91.56
344.348	90.56
344.576	99.56
344.804	84.56
345.031	90.56
345.259	100.56
345.487	102.56
345.714	101.56
345.942	86.56
346.17	84.56
346.397	93.56
346.625	92.56
346.853	93.56
347.08	93.56
347.308	99.56
347.535	89.56
347.763	91.56
347.99	96.56
348.218	93.56
348.445	90.56
348.673	73.56
348.9	98.56
349.128	108.56
349.355	96.56
349.583	94.56
349.81	100.56
350.037	85.56
350.265	108.56
350.492	92.56
350.72	85.56
350.947	94.56
351.174	86.56
351.402	96.56
351.629	100.56
351.856	97.56
352.083	90.56
352.311	111.56
352.538	90.56
352.765	89.56
352.992	88.56
353.22	89.56
353.447	100.56
353.674	88.56
353.901	82.56
354.128	83.56
354.355	86.56
354.583	90.56
354.81	82.56
355.037	91.56
355.264	89.56
355.491	80.56
355.718	79.56
355.945	86.56
356.172	83.56
356.399	93.56
356.626	84.56
356.853	90.56
357.08	102.56
357.307	85.56
357.534	82.56
357.761	90.56
357.988	85.56
358.215	96.56
358.441	82.56
358.668	89.56
358.895	88.56
359.122	90.56
359.349	97.56
359.576	92.56
359.802	87.56
360.029	86.56
360.256	95.56
360.483	91.56
360.709	101.56
360.936	100.56
361.163	86.56
361.39	83.56
361.616	94.56
361.843	95.56
362.07	93.56
362.296	88.56
362.523	87.56
362.749	93.56
362.976	91.56
363.203	91.56
363.429	80.56
363.656	94.56
363.882	92.56
364.109	104.56
364.335	89.56
364.562	84.56
364.788	87.56
365.015	80.56
365.241	88.56
365.468	90.56
365.694	84.56
365.92	79.56
366.147	87.56
366.373	98.56
366.599	83.56
366.826	81.56
367.052	95.56
367.278	97.56
367.505	82.56
367.731	95.56
367.957	93.56
368.184	71.56
368.41	103.56
368.636	97.56
368.862	88.56
369.089	96.56
369.315	87.56
369.541	94.56
369.767	83.56
369.993	91.56
370.219	93.56
370.445	93.56
370.672	90.56
370.898	89.56
371.124	90.56
371.35	92.56
371.576	90.56
371.802	84.56
372.028	87.56
372.254	96.56
372.48	82.56
372.706	89.56
372.932	80.56
373.158	79.56
373.384	88.56
373.61	71.56
373.835	88.56
374.061	85.56
374.287	98.56
374.513	74.56
374.739	89.56
374.965	84.56
375.191	97.56
375.416	80.56
375.642	96.56
375.868	78.56
376.094	95.56
376.319	81.56
376.545	101.56
376.771	92.56
376.997	97.56
377.222	89.56
377.448	86.56
377.674	95.56
377.899	95.56
378.125	103.56
378.35	94.56
378.576	96.56
378.802	81.56
379.027	70.56
379.253	85.56
379.478	87.56
379.704	90.56
379.929	89.56
380.155	87.56
380.38	89.56
380.606	79.56
380.831	68.56
381.057	90.56
381.282	88.56
381.507	94.56
381.733	97.56
381.958	86.56
382.184	92.56
382.409	91.56
382.634	82.56
382.86	80.56
383.085	83.56
383.31	86.56
383.535	105.56
383.761	70.56
383.986	73.56
384.211	97.56
384.436	93.56
384.662	82.56
384.887	87.56
385.112	80.56
385.337	88.56
385.562	101.56
385.787	85.56
386.013	114.56
386.238	89.56
386.463	84.56
386.688	89.56
386.913	97.56
387.138	87.56
387.363	87.56
387.588	92.56
387.813	90.56
388.038	93.56
388.263	88.56
388.488	93.56
388.713	94.56
388.938	90.56
389.163	98.56
389.387	87.56
389.612	78.56
389.837	83.56
390.062	92.56
390.287	107.56
390.512	101.56
390.736	86.56
390.961	96.56
391.186	91.56
391.411	86.56
391.636	89.56
391.86	88.56
392.085	101.56
392.31	95.56
392.534	73.56
392.759	98.56
392.984	97.56
393.208	93.56
393.433	91.56
393.658	102.56
393.882	99.56
394.107	91.56
394.331	90.56
394.556	102.56
394.78	84.56
395.005	96.56
395.229	88.56
395.454	96.56
395.678	95.56
395.903	96.56
396.127	94.56
396.352	91.56
396.576	93.56
396.801	94.56
397.025	96.56
397.249	95.56
397.474	99.56
397.698	92.56
397.922	100.56
398.147	95.56
398.371	82.56
398.595	93.56
398.82	96.56
399.044	92.56
399.268	93.56
399.492	104.56
399.717	92.56
399.941	87.56
400.165	98.56
400.389	98.56
400.613	96.56
400.837	102.56
401.062	99.56
401.286	96.56
401.51	108.56
401.734	90.56
401.958	90.56
402.182	92.56
402.406	97.56
402.63	92.56
402.854	80.56
403.078	89.56
403.302	94.56
403.526	115.56
403.75	94.56
403.974	97.56
404.198	87.56
404.422	94.56
404.645	90.56
404.869	82.56
405.093	98.56
405.317	81.56
405.541	81.56
405.765	95.56
405.988	80.56
406.212	83.56
406.436	102.56
406.66	97.56
406.883	93.56
407.107	98.56
407.331	101.56
407.555	101.56
407.778	86.56
408.002	88.56
408.226	88.56
408.449	97.56
408.673	91.56
408.896	105.56
409.12	98.56
409.344	96.56
409.567	83.56
409.791	94.56
410.014	102.56
410.238	84.56
410.461	90.56
410.685	92.56
410.908	82.56
411.132	84.56
411.355	93.56
411.578	76.56
411.802	84.56
412.025	86.56
412.249	107.56
412.472	91.56
412.695	84.56
412.919	80.56
413.142	101.56
413.365	81.56
413.589	96.56
413.812	88.56
414.035	88.56
414.258	99.56
414.482	99.56
414.705	97.56
414.928	108.56
415.151	89.56
415.374	77.56
415.597	80.56
415.821	73.56
416.044	87.56
416.267	87.56
416.49	88.56
416.713	89.56
416.936	89.56
417.159	97.56
417.382	104.56
417.605	90.56
417.828	99.56
418.051	94.56
418.274	94.56
418.497	80.56
418.72	96.56
418.943	103.56
419.166	107.56
419.389	100.56
419.611	93.56
419.834	99.56
420.057	101.56
420.28	102.56
420.503	92.56
420.726	97.56
420.948	92.56
421.171	94.56
421.394	98.56
421.617	97.56
421.839	95.56
422.062	86.56
422.285	91.56
422.507	78.56
422.73	92.56
422.953	93.56
423.175	80.56
423.398	94.56
423.621	76.56
423.843	94.56
424.066	105.56
424.288	83.56
424.511	87.56
424.733	83.56
424.956	90.56
425.178	89.56
425.401	87.56
425.623	89.56
425.846	95.56
426.068	77.56
426.291	96.56
426.513	89.56
426.735	100.56
426.958	92.56
427.18	86.56
427.402	85.56
427.625	81.56
427.847	85.56
428.069	95.56
428.292	98.56
428.514	92.56
428.736	76.56
428.958	93.56
429.181	84.56
429.403	89.56
429.625	88.56
429.847	85.56
430.069	89.56
430.292	88.56
430.514	94.56
430.736	87.56
430.958	79.56
431.18	89.56
431.402	95.56
431.624	80.56
431.846	84.56
432.068	99.56
432.29	104.56
432.512	101.56
432.734	102.56
432.956	105.56
433.178	84.56
433.4	93.56
433.622	81.56
433.844	85.56
434.066	87.56
434.287	100.56
434.509	80.56
434.731	79.56
434.953	94.56
435.175	96.56
435.397	76.56
435.618	88.56
435.84	99.56
436.062	100.56
436.284	89.56
436.505	100.56
436.727	102.56
436.949	96.56
437.17	99.56
437.392	94.56
437.614	85.56
437.835	78.56
438.057	87.56
438.278	83.56
438.5	97.56
438.721	94.56
438.943	98.56
439.165	98.56
439.386	93.56
439.608	89.56
439.829	95.56
440.05	82.56
440.272	89.56
440.493	80.56
440.715	96.56
440.936	93.56
441.158	97.56
441.379	86.56
441.6	96.56
441.822	81.56
442.043	96.56
442.264	100.56
442.486	97.56
442.707	73.56
442.928	94.56
443.149	88.56
443.371	95.56
443.592	88.56
443.813	102.56
444.034	83.56
444.255	85.56
444.476	86.56
444.698	94.56
444.919	102.56
445.14	215.56
445.361	143.56
445.582	85.56
445.803	84.56
446.024	77.56
446.245	84.56
446.466	86.56
446.687	98.56
446.908	92.56
447.129	96.56
447.35	94.56
447.571	85.56
447.792	82.56
448.013	93.56
448.234	87.56
448.455	88.56
448.675	91.56
448.896	78.56
449.117	98.56
449.338	91.56
449.559	94.56
449.779	100.56
450	84.56
450.221	87.56
450.442	96.56
450.662	96.56
450.883	103.56
451.104	92.56
451.324	91.56
451.545	94.56
451.766	83.56
451.986	98.56
452.207	81.56
452.428	97.56
452.648	90.56
452.869	97.56
453.089	73.56
453.31	99.56
453.53	85.56
453.751	92.56
453.971	86.56
454.192	74.56
454.412	96.56
454.633	103.56
454.853	91.56
455.073	84.56
455.294	78.56
455.514	83.56
455.734	63.56
455.955	86.56
456.175	92.56
456.395	100.56
456.616	86.56
456.836	93.56
457.056	74.56
457.276	82.56
457.497	89.56
457.717	87.56
457.937	91.56
458.157	85.56
458.377	102.56
458.598	94.56
458.818	74.56
459.038	88.56
459.258	87.56
459.478	81.56
459.698	82.56
459.918	90.56
460.138	94.56
460.358	100.56
460.578	97.56
460.798	85.56
461.018	88.56
461.238	94.56
461.458	93.56
461.678	96.56
461.898	94.56
462.118	97.56
462.338	96.56
462.558	94.56
462.777	78.56
462.997	95.56
463.217	93.56
463.437	122.56
463.657	104.56
463.876	94.56
464.096	82.56
464.316	93.56
464.536	99.56
464.755	98.56
464.975	108.56
465.195	90.56
465.414	83.56
465.634	86.56
465.854	98.56
466.073	88.56
466.293	100.56
466.512	83.56
466.732	90.56
466.951	89.56
467.171	97.56
467.391	89.56
467.61	94.56
467.829	85.56
468.049	88.56
468.268	100.56
468.488	100.56
468.707	83.56
468.927	99.56
469.146	95.56
469.365	104.56
469.585	91.56
469.804	96.56
470.023	94.56
470.243	87.56
470.462	81.56
470.681	84.56
470.901	87.56
471.12	94.56
471.339	99.56
471.558	91.56
471.777	101.56
471.997	98.56
472.216	99.56
472.435	86.56
472.654	95.56
472.873	91.56
473.092	95.56
473.311	87.56
473.53	98.56
473.749	100.56
473.968	100.56
474.187	102.56
474.406	92.56
474.625	104.56
474.844	109.56
475.063	88.56
475.282	102.56
475.501	92.56
475.72	109.56
475.939	103.56
476.158	88.56
476.377	97.56
476.596	90.56
476.814	86.56
477.033	85.56
477.252	114.56
477.471	93.56
477.69	100.56
477.908	88.56
478.127	97.56
478.346	101.56
478.564	114.56
478.783	106.56
479.002	96.56
479.22	87.56
479.439	98.56
479.658	104.56
479.876	84.56
480.095	97.56
480.313	105.56
480.532	103.56
480.751	106.56
480.969	100.56
481.188	89.56
481.406	104.56
481.624	93.56
481.843	86.56
482.061	82.56
482.28	103.56
482.498	81.56
482.717	97.56
482.935	97.56
483.153	106.56
483.372	94.56
483.59	99.56
483.808	96.56
484.027	86.56
484.245	80.56
484.463	93.56
484.681	103.56
484.9	87.56
485.118	109.56
485.336	94.56
485.554	91.56
485.772	90.56
485.99	97.56
486.209	80.56
486.427	81.56
486.645	88.56
486.863	77.56
487.081	91.56
487.299	95.56
487.517	103.56
487.735	99.56
487.953	96.56
488.171	95.56
488.389	109.56
488.607	102.56
488.825	87.56
489.043	101.56
489.261	96.56
489.479	92.56
489.696	107.56
489.914	103.56
490.132	99.56
490.35	111.56
490.568	114.56
490.786	112.56
491.003	100.56
491.221	111.56
491.439	103.56
491.657	103.56
491.874	112.56
492.092	104.56
492.31	106.56
492.527	115.56
492.745	114.56
492.963	89.56
493.18	108.56
493.398	116.56
493.615	116.56
493.833	101.56
494.05	97.56
494.268	93.56
494.485	93.56
494.703	110.56
494.92	110.56
495.138	112.56
495.355	119.56
495.573	111.56
495.79	104.56
496.008	108.56
496.225	103.56
496.442	105.56
496.66	97.56
496.877	106.56
497.094	97.56
497.312	97.56
497.529	103.56
497.746	107.56
497.963	105.56
498.181	120.56
498.398	112.56
498.615	98.56
498.832	111.56
499.049	108.56
499.267	106.56
499.484	111.56
499.701	120.56
499.918	138.56
500.135	149.56
500.352	142.56
500.569	145.56
500.786	146.56
501.003	155.56
501.22	123.56
501.437	121.56
501.654	115.56
501.871	111.56
502.088	111.56
502.305	102.56
502.522	116.56
502.739	129.56
502.956	108.56
503.172	95.56
503.389	98.56
503.606	120.56
503.823	108.56
504.04	100.56
504.256	100.56
504.473	111.56
504.69	106.56
504.907	99.56
505.123	112.56
505.34	110.56
505.557	102.56
505.773	94.56
505.99	93.56
506.207	101.56
506.423	94.56
506.64	99.56
506.856	113.56
507.073	103.56
507.289	91.56
507.506	104.56
507.722	102.56
507.939	95.56
508.155	95.56
508.372	87.56
508.588	102.56
508.805	109.56
509.021	97.56
509.238	102.56
509.454	89.56
509.67	100.56
509.887	114.56
510.103	94.56
510.319	87.56
510.536	106.56
510.752	93.56
510.968	89.56
511.184	102.56
511.401	96.56
511.617	93.56
511.833	79.56
512.049	86.56
512.265	105.56
512.481	94.56
512.698	110.56
512.914	98.56
513.13	96.56
513.346	89.56
513.562	99.56
513.778	90.56
513.994	70.56
514.21	90.56
514.426	98.56
514.642	105.56
514.858	91.56
515.074	98.56
515.29	90.56
515.506	86.56
515.721	101.56
515.937	96.56
516.153	94.56
516.369	93.56
516.585	116.56
