Data from 0.5MCu(NO3)2.Standard.Lamp.E10.CV._HRD10591_16-03-49-753.txt Node
Date: Mon Jul 22 16:03:49 EDT 2019
User: cochatt
Spectrometer: HR+D1059
Trigger mode: 1
Integration Time (sec): 1.000000E-1
Scans to average: 1
Electric dark correction enabled: true
Nonlinearity correction enabled: false
Boxcar width: 0
XAxis mode: Wavelengths
Number of Pixels in Spectrum: 2048
>>>>>Begin Spectral Data<<<<<
223.165	2.5
223.4	2.5
223.635	2.5
223.869	-20.5
224.104	-14.5
224.338	-26.5
224.573	-16.5
224.808	-6.5
225.042	-12.5
225.277	-11.5
225.511	-12.5
225.746	-0.5
225.98	5.5
226.215	18.5
226.449	15.5
226.683	32.5
226.918	19.5
227.152	27.5
227.387	38.5
227.621	32.5
227.856	38.5
228.09	41.5
228.324	43.5
228.559	53.5
228.793	53.5
229.027	56.5
229.262	78.5
229.496	50.5
229.73	65.5
229.964	77.5
230.199	93.5
230.433	68.5
230.667	68.5
230.901	82.5
231.136	90.5
231.37	87.5
231.604	91.5
231.838	81.5
232.072	82.5
232.306	101.5
232.541	73.5
232.775	74.5
233.009	95.5
233.243	91.5
233.477	67.5
233.711	82.5
233.945	99.5
234.179	94.5
234.413	87.5
234.647	75.5
234.881	80.5
235.115	83.5
235.349	89.5
235.583	87.5
235.817	80.5
236.051	105.5
236.285	84.5
236.519	97.5
236.753	75.5
236.987	89.5
237.221	81.5
237.455	89.5
237.689	93.5
237.922	87.5
238.156	85.5
238.39	88.5
238.624	85.5
238.858	85.5
239.091	81.5
239.325	98.5
239.559	87.5
239.793	100.5
240.027	93.5
240.26	101.5
240.494	95.5
240.728	87.5
240.961	83.5
241.195	93.5
241.429	84.5
241.662	85.5
241.896	69.5
242.13	87.5
242.363	108.5
242.597	99.5
242.83	104.5
243.064	99.5
243.298	89.5
243.531	89.5
243.765	100.5
243.998	90.5
244.232	82.5
244.465	100.5
244.699	88.5
244.932	90.5
245.166	101.5
245.399	114.5
245.633	109.5
245.866	98.5
246.099	82.5
246.333	87.5
246.566	101.5
246.8	98.5
247.033	97.5
247.266	105.5
247.5	96.5
247.733	102.5
247.966	88.5
248.2	100.5
248.433	100.5
248.666	111.5
248.899	94.5
249.133	96.5
249.366	94.5
249.599	105.5
249.832	98.5
250.066	111.5
250.299	95.5
250.532	97.5
250.765	103.5
250.998	108.5
251.231	103.5
251.465	111.5
251.698	96.5
251.931	101.5
252.164	117.5
252.397	103.5
252.63	95.5
252.863	93.5
253.096	109.5
253.329	91.5
253.562	93.5
253.795	125.5
254.028	102.5
254.261	107.5
254.494	88.5
254.727	97.5
254.96	113.5
255.193	109.5
255.426	117.5
255.659	107.5
255.892	121.5
256.124	102.5
256.357	114.5
256.59	124.5
256.823	113.5
257.056	117.5
257.289	114.5
257.521	113.5
257.754	125.5
257.987	113.5
258.22	115.5
258.452	122.5
258.685	104.5
258.918	115.5
259.151	113.5
259.383	124.5
259.616	106.5
259.849	114.5
260.081	120.5
260.314	119.5
260.547	119.5
260.779	123.5
261.012	118.5
261.244	107.5
261.477	120.5
261.71	117.5
261.942	120.5
262.175	125.5
262.407	115.5
262.64	115.5
262.872	114.5
263.105	119.5
263.337	120.5
263.57	132.5
263.802	120.5
264.035	125.5
264.267	113.5
264.499	106.5
264.732	135.5
264.964	127.5
265.197	137.5
265.429	126.5
265.661	126.5
265.894	131.5
266.126	140.5
266.358	125.5
266.591	129.5
266.823	132.5
267.055	117.5
267.287	121.5
267.52	114.5
267.752	132.5
267.984	134.5
268.216	124.5
268.448	116.5
268.681	122.5
268.913	127.5
269.145	134.5
269.377	127.5
269.609	121.5
269.841	137.5
270.073	147.5
270.306	139.5
270.538	123.5
270.77	132.5
271.002	139.5
271.234	127.5
271.466	126.5
271.698	123.5
271.93	129.5
272.162	125.5
272.394	119.5
272.626	120.5
272.858	121.5
273.09	129.5
273.322	134.5
273.553	137.5
273.785	141.5
274.017	145.5
274.249	121.5
274.481	129.5
274.713	139.5
274.945	132.5
275.176	147.5
275.408	135.5
275.64	125.5
275.872	143.5
276.104	143.5
276.335	146.5
276.567	125.5
276.799	151.5
277.031	130.5
277.262	124.5
277.494	146.5
277.726	133.5
277.957	143.5
278.189	147.5
278.421	136.5
278.652	146.5
278.884	141.5
279.115	136.5
279.347	152.5
279.579	142.5
279.81	156.5
280.042	150.5
280.273	151.5
280.505	140.5
280.736	153.5
280.968	157.5
281.199	138.5
281.431	145.5
281.662	154.5
281.894	155.5
282.125	160.5
282.356	151.5
282.588	149.5
282.819	145.5
283.051	164.5
283.282	149.5
283.513	158.5
283.745	139.5
283.976	149.5
284.207	146.5
284.439	162.5
284.67	150.5
284.901	158.5
285.132	161.5
285.364	162.5
285.595	173.5
285.826	149.5
286.057	159.5
286.288	151.5
286.52	167.5
286.751	166.5
286.982	160.5
287.213	154.5
287.444	165.5
287.675	161.5
287.906	142.5
288.138	153.5
288.369	149.5
288.6	163.5
288.831	147.5
289.062	169.5
289.293	162.5
289.524	163.5
289.755	162.5
289.986	149.5
290.217	154.5
290.448	175.5
290.679	162.5
290.91	169.5
291.141	156.5
291.371	169.5
291.602	154.5
291.833	158.5
292.064	160.5
292.295	167.5
292.526	161.5
292.757	174.5
292.987	154.5
293.218	165.5
293.449	160.5
293.68	161.5
293.91	147.5
294.141	162.5
294.372	168.5
294.603	183.5
294.833	175.5
295.064	165.5
295.295	174.5
295.525	170.5
295.756	169.5
295.987	170.5
296.217	154.5
296.448	176.5
296.679	179.5
296.909	159.5
297.14	177.5
297.37	168.5
297.601	183.5
297.831	161.5
298.062	190.5
298.292	168.5
298.523	177.5
298.753	174.5
298.984	169.5
299.214	173.5
299.445	181.5
299.675	185.5
299.905	177.5
300.136	165.5
300.366	176.5
300.597	170.5
300.827	167.5
301.057	182.5
301.288	175.5
301.518	182.5
301.748	176.5
301.979	164.5
302.209	191.5
302.439	182.5
302.669	158.5
302.9	181.5
303.13	180.5
303.36	170.5
303.59	167.5
303.82	180.5
304.051	177.5
304.281	197.5
304.511	184.5
304.741	161.5
304.971	188.5
305.201	191.5
305.431	172.5
305.661	187.5
305.891	176.5
306.121	181.5
306.352	174.5
306.582	185.5
306.812	183.5
307.042	185.5
307.272	171.5
307.502	169.5
307.731	193.5
307.961	194.5
308.191	163.5
308.421	172.5
308.651	186.5
308.881	161.5
309.111	188.5
309.341	173.5
309.571	181.5
309.8	182.5
310.03	180.5
310.26	184.5
310.49	190.5
310.72	185.5
310.949	185.5
311.179	194.5
311.409	176.5
311.639	179.5
311.868	164.5
312.098	189.5
312.328	184.5
312.557	182.5
312.787	183.5
313.017	178.5
313.246	207.5
313.476	202.5
313.706	197.5
313.935	190.5
314.165	197.5
314.394	193.5
314.624	190.5
314.853	180.5
315.083	204.5
315.312	185.5
315.542	179.5
315.771	177.5
316.001	169.5
316.23	160.5
316.46	185.5
316.689	182.5
316.919	194.5
317.148	194.5
317.377	182.5
317.607	181.5
317.836	179.5
318.065	171.5
318.295	171.5
318.524	168.5
318.753	169.5
318.983	181.5
319.212	179.5
319.441	175.5
319.67	165.5
319.9	171.5
320.129	199.5
320.358	184.5
320.587	177.5
320.816	175.5
321.046	196.5
321.275	184.5
321.504	174.5
321.733	192.5
321.962	180.5
322.191	193.5
322.42	187.5
322.649	198.5
322.878	193.5
323.108	193.5
323.337	204.5
323.566	194.5
323.795	181.5
324.024	182.5
324.253	189.5
324.482	182.5
324.71	189.5
324.939	180.5
325.168	192.5
325.397	181.5
325.626	197.5
325.855	178.5
326.084	210.5
326.313	190.5
326.542	189.5
326.77	211.5
326.999	210.5
327.228	197.5
327.457	204.5
327.686	210.5
327.914	198.5
328.143	190.5
328.372	201.5
328.6	215.5
328.829	197.5
329.058	192.5
329.287	199.5
329.515	214.5
329.744	197.5
329.972	196.5
330.201	209.5
330.43	185.5
330.658	193.5
330.887	194.5
331.115	207.5
331.344	199.5
331.572	207.5
331.801	206.5
332.03	201.5
332.258	216.5
332.486	219.5
332.715	221.5
332.943	232.5
333.172	252.5
333.4	249.5
333.629	255.5
333.857	255.5
334.085	239.5
334.314	250.5
334.542	227.5
334.771	237.5
334.999	235.5
335.227	213.5
335.455	228.5
335.684	233.5
335.912	211.5
336.14	219.5
336.369	218.5
336.597	241.5
336.825	228.5
337.053	210.5
337.281	240.5
337.51	221.5
337.738	229.5
337.966	208.5
338.194	195.5
338.422	198.5
338.65	186.5
338.878	213.5
339.106	221.5
339.334	206.5
339.562	206.5
339.79	184.5
340.018	201.5
340.246	199.5
340.474	185.5
340.702	199.5
340.93	212.5
341.158	209.5
341.386	199.5
341.614	212.5
341.842	186.5
342.07	203.5
342.298	192.5
342.526	192.5
342.754	202.5
342.981	219.5
343.209	197.5
343.437	218.5
343.665	217.5
343.893	241.5
344.12	232.5
344.348	230.5
344.576	223.5
344.804	217.5
345.031	203.5
345.259	208.5
345.487	204.5
345.714	199.5
345.942	182.5
346.17	213.5
346.397	210.5
346.625	195.5
346.853	212.5
347.08	192.5
347.308	190.5
347.535	210.5
347.763	194.5
347.99	195.5
348.218	208.5
348.445	200.5
348.673	201.5
348.9	203.5
349.128	199.5
349.355	207.5
349.583	205.5
349.81	190.5
350.037	183.5
350.265	194.5
350.492	169.5
350.72	195.5
350.947	194.5
351.174	199.5
351.402	186.5
351.629	184.5
351.856	191.5
352.083	186.5
352.311	207.5
352.538	192.5
352.765	202.5
352.992	205.5
353.22	215.5
353.447	184.5
353.674	186.5
353.901	191.5
354.128	185.5
354.355	194.5
354.583	202.5
354.81	191.5
355.037	193.5
355.264	209.5
355.491	203.5
355.718	193.5
355.945	197.5
356.172	193.5
356.399	177.5
356.626	191.5
356.853	192.5
357.08	185.5
357.307	181.5
357.534	205.5
357.761	185.5
357.988	191.5
358.215	180.5
358.441	188.5
358.668	184.5
358.895	194.5
359.122	198.5
359.349	192.5
359.576	202.5
359.802	189.5
360.029	191.5
360.256	194.5
360.483	215.5
360.709	199.5
360.936	189.5
361.163	192.5
361.39	198.5
361.616	187.5
361.843	199.5
362.07	196.5
362.296	178.5
362.523	192.5
362.749	193.5
362.976	199.5
363.203	202.5
363.429	183.5
363.656	202.5
363.882	198.5
364.109	181.5
364.335	185.5
364.562	183.5
364.788	198.5
365.015	195.5
365.241	181.5
365.468	195.5
365.694	164.5
365.92	190.5
366.147	177.5
366.373	178.5
366.599	188.5
366.826	195.5
367.052	181.5
367.278	190.5
367.505	191.5
367.731	191.5
367.957	178.5
368.184	183.5
368.41	181.5
368.636	194.5
368.862	195.5
369.089	189.5
369.315	198.5
369.541	207.5
369.767	187.5
369.993	207.5
370.219	184.5
370.445	195.5
370.672	209.5
370.898	199.5
371.124	202.5
371.35	199.5
371.576	182.5
371.802	201.5
372.028	197.5
372.254	206.5
372.48	199.5
372.706	211.5
372.932	197.5
373.158	221.5
373.384	222.5
373.61	195.5
373.835	186.5
374.061	192.5
374.287	193.5
374.513	201.5
374.739	209.5
374.965	236.5
375.191	210.5
375.416	219.5
375.642	208.5
375.868	217.5
376.094	209.5
376.319	200.5
376.545	201.5
376.771	196.5
376.997	194.5
377.222	215.5
377.448	186.5
377.674	188.5
377.899	194.5
378.125	197.5
378.35	193.5
378.576	208.5
378.802	220.5
379.027	202.5
379.253	195.5
379.478	195.5
379.704	184.5
379.929	195.5
380.155	193.5
380.38	198.5
380.606	215.5
380.831	202.5
381.057	212.5
381.282	195.5
381.507	179.5
381.733	205.5
381.958	184.5
382.184	206.5
382.409	194.5
382.634	206.5
382.86	213.5
383.085	223.5
383.31	213.5
383.535	197.5
383.761	207.5
383.986	211.5
384.211	222.5
384.436	226.5
384.662	225.5
384.887	235.5
385.112	229.5
385.337	227.5
385.562	221.5
385.787	236.5
386.013	235.5
386.238	210.5
386.463	225.5
386.688	221.5
386.913	218.5
387.138	212.5
387.363	215.5
387.588	233.5
387.813	219.5
388.038	230.5
388.263	223.5
388.488	210.5
388.713	214.5
388.938	235.5
389.163	223.5
389.387	215.5
389.612	229.5
389.837	220.5
390.062	212.5
390.287	220.5
390.512	228.5
390.736	222.5
390.961	223.5
391.186	228.5
391.411	232.5
391.636	214.5
391.86	260.5
392.085	245.5
392.31	256.5
392.534	260.5
392.759	254.5
392.984	211.5
393.208	219.5
393.433	216.5
393.658	232.5
393.882	242.5
394.107	223.5
394.331	233.5
394.556	245.5
394.78	231.5
395.005	255.5
395.229	244.5
395.454	246.5
395.678	258.5
395.903	259.5
396.127	246.5
396.352	244.5
396.576	243.5
396.801	224.5
397.025	229.5
397.249	217.5
397.474	256.5
397.698	236.5
397.922	253.5
398.147	249.5
398.371	232.5
398.595	236.5
398.82	255.5
399.044	287.5
399.268	306.5
399.492	338.5
399.717	374.5
399.941	367.5
400.165	345.5
400.389	309.5
400.613	289.5
400.837	275.5
401.062	287.5
401.286	271.5
401.51	247.5
401.734	266.5
401.958	271.5
402.182	252.5
402.406	279.5
402.63	279.5
402.854	291.5
403.078	289.5
403.302	274.5
403.526	311.5
403.75	304.5
403.974	318.5
404.198	310.5
404.422	312.5
404.645	295.5
404.869	287.5
405.093	303.5
405.317	290.5
405.541	295.5
405.765	291.5
405.988	290.5
406.212	315.5
406.436	275.5
406.66	301.5
406.883	299.5
407.107	307.5
407.331	311.5
407.555	326.5
407.778	323.5
408.002	330.5
408.226	321.5
408.449	319.5
408.673	312.5
408.896	314.5
409.12	303.5
409.344	313.5
409.567	297.5
409.791	304.5
410.014	307.5
410.238	283.5
410.461	296.5
410.685	290.5
410.908	291.5
411.132	285.5
411.355	265.5
411.578	269.5
411.802	280.5
412.025	261.5
412.249	270.5
412.472	264.5
412.695	274.5
412.919	277.5
413.142	263.5
413.365	274.5
413.589	259.5
413.812	264.5
414.035	271.5
414.258	266.5
414.482	276.5
414.705	264.5
414.928	262.5
415.151	272.5
415.374	273.5
415.597	274.5
415.821	274.5
416.044	264.5
416.267	263.5
416.49	245.5
416.713	269.5
416.936	256.5
417.159	287.5
417.382	257.5
417.605	267.5
417.828	249.5
418.051	263.5
418.274	249.5
418.497	271.5
418.72	270.5
418.943	261.5
419.166	291.5
419.389	313.5
419.611	291.5
419.834	288.5
420.057	273.5
420.28	237.5
420.503	260.5
420.726	267.5
420.948	266.5
421.171	261.5
421.394	264.5
421.617	250.5
421.839	255.5
422.062	266.5
422.285	255.5
422.507	255.5
422.73	271.5
422.953	271.5
423.175	279.5
423.398	297.5
423.621	275.5
423.843	303.5
424.066	293.5
424.288	267.5
424.511	270.5
424.733	272.5
424.956	258.5
425.178	279.5
425.401	281.5
425.623	251.5
425.846	254.5
426.068	254.5
426.291	243.5
426.513	249.5
426.735	238.5
426.958	258.5
427.18	249.5
427.402	242.5
427.625	249.5
427.847	263.5
428.069	238.5
428.292	249.5
428.514	234.5
428.736	228.5
428.958	249.5
429.181	233.5
429.403	219.5
429.625	224.5
429.847	234.5
430.069	243.5
430.292	244.5
430.514	233.5
430.736	243.5
430.958	241.5
431.18	242.5
431.402	232.5
431.624	228.5
431.846	241.5
432.068	241.5
432.29	240.5
432.512	241.5
432.734	229.5
432.956	232.5
433.178	251.5
433.4	237.5
433.622	243.5
433.844	259.5
434.066	242.5
434.287	237.5
434.509	245.5
434.731	248.5
434.953	271.5
435.175	271.5
435.397	282.5
435.618	254.5
435.84	238.5
436.062	226.5
436.284	212.5
436.505	228.5
436.727	246.5
436.949	246.5
437.17	251.5
437.392	230.5
437.614	240.5
437.835	241.5
438.057	239.5
438.278	247.5
438.5	264.5
438.721	256.5
438.943	237.5
439.165	247.5
439.386	239.5
439.608	248.5
439.829	224.5
440.05	247.5
440.272	237.5
440.493	233.5
440.715	232.5
440.936	257.5
441.158	265.5
441.379	238.5
441.6	279.5
441.822	255.5
442.043	266.5
442.264	278.5
442.486	277.5
442.707	277.5
442.928	283.5
443.149	262.5
443.371	248.5
443.592	265.5
443.813	271.5
444.034	257.5
444.255	270.5
444.476	280.5
444.698	296.5
444.919	339.5
445.14	436.5
445.361	346.5
445.582	257.5
445.803	239.5
446.024	246.5
446.245	246.5
446.466	255.5
446.687	237.5
446.908	237.5
447.129	244.5
447.35	245.5
447.571	234.5
447.792	219.5
448.013	218.5
448.234	239.5
448.455	217.5
448.675	222.5
448.896	223.5
449.117	227.5
449.338	222.5
449.559	226.5
449.779	226.5
450	223.5
450.221	232.5
450.442	217.5
450.662	234.5
450.883	227.5
451.104	233.5
451.324	221.5
451.545	223.5
451.766	222.5
451.986	210.5
452.207	226.5
452.428	239.5
452.648	224.5
452.869	213.5
453.089	239.5
453.31	206.5
453.53	236.5
453.751	229.5
453.971	225.5
454.192	216.5
454.412	215.5
454.633	210.5
454.853	203.5
455.073	217.5
455.294	221.5
455.514	217.5
455.734	223.5
455.955	218.5
456.175	195.5
456.395	212.5
456.616	225.5
456.836	206.5
457.056	212.5
457.276	224.5
457.497	207.5
457.717	218.5
457.937	208.5
458.157	221.5
458.377	209.5
458.598	217.5
458.818	222.5
459.038	201.5
459.258	235.5
459.478	241.5
459.698	251.5
459.918	257.5
460.138	259.5
460.358	274.5
460.578	258.5
460.798	293.5
461.018	288.5
461.238	253.5
461.458	275.5
461.678	281.5
461.898	278.5
462.118	290.5
462.338	294.5
462.558	297.5
462.777	303.5
462.997	313.5
463.217	366.5
463.437	385.5
463.657	347.5
463.876	311.5
464.096	324.5
464.316	332.5
464.536	325.5
464.755	302.5
464.975	303.5
465.195	278.5
465.414	276.5
465.634	253.5
465.854	266.5
466.073	254.5
466.293	241.5
466.512	237.5
466.732	242.5
466.951	231.5
467.171	221.5
467.391	232.5
467.61	248.5
467.829	220.5
468.049	228.5
468.268	227.5
468.488	211.5
468.707	240.5
468.927	231.5
469.146	239.5
469.365	218.5
469.585	235.5
469.804	223.5
470.023	240.5
470.243	259.5
470.462	246.5
470.681	242.5
470.901	234.5
471.12	223.5
471.339	234.5
471.558	226.5
471.777	228.5
471.997	242.5
472.216	238.5
472.435	217.5
472.654	222.5
472.873	217.5
473.092	209.5
473.311	219.5
473.53	218.5
473.749	228.5
473.968	230.5
474.187	228.5
474.406	231.5
474.625	230.5
474.844	217.5
475.063	223.5
475.282	223.5
475.501	247.5
475.72	224.5
475.939	230.5
476.158	239.5
476.377	233.5
476.596	240.5
476.814	231.5
477.033	222.5
477.252	237.5
477.471	253.5
477.69	259.5
477.908	258.5
478.127	268.5
478.346	281.5
478.564	273.5
478.783	264.5
479.002	276.5
479.22	265.5
479.439	273.5
479.658	278.5
479.876	275.5
480.095	259.5
480.313	290.5
480.532	284.5
480.751	282.5
480.969	291.5
481.188	259.5
481.406	254.5
481.624	253.5
481.843	264.5
482.061	265.5
482.28	235.5
482.498	243.5
482.717	259.5
482.935	277.5
483.153	249.5
483.372	252.5
483.59	268.5
483.808	255.5
484.027	256.5
484.245	262.5
484.463	264.5
484.681	269.5
484.9	268.5
485.118	265.5
485.336	273.5
485.554	271.5
485.772	267.5
485.99	277.5
486.209	262.5
486.427	277.5
486.645	269.5
486.863	281.5
487.081	279.5
487.299	267.5
487.517	268.5
487.735	242.5
487.953	296.5
488.171	265.5
488.389	272.5
488.607	260.5
488.825	265.5
489.043	276.5
489.261	272.5
489.479	289.5
489.696	270.5
489.914	279.5
490.132	279.5
490.35	264.5
490.568	272.5
490.786	261.5
491.003	270.5
491.221	265.5
491.439	271.5
491.657	269.5
491.874	255.5
492.092	267.5
492.31	308.5
492.527	283.5
492.745	283.5
492.963	303.5
493.18	281.5
493.398	277.5
493.615	278.5
493.833	290.5
494.05	294.5
494.268	289.5
494.485	275.5
494.703	286.5
494.92	282.5
495.138	287.5
495.355	275.5
495.573	262.5
495.79	277.5
496.008	297.5
496.225	295.5
496.442	277.5
496.66	310.5
496.877	288.5
497.094	312.5
497.312	323.5
497.529	295.5
497.746	310.5
497.963	328.5
498.181	322.5
498.398	338.5
498.615	357.5
498.832	361.5
499.049	402.5
499.267	417.5
499.484	460.5
499.701	518.5
499.918	585.5
500.135	647.5
500.352	752.5
500.569	763.5
500.786	784.5
501.003	710.5
501.22	631.5
501.437	555.5
501.654	489.5
501.871	456.5
502.088	423.5
502.305	380.5
502.522	378.5
502.739	379.5
502.956	354.5
503.172	343.5
503.389	307.5
503.606	331.5
503.823	323.5
504.04	312.5
504.256	315.5
504.473	344.5
504.69	348.5
504.907	339.5
505.123	315.5
505.34	285.5
505.557	285.5
505.773	278.5
505.99	280.5
506.207	270.5
506.423	257.5
506.64	274.5
506.856	272.5
507.073	270.5
507.289	271.5
507.506	274.5
507.722	261.5
507.939	265.5
508.155	263.5
508.372	242.5
508.588	250.5
508.805	246.5
509.021	259.5
509.238	269.5
509.454	261.5
509.67	256.5
509.887	243.5
510.103	255.5
510.319	252.5
510.536	237.5
510.752	243.5
510.968	248.5
511.184	247.5
511.401	251.5
511.617	233.5
511.833	238.5
512.049	237.5
512.265	233.5
512.481	241.5
512.698	244.5
512.914	245.5
513.13	249.5
513.346	242.5
513.562	254.5
513.778	243.5
513.994	253.5
514.21	234.5
514.426	247.5
514.642	241.5
514.858	245.5
515.074	264.5
515.29	269.5
515.506	251.5
515.721	265.5
515.937	259.5
516.153	264.5
516.369	279.5
516.585	263.5
516.801	279.5
517.016	294.5
517.232	319.5
517.448	320.5
517.664	341.5
517.879	330.5
518.095	327.5
518.311	314.5
518.527	307.5
518.742	292.5
518.958	287.5
519.173	265.5
519.389	271.5
519.605	271.5
519.82	256.5
520.036	273.5
520.251	242.5
520.467	261.5
520.682	234.5
520.898	254.5
521.113	231.5
521.329	244.5
