Data from 0.5MCu(NO3)2.Standard.Lamp.E10.CV._HRD10591_16-03-41-783.txt Node
Date: Mon Jul 22 16:03:41 EDT 2019
User: cochatt
Spectrometer: HR+D1059
Trigger mode: 1
Integration Time (sec): 1.000000E-1
Scans to average: 1
Electric dark correction enabled: true
Nonlinearity correction enabled: false
Boxcar width: 0
XAxis mode: Wavelengths
Number of Pixels in Spectrum: 2048
>>>>>Begin Spectral Data<<<<<
223.165	-19.19
223.4	-19.19
223.635	-19.19
223.869	-8.19
224.104	-27.19
224.338	-0.19
224.573	-11.19
224.808	-15.19
225.042	-10.19
225.277	-12.19
225.511	-9.19
225.746	-6.19
225.98	-1.19
226.215	19.81
226.449	27.81
226.683	18.81
226.918	21.81
227.152	31.81
227.387	26.81
227.621	32.81
227.856	57.81
228.09	41.81
228.324	46.81
228.559	52.81
228.793	48.81
229.027	53.81
229.262	54.81
229.496	64.81
229.73	71.81
229.964	83.81
230.199	69.81
230.433	69.81
230.667	84.81
230.901	81.81
231.136	74.81
231.37	93.81
231.604	92.81
231.838	83.81
232.072	84.81
232.306	82.81
232.541	96.81
232.775	106.81
233.009	76.81
233.243	85.81
233.477	92.81
233.711	89.81
233.945	74.81
234.179	101.81
234.413	93.81
234.647	92.81
234.881	77.81
235.115	92.81
235.349	92.81
235.583	84.81
235.817	82.81
236.051	80.81
236.285	97.81
236.519	93.81
236.753	86.81
236.987	81.81
237.221	87.81
237.455	99.81
237.689	79.81
237.922	81.81
238.156	71.81
238.39	89.81
238.624	96.81
238.858	89.81
239.091	91.81
239.325	91.81
239.559	77.81
239.793	87.81
240.027	94.81
240.26	85.81
240.494	81.81
240.728	88.81
240.961	88.81
241.195	99.81
241.429	91.81
241.662	96.81
241.896	93.81
242.13	87.81
242.363	101.81
242.597	85.81
242.83	85.81
243.064	88.81
243.298	87.81
243.531	94.81
243.765	97.81
243.998	82.81
244.232	103.81
244.465	96.81
244.699	113.81
244.932	95.81
245.166	96.81
245.399	104.81
245.633	104.81
245.866	103.81
246.099	106.81
246.333	96.81
246.566	91.81
246.8	97.81
247.033	85.81
247.266	99.81
247.5	99.81
247.733	101.81
247.966	93.81
248.2	102.81
248.433	100.81
248.666	102.81
248.899	89.81
249.133	101.81
249.366	119.81
249.599	99.81
249.832	101.81
250.066	104.81
250.299	89.81
250.532	111.81
250.765	106.81
250.998	117.81
251.231	103.81
251.465	105.81
251.698	107.81
251.931	118.81
252.164	100.81
252.397	107.81
252.63	98.81
252.863	103.81
253.096	103.81
253.329	113.81
253.562	113.81
253.795	107.81
254.028	117.81
254.261	97.81
254.494	115.81
254.727	111.81
254.96	104.81
255.193	104.81
255.426	109.81
255.659	103.81
255.892	118.81
256.124	112.81
256.357	124.81
256.59	131.81
256.823	116.81
257.056	108.81
257.289	102.81
257.521	118.81
257.754	98.81
257.987	107.81
258.22	99.81
258.452	113.81
258.685	109.81
258.918	104.81
259.151	121.81
259.383	119.81
259.616	112.81
259.849	109.81
260.081	119.81
260.314	127.81
260.547	101.81
260.779	115.81
261.012	116.81
261.244	109.81
261.477	128.81
261.71	117.81
261.942	117.81
262.175	107.81
262.407	107.81
262.64	122.81
262.872	122.81
263.105	120.81
263.337	119.81
263.57	120.81
263.802	129.81
264.035	133.81
264.267	131.81
264.499	120.81
264.732	123.81
264.964	121.81
265.197	119.81
265.429	116.81
265.661	115.81
265.894	128.81
266.126	123.81
266.358	123.81
266.591	127.81
266.823	139.81
267.055	135.81
267.287	132.81
267.52	125.81
267.752	118.81
267.984	107.81
268.216	122.81
268.448	145.81
268.681	130.81
268.913	149.81
269.145	131.81
269.377	132.81
269.609	127.81
269.841	122.81
270.073	135.81
270.306	143.81
270.538	132.81
270.77	131.81
271.002	124.81
271.234	131.81
271.466	128.81
271.698	125.81
271.93	118.81
272.162	145.81
272.394	134.81
272.626	137.81
272.858	124.81
273.09	133.81
273.322	134.81
273.553	142.81
273.785	137.81
274.017	139.81
274.249	143.81
274.481	125.81
274.713	132.81
274.945	131.81
275.176	131.81
275.408	125.81
275.64	149.81
275.872	148.81
276.104	125.81
276.335	123.81
276.567	128.81
276.799	143.81
277.031	147.81
277.262	154.81
277.494	137.81
277.726	129.81
277.957	153.81
278.189	160.81
278.421	138.81
278.652	134.81
278.884	133.81
279.115	147.81
279.347	136.81
279.579	135.81
279.81	134.81
280.042	139.81
280.273	151.81
280.505	147.81
280.736	151.81
280.968	148.81
281.199	137.81
281.431	140.81
281.662	141.81
281.894	146.81
282.125	148.81
282.356	162.81
282.588	140.81
282.819	143.81
283.051	155.81
283.282	145.81
283.513	156.81
283.745	170.81
283.976	158.81
284.207	148.81
284.439	153.81
284.67	154.81
284.901	148.81
285.132	151.81
285.364	161.81
285.595	151.81
285.826	148.81
286.057	153.81
286.288	163.81
286.52	159.81
286.751	141.81
286.982	167.81
287.213	147.81
287.444	159.81
287.675	151.81
287.906	149.81
288.138	160.81
288.369	159.81
288.6	171.81
288.831	162.81
289.062	170.81
289.293	156.81
289.524	160.81
289.755	159.81
289.986	161.81
290.217	159.81
290.448	172.81
290.679	164.81
290.91	184.81
291.141	166.81
291.371	146.81
291.602	155.81
291.833	162.81
292.064	169.81
292.295	170.81
292.526	155.81
292.757	162.81
292.987	178.81
293.218	163.81
293.449	140.81
293.68	155.81
293.91	157.81
294.141	164.81
294.372	165.81
294.603	162.81
294.833	170.81
295.064	169.81
295.295	163.81
295.525	163.81
295.756	164.81
295.987	167.81
296.217	161.81
296.448	169.81
296.679	164.81
296.909	184.81
297.14	162.81
297.37	179.81
297.601	183.81
297.831	155.81
298.062	168.81
298.292	176.81
298.523	175.81
298.753	183.81
298.984	178.81
299.214	172.81
299.445	175.81
299.675	172.81
299.905	168.81
300.136	173.81
300.366	177.81
300.597	165.81
300.827	183.81
301.057	183.81
301.288	197.81
301.518	182.81
301.748	187.81
301.979	181.81
302.209	180.81
302.439	182.81
302.669	186.81
302.9	183.81
303.13	173.81
303.36	172.81
303.59	177.81
303.82	166.81
304.051	167.81
304.281	176.81
304.511	187.81
304.741	182.81
304.971	172.81
305.201	181.81
305.431	167.81
305.661	180.81
305.891	181.81
306.121	194.81
306.352	177.81
306.582	179.81
306.812	181.81
307.042	187.81
307.272	189.81
307.502	170.81
307.731	173.81
307.961	176.81
308.191	163.81
308.421	161.81
308.651	172.81
308.881	161.81
309.111	169.81
309.341	178.81
309.571	164.81
309.8	187.81
310.03	189.81
310.26	156.81
310.49	175.81
310.72	162.81
310.949	186.81
311.179	175.81
311.409	171.81
311.639	177.81
311.868	170.81
312.098	193.81
312.328	183.81
312.557	196.81
312.787	173.81
313.017	177.81
313.246	200.81
313.476	178.81
313.706	200.81
313.935	182.81
314.165	189.81
314.394	186.81
314.624	181.81
314.853	183.81
315.083	177.81
315.312	188.81
315.542	165.81
315.771	183.81
316.001	179.81
316.23	183.81
316.46	178.81
316.689	182.81
316.919	184.81
317.148	180.81
317.377	175.81
317.607	181.81
317.836	191.81
318.065	180.81
318.295	165.81
318.524	190.81
318.753	184.81
318.983	176.81
319.212	187.81
319.441	169.81
319.67	184.81
319.9	193.81
320.129	188.81
320.358	170.81
320.587	181.81
320.816	187.81
321.046	180.81
321.275	175.81
321.504	200.81
321.733	195.81
321.962	187.81
322.191	183.81
322.42	175.81
322.649	184.81
322.878	191.81
323.108	175.81
323.337	193.81
323.566	169.81
323.795	170.81
324.024	179.81
324.253	188.81
324.482	186.81
324.71	185.81
324.939	185.81
325.168	185.81
325.397	192.81
325.626	180.81
325.855	186.81
326.084	190.81
326.313	189.81
326.542	201.81
326.77	198.81
326.999	202.81
327.228	193.81
327.457	193.81
327.686	207.81
327.914	197.81
328.143	205.81
328.372	202.81
328.6	201.81
328.829	201.81
329.058	180.81
329.287	196.81
329.515	216.81
329.744	199.81
329.972	204.81
330.201	197.81
330.43	197.81
330.658	205.81
330.887	191.81
331.115	201.81
331.344	205.81
331.572	210.81
331.801	213.81
332.03	205.81
332.258	201.81
332.486	213.81
332.715	225.81
332.943	218.81
333.172	225.81
333.4	273.81
333.629	256.81
333.857	245.81
334.085	244.81
334.314	243.81
334.542	227.81
334.771	211.81
334.999	226.81
335.227	226.81
335.455	232.81
335.684	228.81
335.912	223.81
336.14	233.81
336.369	216.81
336.597	220.81
336.825	235.81
337.053	230.81
337.281	213.81
337.51	223.81
337.738	215.81
337.966	194.81
338.194	206.81
338.422	194.81
338.65	219.81
338.878	218.81
339.106	201.81
339.334	218.81
339.562	199.81
339.79	197.81
340.018	192.81
340.246	204.81
340.474	194.81
340.702	202.81
340.93	209.81
341.158	204.81
341.386	206.81
341.614	203.81
341.842	199.81
342.07	182.81
342.298	207.81
342.526	211.81
342.754	204.81
342.981	195.81
343.209	200.81
343.437	209.81
343.665	199.81
343.893	222.81
344.12	224.81
344.348	228.81
344.576	233.81
344.804	208.81
345.031	211.81
345.259	197.81
345.487	187.81
345.714	200.81
345.942	188.81
346.17	193.81
346.397	184.81
346.625	200.81
346.853	175.81
347.08	192.81
347.308	214.81
347.535	197.81
347.763	197.81
347.99	214.81
348.218	199.81
348.445	207.81
348.673	201.81
348.9	199.81
349.128	210.81
349.355	202.81
349.583	195.81
349.81	200.81
350.037	203.81
350.265	203.81
350.492	205.81
350.72	183.81
350.947	194.81
351.174	193.81
351.402	183.81
351.629	182.81
351.856	203.81
352.083	186.81
352.311	221.81
352.538	199.81
352.765	175.81
352.992	184.81
353.22	190.81
353.447	183.81
353.674	183.81
353.901	196.81
354.128	181.81
354.355	181.81
354.583	203.81
354.81	184.81
355.037	182.81
355.264	192.81
355.491	189.81
355.718	170.81
355.945	176.81
356.172	184.81
356.399	189.81
356.626	197.81
356.853	192.81
357.08	193.81
357.307	178.81
357.534	176.81
357.761	183.81
357.988	194.81
358.215	194.81
358.441	194.81
358.668	200.81
358.895	205.81
359.122	192.81
359.349	187.81
359.576	185.81
359.802	193.81
360.029	194.81
360.256	198.81
360.483	188.81
360.709	178.81
360.936	195.81
361.163	188.81
361.39	184.81
361.616	185.81
361.843	178.81
362.07	189.81
362.296	181.81
362.523	196.81
362.749	190.81
362.976	197.81
363.203	176.81
363.429	185.81
363.656	198.81
363.882	194.81
364.109	184.81
364.335	187.81
364.562	209.81
364.788	177.81
365.015	185.81
365.241	188.81
365.468	179.81
365.694	188.81
365.92	193.81
366.147	192.81
366.373	184.81
366.599	168.81
366.826	180.81
367.052	190.81
367.278	195.81
367.505	194.81
367.731	196.81
367.957	187.81
368.184	189.81
368.41	202.81
368.636	183.81
368.862	196.81
369.089	187.81
369.315	186.81
369.541	193.81
369.767	180.81
369.993	199.81
370.219	179.81
370.445	202.81
370.672	206.81
370.898	190.81
371.124	199.81
371.35	193.81
371.576	195.81
371.802	197.81
372.028	204.81
372.254	196.81
372.48	216.81
372.706	195.81
372.932	210.81
373.158	216.81
373.384	199.81
373.61	197.81
373.835	196.81
374.061	179.81
374.287	202.81
374.513	204.81
374.739	202.81
374.965	213.81
375.191	227.81
375.416	198.81
375.642	208.81
375.868	208.81
376.094	199.81
376.319	199.81
376.545	187.81
376.771	215.81
376.997	200.81
377.222	214.81
377.448	194.81
377.674	184.81
377.899	209.81
378.125	214.81
378.35	186.81
378.576	195.81
378.802	187.81
379.027	177.81
379.253	197.81
379.478	199.81
379.704	206.81
379.929	199.81
380.155	191.81
380.38	187.81
380.606	205.81
380.831	200.81
381.057	211.81
381.282	193.81
381.507	191.81
381.733	179.81
381.958	200.81
382.184	187.81
382.409	196.81
382.634	207.81
382.86	203.81
383.085	208.81
383.31	211.81
383.535	194.81
383.761	219.81
383.986	210.81
384.211	214.81
384.436	228.81
384.662	219.81
384.887	209.81
385.112	213.81
385.337	224.81
385.562	251.81
385.787	224.81
386.013	226.81
386.238	221.81
386.463	237.81
386.688	223.81
386.913	240.81
387.138	219.81
387.363	227.81
387.588	211.81
387.813	210.81
388.038	216.81
388.263	228.81
388.488	226.81
388.713	227.81
388.938	210.81
389.163	209.81
389.387	233.81
389.612	209.81
389.837	221.81
390.062	220.81
390.287	221.81
390.512	198.81
390.736	223.81
390.961	219.81
391.186	212.81
391.411	232.81
391.636	250.81
391.86	234.81
392.085	248.81
392.31	265.81
392.534	269.81
392.759	224.81
392.984	223.81
393.208	221.81
393.433	221.81
393.658	233.81
393.882	233.81
394.107	240.81
394.331	235.81
394.556	246.81
394.78	232.81
395.005	231.81
395.229	235.81
395.454	243.81
395.678	241.81
395.903	239.81
396.127	239.81
396.352	232.81
396.576	226.81
396.801	224.81
397.025	236.81
397.249	255.81
397.474	231.81
397.698	252.81
397.922	246.81
398.147	251.81
398.371	238.81
398.595	241.81
398.82	268.81
399.044	266.81
399.268	291.81
399.492	317.81
399.717	401.81
399.941	367.81
400.165	337.81
400.389	307.81
400.613	293.81
400.837	279.81
401.062	276.81
401.286	253.81
401.51	252.81
401.734	261.81
401.958	269.81
402.182	252.81
402.406	268.81
402.63	274.81
402.854	290.81
403.078	289.81
403.302	295.81
403.526	301.81
403.75	308.81
403.974	307.81
404.198	320.81
404.422	305.81
404.645	295.81
404.869	279.81
405.093	274.81
405.317	299.81
405.541	288.81
405.765	293.81
405.988	292.81
406.212	293.81
406.436	284.81
406.66	308.81
406.883	280.81
407.107	311.81
407.331	298.81
407.555	343.81
407.778	331.81
408.002	325.81
408.226	311.81
408.449	295.81
408.673	294.81
408.896	283.81
409.12	284.81
409.344	282.81
409.567	290.81
409.791	315.81
410.014	293.81
410.238	304.81
410.461	305.81
410.685	286.81
410.908	275.81
411.132	283.81
411.355	267.81
411.578	276.81
411.802	279.81
412.025	261.81
412.249	287.81
412.472	279.81
412.695	255.81
412.919	252.81
413.142	264.81
413.365	270.81
413.589	269.81
413.812	254.81
414.035	264.81
414.258	276.81
414.482	277.81
414.705	284.81
414.928	277.81
415.151	266.81
415.374	259.81
415.597	277.81
415.821	264.81
416.044	257.81
416.267	275.81
416.49	253.81
416.713	259.81
416.936	251.81
417.159	270.81
417.382	263.81
417.605	253.81
417.828	273.81
418.051	273.81
418.274	260.81
418.497	247.81
418.72	277.81
418.943	252.81
419.166	293.81
419.389	282.81
419.611	286.81
419.834	261.81
420.057	294.81
420.28	255.81
420.503	252.81
420.726	271.81
420.948	243.81
421.171	265.81
421.394	275.81
421.617	253.81
421.839	261.81
422.062	260.81
422.285	244.81
422.507	258.81
422.73	265.81
422.953	271.81
423.175	250.81
423.398	256.81
423.621	271.81
423.843	291.81
424.066	273.81
424.288	279.81
424.511	262.81
424.733	268.81
424.956	287.81
425.178	269.81
425.401	276.81
425.623	256.81
425.846	248.81
426.068	251.81
426.291	261.81
426.513	249.81
426.735	241.81
426.958	240.81
427.18	251.81
427.402	255.81
427.625	244.81
427.847	235.81
428.069	241.81
428.292	236.81
428.514	217.81
428.736	227.81
428.958	230.81
429.181	248.81
429.403	240.81
429.625	229.81
429.847	260.81
430.069	232.81
430.292	230.81
430.514	218.81
430.736	240.81
430.958	234.81
431.18	220.81
431.402	233.81
431.624	246.81
431.846	220.81
432.068	228.81
432.29	246.81
432.512	241.81
432.734	236.81
432.956	228.81
433.178	234.81
433.4	235.81
433.622	230.81
433.844	251.81
434.066	268.81
434.287	244.81
434.509	237.81
434.731	270.81
434.953	253.81
435.175	285.81
435.397	255.81
435.618	249.81
435.84	248.81
436.062	232.81
436.284	233.81
436.505	248.81
436.727	253.81
436.949	246.81
437.17	231.81
437.392	228.81
437.614	249.81
437.835	237.81
438.057	240.81
438.278	236.81
438.5	221.81
438.721	239.81
438.943	227.81
439.165	232.81
439.386	221.81
439.608	251.81
439.829	242.81
440.05	251.81
440.272	257.81
440.493	243.81
440.715	236.81
440.936	247.81
441.158	261.81
441.379	254.81
441.6	260.81
441.822	258.81
442.043	259.81
442.264	269.81
442.486	270.81
442.707	250.81
442.928	250.81
443.149	241.81
443.371	255.81
443.592	251.81
443.813	253.81
444.034	267.81
444.255	260.81
444.476	285.81
444.698	307.81
444.919	320.81
445.14	420.81
445.361	344.81
445.582	271.81
445.803	238.81
446.024	243.81
446.245	244.81
446.466	232.81
446.687	240.81
446.908	242.81
447.129	232.81
447.35	223.81
447.571	219.81
447.792	227.81
448.013	229.81
448.234	215.81
448.455	217.81
448.675	230.81
448.896	207.81
449.117	226.81
449.338	217.81
449.559	216.81
449.779	227.81
450	233.81
450.221	220.81
450.442	224.81
450.662	215.81
450.883	242.81
451.104	229.81
451.324	227.81
451.545	248.81
451.766	233.81
451.986	241.81
452.207	231.81
452.428	221.81
452.648	226.81
452.869	218.81
453.089	225.81
453.31	235.81
453.53	230.81
453.751	227.81
453.971	222.81
454.192	204.81
454.412	217.81
454.633	211.81
454.853	195.81
455.073	204.81
455.294	204.81
455.514	205.81
455.734	205.81
455.955	212.81
456.175	213.81
456.395	201.81
456.616	207.81
456.836	202.81
457.056	226.81
457.276	202.81
457.497	209.81
457.717	217.81
457.937	211.81
458.157	216.81
458.377	209.81
458.598	209.81
458.818	223.81
459.038	226.81
459.258	238.81
459.478	235.81
459.698	249.81
459.918	252.81
460.138	266.81
460.358	262.81
460.578	280.81
460.798	274.81
461.018	295.81
461.238	260.81
461.458	298.81
461.678	265.81
461.898	273.81
462.118	268.81
462.338	291.81
462.558	277.81
462.777	292.81
462.997	333.81
463.217	343.81
463.437	376.81
463.657	316.81
463.876	327.81
464.096	305.81
464.316	324.81
464.536	296.81
464.755	308.81
464.975	294.81
465.195	282.81
465.414	270.81
465.634	270.81
465.854	256.81
466.073	281.81
466.293	253.81
466.512	236.81
466.732	239.81
466.951	255.81
467.171	235.81
467.391	233.81
467.61	232.81
467.829	237.81
468.049	231.81
468.268	210.81
468.488	233.81
468.707	224.81
468.927	225.81
469.146	237.81
469.365	234.81
469.585	237.81
469.804	222.81
470.023	241.81
470.243	243.81
470.462	236.81
470.681	244.81
470.901	255.81
471.12	239.81
471.339	245.81
471.558	231.81
471.777	239.81
471.997	240.81
472.216	242.81
472.435	225.81
472.654	228.81
472.873	213.81
473.092	232.81
473.311	228.81
473.53	220.81
473.749	235.81
473.968	230.81
474.187	212.81
474.406	225.81
474.625	246.81
474.844	213.81
475.063	208.81
475.282	228.81
475.501	219.81
475.72	231.81
475.939	224.81
476.158	241.81
476.377	227.81
476.596	218.81
476.814	219.81
477.033	224.81
477.252	233.81
477.471	237.81
477.69	243.81
477.908	268.81
478.127	258.81
478.346	261.81
478.564	278.81
478.783	255.81
479.002	282.81
479.22	281.81
479.439	283.81
479.658	269.81
479.876	281.81
480.095	270.81
480.313	277.81
480.532	298.81
480.751	291.81
480.969	274.81
481.188	275.81
481.406	256.81
481.624	263.81
481.843	246.81
482.061	264.81
482.28	264.81
482.498	244.81
482.717	246.81
482.935	249.81
483.153	276.81
483.372	250.81
483.59	253.81
483.808	244.81
484.027	258.81
484.245	277.81
484.463	264.81
484.681	252.81
484.9	269.81
485.118	273.81
485.336	263.81
485.554	259.81
485.772	263.81
485.99	247.81
486.209	267.81
486.427	292.81
486.645	278.81
486.863	280.81
487.081	281.81
487.299	284.81
487.517	268.81
487.735	264.81
487.953	277.81
488.171	279.81
488.389	289.81
488.607	249.81
488.825	253.81
489.043	272.81
489.261	260.81
489.479	273.81
489.696	259.81
489.914	261.81
490.132	244.81
490.35	272.81
490.568	268.81
490.786	296.81
491.003	263.81
491.221	268.81
491.439	267.81
491.657	259.81
491.874	272.81
492.092	264.81
492.31	268.81
492.527	287.81
492.745	265.81
492.963	248.81
493.18	283.81
493.398	279.81
493.615	290.81
493.833	282.81
494.05	305.81
494.268	261.81
494.485	279.81
494.703	255.81
494.92	276.81
495.138	275.81
495.355	284.81
495.573	284.81
495.79	291.81
496.008	273.81
496.225	272.81
496.442	289.81
496.66	296.81
496.877	298.81
497.094	306.81
497.312	303.81
497.529	288.81
497.746	303.81
497.963	305.81
498.181	308.81
498.398	347.81
498.615	331.81
498.832	374.81
499.049	391.81
499.267	412.81
499.484	442.81
499.701	515.81
499.918	535.81
500.135	632.81
500.352	727.81
500.569	763.81
500.786	751.81
501.003	705.81
501.22	624.81
501.437	544.81
501.654	495.81
501.871	460.81
502.088	395.81
502.305	397.81
502.522	360.81
502.739	361.81
502.956	346.81
503.172	331.81
