Data from 0.5MCu(NO3)2.Standard.Lamp.E10.CV._HRD10591_16-05-19-753.txt Node
Date: Mon Jul 22 16:05:19 EDT 2019
User: cochatt
Spectrometer: HR+D1059
Trigger mode: 1
Integration Time (sec): 1.000000E-1
Scans to average: 1
Electric dark correction enabled: true
Nonlinearity correction enabled: false
Boxcar width: 0
XAxis mode: Wavelengths
Number of Pixels in Spectrum: 2048
>>>>>Begin Spectral Data<<<<<
223.165	-21.5
223.4	-21.5
223.635	-21.5
223.869	-18.5
224.104	-13.5
224.338	7.5
224.573	-7.5
224.808	-0.5
225.042	-14.5
225.277	-10.5
225.511	-8.5
225.746	-4.5
225.98	5.5
226.215	15.5
226.449	3.5
226.683	16.5
226.918	33.5
227.152	17.5
227.387	32.5
227.621	36.5
227.856	36.5
228.09	53.5
228.324	50.5
228.559	65.5
228.793	72.5
229.027	71.5
229.262	70.5
229.496	87.5
229.73	84.5
229.964	81.5
230.199	62.5
230.433	78.5
230.667	82.5
230.901	89.5
231.136	100.5
231.37	89.5
231.604	86.5
231.838	78.5
232.072	90.5
232.306	72.5
232.541	102.5
232.775	97.5
233.009	87.5
233.243	87.5
233.477	90.5
233.711	95.5
233.945	91.5
234.179	98.5
234.413	95.5
234.647	95.5
234.881	95.5
235.115	90.5
235.349	90.5
235.583	77.5
235.817	92.5
236.051	89.5
236.285	81.5
236.519	91.5
236.753	111.5
236.987	98.5
237.221	80.5
237.455	87.5
237.689	97.5
237.922	105.5
238.156	105.5
238.39	96.5
238.624	102.5
238.858	99.5
239.091	97.5
239.325	82.5
239.559	81.5
239.793	106.5
240.027	104.5
240.26	104.5
240.494	120.5
240.728	100.5
240.961	90.5
241.195	124.5
241.429	97.5
241.662	111.5
241.896	120.5
242.13	116.5
242.363	97.5
242.597	94.5
242.83	105.5
243.064	118.5
243.298	99.5
243.531	95.5
243.765	114.5
243.998	111.5
244.232	107.5
244.465	121.5
244.699	102.5
244.932	95.5
245.166	120.5
245.399	121.5
245.633	102.5
245.866	106.5
246.099	115.5
246.333	119.5
246.566	115.5
246.8	125.5
247.033	117.5
247.266	98.5
247.5	101.5
247.733	112.5
247.966	109.5
248.2	92.5
248.433	102.5
248.666	103.5
248.899	116.5
249.133	110.5
249.366	125.5
249.599	124.5
249.832	116.5
250.066	129.5
250.299	117.5
250.532	122.5
250.765	123.5
250.998	112.5
251.231	127.5
251.465	109.5
251.698	111.5
251.931	114.5
252.164	102.5
252.397	123.5
252.63	111.5
252.863	115.5
253.096	114.5
253.329	108.5
253.562	119.5
253.795	111.5
254.028	129.5
254.261	130.5
254.494	120.5
254.727	121.5
254.96	135.5
255.193	138.5
255.426	131.5
255.659	115.5
255.892	131.5
256.124	103.5
256.357	124.5
256.59	115.5
256.823	132.5
257.056	116.5
257.289	125.5
257.521	122.5
257.754	131.5
257.987	133.5
258.22	126.5
258.452	122.5
258.685	127.5
258.918	118.5
259.151	140.5
259.383	131.5
259.616	147.5
259.849	134.5
260.081	123.5
260.314	128.5
260.547	127.5
260.779	124.5
261.012	121.5
261.244	138.5
261.477	146.5
261.71	146.5
261.942	122.5
262.175	146.5
262.407	129.5
262.64	131.5
262.872	141.5
263.105	139.5
263.337	131.5
263.57	137.5
263.802	144.5
264.035	134.5
264.267	151.5
264.499	142.5
264.732	140.5
264.964	139.5
265.197	133.5
265.429	133.5
265.661	137.5
265.894	141.5
266.126	140.5
266.358	126.5
266.591	148.5
266.823	151.5
267.055	130.5
267.287	142.5
267.52	149.5
267.752	151.5
267.984	149.5
268.216	151.5
268.448	146.5
268.681	149.5
268.913	147.5
269.145	151.5
269.377	158.5
269.609	135.5
269.841	157.5
270.073	146.5
270.306	132.5
270.538	153.5
270.77	169.5
271.002	169.5
271.234	155.5
271.466	155.5
271.698	163.5
271.93	164.5
272.162	153.5
272.394	164.5
272.626	165.5
272.858	169.5
273.09	165.5
273.322	164.5
273.553	164.5
273.785	168.5
274.017	168.5
274.249	147.5
274.481	169.5
274.713	162.5
274.945	152.5
275.176	159.5
275.408	161.5
275.64	155.5
275.872	151.5
276.104	168.5
276.335	156.5
276.567	171.5
276.799	157.5
277.031	162.5
277.262	165.5
277.494	162.5
277.726	173.5
277.957	162.5
278.189	175.5
278.421	163.5
278.652	169.5
278.884	169.5
279.115	166.5
279.347	157.5
279.579	164.5
279.81	170.5
280.042	171.5
280.273	177.5
280.505	179.5
280.736	161.5
280.968	183.5
281.199	163.5
281.431	175.5
281.662	187.5
281.894	185.5
282.125	187.5
282.356	169.5
282.588	176.5
282.819	168.5
283.051	172.5
283.282	173.5
283.513	183.5
283.745	181.5
283.976	172.5
284.207	182.5
284.439	182.5
284.67	191.5
284.901	180.5
285.132	199.5
285.364	198.5
285.595	184.5
285.826	180.5
286.057	198.5
286.288	210.5
286.52	189.5
286.751	179.5
286.982	196.5
287.213	177.5
287.444	200.5
287.675	191.5
287.906	191.5
288.138	197.5
288.369	206.5
288.6	192.5
288.831	195.5
289.062	184.5
289.293	206.5
289.524	183.5
289.755	198.5
289.986	205.5
290.217	205.5
290.448	202.5
290.679	201.5
290.91	214.5
291.141	191.5
291.371	217.5
291.602	213.5
291.833	198.5
292.064	210.5
292.295	205.5
292.526	212.5
292.757	173.5
292.987	196.5
293.218	202.5
293.449	205.5
293.68	201.5
293.91	184.5
294.141	209.5
294.372	204.5
294.603	186.5
294.833	199.5
295.064	206.5
295.295	199.5
295.525	209.5
295.756	208.5
295.987	199.5
296.217	216.5
296.448	216.5
296.679	186.5
296.909	209.5
297.14	237.5
297.37	221.5
297.601	219.5
297.831	218.5
298.062	227.5
298.292	224.5
298.523	210.5
298.753	214.5
298.984	227.5
299.214	225.5
299.445	218.5
299.675	207.5
299.905	233.5
300.136	224.5
300.366	205.5
300.597	212.5
300.827	213.5
301.057	225.5
301.288	233.5
301.518	224.5
301.748	214.5
301.979	219.5
302.209	225.5
302.439	225.5
302.669	233.5
302.9	211.5
303.13	211.5
303.36	223.5
303.59	217.5
303.82	203.5
304.051	224.5
304.281	219.5
304.511	221.5
304.741	232.5
304.971	228.5
305.201	230.5
305.431	224.5
305.661	236.5
305.891	217.5
306.121	210.5
306.352	225.5
306.582	235.5
306.812	231.5
307.042	215.5
307.272	208.5
307.502	216.5
307.731	207.5
307.961	209.5
308.191	205.5
308.421	223.5
308.651	219.5
308.881	229.5
309.111	221.5
309.341	219.5
309.571	220.5
309.8	219.5
310.03	218.5
310.26	208.5
310.49	221.5
310.72	218.5
310.949	235.5
311.179	223.5
311.409	226.5
311.639	217.5
311.868	238.5
312.098	214.5
312.328	231.5
312.557	225.5
312.787	230.5
313.017	229.5
313.246	239.5
313.476	227.5
313.706	239.5
313.935	251.5
314.165	251.5
314.394	230.5
314.624	239.5
314.853	230.5
315.083	218.5
315.312	233.5
315.542	222.5
315.771	221.5
316.001	217.5
316.23	225.5
316.46	235.5
316.689	235.5
316.919	225.5
317.148	227.5
317.377	232.5
317.607	232.5
317.836	225.5
318.065	232.5
318.295	231.5
318.524	231.5
318.753	225.5
318.983	232.5
319.212	232.5
319.441	226.5
319.67	229.5
319.9	218.5
320.129	205.5
320.358	220.5
320.587	239.5
320.816	244.5
321.046	239.5
321.275	241.5
321.504	226.5
321.733	233.5
321.962	234.5
322.191	241.5
322.42	235.5
322.649	227.5
322.878	243.5
323.108	231.5
323.337	223.5
323.566	232.5
323.795	238.5
324.024	230.5
324.253	240.5
324.482	223.5
324.71	228.5
324.939	220.5
325.168	240.5
325.397	229.5
325.626	237.5
325.855	211.5
326.084	222.5
326.313	263.5
326.542	245.5
326.77	258.5
326.999	247.5
327.228	245.5
327.457	239.5
327.686	236.5
327.914	246.5
328.143	240.5
328.372	258.5
328.6	242.5
328.829	247.5
329.058	255.5
329.287	235.5
329.515	254.5
329.744	236.5
329.972	234.5
330.201	230.5
330.43	258.5
330.658	246.5
330.887	247.5
331.115	252.5
331.344	252.5
331.572	249.5
331.801	245.5
332.03	254.5
332.258	261.5
332.486	278.5
332.715	279.5
332.943	288.5
333.172	319.5
333.4	314.5
333.629	313.5
333.857	314.5
334.085	291.5
334.314	313.5
334.542	301.5
334.771	292.5
334.999	288.5
335.227	276.5
335.455	284.5
335.684	288.5
335.912	287.5
336.14	297.5
336.369	280.5
336.597	297.5
336.825	283.5
337.053	282.5
337.281	264.5
337.51	267.5
337.738	280.5
337.966	241.5
338.194	268.5
338.422	263.5
338.65	264.5
338.878	250.5
339.106	277.5
339.334	265.5
339.562	260.5
339.79	249.5
340.018	245.5
340.246	240.5
340.474	258.5
340.702	270.5
340.93	251.5
341.158	273.5
341.386	260.5
341.614	233.5
341.842	242.5
342.07	250.5
342.298	243.5
342.526	247.5
342.754	238.5
342.981	240.5
343.209	249.5
343.437	264.5
343.665	275.5
343.893	298.5
344.12	311.5
344.348	301.5
344.576	256.5
344.804	274.5
345.031	255.5
345.259	264.5
345.487	269.5
345.714	243.5
345.942	258.5
346.17	264.5
346.397	248.5
346.625	240.5
346.853	242.5
347.08	245.5
347.308	256.5
347.535	257.5
347.763	248.5
347.99	243.5
348.218	230.5
348.445	244.5
348.673	243.5
348.9	245.5
349.128	252.5
349.355	225.5
349.583	232.5
349.81	239.5
350.037	241.5
350.265	231.5
350.492	233.5
350.72	240.5
350.947	236.5
351.174	237.5
351.402	244.5
351.629	225.5
351.856	233.5
352.083	214.5
352.311	228.5
352.538	226.5
352.765	237.5
352.992	240.5
353.22	232.5
353.447	226.5
353.674	241.5
353.901	230.5
354.128	227.5
354.355	232.5
354.583	242.5
354.81	243.5
355.037	239.5
355.264	231.5
355.491	249.5
355.718	226.5
355.945	237.5
356.172	246.5
356.399	217.5
356.626	236.5
356.853	250.5
357.08	246.5
357.307	253.5
357.534	232.5
357.761	231.5
357.988	244.5
358.215	259.5
358.441	248.5
358.668	219.5
358.895	232.5
359.122	218.5
359.349	239.5
359.576	232.5
359.802	243.5
360.029	250.5
360.256	244.5
360.483	232.5
360.709	224.5
360.936	243.5
361.163	226.5
361.39	227.5
361.616	216.5
361.843	233.5
362.07	243.5
362.296	241.5
362.523	224.5
362.749	229.5
362.976	244.5
363.203	231.5
363.429	243.5
363.656	245.5
363.882	226.5
364.109	248.5
364.335	236.5
364.562	247.5
364.788	225.5
365.015	251.5
365.241	256.5
365.468	230.5
365.694	215.5
365.92	219.5
366.147	240.5
366.373	212.5
366.599	251.5
366.826	239.5
367.052	223.5
367.278	229.5
367.505	243.5
367.731	226.5
367.957	233.5
368.184	237.5
368.41	228.5
368.636	227.5
368.862	242.5
369.089	235.5
369.315	226.5
369.541	253.5
369.767	234.5
369.993	236.5
370.219	251.5
370.445	237.5
370.672	242.5
370.898	246.5
371.124	240.5
371.35	258.5
371.576	255.5
371.802	253.5
372.028	269.5
372.254	272.5
372.48	258.5
372.706	277.5
372.932	230.5
373.158	252.5
373.384	260.5
373.61	252.5
373.835	241.5
374.061	232.5
374.287	273.5
374.513	248.5
374.739	260.5
374.965	283.5
375.191	267.5
375.416	273.5
375.642	295.5
375.868	271.5
376.094	267.5
376.319	257.5
376.545	260.5
376.771	251.5
376.997	227.5
377.222	254.5
377.448	256.5
377.674	246.5
377.899	234.5
378.125	243.5
378.35	254.5
378.576	227.5
378.802	234.5
379.027	240.5
379.253	247.5
379.478	235.5
379.704	244.5
379.929	231.5
380.155	231.5
380.38	230.5
380.606	254.5
380.831	241.5
381.057	228.5
381.282	257.5
381.507	256.5
381.733	257.5
381.958	243.5
382.184	266.5
382.409	250.5
382.634	269.5
382.86	258.5
383.085	253.5
383.31	275.5
383.535	280.5
383.761	273.5
383.986	275.5
384.211	290.5
384.436	283.5
384.662	291.5
384.887	289.5
385.112	290.5
385.337	313.5
385.562	296.5
385.787	309.5
386.013	294.5
386.238	287.5
386.463	285.5
386.688	292.5
386.913	299.5
387.138	281.5
387.363	299.5
387.588	292.5
387.813	290.5
388.038	292.5
388.263	296.5
388.488	274.5
388.713	273.5
388.938	291.5
389.163	277.5
389.387	279.5
389.612	279.5
389.837	286.5
390.062	278.5
390.287	251.5
390.512	270.5
390.736	287.5
390.961	273.5
391.186	289.5
391.411	321.5
391.636	287.5
391.86	316.5
392.085	344.5
392.31	314.5
392.534	306.5
392.759	308.5
392.984	298.5
393.208	273.5
393.433	292.5
393.658	307.5
393.882	330.5
394.107	295.5
394.331	284.5
394.556	288.5
394.78	292.5
395.005	284.5
395.229	300.5
395.454	293.5
395.678	320.5
395.903	312.5
396.127	295.5
396.352	283.5
396.576	282.5
396.801	289.5
397.025	288.5
397.249	297.5
397.474	311.5
397.698	305.5
397.922	309.5
398.147	307.5
398.371	300.5
398.595	319.5
398.82	338.5
399.044	336.5
399.268	378.5
399.492	453.5
399.717	481.5
399.941	505.5
400.165	447.5
400.389	387.5
400.613	355.5
400.837	344.5
401.062	342.5
401.286	340.5
401.51	353.5
401.734	356.5
401.958	327.5
402.182	337.5
402.406	338.5
402.63	367.5
402.854	361.5
403.078	352.5
403.302	381.5
403.526	381.5
403.75	375.5
403.974	403.5
404.198	371.5
404.422	393.5
404.645	377.5
404.869	378.5
405.093	391.5
405.317	376.5
405.541	373.5
405.765	357.5
405.988	358.5
406.212	373.5
406.436	346.5
406.66	375.5
406.883	392.5
407.107	395.5
407.331	433.5
407.555	432.5
407.778	431.5
408.002	434.5
408.226	400.5
408.449	406.5
408.673	394.5
408.896	362.5
409.12	364.5
409.344	364.5
409.567	369.5
409.791	367.5
410.014	366.5
410.238	383.5
410.461	351.5
410.685	375.5
410.908	346.5
411.132	362.5
411.355	360.5
411.578	347.5
411.802	359.5
412.025	340.5
412.249	355.5
412.472	341.5
412.695	341.5
412.919	315.5
413.142	324.5
413.365	338.5
413.589	356.5
413.812	329.5
414.035	339.5
414.258	333.5
414.482	331.5
414.705	344.5
414.928	351.5
415.151	335.5
415.374	350.5
415.597	344.5
415.821	313.5
416.044	323.5
416.267	326.5
416.49	312.5
416.713	323.5
416.936	333.5
417.159	349.5
417.382	330.5
417.605	317.5
417.828	328.5
418.051	331.5
418.274	323.5
418.497	345.5
418.72	359.5
418.943	347.5
419.166	368.5
419.389	369.5
419.611	385.5
419.834	359.5
420.057	329.5
420.28	338.5
420.503	341.5
420.726	320.5
420.948	331.5
421.171	309.5
421.394	332.5
421.617	337.5
421.839	337.5
422.062	346.5
422.285	353.5
422.507	352.5
422.73	341.5
422.953	349.5
423.175	337.5
423.398	359.5
423.621	359.5
423.843	353.5
424.066	336.5
424.288	362.5
424.511	352.5
424.733	359.5
424.956	357.5
425.178	350.5
425.401	328.5
425.623	341.5
425.846	330.5
426.068	323.5
426.291	330.5
426.513	292.5
426.735	310.5
426.958	301.5
427.18	299.5
427.402	307.5
427.625	313.5
427.847	298.5
428.069	304.5
428.292	308.5
428.514	294.5
428.736	272.5
428.958	295.5
429.181	298.5
429.403	293.5
429.625	283.5
429.847	315.5
430.069	297.5
430.292	301.5
430.514	287.5
430.736	289.5
430.958	288.5
431.18	305.5
431.402	297.5
431.624	289.5
431.846	309.5
432.068	290.5
432.29	319.5
432.512	310.5
432.734	301.5
432.956	299.5
433.178	297.5
433.4	295.5
433.622	316.5
433.844	319.5
434.066	306.5
434.287	295.5
434.509	335.5
434.731	341.5
434.953	336.5
435.175	344.5
435.397	332.5
435.618	320.5
435.84	297.5
436.062	303.5
436.284	301.5
436.505	278.5
436.727	292.5
436.949	317.5
437.17	303.5
437.392	300.5
437.614	296.5
437.835	292.5
438.057	283.5
438.278	290.5
438.5	292.5
438.721	287.5
438.943	297.5
439.165	295.5
439.386	299.5
439.608	317.5
439.829	294.5
440.05	284.5
440.272	305.5
440.493	299.5
440.715	296.5
440.936	298.5
441.158	319.5
441.379	303.5
441.6	343.5
441.822	330.5
442.043	340.5
442.264	327.5
442.486	319.5
442.707	338.5
442.928	335.5
443.149	330.5
443.371	321.5
443.592	334.5
443.813	320.5
444.034	335.5
444.255	340.5
444.476	360.5
444.698	409.5
444.919	391.5
445.14	504.5
445.361	419.5
445.582	347.5
445.803	314.5
446.024	314.5
446.245	308.5
446.466	303.5
446.687	307.5
446.908	311.5
447.129	287.5
447.35	297.5
447.571	295.5
447.792	304.5
448.013	294.5
448.234	291.5
448.455	284.5
448.675	277.5
448.896	294.5
449.117	280.5
449.338	276.5
449.559	266.5
449.779	274.5
450	276.5
450.221	290.5
450.442	283.5
450.662	291.5
450.883	271.5
451.104	293.5
451.324	289.5
451.545	293.5
451.766	274.5
451.986	283.5
452.207	275.5
452.428	304.5
452.648	286.5
452.869	278.5
453.089	281.5
453.31	288.5
453.53	277.5
453.751	276.5
453.971	277.5
454.192	273.5
454.412	270.5
454.633	271.5
454.853	258.5
455.073	262.5
455.294	270.5
455.514	283.5
455.734	260.5
455.955	255.5
456.175	279.5
456.395	257.5
456.616	280.5
456.836	247.5
457.056	253.5
457.276	249.5
457.497	252.5
457.717	274.5
457.937	258.5
458.157	275.5
458.377	274.5
458.598	264.5
458.818	268.5
459.038	284.5
459.258	299.5
459.478	289.5
459.698	323.5
459.918	336.5
460.138	337.5
460.358	340.5
460.578	349.5
460.798	360.5
461.018	355.5
461.238	370.5
461.458	329.5
461.678	344.5
461.898	363.5
462.118	358.5
462.338	366.5
462.558	373.5
462.777	377.5
462.997	421.5
463.217	465.5
463.437	488.5
463.657	408.5
463.876	409.5
464.096	400.5
464.316	401.5
464.536	413.5
464.755	387.5
464.975	398.5
465.195	385.5
465.414	356.5
465.634	321.5
465.854	305.5
466.073	304.5
466.293	316.5
466.512	313.5
466.732	294.5
466.951	290.5
467.171	301.5
467.391	289.5
467.61	295.5
467.829	285.5
468.049	297.5
468.268	275.5
468.488	298.5
468.707	290.5
468.927	283.5
469.146	288.5
469.365	299.5
469.585	284.5
469.804	300.5
470.023	299.5
470.243	304.5
470.462	309.5
470.681	311.5
470.901	315.5
471.12	303.5
471.339	307.5
471.558	291.5
471.777	289.5
471.997	291.5
472.216	283.5
472.435	281.5
472.654	290.5
472.873	274.5
473.092	280.5
473.311	291.5
473.53	280.5
473.749	268.5
473.968	294.5
474.187	284.5
474.406	264.5
474.625	285.5
474.844	280.5
475.063	281.5
475.282	264.5
475.501	273.5
475.72	276.5
475.939	273.5
476.158	296.5
476.377	287.5
476.596	278.5
476.814	288.5
477.033	307.5
477.252	315.5
477.471	297.5
477.69	308.5
477.908	335.5
478.127	329.5
478.346	330.5
478.564	336.5
478.783	343.5
479.002	349.5
479.22	348.5
479.439	343.5
479.658	335.5
479.876	347.5
480.095	343.5
480.313	357.5
480.532	364.5
480.751	367.5
480.969	356.5
481.188	336.5
481.406	338.5
481.624	329.5
481.843	312.5
482.061	324.5
482.28	325.5
482.498	329.5
482.717	308.5
482.935	320.5
483.153	311.5
483.372	324.5
483.59	309.5
483.808	319.5
484.027	321.5
484.245	324.5
484.463	331.5
484.681	331.5
484.9	340.5
485.118	347.5
485.336	337.5
485.554	336.5
485.772	365.5
485.99	355.5
486.209	351.5
486.427	341.5
486.645	345.5
486.863	343.5
487.081	325.5
487.299	355.5
487.517	339.5
487.735	352.5
487.953	343.5
488.171	359.5
488.389	339.5
488.607	339.5
488.825	350.5
489.043	335.5
489.261	333.5
489.479	338.5
489.696	326.5
489.914	327.5
490.132	339.5
490.35	344.5
490.568	331.5
490.786	346.5
491.003	320.5
491.221	330.5
491.439	338.5
491.657	358.5
491.874	344.5
492.092	354.5
492.31	338.5
492.527	364.5
492.745	360.5
492.963	362.5
493.18	354.5
493.398	359.5
493.615	352.5
493.833	363.5
494.05	358.5
494.268	368.5
494.485	341.5
494.703	337.5
494.92	343.5
495.138	356.5
495.355	348.5
495.573	349.5
495.79	365.5
496.008	359.5
496.225	355.5
496.442	353.5
496.66	357.5
496.877	368.5
497.094	371.5
497.312	372.5
497.529	392.5
497.746	413.5
497.963	405.5
498.181	418.5
498.398	426.5
498.615	447.5
498.832	463.5
499.049	505.5
499.267	569.5
499.484	605.5
499.701	672.5
499.918	711.5
500.135	836.5
500.352	988.5
500.569	1059.5
500.786	1015.5
501.003	922.5
501.22	843.5
501.437	741.5
501.654	637.5
501.871	588.5
502.088	531.5
502.305	520.5
502.522	511.5
502.739	487.5
502.956	454.5
503.172	429.5
503.389	425.5
503.606	412.5
503.823	389.5
504.04	403.5
504.256	410.5
504.473	396.5
504.69	401.5
504.907	419.5
505.123	398.5
505.34	356.5
505.557	372.5
505.773	336.5
505.99	350.5
506.207	348.5
506.423	325.5
506.64	327.5
506.856	333.5
507.073	324.5
507.289	337.5
507.506	327.5
507.722	319.5
507.939	316.5
508.155	335.5
508.372	320.5
508.588	320.5
508.805	299.5
509.021	316.5
509.238	299.5
509.454	307.5
509.67	314.5
509.887	317.5
510.103	321.5
510.319	304.5
510.536	296.5
510.752	313.5
510.968	307.5
511.184	305.5
511.401	303.5
511.617	290.5
511.833	309.5
512.049	296.5
512.265	300.5
512.481	319.5
512.698	276.5
512.914	282.5
513.13	307.5
513.346	300.5
513.562	332.5
513.778	304.5
513.994	311.5
514.21	331.5
514.426	290.5
514.642	309.5
514.858	314.5
515.074	312.5
515.29	318.5
515.506	304.5
515.721	316.5
515.937	331.5
516.153	315.5
516.369	336.5
516.585	342.5
516.801	360.5
517.016	368.5
517.232	371.5
517.448	399.5
517.664	404.5
517.879	441.5
518.095	420.5
518.311	408.5
518.527	405.5
518.742	390.5
518.958	369.5
519.173	343.5
519.389	341.5
519.605	318.5
519.82	341.5
520.036	313.5
520.251	322.5
520.467	308.5
520.682	295.5
520.898	293.5
