Data from 0.5MCu(NO3)2.Standard.Lamp.E10.CV._HRD10591_16-05-00-753.txt Node
Date: Mon Jul 22 16:05:00 EDT 2019
User: cochatt
Spectrometer: HR+D1059
Trigger mode: 1
Integration Time (sec): 1.000000E-1
Scans to average: 1
Electric dark correction enabled: true
Nonlinearity correction enabled: false
Boxcar width: 0
XAxis mode: Wavelengths
Number of Pixels in Spectrum: 2048
>>>>>Begin Spectral Data<<<<<
223.165	-32
223.4	-32
223.635	-32
223.869	-17
224.104	-12
224.338	-8
224.573	-34
224.808	-7
225.042	-8
225.277	-5
225.511	5
225.746	8
225.98	17
226.215	14
226.449	8
226.683	16
226.918	21
227.152	34
227.387	41
227.621	48
227.856	44
228.09	49
228.324	54
228.559	44
228.793	69
229.027	71
229.262	80
229.496	89
229.73	69
229.964	90
230.199	86
230.433	84
230.667	101
230.901	99
231.136	86
231.37	83
231.604	74
231.838	95
232.072	105
232.306	97
232.541	91
232.775	90
233.009	88
233.243	91
233.477	85
233.711	76
233.945	80
234.179	78
234.413	91
234.647	93
234.881	87
235.115	92
235.349	96
235.583	77
235.817	100
236.051	94
236.285	75
236.519	85
236.753	95
236.987	84
237.221	97
237.455	108
237.689	87
237.922	89
238.156	81
238.39	89
238.624	86
238.858	98
239.091	89
239.325	94
239.559	94
239.793	91
240.027	104
240.26	104
240.494	108
240.728	98
240.961	104
241.195	103
241.429	85
241.662	89
241.896	94
242.13	96
242.363	96
242.597	101
242.83	82
243.064	101
243.298	97
243.531	101
243.765	101
243.998	83
244.232	89
244.465	93
244.699	93
244.932	95
245.166	115
245.399	100
245.633	88
245.866	98
246.099	91
246.333	99
246.566	107
246.8	92
247.033	100
247.266	105
247.5	112
247.733	97
247.966	108
248.2	111
248.433	98
248.666	133
248.899	122
249.133	116
249.366	106
249.599	109
249.832	89
250.066	104
250.299	104
250.532	117
250.765	122
250.998	126
251.231	101
251.465	98
251.698	107
251.931	109
252.164	127
252.397	112
252.63	118
252.863	105
253.096	96
253.329	117
253.562	116
253.795	118
254.028	92
254.261	109
254.494	105
254.727	93
254.96	107
255.193	125
255.426	117
255.659	113
255.892	131
256.124	116
256.357	126
256.59	124
256.823	109
257.056	116
257.289	124
257.521	111
257.754	122
257.987	128
258.22	126
258.452	121
258.685	111
258.918	128
259.151	126
259.383	130
259.616	128
259.849	129
260.081	126
260.314	111
260.547	113
260.779	123
261.012	133
261.244	128
261.477	117
261.71	129
261.942	126
262.175	104
262.407	118
262.64	125
262.872	129
263.105	125
263.337	121
263.57	133
263.802	118
264.035	129
264.267	131
264.499	100
264.732	118
264.964	121
265.197	120
265.429	121
265.661	135
265.894	128
266.126	122
266.358	137
266.591	129
266.823	128
267.055	127
267.287	123
267.52	133
267.752	126
267.984	132
268.216	132
268.448	123
268.681	123
268.913	134
269.145	143
269.377	132
269.609	131
269.841	136
270.073	145
270.306	127
270.538	136
270.77	133
271.002	130
271.234	152
271.466	136
271.698	134
271.93	127
272.162	142
272.394	124
272.626	142
272.858	138
273.09	153
273.322	138
273.553	142
273.785	135
274.017	152
274.249	136
274.481	143
274.713	144
274.945	123
275.176	140
275.408	137
275.64	144
275.872	153
276.104	136
276.335	146
276.567	134
276.799	146
277.031	143
277.262	157
277.494	136
277.726	141
277.957	143
278.189	142
278.421	141
278.652	140
278.884	154
279.115	138
279.347	143
279.579	150
279.81	150
280.042	128
280.273	151
280.505	154
280.736	137
280.968	177
281.199	160
281.431	135
281.662	167
281.894	138
282.125	144
282.356	148
282.588	140
282.819	156
283.051	153
283.282	152
283.513	156
283.745	158
283.976	162
284.207	165
284.439	168
284.67	173
284.901	168
285.132	171
285.364	155
285.595	156
285.826	153
286.057	157
286.288	158
286.52	157
286.751	177
286.982	161
287.213	160
287.444	155
287.675	154
287.906	168
288.138	174
288.369	160
288.6	162
288.831	169
289.062	152
289.293	140
289.524	167
289.755	161
289.986	156
290.217	167
290.448	167
290.679	164
290.91	168
291.141	177
291.371	158
291.602	174
291.833	169
292.064	186
292.295	161
292.526	169
292.757	164
292.987	178
293.218	153
293.449	158
293.68	168
293.91	184
294.141	161
294.372	169
294.603	166
294.833	162
295.064	163
295.295	173
295.525	191
295.756	186
295.987	173
296.217	172
296.448	181
296.679	164
296.909	180
297.14	182
297.37	173
297.601	159
297.831	180
298.062	187
298.292	174
298.523	180
298.753	192
298.984	187
299.214	182
299.445	173
299.675	176
299.905	189
300.136	172
300.366	180
300.597	172
300.827	177
301.057	189
301.288	196
301.518	194
301.748	192
301.979	188
302.209	175
302.439	182
302.669	198
302.9	196
303.13	190
303.36	187
303.59	175
303.82	182
304.051	184
304.281	167
304.511	174
304.741	192
304.971	172
305.201	188
305.431	182
305.661	184
305.891	180
306.121	182
306.352	185
306.582	162
306.812	184
307.042	185
307.272	178
307.502	157
307.731	174
307.961	185
308.191	176
308.421	190
308.651	187
308.881	185
309.111	177
309.341	193
309.571	181
309.8	182
310.03	190
310.26	170
310.49	170
310.72	169
310.949	178
311.179	183
311.409	196
311.639	182
311.868	175
312.098	182
312.328	203
312.557	184
312.787	171
313.017	185
313.246	182
313.476	180
313.706	167
313.935	187
314.165	195
314.394	190
314.624	202
314.853	192
315.083	198
315.312	189
315.542	169
315.771	192
316.001	183
316.23	192
316.46	185
316.689	184
316.919	191
317.148	197
317.377	186
317.607	192
317.836	186
318.065	170
318.295	197
318.524	197
318.753	180
318.983	194
319.212	191
319.441	178
319.67	186
319.9	186
320.129	191
320.358	184
320.587	181
320.816	190
321.046	186
321.275	191
321.504	180
321.733	189
321.962	191
322.191	191
322.42	176
322.649	204
322.878	188
323.108	207
323.337	198
323.566	201
323.795	199
324.024	191
324.253	185
324.482	190
324.71	197
324.939	190
325.168	177
325.397	189
325.626	187
325.855	189
326.084	196
326.313	200
326.542	207
326.77	208
326.999	208
327.228	209
327.457	197
327.686	203
327.914	204
328.143	212
328.372	200
328.6	202
328.829	191
329.058	188
329.287	181
329.515	202
329.744	209
329.972	196
330.201	198
330.43	199
330.658	197
330.887	207
331.115	199
331.344	204
331.572	207
331.801	211
332.03	215
332.258	214
332.486	217
332.715	218
332.943	221
333.172	231
333.4	248
333.629	259
333.857	245
334.085	241
334.314	242
334.542	237
334.771	235
334.999	234
335.227	234
335.455	242
335.684	248
335.912	237
336.14	221
336.369	239
336.597	228
336.825	217
337.053	231
337.281	237
337.51	224
337.738	205
337.966	216
338.194	213
338.422	225
338.65	210
338.878	199
339.106	215
339.334	213
339.562	216
339.79	198
340.018	209
340.246	205
340.474	209
340.702	214
340.93	211
341.158	224
341.386	198
341.614	201
341.842	206
342.07	208
342.298	197
342.526	210
342.754	208
342.981	205
343.209	201
343.437	222
343.665	213
343.893	222
344.12	240
344.348	248
344.576	237
344.804	217
345.031	203
345.259	201
345.487	210
345.714	194
345.942	194
346.17	199
346.397	192
346.625	202
346.853	215
347.08	196
347.308	202
347.535	198
347.763	207
347.99	194
348.218	204
348.445	200
348.673	197
348.9	208
349.128	207
349.355	203
349.583	189
349.81	184
350.037	193
350.265	202
350.492	193
350.72	192
350.947	186
351.174	190
351.402	191
351.629	207
351.856	189
352.083	192
352.311	200
352.538	175
352.765	175
352.992	199
353.22	190
353.447	160
353.674	203
353.901	186
354.128	196
354.355	194
354.583	186
354.81	189
355.037	188
355.264	203
355.491	192
355.718	196
355.945	190
356.172	194
356.399	201
356.626	197
356.853	195
357.08	205
357.307	194
357.534	206
357.761	200
357.988	179
358.215	174
358.441	180
358.668	189
358.895	187
359.122	202
359.349	194
359.576	197
359.802	199
360.029	185
360.256	201
360.483	201
360.709	177
360.936	207
361.163	205
361.39	190
361.616	181
361.843	209
362.07	200
362.296	184
362.523	189
362.749	198
362.976	184
363.203	199
363.429	198
363.656	178
363.882	196
364.109	209
364.335	197
364.562	184
364.788	192
365.015	196
365.241	200
365.468	205
365.694	181
365.92	184
366.147	186
366.373	189
366.599	196
366.826	192
367.052	189
367.278	180
367.505	197
367.731	192
367.957	185
368.184	194
368.41	177
368.636	183
368.862	193
369.089	189
369.315	201
369.541	206
369.767	200
369.993	202
370.219	207
370.445	202
370.672	199
370.898	193
371.124	204
371.35	209
371.576	217
371.802	220
372.028	203
372.254	214
372.48	196
372.706	194
372.932	209
373.158	200
373.384	202
373.61	198
373.835	195
374.061	202
374.287	217
374.513	210
374.739	212
374.965	220
375.191	230
375.416	221
375.642	225
375.868	230
376.094	184
376.319	209
376.545	205
376.771	193
376.997	192
377.222	226
377.448	192
377.674	224
377.899	203
378.125	204
378.35	197
378.576	196
378.802	194
379.027	187
379.253	192
379.478	186
379.704	191
379.929	197
380.155	196
380.38	178
380.606	192
380.831	216
381.057	217
381.282	193
381.507	190
381.733	202
381.958	196
382.184	199
382.409	209
382.634	219
382.86	221
383.085	221
383.31	221
383.535	227
383.761	214
383.986	218
384.211	206
384.436	234
384.662	223
384.887	232
385.112	229
385.337	224
385.562	232
385.787	234
386.013	226
386.238	215
386.463	226
386.688	246
386.913	223
387.138	231
387.363	232
387.588	242
387.813	221
388.038	211
388.263	233
388.488	234
388.713	214
388.938	219
389.163	229
389.387	231
389.612	231
389.837	225
390.062	235
390.287	221
390.512	219
390.736	225
390.961	231
391.186	236
391.411	228
391.636	257
391.86	228
392.085	247
392.31	248
392.534	266
392.759	244
392.984	249
393.208	216
393.433	241
393.658	244
393.882	235
394.107	229
394.331	234
394.556	234
394.78	241
395.005	250
395.229	248
395.454	264
395.678	262
395.903	248
396.127	259
396.352	225
396.576	215
396.801	254
397.025	232
397.249	239
397.474	256
397.698	247
397.922	238
398.147	242
398.371	242
398.595	259
398.82	258
399.044	277
399.268	314
399.492	343
399.717	395
399.941	382
400.165	346
400.389	291
400.613	293
400.837	280
401.062	259
401.286	249
401.51	254
401.734	258
401.958	275
402.182	258
402.406	279
402.63	294
402.854	293
403.078	295
403.302	291
403.526	318
403.75	316
403.974	323
404.198	313
404.422	287
404.645	310
404.869	307
405.093	302
405.317	294
405.541	282
405.765	289
405.988	297
406.212	294
406.436	295
406.66	281
406.883	279
407.107	292
407.331	325
407.555	332
407.778	324
408.002	321
408.226	316
408.449	303
408.673	303
408.896	296
409.12	302
409.344	302
409.567	297
409.791	280
410.014	300
410.238	318
410.461	288
410.685	300
410.908	300
411.132	284
411.355	279
411.578	280
411.802	274
412.025	270
412.249	273
412.472	302
412.695	273
412.919	253
413.142	262
413.365	265
413.589	261
413.812	271
414.035	264
414.258	249
414.482	273
414.705	258
414.928	281
415.151	252
415.374	260
415.597	268
415.821	266
416.044	268
416.267	273
416.49	291
416.713	260
416.936	258
417.159	272
417.382	266
417.605	252
417.828	264
418.051	276
418.274	250
418.497	251
418.72	272
418.943	268
419.166	298
419.389	294
419.611	283
419.834	284
420.057	264
420.28	272
420.503	259
420.726	268
420.948	255
421.171	271
421.394	259
421.617	257
421.839	276
422.062	280
422.285	279
422.507	273
422.73	272
422.953	278
423.175	272
423.398	276
423.621	293
423.843	296
424.066	296
424.288	285
424.511	288
424.733	280
424.956	277
425.178	248
425.401	274
425.623	264
425.846	264
426.068	261
426.291	231
426.513	244
426.735	257
426.958	271
427.18	253
427.402	246
427.625	253
427.847	257
428.069	239
428.292	260
428.514	249
428.736	242
428.958	246
429.181	258
429.403	222
429.625	233
429.847	246
430.069	228
430.292	238
430.514	238
430.736	228
430.958	251
431.18	230
431.402	246
431.624	237
431.846	241
432.068	256
432.29	255
432.512	249
432.734	239
432.956	256
433.178	243
433.4	257
433.622	245
433.844	238
434.066	230
434.287	258
434.509	267
434.731	264
434.953	270
435.175	277
435.397	290
435.618	260
435.84	265
436.062	232
436.284	252
436.505	243
436.727	240
436.949	242
437.17	225
437.392	244
437.614	246
437.835	224
438.057	247
438.278	233
438.5	226
438.721	244
438.943	246
439.165	235
439.386	237
439.608	232
439.829	252
440.05	233
440.272	246
440.493	240
440.715	256
440.936	254
441.158	268
441.379	264
441.6	263
441.822	282
442.043	263
442.264	246
442.486	244
442.707	264
442.928	279
443.149	262
443.371	269
443.592	263
443.813	260
444.034	277
444.255	286
444.476	300
444.698	302
444.919	308
445.14	429
445.361	350
445.582	272
445.803	264
446.024	239
446.245	254
446.466	246
446.687	233
446.908	242
447.129	255
447.35	231
447.571	249
447.792	243
448.013	245
448.234	225
448.455	244
448.675	215
448.896	233
449.117	214
449.338	211
449.559	209
449.779	229
450	241
450.221	213
450.442	246
450.662	246
450.883	230
451.104	260
451.324	234
451.545	240
451.766	248
451.986	246
452.207	222
452.428	218
452.648	223
452.869	228
453.089	222
453.31	233
453.53	224
453.751	239
453.971	213
454.192	203
454.412	221
454.633	236
454.853	219
455.073	233
455.294	214
455.514	220
455.734	209
455.955	216
456.175	222
456.395	221
456.616	223
456.836	204
457.056	209
457.276	222
457.497	225
457.717	218
457.937	226
458.157	226
458.377	222
458.598	230
458.818	224
459.038	225
459.258	246
459.478	236
459.698	251
459.918	257
460.138	265
460.358	272
460.578	287
460.798	287
461.018	272
461.238	265
461.458	275
461.678	281
461.898	297
462.118	291
462.338	299
462.558	311
462.777	318
462.997	336
463.217	362
463.437	346
463.657	329
463.876	321
464.096	316
464.316	327
464.536	320
464.755	300
464.975	311
465.195	299
465.414	273
465.634	258
465.854	249
466.073	252
466.293	250
466.512	253
466.732	241
466.951	245
467.171	246
467.391	237
467.61	237
467.829	245
468.049	240
468.268	235
468.488	234
468.707	216
468.927	237
469.146	234
469.365	232
469.585	225
469.804	249
470.023	250
470.243	258
470.462	234
470.681	256
470.901	262
471.12	248
471.339	244
471.558	263
471.777	243
471.997	249
472.216	234
472.435	232
472.654	231
472.873	206
473.092	224
473.311	217
473.53	220
473.749	235
473.968	227
474.187	232
474.406	227
474.625	221
474.844	222
475.063	229
475.282	237
475.501	231
475.72	244
475.939	240
476.158	242
476.377	214
476.596	230
476.814	238
477.033	240
477.252	254
477.471	237
477.69	252
477.908	259
478.127	273
478.346	279
478.564	260
478.783	274
479.002	295
479.22	268
479.439	289
479.658	274
479.876	273
480.095	284
480.313	300
480.532	296
480.751	281
480.969	276
481.188	273
481.406	272
481.624	271
481.843	274
482.061	233
482.28	248
482.498	251
482.717	261
482.935	252
483.153	261
483.372	259
483.59	273
483.808	268
484.027	260
484.245	270
484.463	277
484.681	264
484.9	282
485.118	274
485.336	278
485.554	286
485.772	279
485.99	279
486.209	278
486.427	285
486.645	257
486.863	275
487.081	272
487.299	270
487.517	248
487.735	280
487.953	271
488.171	281
488.389	288
488.607	268
488.825	284
489.043	268
489.261	248
489.479	277
489.696	280
489.914	273
490.132	271
490.35	270
490.568	271
490.786	274
491.003	254
491.221	275
491.439	292
491.657	279
491.874	264
492.092	273
492.31	275
492.527	281
492.745	275
492.963	297
493.18	297
493.398	282
493.615	300
493.833	276
494.05	296
494.268	280
494.485	254
494.703	298
494.92	290
495.138	283
495.355	295
495.573	296
495.79	289
496.008	283
496.225	288
496.442	280
496.66	293
496.877	270
497.094	316
497.312	306
497.529	306
497.746	322
497.963	314
498.181	322
498.398	336
498.615	356
498.832	366
499.049	401
499.267	428
499.484	449
499.701	511
499.918	533
500.135	645
500.352	745
500.569	765
500.786	782
501.003	721
501.22	626
501.437	570
501.654	485
501.871	464
502.088	418
502.305	405
502.522	394
502.739	373
502.956	358
503.172	338
503.389	330
503.606	308
503.823	323
504.04	305
504.256	294
504.473	329
504.69	336
504.907	336
505.123	305
505.34	288
505.557	281
505.773	277
505.99	276
506.207	281
506.423	277
506.64	265
506.856	253
507.073	251
507.289	269
507.506	256
507.722	276
507.939	259
508.155	250
508.372	246
508.588	248
508.805	241
509.021	258
509.238	264
509.454	231
509.67	227
509.887	239
510.103	249
510.319	230
510.536	248
510.752	232
510.968	245
511.184	255
511.401	250
511.617	240
511.833	240
512.049	235
512.265	246
512.481	229
512.698	237
512.914	239
513.13	250
513.346	235
513.562	246
513.778	248
513.994	240
514.21	232
514.426	253
514.642	235
514.858	244
515.074	250
515.29	256
515.506	261
515.721	246
515.937	264
516.153	264
516.369	278
516.585	280
516.801	282
517.016	285
517.232	312
517.448	320
517.664	321
517.879	318
518.095	329
518.311	327
518.527	305
518.742	294
518.958	273
519.173	280
519.389	290
519.605	274
519.82	253
520.036	253
520.251	252
520.467	258
520.682	252
520.898	253
521.113	236
521.329	233
521.544	248
521.76	250
521.975	225
522.19	233
522.406	221
522.621	221
522.836	233
523.052	248
523.267	222
523.482	233
523.698	237
523.913	246
524.128	225
524.343	233
524.559	236
524.774	231
524.989	228
525.204	229
525.419	224
525.634	220
525.849	226
526.064	226
526.28	249
526.495	234
526.71	234
526.925	229
527.14	221
527.355	222
527.57	240
527.785	223
527.999	224
528.214	230
528.429	229
528.644	232
528.859	244
529.074	214
529.289	217
529.503	234
529.718	224
529.933	217
530.148	232
530.363	223
530.577	236
530.792	224
531.007	225
531.221	233
531.436	233
531.651	222
531.865	232
532.08	241
532.295	223
532.509	233
532.724	234
532.938	221
533.153	223
533.367	228
533.582	238
533.796	241
534.011	237
534.225	228
534.44	230
534.654	235
534.868	217
535.083	232
535.297	235
535.511	236
535.726	237
535.94	223
536.154	212
536.369	224
536.583	228
536.797	234
537.011	221
537.225	204
537.44	230
537.654	202
537.868	213
538.082	200
538.296	209
538.51	215
538.724	202
538.938	216
539.153	224
539.367	231
539.581	230
539.795	217
540.009	222
540.222	210
540.436	204
540.65	218
540.864	230
541.078	205
541.292	228
541.506	218
541.72	224
541.934	207
542.147	223
542.361	237
542.575	204
542.789	209
543.002	217
543.216	226
543.43	220
543.644	216
543.857	212
544.071	226
544.285	218
544.498	218
544.712	233
544.925	230
545.139	210
545.352	214
545.566	219
545.779	216
545.993	218
546.206	215
546.42	218
546.633	228
546.847	220
547.06	220
547.274	220
547.487	244
547.7	246
547.914	233
548.127	227
548.34	222
548.554	218
548.767	224
548.98	217
549.193	237
549.407	221
549.62	229
549.833	226
550.046	232
550.259	223
550.473	213
550.686	232
550.899	226
551.112	217
551.325	231
551.538	200
551.751	210
551.964	224
552.177	228
552.39	226
552.603	249
552.816	225
553.029	237
553.242	223
553.455	268
553.667	239
553.88	241
554.093	252
554.306	239
554.519	233
554.732	221
554.944	218
555.157	192
555.37	220
555.583	220
555.795	225
556.008	202
556.221	206
556.433	194
556.646	222
556.859	190
557.071	206
557.284	213
557.496	209
557.709	196
557.921	215
558.134	190
558.346	205
558.559	202
558.771	196
558.984	201
559.196	207
559.409	205
559.621	184
559.833	198
560.046	184
560.258	202
560.47	201
560.683	194
560.895	214
561.107	203
561.32	178
561.532	187
561.744	202
561.956	194
562.168	192
562.381	204
562.593	197
562.805	207
563.017	189
563.229	202
563.441	198
563.653	195
563.865	208
564.077	205
564.289	201
564.501	222
564.713	213
564.925	205
565.137	206
