Data from 0.5MCu(NO3)2.Standard.Lamp.E10.CV._HRD10591_16-04-42-752.txt Node
Date: Mon Jul 22 16:04:42 EDT 2019
User: cochatt
Spectrometer: HR+D1059
Trigger mode: 1
Integration Time (sec): 1.000000E-1
Scans to average: 1
Electric dark correction enabled: true
Nonlinearity correction enabled: false
Boxcar width: 0
XAxis mode: Wavelengths
Number of Pixels in Spectrum: 2048
>>>>>Begin Spectral Data<<<<<
223.165	-15.94
223.4	-15.94
223.635	-15.94
223.869	-30.94
224.104	-32.94
224.338	-2.94
224.573	-18.94
224.808	-2.94
225.042	-8.94
225.277	-8.94
225.511	-12.94
225.746	12.06
225.98	9.06
226.215	21.06
226.449	15.06
226.683	17.06
226.918	26.06
227.152	35.06
227.387	32.06
227.621	27.06
227.856	45.06
228.09	35.06
228.324	42.06
228.559	62.06
228.793	64.06
229.027	89.06
229.262	80.06
229.496	78.06
229.73	77.06
229.964	75.06
230.199	64.06
230.433	84.06
230.667	100.06
230.901	92.06
231.136	80.06
231.37	84.06
231.604	88.06
231.838	79.06
232.072	94.06
232.306	93.06
232.541	90.06
232.775	100.06
233.009	82.06
233.243	101.06
233.477	109.06
233.711	98.06
233.945	92.06
234.179	90.06
234.413	101.06
234.647	104.06
234.881	94.06
235.115	98.06
235.349	76.06
235.583	99.06
235.817	80.06
236.051	89.06
236.285	85.06
236.519	94.06
236.753	94.06
236.987	96.06
237.221	85.06
237.455	115.06
237.689	86.06
237.922	89.06
238.156	88.06
238.39	92.06
238.624	91.06
238.858	105.06
239.091	88.06
239.325	99.06
239.559	96.06
239.793	87.06
240.027	83.06
240.26	105.06
240.494	98.06
240.728	94.06
240.961	82.06
241.195	98.06
241.429	104.06
241.662	86.06
241.896	113.06
242.13	89.06
242.363	89.06
242.597	87.06
242.83	89.06
243.064	102.06
243.298	105.06
243.531	99.06
243.765	93.06
243.998	105.06
244.232	101.06
244.465	107.06
244.699	104.06
244.932	115.06
245.166	97.06
245.399	94.06
245.633	91.06
245.866	95.06
246.099	115.06
246.333	91.06
246.566	105.06
246.8	120.06
247.033	126.06
247.266	102.06
247.5	100.06
247.733	109.06
247.966	117.06
248.2	99.06
248.433	103.06
248.666	116.06
248.899	105.06
249.133	97.06
249.366	92.06
249.599	103.06
249.832	108.06
250.066	107.06
250.299	119.06
250.532	123.06
250.765	116.06
250.998	110.06
251.231	95.06
251.465	113.06
251.698	114.06
251.931	105.06
252.164	123.06
252.397	113.06
252.63	115.06
252.863	127.06
253.096	104.06
253.329	122.06
253.562	106.06
253.795	116.06
254.028	133.06
254.261	129.06
254.494	109.06
254.727	127.06
254.96	112.06
255.193	108.06
255.426	120.06
255.659	115.06
255.892	127.06
256.124	125.06
256.357	108.06
256.59	111.06
256.823	125.06
257.056	119.06
257.289	119.06
257.521	129.06
257.754	118.06
257.987	138.06
258.22	142.06
258.452	117.06
258.685	117.06
258.918	112.06
259.151	113.06
259.383	117.06
259.616	109.06
259.849	127.06
260.081	130.06
260.314	119.06
260.547	140.06
260.779	130.06
261.012	127.06
261.244	138.06
261.477	119.06
261.71	136.06
261.942	124.06
262.175	132.06
262.407	130.06
262.64	125.06
262.872	135.06
263.105	137.06
263.337	126.06
263.57	131.06
263.802	124.06
264.035	124.06
264.267	124.06
264.499	134.06
264.732	135.06
264.964	146.06
265.197	127.06
265.429	129.06
265.661	122.06
265.894	144.06
266.126	132.06
266.358	129.06
266.591	145.06
266.823	124.06
267.055	123.06
267.287	131.06
267.52	133.06
267.752	123.06
267.984	128.06
268.216	135.06
268.448	131.06
268.681	142.06
268.913	131.06
269.145	144.06
269.377	155.06
269.609	133.06
269.841	133.06
270.073	132.06
270.306	145.06
270.538	140.06
270.77	149.06
271.002	143.06
271.234	144.06
271.466	153.06
271.698	138.06
271.93	143.06
272.162	154.06
272.394	149.06
272.626	171.06
272.858	146.06
273.09	155.06
273.322	146.06
273.553	151.06
273.785	147.06
274.017	138.06
274.249	143.06
274.481	145.06
274.713	142.06
274.945	143.06
275.176	146.06
275.408	147.06
275.64	150.06
275.872	155.06
276.104	134.06
276.335	159.06
276.567	154.06
276.799	156.06
277.031	152.06
277.262	164.06
277.494	159.06
277.726	160.06
277.957	135.06
278.189	156.06
278.421	170.06
278.652	162.06
278.884	156.06
279.115	155.06
279.347	150.06
279.579	159.06
279.81	164.06
280.042	145.06
280.273	147.06
280.505	171.06
280.736	166.06
280.968	164.06
281.199	157.06
281.431	160.06
281.662	153.06
281.894	151.06
282.125	162.06
282.356	163.06
282.588	160.06
282.819	158.06
283.051	146.06
283.282	184.06
283.513	159.06
283.745	170.06
283.976	166.06
284.207	172.06
284.439	167.06
284.67	181.06
284.901	164.06
285.132	188.06
285.364	163.06
285.595	171.06
285.826	184.06
286.057	165.06
286.288	172.06
286.52	188.06
286.751	160.06
286.982	170.06
287.213	169.06
287.444	187.06
287.675	173.06
287.906	174.06
288.138	173.06
288.369	176.06
288.6	174.06
288.831	161.06
289.062	174.06
289.293	168.06
289.524	179.06
289.755	167.06
289.986	185.06
290.217	175.06
290.448	167.06
290.679	197.06
290.91	183.06
291.141	168.06
291.371	184.06
291.602	189.06
291.833	175.06
292.064	185.06
292.295	187.06
292.526	197.06
292.757	183.06
292.987	194.06
293.218	184.06
293.449	185.06
293.68	190.06
293.91	176.06
294.141	190.06
294.372	171.06
294.603	177.06
294.833	180.06
295.064	181.06
295.295	193.06
295.525	176.06
295.756	179.06
295.987	176.06
296.217	182.06
296.448	181.06
296.679	182.06
296.909	184.06
297.14	185.06
297.37	183.06
297.601	191.06
297.831	193.06
298.062	198.06
298.292	189.06
298.523	208.06
298.753	192.06
298.984	192.06
299.214	198.06
299.445	189.06
299.675	197.06
299.905	208.06
300.136	201.06
300.366	201.06
300.597	203.06
300.827	188.06
301.057	206.06
301.288	200.06
301.518	200.06
301.748	208.06
301.979	202.06
302.209	201.06
302.439	199.06
302.669	186.06
302.9	191.06
303.13	195.06
303.36	189.06
303.59	201.06
303.82	187.06
304.051	208.06
304.281	200.06
304.511	198.06
304.741	184.06
304.971	187.06
305.201	196.06
305.431	190.06
305.661	180.06
305.891	206.06
306.121	201.06
306.352	198.06
306.582	216.06
306.812	189.06
307.042	204.06
307.272	193.06
307.502	200.06
307.731	219.06
307.961	181.06
308.191	196.06
308.421	191.06
308.651	184.06
308.881	197.06
309.111	207.06
309.341	197.06
309.571	205.06
309.8	194.06
310.03	215.06
310.26	205.06
310.49	201.06
310.72	201.06
310.949	207.06
311.179	194.06
311.409	207.06
311.639	204.06
311.868	212.06
312.098	198.06
312.328	197.06
312.557	223.06
312.787	212.06
313.017	197.06
313.246	215.06
313.476	209.06
313.706	213.06
313.935	214.06
314.165	217.06
314.394	198.06
314.624	222.06
314.853	208.06
315.083	202.06
315.312	207.06
315.542	205.06
315.771	207.06
316.001	200.06
316.23	201.06
316.46	211.06
316.689	196.06
316.919	199.06
317.148	196.06
317.377	198.06
317.607	211.06
317.836	228.06
318.065	200.06
318.295	204.06
318.524	202.06
318.753	189.06
318.983	201.06
319.212	198.06
319.441	207.06
319.67	204.06
319.9	205.06
320.129	206.06
320.358	196.06
320.587	194.06
320.816	196.06
321.046	193.06
321.275	200.06
321.504	195.06
321.733	191.06
321.962	197.06
322.191	210.06
322.42	213.06
322.649	207.06
322.878	200.06
323.108	203.06
323.337	190.06
323.566	219.06
323.795	211.06
324.024	210.06
324.253	188.06
324.482	200.06
324.71	201.06
324.939	198.06
325.168	205.06
325.397	214.06
325.626	224.06
325.855	214.06
326.084	217.06
326.313	234.06
326.542	225.06
326.77	221.06
326.999	231.06
327.228	209.06
327.457	206.06
327.686	203.06
327.914	212.06
328.143	221.06
328.372	207.06
328.6	230.06
328.829	218.06
329.058	219.06
329.287	219.06
329.515	225.06
329.744	210.06
329.972	239.06
330.201	212.06
330.43	220.06
330.658	221.06
330.887	212.06
331.115	239.06
331.344	226.06
331.572	225.06
331.801	238.06
332.03	239.06
332.258	234.06
332.486	256.06
332.715	249.06
332.943	265.06
333.172	272.06
333.4	278.06
333.629	283.06
333.857	269.06
334.085	258.06
334.314	271.06
334.542	286.06
334.771	267.06
334.999	283.06
335.227	267.06
335.455	261.06
335.684	258.06
335.912	261.06
336.14	252.06
336.369	248.06
336.597	230.06
336.825	235.06
337.053	243.06
337.281	239.06
337.51	258.06
337.738	231.06
337.966	232.06
338.194	219.06
338.422	236.06
338.65	236.06
338.878	232.06
339.106	238.06
339.334	224.06
339.562	230.06
339.79	235.06
340.018	220.06
340.246	227.06
340.474	233.06
340.702	215.06
340.93	219.06
341.158	223.06
341.386	229.06
341.614	222.06
341.842	228.06
342.07	217.06
342.298	222.06
342.526	209.06
342.754	228.06
342.981	224.06
343.209	216.06
343.437	241.06
343.665	251.06
343.893	259.06
344.12	272.06
344.348	278.06
344.576	255.06
344.804	221.06
345.031	210.06
345.259	229.06
345.487	223.06
345.714	231.06
345.942	213.06
346.17	240.06
346.397	216.06
346.625	213.06
346.853	215.06
347.08	216.06
347.308	229.06
347.535	231.06
347.763	219.06
347.99	223.06
348.218	212.06
348.445	210.06
348.673	224.06
348.9	210.06
349.128	222.06
349.355	209.06
349.583	249.06
349.81	218.06
350.037	208.06
350.265	233.06
350.492	213.06
350.72	215.06
350.947	199.06
351.174	195.06
351.402	200.06
351.629	229.06
351.856	211.06
352.083	220.06
352.311	202.06
352.538	201.06
352.765	196.06
352.992	209.06
353.22	219.06
353.447	232.06
353.674	214.06
353.901	211.06
354.128	212.06
354.355	227.06
354.583	215.06
354.81	229.06
355.037	208.06
355.264	215.06
355.491	211.06
355.718	221.06
355.945	210.06
356.172	213.06
356.399	210.06
356.626	206.06
356.853	207.06
357.08	204.06
357.307	216.06
357.534	203.06
357.761	208.06
357.988	207.06
358.215	219.06
358.441	210.06
358.668	210.06
358.895	203.06
359.122	223.06
359.349	218.06
359.576	220.06
359.802	210.06
360.029	210.06
360.256	227.06
360.483	217.06
360.709	216.06
360.936	201.06
361.163	215.06
361.39	222.06
361.616	227.06
361.843	219.06
362.07	227.06
362.296	212.06
362.523	209.06
362.749	219.06
362.976	209.06
363.203	204.06
363.429	209.06
363.656	205.06
363.882	203.06
364.109	203.06
364.335	205.06
364.562	203.06
364.788	203.06
365.015	217.06
365.241	193.06
365.468	199.06
365.694	203.06
365.92	208.06
366.147	203.06
366.373	203.06
366.599	218.06
366.826	208.06
367.052	215.06
367.278	191.06
367.505	203.06
367.731	207.06
367.957	225.06
368.184	221.06
368.41	245.06
368.636	217.06
368.862	227.06
369.089	215.06
369.315	229.06
369.541	207.06
369.767	216.06
369.993	215.06
370.219	213.06
370.445	223.06
370.672	226.06
370.898	215.06
371.124	228.06
371.35	210.06
371.576	216.06
371.802	219.06
372.028	229.06
372.254	223.06
372.48	226.06
372.706	238.06
372.932	226.06
373.158	226.06
373.384	207.06
373.61	222.06
373.835	216.06
374.061	214.06
374.287	225.06
374.513	218.06
374.739	238.06
374.965	228.06
375.191	237.06
375.416	237.06
375.642	221.06
375.868	245.06
376.094	232.06
376.319	218.06
376.545	230.06
376.771	222.06
376.997	235.06
377.222	220.06
377.448	221.06
377.674	213.06
377.899	224.06
378.125	230.06
378.35	203.06
378.576	216.06
378.802	223.06
379.027	235.06
379.253	232.06
379.478	221.06
379.704	233.06
379.929	224.06
380.155	205.06
380.38	215.06
380.606	214.06
380.831	212.06
381.057	206.06
381.282	221.06
381.507	231.06
381.733	238.06
381.958	215.06
382.184	227.06
382.409	229.06
382.634	238.06
382.86	216.06
383.085	222.06
383.31	214.06
383.535	224.06
383.761	233.06
383.986	243.06
384.211	245.06
384.436	233.06
384.662	256.06
384.887	247.06
385.112	244.06
385.337	251.06
385.562	256.06
385.787	240.06
386.013	285.06
386.238	252.06
386.463	248.06
386.688	246.06
386.913	265.06
387.138	247.06
387.363	252.06
387.588	243.06
387.813	246.06
388.038	227.06
388.263	244.06
388.488	240.06
388.713	256.06
388.938	236.06
389.163	244.06
389.387	235.06
389.612	245.06
389.837	248.06
390.062	248.06
390.287	240.06
390.512	232.06
390.736	254.06
390.961	237.06
391.186	259.06
391.411	249.06
391.636	258.06
391.86	266.06
392.085	289.06
392.31	292.06
392.534	277.06
392.759	261.06
392.984	246.06
393.208	253.06
393.433	246.06
393.658	259.06
393.882	266.06
394.107	274.06
394.331	246.06
394.556	263.06
394.78	269.06
395.005	259.06
395.229	251.06
395.454	256.06
395.678	272.06
395.903	271.06
396.127	276.06
396.352	277.06
396.576	256.06
396.801	251.06
397.025	265.06
397.249	266.06
397.474	267.06
397.698	257.06
397.922	265.06
398.147	251.06
398.371	278.06
398.595	272.06
398.82	285.06
399.044	291.06
399.268	328.06
399.492	411.06
399.717	432.06
399.941	446.06
400.165	366.06
400.389	353.06
400.613	320.06
400.837	292.06
401.062	283.06
401.286	287.06
401.51	298.06
401.734	298.06
401.958	287.06
402.182	297.06
402.406	307.06
402.63	304.06
402.854	307.06
403.078	322.06
403.302	316.06
403.526	331.06
403.75	311.06
403.974	345.06
404.198	349.06
404.422	339.06
404.645	340.06
404.869	340.06
405.093	334.06
405.317	312.06
405.541	329.06
405.765	313.06
405.988	308.06
406.212	318.06
406.436	308.06
406.66	323.06
406.883	334.06
407.107	344.06
407.331	354.06
407.555	385.06
407.778	363.06
408.002	342.06
408.226	355.06
408.449	345.06
408.673	336.06
408.896	330.06
409.12	322.06
409.344	335.06
409.567	323.06
409.791	340.06
410.014	332.06
410.238	315.06
410.461	329.06
410.685	315.06
410.908	317.06
411.132	319.06
411.355	294.06
411.578	327.06
411.802	293.06
412.025	297.06
412.249	299.06
412.472	315.06
412.695	292.06
412.919	294.06
413.142	287.06
413.365	292.06
413.589	296.06
413.812	283.06
414.035	301.06
414.258	290.06
414.482	299.06
414.705	307.06
414.928	291.06
415.151	278.06
415.374	310.06
415.597	311.06
415.821	286.06
416.044	283.06
416.267	288.06
416.49	267.06
416.713	297.06
416.936	293.06
417.159	291.06
417.382	276.06
417.605	282.06
417.828	289.06
418.051	295.06
418.274	289.06
418.497	300.06
418.72	292.06
418.943	315.06
419.166	316.06
419.389	336.06
419.611	334.06
419.834	318.06
420.057	293.06
420.28	295.06
420.503	272.06
420.726	286.06
420.948	286.06
421.171	280.06
421.394	297.06
421.617	286.06
421.839	297.06
422.062	289.06
422.285	293.06
422.507	305.06
422.73	301.06
422.953	312.06
423.175	295.06
423.398	316.06
423.621	311.06
423.843	302.06
424.066	300.06
424.288	321.06
424.511	331.06
424.733	300.06
424.956	280.06
425.178	299.06
425.401	281.06
425.623	296.06
425.846	280.06
426.068	280.06
426.291	283.06
426.513	259.06
426.735	271.06
426.958	272.06
427.18	266.06
427.402	286.06
427.625	257.06
427.847	267.06
428.069	264.06
428.292	247.06
428.514	256.06
428.736	253.06
428.958	254.06
429.181	265.06
429.403	253.06
429.625	236.06
429.847	273.06
430.069	259.06
430.292	271.06
430.514	250.06
430.736	251.06
430.958	255.06
431.18	246.06
431.402	254.06
431.624	267.06
431.846	256.06
432.068	265.06
432.29	268.06
432.512	246.06
432.734	253.06
432.956	243.06
433.178	271.06
433.4	278.06
433.622	257.06
433.844	277.06
434.066	274.06
434.287	270.06
434.509	270.06
434.731	292.06
434.953	286.06
435.175	294.06
435.397	288.06
435.618	277.06
435.84	275.06
436.062	264.06
436.284	263.06
436.505	250.06
436.727	250.06
436.949	261.06
437.17	270.06
437.392	266.06
437.614	264.06
437.835	251.06
438.057	258.06
438.278	261.06
438.5	268.06
438.721	255.06
438.943	260.06
439.165	259.06
439.386	256.06
439.608	267.06
439.829	254.06
440.05	277.06
440.272	273.06
440.493	272.06
440.715	266.06
440.936	271.06
441.158	287.06
441.379	283.06
441.6	289.06
441.822	303.06
442.043	309.06
442.264	287.06
442.486	259.06
442.707	279.06
442.928	288.06
443.149	308.06
443.371	297.06
443.592	291.06
443.813	288.06
444.034	307.06
444.255	289.06
444.476	323.06
444.698	328.06
444.919	336.06
445.14	448.06
445.361	379.06
445.582	303.06
445.803	277.06
446.024	271.06
446.245	283.06
446.466	282.06
446.687	270.06
446.908	270.06
447.129	246.06
447.35	263.06
447.571	255.06
447.792	270.06
448.013	258.06
448.234	250.06
448.455	265.06
448.675	227.06
448.896	235.06
449.117	228.06
449.338	255.06
449.559	241.06
449.779	248.06
450	236.06
450.221	252.06
450.442	256.06
450.662	262.06
450.883	259.06
451.104	253.06
451.324	249.06
451.545	259.06
451.766	238.06
451.986	251.06
452.207	255.06
452.428	241.06
452.648	252.06
452.869	240.06
453.089	248.06
453.31	245.06
453.53	237.06
453.751	244.06
453.971	235.06
454.192	235.06
454.412	237.06
454.633	253.06
454.853	244.06
455.073	227.06
455.294	227.06
455.514	238.06
455.734	238.06
455.955	222.06
456.175	235.06
456.395	228.06
456.616	233.06
456.836	233.06
457.056	216.06
457.276	226.06
457.497	237.06
457.717	225.06
457.937	223.06
458.157	241.06
458.377	239.06
458.598	258.06
458.818	245.06
459.038	247.06
459.258	256.06
459.478	273.06
459.698	250.06
459.918	276.06
460.138	292.06
460.358	302.06
460.578	294.06
460.798	306.06
461.018	308.06
461.238	300.06
461.458	287.06
461.678	301.06
461.898	320.06
462.118	311.06
462.338	319.06
462.558	348.06
462.777	331.06
462.997	379.06
463.217	405.06
463.437	385.06
463.657	377.06
463.876	348.06
464.096	350.06
464.316	365.06
464.536	368.06
464.755	343.06
464.975	336.06
465.195	287.06
465.414	296.06
465.634	283.06
465.854	295.06
466.073	276.06
466.293	269.06
466.512	275.06
466.732	275.06
466.951	268.06
467.171	274.06
467.391	283.06
467.61	271.06
467.829	274.06
468.049	257.06
468.268	245.06
468.488	238.06
468.707	234.06
468.927	245.06
469.146	251.06
469.365	252.06
469.585	243.06
469.804	264.06
470.023	263.06
470.243	257.06
470.462	265.06
470.681	274.06
470.901	288.06
471.12	257.06
471.339	277.06
471.558	264.06
471.777	253.06
471.997	243.06
472.216	236.06
472.435	241.06
472.654	241.06
472.873	238.06
473.092	249.06
473.311	237.06
473.53	231.06
473.749	247.06
473.968	252.06
474.187	249.06
474.406	256.06
474.625	247.06
474.844	251.06
475.063	255.06
475.282	265.06
475.501	272.06
475.72	248.06
475.939	248.06
476.158	246.06
476.377	255.06
476.596	260.06
476.814	261.06
477.033	282.06
477.252	266.06
477.471	248.06
477.69	257.06
477.908	275.06
478.127	302.06
478.346	303.06
478.564	291.06
478.783	299.06
479.002	309.06
479.22	309.06
479.439	310.06
479.658	307.06
479.876	285.06
480.095	310.06
480.313	317.06
480.532	313.06
480.751	305.06
480.969	295.06
481.188	309.06
481.406	301.06
481.624	302.06
481.843	286.06
482.061	282.06
482.28	285.06
482.498	288.06
482.717	274.06
482.935	272.06
483.153	284.06
483.372	285.06
483.59	282.06
483.808	284.06
484.027	269.06
484.245	270.06
484.463	285.06
484.681	307.06
484.9	306.06
485.118	290.06
485.336	284.06
485.554	291.06
485.772	299.06
485.99	299.06
486.209	293.06
486.427	308.06
486.645	315.06
486.863	293.06
487.081	311.06
487.299	289.06
487.517	309.06
487.735	282.06
487.953	300.06
488.171	291.06
488.389	300.06
488.607	273.06
488.825	304.06
489.043	284.06
489.261	292.06
489.479	286.06
489.696	290.06
489.914	288.06
490.132	296.06
490.35	298.06
490.568	284.06
490.786	300.06
491.003	302.06
491.221	272.06
491.439	298.06
491.657	311.06
491.874	305.06
492.092	303.06
492.31	286.06
492.527	312.06
492.745	320.06
492.963	320.06
493.18	297.06
493.398	326.06
493.615	300.06
493.833	289.06
494.05	303.06
494.268	319.06
494.485	305.06
494.703	309.06
494.92	311.06
495.138	313.06
495.355	317.06
495.573	321.06
495.79	302.06
496.008	301.06
496.225	313.06
496.442	319.06
496.66	319.06
496.877	340.06
497.094	327.06
497.312	318.06
497.529	340.06
497.746	336.06
497.963	345.06
498.181	347.06
498.398	360.06
498.615	386.06
498.832	423.06
499.049	444.06
499.267	465.06
499.484	516.06
499.701	561.06
499.918	613.06
500.135	687.06
500.352	814.06
500.569	846.06
500.786	852.06
501.003	787.06
501.22	701.06
501.437	611.06
501.654	558.06
501.871	500.06
502.088	470.06
502.305	447.06
502.522	422.06
502.739	395.06
502.956	384.06
