Data from 0.5MCu(NO3)2.Standard.Lamp.E10.CV._HRD10591_16-05-44-753.txt Node
Date: Mon Jul 22 16:05:44 EDT 2019
User: cochatt
Spectrometer: HR+D1059
Trigger mode: 1
Integration Time (sec): 1.000000E-1
Scans to average: 1
Electric dark correction enabled: true
Nonlinearity correction enabled: false
Boxcar width: 0
XAxis mode: Wavelengths
Number of Pixels in Spectrum: 2048
>>>>>Begin Spectral Data<<<<<
223.165	-3.62
223.4	-3.62
223.635	-3.62
223.869	-25.62
224.104	-15.62
224.338	-18.62
224.573	0.38
224.808	-8.62
225.042	-9.62
225.277	-18.62
225.511	-1.62
225.746	-1.62
225.98	11.38
226.215	13.38
226.449	18.38
226.683	2.38
226.918	25.38
227.152	32.38
227.387	34.38
227.621	40.38
227.856	40.38
228.09	40.38
228.324	53.38
228.559	49.38
228.793	74.38
229.027	66.38
229.262	81.38
229.496	80.38
229.73	77.38
229.964	73.38
230.199	90.38
230.433	100.38
230.667	81.38
230.901	82.38
231.136	91.38
231.37	85.38
231.604	93.38
231.838	94.38
232.072	91.38
232.306	92.38
232.541	80.38
232.775	86.38
233.009	90.38
233.243	97.38
233.477	99.38
233.711	104.38
233.945	85.38
234.179	91.38
234.413	77.38
234.647	89.38
234.881	98.38
235.115	98.38
235.349	89.38
235.583	88.38
235.817	89.38
236.051	68.38
236.285	86.38
236.519	82.38
236.753	94.38
236.987	86.38
237.221	84.38
237.455	80.38
237.689	100.38
237.922	78.38
238.156	87.38
238.39	93.38
238.624	86.38
238.858	84.38
239.091	101.38
239.325	86.38
239.559	83.38
239.793	88.38
240.027	96.38
240.26	93.38
240.494	83.38
240.728	91.38
240.961	84.38
241.195	94.38
241.429	83.38
241.662	86.38
241.896	101.38
242.13	94.38
242.363	95.38
242.597	94.38
242.83	88.38
243.064	101.38
243.298	113.38
243.531	94.38
243.765	94.38
243.998	97.38
244.232	96.38
244.465	103.38
244.699	102.38
244.932	98.38
245.166	96.38
245.399	96.38
245.633	102.38
245.866	98.38
246.099	105.38
246.333	90.38
246.566	115.38
246.8	110.38
247.033	91.38
247.266	100.38
247.5	119.38
247.733	103.38
247.966	101.38
248.2	93.38
248.433	104.38
248.666	99.38
248.899	98.38
249.133	101.38
249.366	108.38
249.599	118.38
249.832	102.38
250.066	124.38
250.299	122.38
250.532	106.38
250.765	102.38
250.998	94.38
251.231	106.38
251.465	108.38
251.698	115.38
251.931	111.38
252.164	118.38
252.397	120.38
252.63	105.38
252.863	100.38
253.096	103.38
253.329	101.38
253.562	111.38
253.795	114.38
254.028	112.38
254.261	108.38
254.494	100.38
254.727	109.38
254.96	97.38
255.193	97.38
255.426	120.38
255.659	106.38
255.892	109.38
256.124	100.38
256.357	123.38
256.59	100.38
256.823	106.38
257.056	114.38
257.289	113.38
257.521	101.38
257.754	118.38
257.987	113.38
258.22	122.38
258.452	106.38
258.685	114.38
258.918	112.38
259.151	92.38
259.383	114.38
259.616	114.38
259.849	127.38
260.081	121.38
260.314	123.38
260.547	122.38
260.779	118.38
261.012	108.38
261.244	128.38
261.477	122.38
261.71	124.38
261.942	110.38
262.175	131.38
262.407	122.38
262.64	107.38
262.872	96.38
263.105	124.38
263.337	114.38
263.57	121.38
263.802	136.38
264.035	134.38
264.267	136.38
264.499	121.38
264.732	117.38
264.964	142.38
265.197	131.38
265.429	131.38
265.661	123.38
265.894	130.38
266.126	123.38
266.358	116.38
266.591	139.38
266.823	117.38
267.055	124.38
267.287	121.38
267.52	113.38
267.752	116.38
267.984	138.38
268.216	129.38
268.448	132.38
268.681	142.38
268.913	127.38
269.145	142.38
269.377	132.38
269.609	116.38
269.841	128.38
270.073	130.38
270.306	130.38
270.538	152.38
270.77	119.38
271.002	132.38
271.234	134.38
271.466	146.38
271.698	137.38
271.93	139.38
272.162	125.38
272.394	117.38
272.626	131.38
272.858	142.38
273.09	128.38
273.322	130.38
273.553	146.38
273.785	133.38
274.017	129.38
274.249	134.38
274.481	139.38
274.713	144.38
274.945	120.38
275.176	131.38
275.408	134.38
275.64	145.38
275.872	129.38
276.104	146.38
276.335	136.38
276.567	130.38
276.799	141.38
277.031	142.38
277.262	134.38
277.494	130.38
277.726	138.38
277.957	143.38
278.189	125.38
278.421	137.38
278.652	148.38
278.884	128.38
279.115	142.38
279.347	151.38
279.579	141.38
279.81	136.38
280.042	145.38
280.273	151.38
280.505	155.38
280.736	142.38
280.968	154.38
281.199	144.38
281.431	155.38
281.662	153.38
281.894	153.38
282.125	149.38
282.356	145.38
282.588	143.38
282.819	164.38
283.051	157.38
283.282	138.38
283.513	143.38
283.745	151.38
283.976	165.38
284.207	158.38
284.439	141.38
284.67	150.38
284.901	143.38
285.132	145.38
285.364	156.38
285.595	154.38
285.826	147.38
286.057	154.38
286.288	155.38
286.52	155.38
286.751	148.38
286.982	167.38
287.213	151.38
287.444	166.38
287.675	158.38
287.906	136.38
288.138	146.38
288.369	152.38
288.6	168.38
288.831	161.38
289.062	178.38
289.293	170.38
289.524	159.38
289.755	153.38
289.986	151.38
290.217	146.38
290.448	170.38
290.679	164.38
290.91	160.38
291.141	167.38
291.371	156.38
291.602	146.38
291.833	148.38
292.064	169.38
292.295	159.38
292.526	151.38
292.757	163.38
292.987	179.38
293.218	145.38
293.449	169.38
293.68	166.38
293.91	170.38
294.141	178.38
294.372	154.38
294.603	158.38
294.833	170.38
295.064	165.38
295.295	180.38
295.525	162.38
295.756	176.38
295.987	166.38
296.217	162.38
296.448	164.38
296.679	160.38
296.909	155.38
297.14	158.38
297.37	170.38
297.601	165.38
297.831	164.38
298.062	177.38
298.292	172.38
298.523	175.38
298.753	168.38
298.984	189.38
299.214	184.38
299.445	179.38
299.675	171.38
299.905	166.38
300.136	167.38
300.366	180.38
300.597	180.38
300.827	172.38
301.057	176.38
301.288	186.38
301.518	182.38
301.748	175.38
301.979	172.38
302.209	186.38
302.439	164.38
302.669	182.38
302.9	161.38
303.13	169.38
303.36	185.38
303.59	187.38
303.82	176.38
304.051	180.38
304.281	180.38
304.511	179.38
304.741	195.38
304.971	184.38
305.201	178.38
305.431	190.38
305.661	179.38
305.891	169.38
306.121	197.38
306.352	186.38
306.582	164.38
306.812	162.38
307.042	184.38
307.272	174.38
307.502	171.38
307.731	189.38
307.961	188.38
308.191	180.38
308.421	181.38
308.651	188.38
308.881	160.38
309.111	185.38
309.341	184.38
309.571	170.38
309.8	181.38
310.03	168.38
310.26	170.38
310.49	204.38
310.72	198.38
310.949	171.38
311.179	171.38
311.409	179.38
311.639	177.38
311.868	195.38
312.098	174.38
312.328	173.38
312.557	178.38
312.787	177.38
313.017	188.38
313.246	186.38
313.476	172.38
313.706	176.38
313.935	181.38
314.165	188.38
314.394	188.38
314.624	186.38
314.853	182.38
315.083	173.38
315.312	182.38
315.542	168.38
315.771	188.38
316.001	180.38
316.23	192.38
316.46	169.38
316.689	187.38
316.919	176.38
317.148	188.38
317.377	185.38
317.607	192.38
317.836	178.38
318.065	169.38
318.295	180.38
318.524	180.38
318.753	182.38
318.983	183.38
319.212	163.38
319.441	180.38
319.67	184.38
319.9	185.38
320.129	201.38
320.358	189.38
320.587	178.38
320.816	182.38
321.046	173.38
321.275	175.38
321.504	171.38
321.733	166.38
321.962	169.38
322.191	180.38
322.42	184.38
322.649	185.38
322.878	166.38
323.108	183.38
323.337	176.38
323.566	187.38
323.795	185.38
324.024	194.38
324.253	209.38
324.482	172.38
324.71	173.38
324.939	187.38
325.168	185.38
325.397	197.38
325.626	187.38
325.855	213.38
326.084	187.38
326.313	205.38
326.542	198.38
326.77	219.38
326.999	198.38
327.228	190.38
327.457	182.38
327.686	188.38
327.914	195.38
328.143	198.38
328.372	177.38
328.6	193.38
328.829	169.38
329.058	171.38
329.287	203.38
329.515	185.38
329.744	182.38
329.972	191.38
330.201	198.38
330.43	186.38
330.658	191.38
330.887	203.38
331.115	204.38
331.344	211.38
331.572	192.38
331.801	202.38
332.03	208.38
332.258	205.38
332.486	199.38
332.715	220.38
332.943	235.38
333.172	233.38
333.4	231.38
333.629	249.38
333.857	233.38
334.085	234.38
334.314	248.38
334.542	235.38
334.771	235.38
334.999	230.38
335.227	207.38
335.455	229.38
335.684	234.38
335.912	228.38
336.14	228.38
336.369	218.38
336.597	221.38
336.825	215.38
337.053	212.38
337.281	221.38
337.51	214.38
337.738	211.38
337.966	206.38
338.194	196.38
338.422	207.38
338.65	198.38
338.878	203.38
339.106	182.38
339.334	208.38
339.562	211.38
339.79	200.38
340.018	196.38
340.246	204.38
340.474	204.38
340.702	194.38
340.93	202.38
341.158	203.38
341.386	194.38
341.614	196.38
341.842	194.38
342.07	186.38
342.298	210.38
342.526	203.38
342.754	197.38
342.981	198.38
343.209	182.38
343.437	208.38
343.665	241.38
343.893	227.38
344.12	240.38
344.348	220.38
344.576	220.38
344.804	205.38
345.031	212.38
345.259	206.38
345.487	193.38
345.714	204.38
345.942	209.38
346.17	198.38
346.397	184.38
346.625	180.38
346.853	186.38
347.08	187.38
347.308	199.38
347.535	198.38
347.763	204.38
347.99	204.38
348.218	182.38
348.445	204.38
348.673	211.38
348.9	204.38
349.128	210.38
349.355	202.38
349.583	195.38
349.81	190.38
350.037	196.38
350.265	202.38
350.492	188.38
350.72	202.38
350.947	172.38
351.174	198.38
351.402	186.38
351.629	182.38
351.856	204.38
352.083	193.38
352.311	185.38
352.538	194.38
352.765	180.38
352.992	182.38
353.22	186.38
353.447	192.38
353.674	184.38
353.901	197.38
354.128	190.38
354.355	194.38
354.583	204.38
354.81	187.38
355.037	197.38
355.264	203.38
355.491	182.38
355.718	193.38
355.945	197.38
356.172	194.38
356.399	209.38
356.626	190.38
356.853	196.38
357.08	179.38
357.307	194.38
357.534	192.38
357.761	187.38
357.988	185.38
358.215	202.38
358.441	176.38
358.668	182.38
358.895	184.38
359.122	184.38
359.349	185.38
359.576	173.38
359.802	190.38
360.029	199.38
360.256	178.38
360.483	186.38
360.709	186.38
360.936	205.38
361.163	184.38
361.39	192.38
361.616	204.38
361.843	179.38
362.07	182.38
362.296	186.38
362.523	188.38
362.749	182.38
362.976	177.38
363.203	170.38
363.429	195.38
363.656	195.38
363.882	199.38
364.109	171.38
364.335	189.38
364.562	180.38
364.788	182.38
365.015	189.38
365.241	179.38
365.468	182.38
365.694	192.38
365.92	177.38
366.147	189.38
366.373	204.38
366.599	200.38
366.826	181.38
367.052	200.38
367.278	194.38
367.505	196.38
367.731	189.38
367.957	190.38
368.184	177.38
368.41	193.38
368.636	187.38
368.862	177.38
369.089	184.38
369.315	187.38
369.541	189.38
369.767	186.38
369.993	193.38
370.219	184.38
370.445	191.38
370.672	205.38
370.898	189.38
371.124	190.38
371.35	198.38
371.576	200.38
371.802	177.38
372.028	199.38
372.254	200.38
372.48	196.38
372.706	204.38
372.932	197.38
373.158	212.38
373.384	194.38
373.61	194.38
373.835	203.38
374.061	202.38
374.287	190.38
374.513	209.38
374.739	202.38
374.965	197.38
375.191	205.38
375.416	219.38
375.642	205.38
375.868	207.38
376.094	219.38
376.319	212.38
376.545	203.38
376.771	186.38
376.997	184.38
377.222	196.38
377.448	187.38
377.674	196.38
377.899	215.38
378.125	197.38
378.35	187.38
378.576	196.38
378.802	187.38
379.027	187.38
379.253	194.38
379.478	205.38
379.704	201.38
379.929	193.38
380.155	206.38
380.38	201.38
380.606	201.38
380.831	199.38
381.057	201.38
381.282	191.38
381.507	197.38
381.733	201.38
381.958	217.38
382.184	201.38
382.409	199.38
382.634	197.38
382.86	203.38
383.085	200.38
383.31	214.38
383.535	217.38
383.761	212.38
383.986	224.38
384.211	224.38
384.436	210.38
384.662	219.38
384.887	216.38
385.112	233.38
385.337	235.38
385.562	240.38
385.787	217.38
386.013	224.38
386.238	224.38
386.463	225.38
386.688	231.38
386.913	219.38
387.138	221.38
387.363	214.38
387.588	210.38
387.813	219.38
388.038	221.38
388.263	229.38
388.488	221.38
388.713	229.38
388.938	226.38
389.163	213.38
389.387	216.38
389.612	221.38
389.837	216.38
390.062	219.38
390.287	217.38
390.512	189.38
390.736	229.38
390.961	217.38
391.186	225.38
391.411	233.38
391.636	227.38
391.86	240.38
392.085	260.38
392.31	231.38
392.534	252.38
392.759	254.38
392.984	243.38
393.208	214.38
393.433	228.38
393.658	237.38
393.882	228.38
394.107	244.38
394.331	248.38
394.556	233.38
394.78	245.38
395.005	235.38
395.229	240.38
395.454	241.38
395.678	248.38
395.903	233.38
396.127	236.38
396.352	235.38
396.576	227.38
396.801	233.38
397.025	217.38
397.249	233.38
397.474	227.38
397.698	232.38
397.922	228.38
398.147	238.38
398.371	222.38
398.595	242.38
398.82	254.38
399.044	263.38
399.268	288.38
399.492	339.38
399.717	358.38
399.941	354.38
400.165	321.38
400.389	305.38
400.613	272.38
400.837	260.38
401.062	267.38
401.286	243.38
401.51	242.38
401.734	262.38
401.958	267.38
402.182	262.38
402.406	258.38
402.63	255.38
402.854	282.38
403.078	271.38
403.302	272.38
403.526	281.38
403.75	280.38
403.974	297.38
404.198	291.38
404.422	297.38
404.645	295.38
404.869	289.38
405.093	275.38
405.317	266.38
405.541	262.38
405.765	257.38
405.988	275.38
406.212	264.38
406.436	264.38
406.66	268.38
406.883	270.38
407.107	301.38
407.331	307.38
407.555	307.38
407.778	318.38
408.002	326.38
408.226	293.38
408.449	301.38
408.673	300.38
408.896	279.38
409.12	274.38
409.344	276.38
409.567	282.38
409.791	281.38
410.014	299.38
410.238	291.38
410.461	296.38
410.685	281.38
410.908	292.38
411.132	277.38
411.355	264.38
411.578	284.38
411.802	283.38
412.025	268.38
412.249	262.38
412.472	264.38
412.695	281.38
412.919	252.38
413.142	256.38
413.365	257.38
413.589	266.38
413.812	242.38
414.035	233.38
414.258	256.38
414.482	274.38
414.705	289.38
414.928	256.38
415.151	269.38
415.374	258.38
415.597	267.38
415.821	260.38
416.044	268.38
416.267	266.38
416.49	252.38
416.713	244.38
416.936	258.38
417.159	245.38
417.382	240.38
417.605	250.38
417.828	268.38
418.051	278.38
418.274	261.38
418.497	258.38
418.72	247.38
418.943	247.38
419.166	282.38
419.389	284.38
419.611	290.38
419.834	277.38
420.057	273.38
420.28	252.38
420.503	252.38
420.726	248.38
420.948	232.38
421.171	262.38
421.394	251.38
421.617	244.38
421.839	233.38
422.062	265.38
422.285	268.38
422.507	277.38
422.73	269.38
422.953	265.38
423.175	254.38
423.398	264.38
423.621	267.38
423.843	274.38
424.066	268.38
424.288	277.38
424.511	282.38
424.733	277.38
424.956	264.38
425.178	276.38
425.401	246.38
425.623	252.38
425.846	253.38
426.068	229.38
426.291	242.38
426.513	224.38
426.735	245.38
426.958	231.38
427.18	232.38
427.402	211.38
427.625	238.38
427.847	225.38
428.069	237.38
428.292	233.38
428.514	242.38
428.736	232.38
428.958	231.38
429.181	221.38
429.403	230.38
429.625	215.38
429.847	219.38
430.069	246.38
430.292	227.38
430.514	234.38
430.736	246.38
430.958	226.38
431.18	228.38
431.402	241.38
431.624	222.38
431.846	233.38
432.068	253.38
432.29	224.38
432.512	231.38
432.734	232.38
432.956	214.38
433.178	235.38
433.4	236.38
433.622	226.38
433.844	253.38
434.066	236.38
434.287	234.38
434.509	219.38
434.731	264.38
434.953	243.38
435.175	256.38
435.397	245.38
435.618	242.38
435.84	246.38
436.062	232.38
436.284	217.38
436.505	229.38
436.727	240.38
436.949	244.38
437.17	224.38
437.392	229.38
437.614	215.38
437.835	214.38
438.057	235.38
438.278	229.38
438.5	221.38
438.721	212.38
438.943	242.38
439.165	229.38
439.386	221.38
439.608	228.38
439.829	234.38
440.05	244.38
440.272	221.38
440.493	230.38
440.715	233.38
440.936	240.38
441.158	240.38
441.379	227.38
441.6	244.38
441.822	248.38
442.043	256.38
442.264	266.38
442.486	242.38
442.707	253.38
442.928	251.38
443.149	244.38
443.371	257.38
443.592	262.38
443.813	242.38
444.034	263.38
444.255	258.38
444.476	284.38
444.698	285.38
444.919	302.38
445.14	425.38
445.361	324.38
445.582	282.38
445.803	264.38
446.024	261.38
446.245	235.38
446.466	232.38
446.687	247.38
446.908	243.38
447.129	240.38
447.35	245.38
447.571	237.38
447.792	226.38
448.013	223.38
448.234	212.38
448.455	208.38
448.675	220.38
448.896	223.38
449.117	216.38
449.338	213.38
449.559	216.38
449.779	217.38
450	217.38
450.221	212.38
450.442	199.38
450.662	215.38
450.883	226.38
451.104	218.38
451.324	240.38
451.545	216.38
451.766	232.38
451.986	217.38
452.207	224.38
452.428	220.38
452.648	239.38
452.869	216.38
453.089	204.38
453.31	221.38
453.53	211.38
453.751	228.38
453.971	212.38
454.192	212.38
454.412	197.38
454.633	229.38
454.853	216.38
455.073	207.38
455.294	217.38
455.514	224.38
455.734	202.38
455.955	227.38
456.175	201.38
456.395	203.38
456.616	210.38
456.836	215.38
457.056	208.38
457.276	227.38
457.497	206.38
457.717	201.38
457.937	207.38
458.157	211.38
458.377	209.38
458.598	226.38
458.818	236.38
459.038	210.38
459.258	231.38
459.478	245.38
459.698	258.38
459.918	232.38
460.138	242.38
460.358	268.38
460.578	267.38
460.798	259.38
461.018	282.38
461.238	259.38
461.458	252.38
461.678	258.38
461.898	275.38
462.118	272.38
462.338	282.38
462.558	292.38
462.777	284.38
462.997	317.38
463.217	350.38
463.437	350.38
463.657	333.38
463.876	323.38
464.096	312.38
464.316	313.38
464.536	310.38
464.755	295.38
464.975	297.38
465.195	285.38
465.414	271.38
465.634	232.38
465.854	237.38
466.073	229.38
466.293	236.38
466.512	237.38
466.732	221.38
466.951	233.38
467.171	230.38
467.391	230.38
467.61	248.38
467.829	208.38
468.049	236.38
468.268	229.38
468.488	240.38
468.707	232.38
468.927	240.38
469.146	224.38
469.365	232.38
469.585	236.38
469.804	244.38
470.023	235.38
470.243	235.38
470.462	237.38
470.681	228.38
470.901	218.38
471.12	240.38
471.339	243.38
471.558	234.38
471.777	207.38
471.997	238.38
472.216	221.38
472.435	221.38
472.654	207.38
472.873	214.38
473.092	222.38
473.311	216.38
473.53	200.38
473.749	240.38
473.968	229.38
474.187	222.38
474.406	227.38
474.625	224.38
474.844	216.38
475.063	227.38
475.282	239.38
475.501	215.38
475.72	232.38
475.939	221.38
476.158	226.38
476.377	214.38
476.596	238.38
476.814	227.38
477.033	242.38
477.252	224.38
477.471	224.38
477.69	247.38
477.908	240.38
478.127	264.38
478.346	272.38
478.564	254.38
478.783	284.38
479.002	266.38
479.22	276.38
479.439	268.38
479.658	242.38
479.876	243.38
480.095	271.38
480.313	286.38
480.532	306.38
480.751	277.38
480.969	264.38
481.188	272.38
481.406	274.38
481.624	226.38
481.843	258.38
482.061	243.38
482.28	254.38
482.498	228.38
482.717	252.38
482.935	228.38
483.153	244.38
483.372	244.38
483.59	265.38
483.808	248.38
484.027	262.38
484.245	261.38
484.463	255.38
484.681	257.38
484.9	253.38
485.118	263.38
485.336	276.38
485.554	237.38
485.772	234.38
485.99	268.38
486.209	260.38
486.427	268.38
486.645	264.38
486.863	264.38
487.081	259.38
487.299	271.38
487.517	259.38
487.735	278.38
487.953	265.38
488.171	258.38
488.389	262.38
488.607	257.38
488.825	270.38
489.043	259.38
489.261	245.38
489.479	261.38
489.696	261.38
489.914	264.38
490.132	272.38
490.35	274.38
490.568	258.38
490.786	250.38
491.003	264.38
491.221	269.38
491.439	249.38
491.657	261.38
491.874	262.38
492.092	265.38
492.31	258.38
492.527	272.38
492.745	274.38
492.963	271.38
493.18	271.38
493.398	288.38
493.615	267.38
493.833	269.38
494.05	266.38
494.268	288.38
494.485	302.38
494.703	270.38
494.92	282.38
495.138	293.38
495.355	250.38
495.573	274.38
495.79	264.38
496.008	269.38
496.225	273.38
496.442	258.38
496.66	287.38
496.877	282.38
497.094	293.38
497.312	287.38
497.529	292.38
497.746	295.38
497.963	299.38
498.181	316.38
498.398	331.38
498.615	346.38
498.832	339.38
499.049	382.38
499.267	390.38
499.484	431.38
499.701	474.38
499.918	540.38
500.135	578.38
500.352	683.38
500.569	729.38
500.786	718.38
501.003	637.38
501.22	574.38
501.437	536.38
501.654	467.38
501.871	434.38
502.088	389.38
502.305	365.38
502.522	353.38
502.739	350.38
502.956	329.38
503.172	326.38
