Data from 0.5MCu(NO3)2.Standard.Lamp.E10.CV._HRD10591_16-06-46-754.txt Node
Date: Mon Jul 22 16:06:46 EDT 2019
User: cochatt
Spectrometer: HR+D1059
Trigger mode: 1
Integration Time (sec): 1.000000E-1
Scans to average: 1
Electric dark correction enabled: true
Nonlinearity correction enabled: false
Boxcar width: 0
XAxis mode: Wavelengths
Number of Pixels in Spectrum: 2048
>>>>>Begin Spectral Data<<<<<
223.165	-5.12
223.4	-5.12
223.635	-5.12
223.869	-25.12
224.104	-22.12
224.338	-21.12
224.573	-20.12
224.808	-10.12
225.042	-3.12
225.277	-2.12
225.511	-2.12
225.746	7.88
225.98	9.88
226.215	9.88
226.449	10.88
226.683	13.88
226.918	29.88
227.152	28.88
227.387	43.88
227.621	27.88
227.856	49.88
228.09	39.88
228.324	53.88
228.559	59.88
228.793	72.88
229.027	68.88
229.262	73.88
229.496	72.88
229.73	75.88
229.964	78.88
230.199	64.88
230.433	82.88
230.667	87.88
230.901	95.88
231.136	96.88
231.37	87.88
231.604	73.88
231.838	88.88
232.072	90.88
232.306	86.88
232.541	93.88
232.775	105.88
233.009	102.88
233.243	91.88
233.477	103.88
233.711	93.88
233.945	76.88
234.179	95.88
234.413	96.88
234.647	111.88
234.881	99.88
235.115	85.88
235.349	93.88
235.583	107.88
235.817	97.88
236.051	83.88
236.285	79.88
236.519	92.88
236.753	90.88
236.987	93.88
237.221	97.88
237.455	79.88
237.689	85.88
237.922	89.88
238.156	89.88
238.39	89.88
238.624	96.88
238.858	86.88
239.091	88.88
239.325	86.88
239.559	89.88
239.793	88.88
240.027	82.88
240.26	87.88
240.494	97.88
240.728	87.88
240.961	87.88
241.195	95.88
241.429	101.88
241.662	99.88
241.896	89.88
242.13	98.88
242.363	103.88
242.597	94.88
242.83	103.88
243.064	93.88
243.298	90.88
243.531	90.88
243.765	104.88
243.998	100.88
244.232	98.88
244.465	89.88
244.699	108.88
244.932	103.88
245.166	104.88
245.399	97.88
245.633	106.88
245.866	105.88
246.099	89.88
246.333	84.88
246.566	98.88
246.8	108.88
247.033	101.88
247.266	101.88
247.5	117.88
247.733	101.88
247.966	104.88
248.2	94.88
248.433	110.88
248.666	109.88
248.899	108.88
249.133	93.88
249.366	107.88
249.599	111.88
249.832	115.88
250.066	117.88
250.299	113.88
250.532	109.88
250.765	107.88
250.998	113.88
251.231	128.88
251.465	107.88
251.698	102.88
251.931	96.88
252.164	104.88
252.397	115.88
252.63	102.88
252.863	90.88
253.096	116.88
253.329	97.88
253.562	112.88
253.795	114.88
254.028	117.88
254.261	125.88
254.494	120.88
254.727	118.88
254.96	114.88
255.193	124.88
255.426	113.88
255.659	119.88
255.892	121.88
256.124	126.88
256.357	117.88
256.59	125.88
256.823	129.88
257.056	135.88
257.289	116.88
257.521	120.88
257.754	110.88
257.987	114.88
258.22	103.88
258.452	105.88
258.685	120.88
258.918	132.88
259.151	126.88
259.383	117.88
259.616	124.88
259.849	138.88
260.081	112.88
260.314	128.88
260.547	120.88
260.779	115.88
261.012	116.88
261.244	122.88
261.477	130.88
261.71	124.88
261.942	128.88
262.175	122.88
262.407	108.88
262.64	115.88
262.872	123.88
263.105	120.88
263.337	128.88
263.57	110.88
263.802	113.88
264.035	140.88
264.267	117.88
264.499	132.88
264.732	117.88
264.964	141.88
265.197	132.88
265.429	141.88
265.661	131.88
265.894	133.88
266.126	128.88
266.358	139.88
266.591	145.88
266.823	141.88
267.055	126.88
267.287	136.88
267.52	132.88
267.752	141.88
267.984	146.88
268.216	156.88
268.448	121.88
268.681	125.88
268.913	142.88
269.145	132.88
269.377	133.88
269.609	124.88
269.841	126.88
270.073	128.88
270.306	136.88
270.538	143.88
270.77	124.88
271.002	135.88
271.234	120.88
271.466	142.88
271.698	133.88
271.93	127.88
272.162	120.88
272.394	146.88
272.626	145.88
272.858	143.88
273.09	131.88
273.322	151.88
273.553	137.88
273.785	125.88
274.017	145.88
274.249	133.88
274.481	150.88
274.713	132.88
274.945	142.88
275.176	139.88
275.408	157.88
275.64	144.88
275.872	134.88
276.104	123.88
276.335	145.88
276.567	150.88
276.799	148.88
277.031	147.88
277.262	145.88
277.494	137.88
277.726	157.88
277.957	150.88
278.189	150.88
278.421	145.88
278.652	149.88
278.884	146.88
279.115	157.88
279.347	156.88
279.579	160.88
279.81	148.88
280.042	155.88
280.273	156.88
280.505	145.88
280.736	152.88
280.968	160.88
281.199	161.88
281.431	160.88
281.662	157.88
281.894	138.88
282.125	144.88
282.356	144.88
282.588	163.88
282.819	166.88
283.051	161.88
283.282	166.88
283.513	151.88
283.745	162.88
283.976	153.88
284.207	152.88
284.439	168.88
284.67	166.88
284.901	154.88
285.132	155.88
285.364	148.88
285.595	165.88
285.826	169.88
286.057	153.88
286.288	150.88
286.52	168.88
286.751	148.88
286.982	166.88
287.213	169.88
287.444	162.88
287.675	167.88
287.906	168.88
288.138	173.88
288.369	166.88
288.6	174.88
288.831	143.88
289.062	172.88
289.293	167.88
289.524	164.88
289.755	157.88
289.986	170.88
290.217	159.88
290.448	178.88
290.679	172.88
290.91	170.88
291.141	162.88
291.371	171.88
291.602	173.88
291.833	165.88
292.064	169.88
292.295	163.88
292.526	177.88
292.757	161.88
292.987	163.88
293.218	165.88
293.449	169.88
293.68	163.88
293.91	172.88
294.141	168.88
294.372	155.88
294.603	173.88
294.833	181.88
295.064	165.88
295.295	206.88
295.525	178.88
295.756	177.88
295.987	153.88
296.217	165.88
296.448	170.88
296.679	186.88
296.909	182.88
297.14	188.88
297.37	190.88
297.601	188.88
297.831	183.88
298.062	190.88
298.292	185.88
298.523	182.88
298.753	187.88
298.984	183.88
299.214	192.88
299.445	184.88
299.675	193.88
299.905	188.88
300.136	168.88
300.366	186.88
300.597	187.88
300.827	188.88
301.057	193.88
301.288	202.88
301.518	197.88
301.748	200.88
301.979	185.88
302.209	203.88
302.439	179.88
302.669	171.88
302.9	188.88
303.13	197.88
303.36	209.88
303.59	187.88
303.82	180.88
304.051	195.88
304.281	178.88
304.511	187.88
304.741	181.88
304.971	194.88
305.201	184.88
305.431	173.88
305.661	170.88
305.891	192.88
306.121	192.88
306.352	184.88
306.582	182.88
306.812	194.88
307.042	177.88
307.272	184.88
307.502	195.88
307.731	193.88
307.961	189.88
308.191	161.88
308.421	180.88
308.651	188.88
308.881	181.88
309.111	182.88
309.341	183.88
309.571	177.88
309.8	194.88
310.03	175.88
310.26	172.88
310.49	179.88
310.72	178.88
310.949	172.88
311.179	163.88
311.409	195.88
311.639	196.88
311.868	174.88
312.098	196.88
312.328	195.88
312.557	184.88
312.787	183.88
313.017	195.88
313.246	187.88
313.476	201.88
313.706	189.88
313.935	179.88
314.165	185.88
314.394	204.88
314.624	182.88
314.853	192.88
315.083	189.88
315.312	195.88
315.542	184.88
315.771	187.88
316.001	171.88
316.23	185.88
316.46	191.88
316.689	191.88
316.919	193.88
317.148	179.88
317.377	190.88
317.607	195.88
317.836	182.88
318.065	184.88
318.295	201.88
318.524	187.88
318.753	194.88
318.983	182.88
319.212	181.88
319.441	192.88
319.67	187.88
319.9	193.88
320.129	200.88
320.358	200.88
320.587	200.88
320.816	185.88
321.046	194.88
321.275	188.88
321.504	185.88
321.733	172.88
321.962	209.88
322.191	184.88
322.42	193.88
322.649	190.88
322.878	174.88
323.108	190.88
323.337	197.88
323.566	194.88
323.795	189.88
324.024	197.88
324.253	174.88
324.482	190.88
324.71	179.88
324.939	206.88
325.168	190.88
325.397	197.88
325.626	197.88
325.855	198.88
326.084	195.88
326.313	209.88
326.542	196.88
326.77	208.88
326.999	205.88
327.228	199.88
327.457	215.88
327.686	194.88
327.914	209.88
328.143	222.88
328.372	214.88
328.6	179.88
328.829	195.88
329.058	197.88
329.287	198.88
329.515	206.88
329.744	209.88
329.972	208.88
330.201	199.88
330.43	201.88
330.658	195.88
330.887	189.88
331.115	193.88
331.344	194.88
331.572	217.88
331.801	215.88
332.03	212.88
332.258	230.88
332.486	220.88
332.715	243.88
332.943	241.88
333.172	232.88
333.4	246.88
333.629	259.88
333.857	259.88
334.085	267.88
334.314	227.88
334.542	250.88
334.771	240.88
334.999	233.88
335.227	233.88
335.455	249.88
335.684	245.88
335.912	235.88
336.14	239.88
336.369	250.88
336.597	225.88
336.825	213.88
337.053	242.88
337.281	227.88
337.51	236.88
337.738	233.88
337.966	227.88
338.194	212.88
338.422	213.88
338.65	224.88
338.878	207.88
339.106	220.88
339.334	205.88
339.562	182.88
339.79	206.88
340.018	231.88
340.246	209.88
340.474	198.88
340.702	197.88
340.93	206.88
341.158	200.88
341.386	212.88
341.614	189.88
341.842	210.88
342.07	197.88
342.298	216.88
342.526	206.88
342.754	208.88
342.981	204.88
343.209	214.88
343.437	217.88
343.665	212.88
343.893	246.88
344.12	253.88
344.348	249.88
344.576	222.88
344.804	230.88
345.031	213.88
345.259	213.88
345.487	205.88
345.714	207.88
345.942	205.88
346.17	210.88
346.397	214.88
346.625	205.88
346.853	208.88
347.08	226.88
347.308	223.88
347.535	205.88
347.763	196.88
347.99	213.88
348.218	220.88
348.445	225.88
348.673	203.88
348.9	204.88
349.128	199.88
349.355	203.88
349.583	196.88
349.81	201.88
350.037	198.88
350.265	197.88
350.492	179.88
350.72	205.88
350.947	191.88
351.174	209.88
351.402	220.88
351.629	203.88
351.856	192.88
352.083	200.88
352.311	195.88
352.538	206.88
352.765	215.88
352.992	208.88
353.22	187.88
353.447	185.88
353.674	192.88
353.901	188.88
354.128	210.88
354.355	200.88
354.583	188.88
354.81	198.88
355.037	215.88
355.264	208.88
355.491	208.88
355.718	188.88
355.945	186.88
356.172	212.88
356.399	214.88
356.626	185.88
356.853	178.88
357.08	202.88
357.307	207.88
357.534	202.88
357.761	203.88
357.988	201.88
358.215	195.88
358.441	202.88
358.668	195.88
358.895	202.88
359.122	193.88
359.349	198.88
359.576	198.88
359.802	191.88
360.029	187.88
360.256	191.88
360.483	194.88
360.709	203.88
360.936	205.88
361.163	205.88
361.39	196.88
361.616	193.88
361.843	195.88
362.07	205.88
362.296	186.88
362.523	193.88
362.749	208.88
362.976	202.88
363.203	187.88
363.429	195.88
363.656	213.88
363.882	201.88
364.109	185.88
364.335	208.88
364.562	206.88
364.788	192.88
365.015	219.88
365.241	178.88
365.468	183.88
365.694	200.88
365.92	198.88
366.147	197.88
366.373	170.88
366.599	197.88
366.826	171.88
367.052	209.88
367.278	199.88
367.505	192.88
367.731	212.88
367.957	203.88
368.184	206.88
368.41	185.88
368.636	224.88
368.862	182.88
369.089	195.88
369.315	203.88
369.541	194.88
369.767	210.88
369.993	194.88
370.219	207.88
370.445	197.88
370.672	196.88
370.898	197.88
371.124	201.88
371.35	213.88
371.576	213.88
371.802	210.88
372.028	204.88
372.254	212.88
372.48	212.88
372.706	209.88
372.932	218.88
373.158	205.88
373.384	204.88
373.61	194.88
373.835	194.88
374.061	215.88
374.287	196.88
374.513	210.88
374.739	204.88
374.965	209.88
375.191	237.88
375.416	228.88
375.642	225.88
375.868	207.88
376.094	210.88
376.319	197.88
376.545	200.88
376.771	204.88
376.997	210.88
377.222	208.88
377.448	209.88
377.674	198.88
377.899	211.88
378.125	202.88
378.35	209.88
378.576	211.88
378.802	206.88
379.027	203.88
379.253	215.88
379.478	206.88
379.704	176.88
379.929	217.88
380.155	220.88
380.38	216.88
380.606	187.88
380.831	191.88
381.057	209.88
381.282	212.88
381.507	201.88
381.733	217.88
381.958	207.88
382.184	199.88
382.409	208.88
382.634	232.88
382.86	226.88
383.085	219.88
383.31	218.88
383.535	234.88
383.761	221.88
383.986	232.88
384.211	222.88
384.436	229.88
384.662	234.88
384.887	245.88
385.112	246.88
385.337	236.88
385.562	232.88
385.787	231.88
386.013	241.88
386.238	223.88
386.463	252.88
386.688	240.88
386.913	238.88
387.138	223.88
387.363	244.88
387.588	233.88
387.813	215.88
388.038	228.88
388.263	194.88
388.488	245.88
388.713	231.88
388.938	221.88
389.163	231.88
389.387	224.88
389.612	233.88
389.837	226.88
390.062	214.88
390.287	234.88
390.512	227.88
390.736	226.88
390.961	251.88
391.186	221.88
391.411	225.88
391.636	250.88
391.86	260.88
392.085	245.88
392.31	271.88
392.534	249.88
392.759	228.88
392.984	257.88
393.208	242.88
393.433	258.88
393.658	242.88
393.882	236.88
394.107	250.88
394.331	258.88
394.556	243.88
394.78	254.88
395.005	241.88
395.229	262.88
395.454	233.88
395.678	260.88
395.903	250.88
396.127	235.88
396.352	232.88
396.576	226.88
396.801	223.88
397.025	234.88
397.249	244.88
397.474	237.88
397.698	262.88
397.922	256.88
398.147	252.88
398.371	231.88
398.595	262.88
398.82	277.88
399.044	265.88
399.268	308.88
399.492	353.88
399.717	396.88
399.941	380.88
400.165	342.88
400.389	306.88
400.613	290.88
400.837	271.88
401.062	277.88
401.286	269.88
401.51	282.88
401.734	271.88
401.958	280.88
402.182	284.88
402.406	252.88
402.63	283.88
402.854	283.88
403.078	294.88
403.302	302.88
403.526	301.88
403.75	301.88
403.974	308.88
404.198	329.88
404.422	330.88
404.645	322.88
404.869	313.88
405.093	285.88
405.317	307.88
405.541	301.88
405.765	298.88
405.988	292.88
406.212	300.88
406.436	305.88
406.66	292.88
406.883	282.88
407.107	315.88
407.331	333.88
407.555	338.88
407.778	339.88
408.002	305.88
408.226	307.88
408.449	321.88
408.673	326.88
408.896	305.88
409.12	306.88
409.344	289.88
409.567	309.88
409.791	291.88
410.014	324.88
410.238	280.88
410.461	307.88
410.685	306.88
410.908	289.88
411.132	282.88
411.355	256.88
411.578	276.88
411.802	282.88
412.025	305.88
412.249	281.88
412.472	283.88
412.695	278.88
412.919	281.88
413.142	268.88
413.365	274.88
413.589	288.88
413.812	265.88
414.035	260.88
414.258	273.88
414.482	274.88
414.705	263.88
414.928	277.88
415.151	273.88
415.374	267.88
415.597	270.88
415.821	270.88
416.044	271.88
416.267	251.88
416.49	257.88
416.713	254.88
416.936	272.88
417.159	270.88
417.382	274.88
417.605	279.88
417.828	267.88
418.051	271.88
418.274	290.88
418.497	257.88
418.72	277.88
418.943	290.88
419.166	298.88
419.389	317.88
419.611	304.88
419.834	290.88
420.057	276.88
420.28	277.88
420.503	253.88
420.726	266.88
420.948	265.88
421.171	247.88
421.394	267.88
421.617	257.88
421.839	266.88
422.062	274.88
422.285	258.88
422.507	284.88
422.73	291.88
422.953	269.88
423.175	293.88
423.398	285.88
423.621	284.88
423.843	279.88
424.066	297.88
424.288	294.88
424.511	268.88
424.733	279.88
424.956	277.88
425.178	269.88
425.401	258.88
425.623	248.88
425.846	264.88
426.068	279.88
426.291	274.88
426.513	276.88
426.735	268.88
426.958	247.88
427.18	223.88
427.402	259.88
427.625	256.88
427.847	250.88
428.069	272.88
428.292	253.88
428.514	260.88
428.736	242.88
428.958	234.88
429.181	220.88
429.403	245.88
429.625	223.88
429.847	247.88
430.069	240.88
430.292	236.88
430.514	229.88
430.736	245.88
430.958	238.88
431.18	250.88
431.402	254.88
431.624	250.88
431.846	254.88
432.068	270.88
432.29	256.88
432.512	245.88
432.734	248.88
432.956	239.88
433.178	232.88
433.4	247.88
433.622	250.88
433.844	269.88
434.066	256.88
434.287	254.88
434.509	245.88
434.731	271.88
434.953	282.88
435.175	260.88
435.397	278.88
435.618	276.88
435.84	254.88
436.062	258.88
436.284	259.88
436.505	245.88
436.727	250.88
436.949	228.88
437.17	241.88
437.392	232.88
437.614	237.88
437.835	224.88
438.057	221.88
438.278	236.88
438.5	240.88
438.721	230.88
438.943	242.88
439.165	232.88
439.386	238.88
439.608	248.88
439.829	245.88
440.05	235.88
440.272	250.88
440.493	251.88
440.715	254.88
440.936	258.88
441.158	273.88
441.379	266.88
441.6	264.88
441.822	260.88
442.043	291.88
442.264	278.88
442.486	264.88
442.707	246.88
442.928	258.88
443.149	263.88
443.371	283.88
443.592	266.88
443.813	264.88
444.034	267.88
444.255	280.88
444.476	286.88
444.698	297.88
444.919	298.88
445.14	406.88
445.361	327.88
445.582	276.88
445.803	264.88
446.024	256.88
446.245	268.88
446.466	248.88
446.687	238.88
446.908	254.88
447.129	241.88
447.35	258.88
447.571	253.88
447.792	230.88
448.013	248.88
448.234	238.88
448.455	227.88
448.675	232.88
448.896	242.88
449.117	226.88
449.338	229.88
449.559	218.88
449.779	224.88
450	223.88
450.221	227.88
450.442	251.88
450.662	236.88
450.883	220.88
451.104	235.88
451.324	220.88
451.545	241.88
451.766	225.88
451.986	234.88
452.207	229.88
452.428	250.88
452.648	245.88
452.869	254.88
453.089	224.88
453.31	223.88
453.53	233.88
453.751	206.88
453.971	229.88
454.192	218.88
454.412	219.88
454.633	216.88
454.853	207.88
455.073	217.88
455.294	197.88
455.514	223.88
455.734	221.88
455.955	215.88
456.175	231.88
456.395	194.88
456.616	220.88
456.836	226.88
457.056	214.88
457.276	196.88
457.497	207.88
457.717	234.88
457.937	221.88
458.157	216.88
458.377	232.88
458.598	213.88
458.818	230.88
459.038	225.88
459.258	236.88
459.478	248.88
459.698	236.88
459.918	270.88
460.138	292.88
460.358	281.88
460.578	291.88
460.798	274.88
461.018	280.88
461.238	278.88
461.458	283.88
461.678	287.88
461.898	296.88
462.118	271.88
462.338	313.88
462.558	308.88
462.777	298.88
462.997	326.88
463.217	379.88
463.437	363.88
463.657	330.88
463.876	304.88
464.096	322.88
464.316	327.88
464.536	312.88
464.755	329.88
464.975	292.88
465.195	269.88
465.414	267.88
465.634	248.88
465.854	252.88
466.073	244.88
466.293	248.88
466.512	235.88
466.732	218.88
466.951	237.88
467.171	241.88
467.391	240.88
467.61	249.88
467.829	233.88
468.049	247.88
468.268	233.88
468.488	248.88
468.707	233.88
468.927	224.88
469.146	219.88
469.365	237.88
469.585	243.88
469.804	250.88
470.023	264.88
470.243	245.88
470.462	250.88
470.681	256.88
470.901	237.88
471.12	256.88
471.339	242.88
471.558	254.88
471.777	254.88
471.997	227.88
472.216	230.88
472.435	215.88
472.654	224.88
472.873	228.88
473.092	231.88
473.311	219.88
473.53	243.88
473.749	229.88
473.968	232.88
474.187	253.88
474.406	215.88
474.625	221.88
474.844	226.88
475.063	211.88
475.282	230.88
475.501	234.88
475.72	234.88
475.939	245.88
476.158	238.88
476.377	251.88
476.596	235.88
476.814	249.88
477.033	236.88
477.252	258.88
477.471	265.88
477.69	260.88
477.908	266.88
478.127	266.88
478.346	283.88
478.564	282.88
478.783	266.88
479.002	276.88
479.22	268.88
479.439	275.88
479.658	266.88
479.876	261.88
480.095	266.88
480.313	280.88
480.532	320.88
480.751	285.88
480.969	285.88
481.188	263.88
481.406	286.88
481.624	269.88
481.843	259.88
482.061	254.88
482.28	246.88
482.498	251.88
482.717	255.88
482.935	249.88
483.153	252.88
483.372	267.88
483.59	264.88
483.808	278.88
484.027	246.88
484.245	265.88
484.463	259.88
484.681	273.88
484.9	271.88
485.118	272.88
485.336	284.88
485.554	273.88
485.772	278.88
485.99	278.88
486.209	268.88
486.427	283.88
486.645	288.88
486.863	284.88
487.081	285.88
487.299	271.88
487.517	267.88
487.735	268.88
487.953	284.88
488.171	274.88
488.389	286.88
488.607	273.88
488.825	285.88
489.043	273.88
489.261	290.88
489.479	274.88
489.696	284.88
489.914	282.88
490.132	270.88
490.35	272.88
490.568	278.88
490.786	273.88
491.003	277.88
491.221	271.88
491.439	284.88
491.657	282.88
491.874	258.88
492.092	280.88
492.31	274.88
492.527	277.88
492.745	273.88
492.963	284.88
493.18	275.88
493.398	274.88
493.615	291.88
493.833	286.88
494.05	288.88
494.268	289.88
494.485	305.88
494.703	298.88
494.92	300.88
495.138	295.88
495.355	283.88
495.573	272.88
495.79	293.88
496.008	272.88
496.225	279.88
496.442	304.88
496.66	295.88
496.877	299.88
497.094	280.88
497.312	297.88
497.529	290.88
497.746	297.88
497.963	325.88
498.181	339.88
498.398	333.88
498.615	375.88
498.832	376.88
499.049	394.88
499.267	434.88
499.484	470.88
499.701	496.88
499.918	572.88
500.135	640.88
500.352	771.88
500.569	776.88
500.786	789.88
501.003	718.88
501.22	647.88
501.437	557.88
501.654	502.88
501.871	456.88
502.088	428.88
502.305	403.88
502.522	386.88
502.739	384.88
502.956	356.88
503.172	360.88
