Data from 0.5MCu(NO3)2.Standard.Lamp.E10.CV._HRD10591_16-06-17-754.txt Node
Date: Mon Jul 22 16:06:17 EDT 2019
User: cochatt
Spectrometer: HR+D1059
Trigger mode: 1
Integration Time (sec): 1.000000E-1
Scans to average: 1
Electric dark correction enabled: true
Nonlinearity correction enabled: false
Boxcar width: 0
XAxis mode: Wavelengths
Number of Pixels in Spectrum: 2048
>>>>>Begin Spectral Data<<<<<
223.165	-10.44
223.4	-10.44
223.635	-10.44
223.869	-16.44
224.104	-15.44
224.338	-25.44
224.573	-8.44
224.808	-9.44
225.042	-7.44
225.277	-0.44
225.511	-5.44
225.746	-0.44
225.98	12.56
226.215	5.56
226.449	14.56
226.683	30.56
226.918	13.56
227.152	22.56
227.387	34.56
227.621	38.56
227.856	50.56
228.09	46.56
228.324	54.56
228.559	57.56
228.793	62.56
229.027	71.56
229.262	85.56
229.496	77.56
229.73	78.56
229.964	87.56
230.199	75.56
230.433	83.56
230.667	94.56
230.901	94.56
231.136	97.56
231.37	84.56
231.604	94.56
231.838	91.56
232.072	83.56
232.306	93.56
232.541	98.56
232.775	83.56
233.009	87.56
233.243	96.56
233.477	92.56
233.711	118.56
233.945	93.56
234.179	79.56
234.413	95.56
234.647	105.56
234.881	97.56
235.115	99.56
235.349	90.56
235.583	98.56
235.817	101.56
236.051	98.56
236.285	85.56
236.519	85.56
236.753	92.56
236.987	99.56
237.221	86.56
237.455	94.56
237.689	71.56
237.922	91.56
238.156	91.56
238.39	88.56
238.624	97.56
238.858	98.56
239.091	95.56
239.325	103.56
239.559	102.56
239.793	83.56
240.027	99.56
240.26	82.56
240.494	89.56
240.728	85.56
240.961	99.56
241.195	94.56
241.429	118.56
241.662	102.56
241.896	93.56
242.13	99.56
242.363	110.56
242.597	103.56
242.83	103.56
243.064	109.56
243.298	109.56
243.531	93.56
243.765	110.56
243.998	89.56
244.232	102.56
244.465	93.56
244.699	103.56
244.932	106.56
245.166	108.56
245.399	103.56
245.633	97.56
245.866	83.56
246.099	100.56
246.333	101.56
246.566	102.56
246.8	92.56
247.033	91.56
247.266	111.56
247.5	101.56
247.733	113.56
247.966	102.56
248.2	107.56
248.433	103.56
248.666	99.56
248.899	102.56
249.133	106.56
249.366	103.56
249.599	104.56
249.832	104.56
250.066	112.56
250.299	105.56
250.532	92.56
250.765	94.56
250.998	101.56
251.231	109.56
251.465	116.56
251.698	107.56
251.931	110.56
252.164	102.56
252.397	104.56
252.63	119.56
252.863	119.56
253.096	116.56
253.329	98.56
253.562	112.56
253.795	96.56
254.028	116.56
254.261	119.56
254.494	115.56
254.727	116.56
254.96	107.56
255.193	119.56
255.426	109.56
255.659	114.56
255.892	113.56
256.124	106.56
256.357	105.56
256.59	122.56
256.823	96.56
257.056	123.56
257.289	113.56
257.521	120.56
257.754	114.56
257.987	122.56
258.22	109.56
258.452	117.56
258.685	108.56
258.918	123.56
259.151	118.56
259.383	134.56
259.616	103.56
259.849	124.56
260.081	114.56
260.314	125.56
260.547	128.56
260.779	120.56
261.012	115.56
261.244	117.56
261.477	110.56
261.71	129.56
261.942	122.56
262.175	119.56
262.407	113.56
262.64	108.56
262.872	118.56
263.105	107.56
263.337	130.56
263.57	111.56
263.802	114.56
264.035	141.56
264.267	135.56
264.499	123.56
264.732	136.56
264.964	129.56
265.197	117.56
265.429	133.56
265.661	131.56
265.894	135.56
266.126	120.56
266.358	142.56
266.591	130.56
266.823	121.56
267.055	137.56
267.287	143.56
267.52	141.56
267.752	147.56
267.984	133.56
268.216	127.56
268.448	132.56
268.681	112.56
268.913	129.56
269.145	140.56
269.377	118.56
269.609	136.56
269.841	134.56
270.073	129.56
270.306	133.56
270.538	123.56
270.77	124.56
271.002	135.56
271.234	135.56
271.466	130.56
271.698	134.56
271.93	110.56
272.162	133.56
272.394	133.56
272.626	123.56
272.858	125.56
273.09	144.56
273.322	133.56
273.553	140.56
273.785	135.56
274.017	144.56
274.249	134.56
274.481	131.56
274.713	139.56
274.945	134.56
275.176	145.56
275.408	127.56
275.64	138.56
275.872	136.56
276.104	159.56
276.335	137.56
276.567	146.56
276.799	144.56
277.031	134.56
277.262	139.56
277.494	140.56
277.726	147.56
277.957	136.56
278.189	136.56
278.421	138.56
278.652	159.56
278.884	135.56
279.115	142.56
279.347	141.56
279.579	130.56
279.81	147.56
280.042	131.56
280.273	134.56
280.505	127.56
280.736	142.56
280.968	139.56
281.199	142.56
281.431	160.56
281.662	147.56
281.894	143.56
282.125	166.56
282.356	162.56
282.588	143.56
282.819	145.56
283.051	135.56
283.282	153.56
283.513	146.56
283.745	134.56
283.976	155.56
284.207	149.56
284.439	157.56
284.67	156.56
284.901	162.56
285.132	154.56
285.364	141.56
285.595	170.56
285.826	149.56
286.057	164.56
286.288	151.56
286.52	143.56
286.751	153.56
286.982	161.56
287.213	164.56
287.444	162.56
287.675	155.56
287.906	158.56
288.138	150.56
288.369	165.56
288.6	170.56
288.831	160.56
289.062	167.56
289.293	155.56
289.524	156.56
289.755	147.56
289.986	160.56
290.217	167.56
290.448	163.56
290.679	165.56
290.91	165.56
291.141	178.56
291.371	167.56
291.602	161.56
291.833	161.56
292.064	167.56
292.295	164.56
292.526	171.56
292.757	169.56
292.987	163.56
293.218	179.56
293.449	180.56
293.68	165.56
293.91	165.56
294.141	162.56
294.372	159.56
294.603	161.56
294.833	167.56
295.064	156.56
295.295	164.56
295.525	177.56
295.756	169.56
295.987	181.56
296.217	173.56
296.448	181.56
296.679	164.56
296.909	167.56
297.14	158.56
297.37	178.56
297.601	165.56
297.831	171.56
298.062	170.56
298.292	169.56
298.523	192.56
298.753	169.56
298.984	182.56
299.214	169.56
299.445	169.56
299.675	184.56
299.905	173.56
300.136	165.56
300.366	174.56
300.597	165.56
300.827	180.56
301.057	183.56
301.288	178.56
301.518	170.56
301.748	158.56
301.979	177.56
302.209	180.56
302.439	182.56
302.669	179.56
302.9	186.56
303.13	188.56
303.36	187.56
303.59	183.56
303.82	188.56
304.051	178.56
304.281	179.56
304.511	184.56
304.741	175.56
304.971	181.56
305.201	191.56
305.431	187.56
305.661	176.56
305.891	196.56
306.121	166.56
306.352	189.56
306.582	189.56
306.812	177.56
307.042	178.56
307.272	170.56
307.502	181.56
307.731	163.56
307.961	171.56
308.191	184.56
308.421	187.56
308.651	186.56
308.881	172.56
309.111	166.56
309.341	174.56
309.571	177.56
309.8	167.56
310.03	181.56
310.26	174.56
310.49	187.56
310.72	173.56
310.949	190.56
311.179	172.56
311.409	187.56
311.639	178.56
311.868	196.56
312.098	182.56
312.328	180.56
312.557	195.56
312.787	180.56
313.017	191.56
313.246	178.56
313.476	180.56
313.706	190.56
313.935	183.56
314.165	191.56
314.394	190.56
314.624	183.56
314.853	179.56
315.083	200.56
315.312	196.56
315.542	169.56
315.771	186.56
316.001	192.56
316.23	201.56
316.46	189.56
316.689	182.56
316.919	182.56
317.148	198.56
317.377	183.56
317.607	190.56
317.836	184.56
318.065	171.56
318.295	175.56
318.524	189.56
318.753	169.56
318.983	169.56
319.212	171.56
319.441	174.56
319.67	174.56
319.9	183.56
320.129	184.56
320.358	195.56
320.587	189.56
320.816	194.56
321.046	192.56
321.275	203.56
321.504	181.56
321.733	179.56
321.962	186.56
322.191	193.56
322.42	183.56
322.649	172.56
322.878	177.56
323.108	175.56
323.337	188.56
323.566	186.56
323.795	185.56
324.024	174.56
324.253	186.56
324.482	188.56
324.71	192.56
324.939	187.56
325.168	179.56
325.397	192.56
325.626	194.56
325.855	197.56
326.084	197.56
326.313	190.56
326.542	203.56
326.77	201.56
326.999	198.56
327.228	207.56
327.457	203.56
327.686	188.56
327.914	186.56
328.143	203.56
328.372	200.56
328.6	182.56
328.829	199.56
329.058	201.56
329.287	190.56
329.515	197.56
329.744	192.56
329.972	182.56
330.201	206.56
330.43	186.56
330.658	204.56
330.887	195.56
331.115	209.56
331.344	201.56
331.572	202.56
331.801	206.56
332.03	187.56
332.258	199.56
332.486	214.56
332.715	223.56
332.943	233.56
333.172	232.56
333.4	237.56
333.629	228.56
333.857	248.56
334.085	239.56
334.314	239.56
334.542	221.56
334.771	217.56
334.999	231.56
335.227	230.56
335.455	237.56
335.684	244.56
335.912	220.56
336.14	211.56
336.369	233.56
336.597	226.56
336.825	215.56
337.053	229.56
337.281	222.56
337.51	207.56
337.738	214.56
337.966	210.56
338.194	227.56
338.422	211.56
338.65	219.56
338.878	211.56
339.106	196.56
339.334	219.56
339.562	207.56
339.79	207.56
340.018	198.56
340.246	188.56
340.474	199.56
340.702	207.56
340.93	193.56
341.158	207.56
341.386	201.56
341.614	205.56
341.842	199.56
342.07	201.56
342.298	181.56
342.526	193.56
342.754	200.56
342.981	196.56
343.209	202.56
343.437	214.56
343.665	219.56
343.893	227.56
344.12	244.56
344.348	223.56
344.576	209.56
344.804	211.56
345.031	204.56
345.259	220.56
345.487	207.56
345.714	193.56
345.942	203.56
346.17	214.56
346.397	201.56
346.625	195.56
346.853	190.56
347.08	199.56
347.308	204.56
347.535	215.56
347.763	200.56
347.99	187.56
348.218	216.56
348.445	198.56
348.673	203.56
348.9	204.56
349.128	198.56
349.355	188.56
349.583	189.56
349.81	188.56
350.037	188.56
350.265	214.56
350.492	189.56
350.72	184.56
350.947	204.56
351.174	190.56
351.402	178.56
351.629	197.56
351.856	190.56
352.083	172.56
352.311	192.56
352.538	193.56
352.765	182.56
352.992	180.56
353.22	196.56
353.447	193.56
353.674	201.56
353.901	186.56
354.128	193.56
354.355	190.56
354.583	177.56
354.81	189.56
355.037	196.56
355.264	215.56
355.491	183.56
355.718	198.56
355.945	186.56
356.172	195.56
356.399	204.56
356.626	181.56
356.853	196.56
357.08	179.56
357.307	172.56
357.534	192.56
357.761	197.56
357.988	195.56
358.215	195.56
358.441	196.56
358.668	195.56
358.895	202.56
359.122	187.56
359.349	189.56
359.576	172.56
359.802	189.56
360.029	192.56
360.256	191.56
360.483	193.56
360.709	201.56
360.936	187.56
361.163	184.56
361.39	181.56
361.616	202.56
361.843	187.56
362.07	201.56
362.296	168.56
362.523	193.56
362.749	187.56
362.976	181.56
363.203	190.56
363.429	193.56
363.656	190.56
363.882	189.56
364.109	182.56
364.335	179.56
364.562	188.56
364.788	177.56
365.015	194.56
365.241	192.56
365.468	196.56
365.694	183.56
365.92	190.56
366.147	183.56
366.373	187.56
366.599	194.56
366.826	189.56
367.052	198.56
367.278	169.56
367.505	183.56
367.731	198.56
367.957	185.56
368.184	178.56
368.41	199.56
368.636	197.56
368.862	217.56
369.089	195.56
369.315	199.56
369.541	201.56
369.767	185.56
369.993	179.56
370.219	201.56
370.445	187.56
370.672	191.56
370.898	191.56
371.124	194.56
371.35	200.56
371.576	207.56
371.802	200.56
372.028	214.56
372.254	210.56
372.48	206.56
372.706	214.56
372.932	204.56
373.158	201.56
373.384	218.56
373.61	207.56
373.835	209.56
374.061	206.56
374.287	213.56
374.513	184.56
374.739	208.56
374.965	214.56
375.191	212.56
375.416	206.56
375.642	221.56
375.868	201.56
376.094	212.56
376.319	202.56
376.545	192.56
376.771	205.56
376.997	209.56
377.222	206.56
377.448	194.56
377.674	190.56
377.899	202.56
378.125	191.56
378.35	212.56
378.576	211.56
378.802	210.56
379.027	198.56
379.253	206.56
379.478	189.56
379.704	194.56
379.929	184.56
380.155	185.56
380.38	191.56
380.606	201.56
380.831	197.56
381.057	202.56
381.282	189.56
381.507	193.56
381.733	208.56
381.958	197.56
382.184	209.56
382.409	198.56
382.634	202.56
382.86	207.56
383.085	218.56
383.31	212.56
383.535	216.56
383.761	203.56
383.986	233.56
384.211	222.56
384.436	223.56
384.662	247.56
384.887	242.56
385.112	244.56
385.337	228.56
385.562	222.56
385.787	247.56
386.013	253.56
386.238	218.56
386.463	225.56
386.688	222.56
386.913	236.56
387.138	233.56
387.363	221.56
387.588	214.56
387.813	225.56
388.038	228.56
388.263	226.56
388.488	234.56
388.713	230.56
388.938	226.56
389.163	220.56
389.387	216.56
389.612	228.56
389.837	224.56
390.062	206.56
390.287	227.56
390.512	222.56
390.736	233.56
390.961	213.56
391.186	221.56
391.411	231.56
391.636	252.56
391.86	241.56
392.085	252.56
392.31	268.56
392.534	230.56
392.759	229.56
392.984	216.56
393.208	234.56
393.433	231.56
393.658	223.56
393.882	226.56
394.107	243.56
394.331	221.56
394.556	252.56
394.78	233.56
395.005	242.56
395.229	237.56
395.454	240.56
395.678	259.56
395.903	245.56
396.127	236.56
396.352	230.56
396.576	225.56
396.801	231.56
397.025	227.56
397.249	233.56
397.474	246.56
397.698	215.56
397.922	251.56
398.147	236.56
398.371	231.56
398.595	242.56
398.82	257.56
399.044	276.56
399.268	284.56
399.492	346.56
399.717	369.56
399.941	381.56
400.165	329.56
400.389	276.56
400.613	287.56
400.837	277.56
401.062	269.56
401.286	265.56
401.51	255.56
401.734	246.56
401.958	270.56
402.182	261.56
402.406	264.56
402.63	269.56
402.854	282.56
403.078	300.56
403.302	292.56
403.526	300.56
403.75	300.56
403.974	317.56
404.198	312.56
404.422	293.56
404.645	292.56
404.869	303.56
405.093	288.56
405.317	272.56
405.541	292.56
405.765	284.56
405.988	274.56
406.212	290.56
406.436	281.56
406.66	300.56
406.883	297.56
407.107	306.56
407.331	338.56
407.555	328.56
407.778	315.56
408.002	319.56
408.226	314.56
408.449	300.56
408.673	294.56
408.896	276.56
409.12	291.56
409.344	306.56
409.567	296.56
409.791	309.56
410.014	317.56
410.238	288.56
410.461	266.56
410.685	269.56
410.908	284.56
411.132	289.56
411.355	269.56
411.578	269.56
411.802	257.56
412.025	271.56
412.249	267.56
412.472	271.56
412.695	257.56
412.919	250.56
413.142	261.56
413.365	263.56
413.589	262.56
413.812	263.56
414.035	249.56
414.258	269.56
414.482	271.56
414.705	266.56
414.928	264.56
415.151	270.56
415.374	280.56
415.597	255.56
415.821	272.56
416.044	265.56
416.267	263.56
416.49	249.56
416.713	241.56
416.936	271.56
417.159	239.56
417.382	260.56
417.605	239.56
417.828	249.56
418.051	266.56
418.274	268.56
418.497	250.56
418.72	257.56
418.943	270.56
419.166	292.56
419.389	279.56
419.611	289.56
419.834	272.56
420.057	267.56
420.28	274.56
420.503	259.56
420.726	272.56
420.948	274.56
421.171	263.56
421.394	245.56
421.617	269.56
421.839	265.56
422.062	267.56
422.285	272.56
422.507	257.56
422.73	259.56
422.953	267.56
423.175	268.56
423.398	256.56
423.621	278.56
423.843	282.56
424.066	283.56
424.288	280.56
424.511	271.56
424.733	272.56
424.956	279.56
425.178	251.56
425.401	261.56
425.623	260.56
425.846	247.56
426.068	242.56
426.291	245.56
426.513	242.56
426.735	244.56
426.958	238.56
427.18	241.56
427.402	228.56
427.625	243.56
427.847	244.56
428.069	231.56
428.292	241.56
428.514	257.56
428.736	225.56
428.958	232.56
429.181	239.56
429.403	242.56
429.625	237.56
429.847	232.56
430.069	229.56
430.292	233.56
430.514	231.56
430.736	228.56
430.958	234.56
431.18	206.56
431.402	236.56
431.624	250.56
431.846	245.56
432.068	230.56
432.29	228.56
432.512	250.56
432.734	236.56
432.956	231.56
433.178	244.56
433.4	245.56
433.622	232.56
433.844	228.56
434.066	223.56
434.287	237.56
434.509	231.56
434.731	260.56
434.953	259.56
435.175	257.56
435.397	271.56
435.618	250.56
435.84	251.56
436.062	247.56
436.284	217.56
436.505	233.56
436.727	246.56
436.949	228.56
437.17	244.56
437.392	221.56
437.614	238.56
437.835	228.56
438.057	204.56
438.278	227.56
438.5	235.56
438.721	223.56
438.943	237.56
439.165	220.56
439.386	227.56
439.608	235.56
439.829	231.56
440.05	231.56
440.272	230.56
440.493	230.56
440.715	218.56
440.936	242.56
441.158	259.56
441.379	248.56
441.6	250.56
441.822	266.56
442.043	241.56
442.264	266.56
442.486	243.56
442.707	278.56
442.928	265.56
443.149	247.56
443.371	269.56
443.592	258.56
443.813	259.56
444.034	269.56
444.255	281.56
444.476	291.56
444.698	302.56
444.919	298.56
445.14	378.56
445.361	313.56
445.582	257.56
445.803	251.56
446.024	236.56
446.245	246.56
446.466	237.56
446.687	239.56
446.908	223.56
447.129	237.56
447.35	232.56
447.571	228.56
447.792	217.56
448.013	228.56
448.234	204.56
448.455	225.56
448.675	211.56
448.896	211.56
449.117	209.56
449.338	228.56
449.559	208.56
449.779	219.56
450	205.56
450.221	232.56
450.442	232.56
450.662	221.56
450.883	232.56
451.104	236.56
451.324	222.56
451.545	224.56
451.766	226.56
451.986	227.56
452.207	237.56
452.428	233.56
452.648	230.56
452.869	233.56
453.089	237.56
453.31	225.56
453.53	226.56
453.751	220.56
453.971	199.56
454.192	212.56
454.412	218.56
454.633	218.56
454.853	221.56
455.073	217.56
455.294	219.56
455.514	223.56
455.734	200.56
455.955	206.56
456.175	201.56
456.395	215.56
456.616	208.56
456.836	210.56
457.056	201.56
457.276	215.56
457.497	221.56
457.717	217.56
457.937	212.56
458.157	215.56
458.377	210.56
458.598	221.56
458.818	224.56
459.038	221.56
459.258	214.56
459.478	236.56
459.698	228.56
459.918	248.56
460.138	259.56
460.358	271.56
460.578	272.56
460.798	280.56
461.018	267.56
461.238	275.56
461.458	266.56
461.678	267.56
461.898	280.56
462.118	269.56
462.338	288.56
462.558	292.56
462.777	310.56
462.997	333.56
463.217	361.56
463.437	363.56
463.657	316.56
463.876	315.56
464.096	328.56
464.316	325.56
464.536	319.56
464.755	299.56
464.975	290.56
465.195	296.56
465.414	273.56
465.634	244.56
465.854	260.56
466.073	227.56
466.293	246.56
466.512	243.56
466.732	228.56
466.951	222.56
467.171	225.56
467.391	234.56
467.61	233.56
467.829	238.56
468.049	223.56
468.268	237.56
468.488	233.56
468.707	231.56
468.927	219.56
469.146	233.56
469.365	218.56
469.585	229.56
469.804	243.56
470.023	237.56
470.243	253.56
470.462	252.56
470.681	254.56
470.901	232.56
471.12	248.56
471.339	222.56
471.558	229.56
471.777	241.56
471.997	228.56
472.216	222.56
472.435	218.56
472.654	216.56
472.873	225.56
473.092	211.56
473.311	234.56
473.53	232.56
473.749	215.56
473.968	218.56
474.187	226.56
474.406	225.56
474.625	232.56
474.844	218.56
475.063	216.56
475.282	209.56
475.501	213.56
475.72	249.56
475.939	219.56
476.158	216.56
476.377	236.56
476.596	215.56
476.814	223.56
477.033	242.56
477.252	218.56
477.471	227.56
477.69	245.56
477.908	255.56
478.127	259.56
478.346	245.56
478.564	281.56
478.783	261.56
479.002	284.56
479.22	275.56
479.439	273.56
479.658	258.56
479.876	264.56
480.095	256.56
480.313	296.56
480.532	281.56
480.751	294.56
480.969	282.56
481.188	266.56
481.406	258.56
481.624	261.56
481.843	255.56
482.061	247.56
482.28	235.56
482.498	261.56
482.717	259.56
482.935	246.56
483.153	235.56
483.372	250.56
483.59	251.56
483.808	275.56
484.027	253.56
484.245	249.56
484.463	255.56
484.681	255.56
484.9	276.56
485.118	263.56
485.336	274.56
485.554	262.56
485.772	279.56
485.99	267.56
486.209	281.56
486.427	264.56
486.645	275.56
486.863	268.56
487.081	251.56
487.299	265.56
487.517	271.56
487.735	278.56
487.953	259.56
488.171	269.56
488.389	272.56
488.607	262.56
488.825	250.56
489.043	270.56
489.261	275.56
489.479	273.56
489.696	246.56
489.914	263.56
490.132	268.56
490.35	275.56
490.568	251.56
490.786	270.56
491.003	268.56
491.221	272.56
491.439	259.56
491.657	261.56
491.874	273.56
492.092	272.56
492.31	270.56
492.527	276.56
492.745	272.56
492.963	270.56
493.18	268.56
493.398	281.56
493.615	266.56
493.833	262.56
494.05	280.56
494.268	283.56
494.485	297.56
494.703	288.56
494.92	279.56
495.138	292.56
495.355	278.56
495.573	289.56
495.79	301.56
496.008	307.56
496.225	289.56
496.442	271.56
496.66	290.56
496.877	290.56
497.094	281.56
497.312	302.56
497.529	307.56
497.746	301.56
497.963	318.56
498.181	328.56
498.398	319.56
498.615	342.56
498.832	375.56
499.049	391.56
499.267	409.56
499.484	431.56
499.701	483.56
499.918	529.56
500.135	615.56
500.352	700.56
500.569	771.56
500.786	754.56
501.003	684.56
501.22	596.56
501.437	548.56
501.654	475.56
501.871	418.56
502.088	401.56
502.305	397.56
502.522	376.56
502.739	346.56
502.956	333.56
