Data from 0.5MCu(NO3)2.Standard.Lamp.E10.CV._HRD10591_16-05-31-754.txt Node
Date: Mon Jul 22 16:05:31 EDT 2019
User: cochatt
Spectrometer: HR+D1059
Trigger mode: 1
Integration Time (sec): 1.000000E-1
Scans to average: 1
Electric dark correction enabled: true
Nonlinearity correction enabled: false
Boxcar width: 0
XAxis mode: Wavelengths
Number of Pixels in Spectrum: 2048
>>>>>Begin Spectral Data<<<<<
223.165	-9.88
223.4	-9.88
223.635	-9.88
223.869	-15.88
224.104	-17.88
224.338	-11.88
224.573	-14.88
224.808	-26.88
225.042	-13.88
225.277	-10.88
225.511	-2.88
225.746	7.12
225.98	10.12
226.215	13.12
226.449	22.12
226.683	17.12
226.918	28.12
227.152	27.12
227.387	43.12
227.621	47.12
227.856	19.12
228.09	53.12
228.324	44.12
228.559	68.12
228.793	65.12
229.027	71.12
229.262	74.12
229.496	77.12
229.73	61.12
229.964	70.12
230.199	75.12
230.433	84.12
230.667	88.12
230.901	85.12
231.136	86.12
231.37	89.12
231.604	80.12
231.838	107.12
232.072	96.12
232.306	87.12
232.541	88.12
232.775	85.12
233.009	92.12
233.243	96.12
233.477	94.12
233.711	85.12
233.945	89.12
234.179	87.12
234.413	78.12
234.647	90.12
234.881	91.12
235.115	96.12
235.349	102.12
235.583	77.12
235.817	95.12
236.051	87.12
236.285	77.12
236.519	85.12
236.753	77.12
236.987	86.12
237.221	87.12
237.455	87.12
237.689	75.12
237.922	79.12
238.156	89.12
238.39	90.12
238.624	85.12
238.858	85.12
239.091	90.12
239.325	85.12
239.559	87.12
239.793	92.12
240.027	102.12
240.26	84.12
240.494	104.12
240.728	79.12
240.961	93.12
241.195	101.12
241.429	102.12
241.662	99.12
241.896	100.12
242.13	104.12
242.363	108.12
242.597	92.12
242.83	90.12
243.064	87.12
243.298	96.12
243.531	109.12
243.765	102.12
243.998	105.12
244.232	94.12
244.465	88.12
244.699	107.12
244.932	95.12
245.166	108.12
245.399	85.12
245.633	100.12
245.866	98.12
246.099	99.12
246.333	106.12
246.566	91.12
246.8	102.12
247.033	94.12
247.266	82.12
247.5	102.12
247.733	102.12
247.966	103.12
248.2	99.12
248.433	117.12
248.666	101.12
248.899	111.12
249.133	87.12
249.366	103.12
249.599	128.12
249.832	100.12
250.066	105.12
250.299	112.12
250.532	106.12
250.765	97.12
250.998	104.12
251.231	103.12
251.465	97.12
251.698	105.12
251.931	105.12
252.164	104.12
252.397	113.12
252.63	125.12
252.863	110.12
253.096	101.12
253.329	105.12
253.562	115.12
253.795	102.12
254.028	112.12
254.261	101.12
254.494	99.12
254.727	99.12
254.96	109.12
255.193	110.12
255.426	107.12
255.659	122.12
255.892	115.12
256.124	110.12
256.357	116.12
256.59	112.12
256.823	110.12
257.056	122.12
257.289	103.12
257.521	111.12
257.754	123.12
257.987	99.12
258.22	115.12
258.452	110.12
258.685	114.12
258.918	121.12
259.151	119.12
259.383	107.12
259.616	115.12
259.849	127.12
260.081	124.12
260.314	102.12
260.547	104.12
260.779	125.12
261.012	114.12
261.244	102.12
261.477	106.12
261.71	117.12
261.942	123.12
262.175	108.12
262.407	109.12
262.64	126.12
262.872	122.12
263.105	121.12
263.337	127.12
263.57	119.12
263.802	134.12
264.035	120.12
264.267	131.12
264.499	122.12
264.732	128.12
264.964	115.12
265.197	124.12
265.429	122.12
265.661	131.12
265.894	138.12
266.126	128.12
266.358	124.12
266.591	139.12
266.823	112.12
267.055	113.12
267.287	134.12
267.52	135.12
267.752	117.12
267.984	124.12
268.216	134.12
268.448	113.12
268.681	115.12
268.913	140.12
269.145	115.12
269.377	129.12
269.609	127.12
269.841	127.12
270.073	122.12
270.306	129.12
270.538	123.12
270.77	144.12
271.002	136.12
271.234	130.12
271.466	134.12
271.698	133.12
271.93	126.12
272.162	147.12
272.394	121.12
272.626	127.12
272.858	141.12
273.09	136.12
273.322	125.12
273.553	133.12
273.785	140.12
274.017	131.12
274.249	121.12
274.481	129.12
274.713	163.12
274.945	142.12
275.176	131.12
275.408	138.12
275.64	141.12
275.872	142.12
276.104	133.12
276.335	125.12
276.567	133.12
276.799	133.12
277.031	133.12
277.262	130.12
277.494	146.12
277.726	142.12
277.957	147.12
278.189	135.12
278.421	152.12
278.652	151.12
278.884	155.12
279.115	157.12
279.347	133.12
279.579	142.12
279.81	140.12
280.042	157.12
280.273	141.12
280.505	132.12
280.736	141.12
280.968	139.12
281.199	154.12
281.431	155.12
281.662	159.12
281.894	138.12
282.125	148.12
282.356	142.12
282.588	141.12
282.819	156.12
283.051	153.12
283.282	155.12
283.513	162.12
283.745	162.12
283.976	151.12
284.207	151.12
284.439	158.12
284.67	140.12
284.901	144.12
285.132	150.12
285.364	141.12
285.595	166.12
285.826	151.12
286.057	157.12
286.288	153.12
286.52	161.12
286.751	145.12
286.982	136.12
287.213	158.12
287.444	157.12
287.675	165.12
287.906	159.12
288.138	150.12
288.369	163.12
288.6	158.12
288.831	145.12
289.062	161.12
289.293	156.12
289.524	147.12
289.755	150.12
289.986	150.12
290.217	163.12
290.448	163.12
290.679	178.12
290.91	169.12
291.141	149.12
291.371	167.12
291.602	170.12
291.833	163.12
292.064	159.12
292.295	164.12
292.526	170.12
292.757	177.12
292.987	142.12
293.218	161.12
293.449	172.12
293.68	153.12
293.91	152.12
294.141	165.12
294.372	150.12
294.603	167.12
294.833	148.12
295.064	176.12
295.295	166.12
295.525	147.12
295.756	154.12
295.987	161.12
296.217	155.12
296.448	167.12
296.679	170.12
296.909	157.12
297.14	173.12
297.37	161.12
297.601	190.12
297.831	181.12
298.062	173.12
298.292	165.12
298.523	190.12
298.753	188.12
298.984	177.12
299.214	161.12
299.445	184.12
299.675	179.12
299.905	193.12
300.136	172.12
300.366	177.12
300.597	177.12
300.827	189.12
301.057	173.12
301.288	172.12
301.518	180.12
301.748	194.12
301.979	169.12
302.209	170.12
302.439	182.12
302.669	190.12
302.9	181.12
303.13	179.12
303.36	180.12
303.59	186.12
303.82	171.12
304.051	169.12
304.281	171.12
304.511	191.12
304.741	171.12
304.971	180.12
305.201	172.12
305.431	179.12
305.661	162.12
305.891	173.12
306.121	169.12
306.352	161.12
306.582	171.12
306.812	171.12
307.042	174.12
307.272	171.12
307.502	184.12
307.731	187.12
307.961	173.12
308.191	178.12
308.421	169.12
308.651	187.12
308.881	183.12
309.111	166.12
309.341	171.12
309.571	178.12
309.8	172.12
310.03	172.12
310.26	178.12
310.49	177.12
310.72	175.12
310.949	189.12
311.179	163.12
311.409	161.12
311.639	180.12
311.868	179.12
312.098	181.12
312.328	171.12
312.557	186.12
312.787	189.12
313.017	172.12
313.246	180.12
313.476	183.12
313.706	181.12
313.935	177.12
314.165	189.12
314.394	188.12
314.624	186.12
314.853	192.12
315.083	185.12
315.312	175.12
315.542	177.12
315.771	185.12
316.001	177.12
316.23	187.12
316.46	194.12
316.689	179.12
316.919	181.12
317.148	190.12
317.377	158.12
317.607	196.12
317.836	177.12
318.065	202.12
318.295	182.12
318.524	169.12
318.753	178.12
318.983	174.12
319.212	176.12
319.441	176.12
319.67	178.12
319.9	189.12
320.129	180.12
320.358	183.12
320.587	169.12
320.816	169.12
321.046	180.12
321.275	181.12
321.504	179.12
321.733	183.12
321.962	182.12
322.191	172.12
322.42	193.12
322.649	170.12
322.878	184.12
323.108	185.12
323.337	175.12
323.566	171.12
323.795	183.12
324.024	171.12
324.253	195.12
324.482	180.12
324.71	167.12
324.939	193.12
325.168	184.12
325.397	187.12
325.626	196.12
325.855	182.12
326.084	194.12
326.313	175.12
326.542	179.12
326.77	193.12
326.999	188.12
327.228	195.12
327.457	189.12
327.686	170.12
327.914	199.12
328.143	215.12
328.372	194.12
328.6	191.12
328.829	205.12
329.058	192.12
329.287	199.12
329.515	201.12
329.744	200.12
329.972	195.12
330.201	191.12
330.43	193.12
330.658	201.12
330.887	185.12
331.115	193.12
331.344	197.12
331.572	214.12
331.801	200.12
332.03	206.12
332.258	200.12
332.486	206.12
332.715	233.12
332.943	220.12
333.172	226.12
333.4	255.12
333.629	260.12
333.857	241.12
334.085	241.12
334.314	233.12
334.542	230.12
334.771	232.12
334.999	240.12
335.227	228.12
335.455	240.12
335.684	231.12
335.912	223.12
336.14	200.12
336.369	216.12
336.597	229.12
336.825	217.12
337.053	213.12
337.281	217.12
337.51	199.12
337.738	224.12
337.966	211.12
338.194	200.12
338.422	201.12
338.65	204.12
338.878	193.12
339.106	186.12
339.334	208.12
339.562	199.12
339.79	194.12
340.018	192.12
340.246	186.12
340.474	201.12
340.702	211.12
340.93	210.12
341.158	203.12
341.386	206.12
341.614	209.12
341.842	195.12
342.07	199.12
342.298	198.12
342.526	198.12
342.754	196.12
342.981	194.12
343.209	198.12
343.437	205.12
343.665	220.12
343.893	244.12
344.12	242.12
344.348	234.12
344.576	204.12
344.804	207.12
345.031	191.12
345.259	200.12
345.487	200.12
345.714	186.12
345.942	188.12
346.17	190.12
346.397	208.12
346.625	203.12
346.853	204.12
347.08	190.12
347.308	190.12
347.535	187.12
347.763	194.12
347.99	196.12
348.218	208.12
348.445	200.12
348.673	192.12
348.9	199.12
349.128	193.12
349.355	184.12
349.583	183.12
349.81	192.12
350.037	193.12
350.265	177.12
350.492	198.12
350.72	181.12
350.947	193.12
351.174	193.12
351.402	192.12
351.629	183.12
351.856	182.12
352.083	175.12
352.311	185.12
352.538	191.12
352.765	199.12
352.992	205.12
353.22	206.12
353.447	173.12
353.674	205.12
353.901	187.12
354.128	193.12
354.355	195.12
354.583	193.12
354.81	175.12
355.037	179.12
355.264	190.12
355.491	201.12
355.718	191.12
355.945	175.12
356.172	202.12
356.399	189.12
356.626	175.12
356.853	186.12
357.08	191.12
357.307	197.12
357.534	203.12
357.761	196.12
357.988	186.12
358.215	198.12
358.441	201.12
358.668	166.12
358.895	189.12
359.122	191.12
359.349	183.12
359.576	182.12
359.802	194.12
360.029	173.12
360.256	198.12
360.483	195.12
360.709	199.12
360.936	196.12
361.163	185.12
361.39	199.12
361.616	182.12
361.843	187.12
362.07	180.12
362.296	181.12
362.523	184.12
362.749	184.12
362.976	179.12
363.203	193.12
363.429	193.12
363.656	191.12
363.882	191.12
364.109	199.12
364.335	178.12
364.562	197.12
364.788	173.12
365.015	196.12
365.241	187.12
365.468	166.12
365.694	202.12
365.92	188.12
366.147	179.12
366.373	180.12
366.599	196.12
366.826	201.12
367.052	181.12
367.278	197.12
367.505	203.12
367.731	203.12
367.957	166.12
368.184	193.12
368.41	181.12
368.636	186.12
368.862	188.12
369.089	198.12
369.315	187.12
369.541	184.12
369.767	195.12
369.993	190.12
370.219	192.12
370.445	189.12
370.672	193.12
370.898	199.12
371.124	205.12
371.35	206.12
371.576	196.12
371.802	212.12
372.028	194.12
372.254	201.12
372.48	200.12
372.706	203.12
372.932	209.12
373.158	209.12
373.384	210.12
373.61	212.12
373.835	201.12
374.061	200.12
374.287	197.12
374.513	203.12
374.739	203.12
374.965	225.12
375.191	213.12
375.416	203.12
375.642	227.12
375.868	209.12
376.094	196.12
376.319	203.12
376.545	207.12
376.771	190.12
376.997	201.12
377.222	195.12
377.448	193.12
377.674	195.12
377.899	196.12
378.125	199.12
378.35	197.12
378.576	186.12
378.802	194.12
379.027	194.12
379.253	198.12
379.478	207.12
379.704	203.12
379.929	193.12
380.155	206.12
380.38	195.12
380.606	210.12
380.831	206.12
381.057	216.12
381.282	174.12
381.507	201.12
381.733	213.12
381.958	192.12
382.184	205.12
382.409	182.12
382.634	193.12
382.86	194.12
383.085	205.12
383.31	207.12
383.535	231.12
383.761	221.12
383.986	218.12
384.211	221.12
384.436	225.12
384.662	234.12
384.887	237.12
385.112	230.12
385.337	231.12
385.562	233.12
385.787	225.12
386.013	231.12
386.238	234.12
386.463	241.12
386.688	229.12
386.913	242.12
387.138	217.12
387.363	218.12
387.588	215.12
387.813	227.12
388.038	242.12
388.263	229.12
388.488	215.12
388.713	229.12
388.938	225.12
389.163	212.12
389.387	206.12
389.612	215.12
389.837	220.12
390.062	205.12
390.287	223.12
390.512	222.12
390.736	221.12
390.961	215.12
391.186	224.12
391.411	242.12
391.636	240.12
391.86	232.12
392.085	230.12
392.31	242.12
392.534	225.12
392.759	238.12
392.984	231.12
393.208	219.12
393.433	244.12
393.658	234.12
393.882	233.12
394.107	226.12
394.331	260.12
394.556	230.12
394.78	241.12
395.005	252.12
395.229	243.12
395.454	249.12
395.678	239.12
395.903	234.12
396.127	243.12
396.352	232.12
396.576	219.12
396.801	250.12
397.025	214.12
397.249	225.12
397.474	243.12
397.698	237.12
397.922	257.12
398.147	231.12
398.371	243.12
398.595	236.12
398.82	257.12
399.044	254.12
399.268	290.12
399.492	313.12
399.717	358.12
399.941	361.12
400.165	334.12
400.389	281.12
400.613	292.12
400.837	270.12
401.062	230.12
401.286	261.12
401.51	251.12
401.734	249.12
401.958	242.12
402.182	246.12
402.406	277.12
402.63	276.12
402.854	277.12
403.078	281.12
403.302	294.12
403.526	282.12
403.75	291.12
403.974	295.12
404.198	318.12
404.422	293.12
404.645	294.12
404.869	284.12
405.093	276.12
405.317	292.12
405.541	297.12
405.765	289.12
405.988	269.12
406.212	274.12
406.436	276.12
406.66	284.12
406.883	290.12
407.107	311.12
407.331	313.12
407.555	325.12
407.778	309.12
408.002	332.12
408.226	313.12
408.449	292.12
408.673	279.12
408.896	285.12
409.12	314.12
409.344	289.12
409.567	289.12
409.791	291.12
410.014	284.12
410.238	308.12
410.461	293.12
410.685	279.12
410.908	265.12
411.132	276.12
411.355	257.12
411.578	261.12
411.802	282.12
412.025	259.12
412.249	291.12
412.472	275.12
412.695	271.12
412.919	262.12
413.142	253.12
413.365	261.12
413.589	278.12
413.812	264.12
414.035	264.12
414.258	265.12
414.482	267.12
414.705	259.12
414.928	261.12
415.151	251.12
415.374	266.12
415.597	263.12
415.821	246.12
416.044	262.12
416.267	281.12
416.49	250.12
416.713	237.12
416.936	262.12
417.159	251.12
417.382	269.12
417.605	246.12
417.828	244.12
418.051	251.12
418.274	266.12
418.497	269.12
418.72	260.12
418.943	271.12
419.166	265.12
419.389	298.12
419.611	281.12
419.834	270.12
420.057	267.12
420.28	259.12
420.503	260.12
420.726	263.12
420.948	248.12
421.171	261.12
421.394	266.12
421.617	275.12
421.839	262.12
422.062	264.12
422.285	267.12
422.507	253.12
422.73	250.12
422.953	260.12
423.175	271.12
423.398	255.12
423.621	271.12
423.843	276.12
424.066	287.12
424.288	286.12
424.511	279.12
424.733	266.12
424.956	277.12
425.178	267.12
425.401	267.12
425.623	257.12
425.846	241.12
426.068	259.12
426.291	241.12
426.513	248.12
426.735	243.12
426.958	247.12
427.18	252.12
427.402	247.12
427.625	241.12
427.847	229.12
428.069	232.12
428.292	225.12
428.514	233.12
428.736	236.12
428.958	237.12
429.181	223.12
429.403	213.12
429.625	223.12
429.847	220.12
430.069	241.12
430.292	220.12
430.514	236.12
430.736	245.12
430.958	229.12
431.18	219.12
431.402	239.12
431.624	243.12
431.846	241.12
432.068	244.12
432.29	223.12
432.512	236.12
432.734	235.12
432.956	215.12
433.178	245.12
433.4	236.12
433.622	228.12
433.844	229.12
434.066	249.12
434.287	250.12
434.509	241.12
434.731	255.12
434.953	255.12
435.175	259.12
435.397	262.12
435.618	235.12
435.84	249.12
436.062	240.12
436.284	244.12
436.505	235.12
436.727	242.12
436.949	242.12
437.17	243.12
437.392	247.12
437.614	235.12
437.835	219.12
438.057	236.12
438.278	225.12
438.5	217.12
438.721	221.12
438.943	223.12
439.165	246.12
439.386	238.12
439.608	233.12
439.829	230.12
440.05	232.12
440.272	238.12
440.493	229.12
440.715	225.12
440.936	253.12
441.158	253.12
441.379	232.12
441.6	253.12
441.822	248.12
442.043	263.12
442.264	243.12
442.486	256.12
442.707	260.12
442.928	256.12
443.149	259.12
443.371	243.12
443.592	268.12
443.813	257.12
444.034	258.12
444.255	281.12
444.476	279.12
444.698	283.12
444.919	320.12
445.14	405.12
445.361	331.12
445.582	263.12
445.803	247.12
446.024	247.12
446.245	230.12
446.466	231.12
446.687	221.12
446.908	236.12
447.129	231.12
447.35	227.12
447.571	233.12
447.792	227.12
448.013	230.12
448.234	230.12
448.455	218.12
448.675	216.12
448.896	213.12
449.117	226.12
449.338	212.12
449.559	219.12
449.779	212.12
450	242.12
450.221	246.12
450.442	224.12
450.662	228.12
450.883	208.12
451.104	231.12
451.324	207.12
451.545	226.12
451.766	230.12
451.986	225.12
452.207	223.12
452.428	230.12
452.648	220.12
452.869	215.12
453.089	219.12
453.31	213.12
453.53	237.12
453.751	229.12
453.971	217.12
454.192	207.12
454.412	198.12
454.633	216.12
454.853	221.12
455.073	207.12
455.294	210.12
455.514	214.12
455.734	205.12
455.955	208.12
456.175	191.12
456.395	201.12
456.616	223.12
456.836	216.12
457.056	198.12
457.276	199.12
457.497	220.12
457.717	206.12
457.937	197.12
458.157	217.12
458.377	218.12
458.598	229.12
458.818	241.12
459.038	222.12
459.258	235.12
459.478	231.12
459.698	244.12
459.918	246.12
460.138	260.12
460.358	279.12
460.578	283.12
460.798	260.12
461.018	286.12
461.238	266.12
461.458	250.12
461.678	275.12
461.898	271.12
462.118	268.12
462.338	272.12
462.558	318.12
462.777	317.12
462.997	350.12
463.217	334.12
463.437	339.12
463.657	328.12
463.876	317.12
464.096	299.12
464.316	318.12
464.536	299.12
464.755	305.12
464.975	287.12
465.195	286.12
465.414	266.12
465.634	262.12
465.854	260.12
466.073	252.12
466.293	262.12
466.512	228.12
466.732	209.12
466.951	238.12
467.171	210.12
467.391	240.12
467.61	222.12
467.829	219.12
468.049	231.12
468.268	226.12
468.488	220.12
468.707	236.12
468.927	219.12
469.146	232.12
469.365	242.12
469.585	226.12
469.804	238.12
470.023	242.12
470.243	251.12
470.462	246.12
470.681	252.12
470.901	249.12
471.12	260.12
471.339	231.12
471.558	222.12
471.777	226.12
471.997	205.12
472.216	216.12
472.435	237.12
472.654	223.12
472.873	231.12
473.092	230.12
473.311	226.12
473.53	224.12
473.749	213.12
473.968	225.12
474.187	214.12
474.406	200.12
474.625	229.12
474.844	219.12
475.063	219.12
475.282	228.12
475.501	227.12
475.72	214.12
475.939	227.12
476.158	226.12
476.377	233.12
476.596	220.12
476.814	231.12
477.033	234.12
477.252	229.12
477.471	248.12
477.69	244.12
477.908	249.12
478.127	259.12
478.346	255.12
478.564	261.12
478.783	259.12
479.002	271.12
479.22	245.12
479.439	254.12
479.658	269.12
479.876	275.12
480.095	270.12
480.313	269.12
480.532	307.12
480.751	297.12
480.969	275.12
481.188	263.12
481.406	253.12
481.624	254.12
481.843	250.12
482.061	247.12
482.28	234.12
482.498	237.12
482.717	240.12
482.935	262.12
483.153	231.12
483.372	238.12
483.59	250.12
483.808	246.12
484.027	260.12
484.245	255.12
484.463	253.12
484.681	262.12
484.9	261.12
485.118	269.12
485.336	259.12
485.554	257.12
485.772	260.12
485.99	266.12
486.209	256.12
486.427	259.12
486.645	280.12
486.863	275.12
487.081	260.12
487.299	278.12
487.517	258.12
487.735	274.12
487.953	271.12
488.171	257.12
488.389	245.12
488.607	269.12
488.825	249.12
489.043	250.12
489.261	270.12
489.479	265.12
489.696	252.12
489.914	266.12
490.132	257.12
490.35	267.12
490.568	250.12
490.786	262.12
491.003	260.12
491.221	279.12
491.439	256.12
491.657	273.12
491.874	269.12
492.092	264.12
492.31	254.12
492.527	284.12
492.745	285.12
492.963	263.12
493.18	281.12
493.398	284.12
493.615	278.12
493.833	270.12
494.05	279.12
494.268	285.12
494.485	282.12
494.703	279.12
494.92	261.12
495.138	276.12
495.355	269.12
495.573	276.12
495.79	264.12
496.008	281.12
496.225	276.12
496.442	271.12
496.66	293.12
496.877	285.12
497.094	301.12
497.312	294.12
497.529	282.12
497.746	304.12
497.963	318.12
498.181	303.12
498.398	340.12
498.615	340.12
498.832	359.12
499.049	394.12
499.267	407.12
499.484	453.12
499.701	491.12
499.918	558.12
500.135	579.12
500.352	697.12
500.569	748.12
500.786	758.12
501.003	681.12
501.22	593.12
501.437	549.12
501.654	471.12
501.871	431.12
502.088	399.12
502.305	372.12
502.522	389.12
502.739	358.12
502.956	335.12
503.172	326.12
