Data from 0.5MCu(NO3)2.Standard.Lamp.E10.CV._HRD10591_16-06-57-754.txt Node
Date: Mon Jul 22 16:06:57 EDT 2019
User: cochatt
Spectrometer: HR+D1059
Trigger mode: 1
Integration Time (sec): 1.000000E-1
Scans to average: 1
Electric dark correction enabled: true
Nonlinearity correction enabled: false
Boxcar width: 0
XAxis mode: Wavelengths
Number of Pixels in Spectrum: 2048
>>>>>Begin Spectral Data<<<<<
223.165	-18.06
223.4	-18.06
223.635	-18.06
223.869	-22.06
224.104	-21.06
224.338	-7.06
224.573	-13.06
224.808	-3.06
225.042	-4.06
225.277	-16.06
225.511	1.94
225.746	-13.06
225.98	6.94
226.215	14.94
226.449	15.94
226.683	23.94
226.918	23.94
227.152	29.94
227.387	35.94
227.621	54.94
227.856	36.94
228.09	24.94
228.324	49.94
228.559	66.94
228.793	46.94
229.027	66.94
229.262	66.94
229.496	76.94
229.73	67.94
229.964	78.94
230.199	80.94
230.433	75.94
230.667	74.94
230.901	83.94
231.136	80.94
231.37	87.94
231.604	84.94
231.838	83.94
232.072	86.94
232.306	93.94
232.541	73.94
232.775	92.94
233.009	94.94
233.243	96.94
233.477	87.94
233.711	100.94
233.945	91.94
234.179	75.94
234.413	85.94
234.647	91.94
234.881	91.94
235.115	83.94
235.349	97.94
235.583	97.94
235.817	87.94
236.051	90.94
236.285	82.94
236.519	82.94
236.753	69.94
236.987	94.94
237.221	100.94
237.455	85.94
237.689	82.94
237.922	81.94
238.156	77.94
238.39	90.94
238.624	97.94
238.858	85.94
239.091	72.94
239.325	82.94
239.559	83.94
239.793	94.94
240.027	89.94
240.26	96.94
240.494	92.94
240.728	102.94
240.961	88.94
241.195	96.94
241.429	95.94
241.662	82.94
241.896	83.94
242.13	80.94
242.363	102.94
242.597	89.94
242.83	79.94
243.064	95.94
243.298	95.94
243.531	87.94
243.765	93.94
243.998	99.94
244.232	80.94
244.465	83.94
244.699	86.94
244.932	90.94
245.166	100.94
245.399	107.94
245.633	95.94
245.866	96.94
246.099	99.94
246.333	85.94
246.566	95.94
246.8	99.94
247.033	99.94
247.266	88.94
247.5	79.94
247.733	97.94
247.966	100.94
248.2	98.94
248.433	89.94
248.666	99.94
248.899	115.94
249.133	104.94
249.366	115.94
249.599	112.94
249.832	95.94
250.066	102.94
250.299	113.94
250.532	96.94
250.765	98.94
250.998	96.94
251.231	86.94
251.465	107.94
251.698	106.94
251.931	112.94
252.164	107.94
252.397	118.94
252.63	117.94
252.863	107.94
253.096	117.94
253.329	117.94
253.562	95.94
253.795	113.94
254.028	112.94
254.261	110.94
254.494	100.94
254.727	102.94
254.96	92.94
255.193	111.94
255.426	102.94
255.659	112.94
255.892	113.94
256.124	127.94
256.357	124.94
256.59	103.94
256.823	116.94
257.056	126.94
257.289	121.94
257.521	97.94
257.754	104.94
257.987	119.94
258.22	118.94
258.452	128.94
258.685	110.94
258.918	108.94
259.151	111.94
259.383	129.94
259.616	109.94
259.849	128.94
260.081	124.94
260.314	118.94
260.547	113.94
260.779	122.94
261.012	114.94
261.244	107.94
261.477	121.94
261.71	107.94
261.942	105.94
262.175	121.94
262.407	108.94
262.64	110.94
262.872	113.94
263.105	118.94
263.337	110.94
263.57	120.94
263.802	120.94
264.035	124.94
264.267	131.94
264.499	116.94
264.732	107.94
264.964	112.94
265.197	108.94
265.429	121.94
265.661	119.94
265.894	128.94
266.126	114.94
266.358	121.94
266.591	107.94
266.823	124.94
267.055	115.94
267.287	115.94
267.52	125.94
267.752	122.94
267.984	129.94
268.216	132.94
268.448	132.94
268.681	118.94
268.913	112.94
269.145	122.94
269.377	114.94
269.609	127.94
269.841	130.94
270.073	114.94
270.306	121.94
270.538	120.94
270.77	126.94
271.002	110.94
271.234	148.94
271.466	137.94
271.698	138.94
271.93	110.94
272.162	126.94
272.394	120.94
272.626	118.94
272.858	117.94
273.09	133.94
273.322	126.94
273.553	128.94
273.785	143.94
274.017	137.94
274.249	129.94
274.481	129.94
274.713	123.94
274.945	149.94
275.176	130.94
275.408	141.94
275.64	126.94
275.872	122.94
276.104	141.94
276.335	124.94
276.567	127.94
276.799	121.94
277.031	122.94
277.262	126.94
277.494	138.94
277.726	135.94
277.957	128.94
278.189	151.94
278.421	134.94
278.652	134.94
278.884	129.94
279.115	130.94
279.347	117.94
279.579	140.94
279.81	132.94
280.042	136.94
280.273	146.94
280.505	145.94
280.736	140.94
280.968	137.94
281.199	146.94
281.431	126.94
281.662	143.94
281.894	132.94
282.125	141.94
282.356	150.94
282.588	129.94
282.819	140.94
283.051	142.94
283.282	139.94
283.513	130.94
283.745	133.94
283.976	157.94
284.207	137.94
284.439	152.94
284.67	141.94
284.901	148.94
285.132	146.94
285.364	134.94
285.595	121.94
285.826	149.94
286.057	162.94
286.288	143.94
286.52	153.94
286.751	143.94
286.982	134.94
287.213	152.94
287.444	154.94
287.675	142.94
287.906	162.94
288.138	144.94
288.369	143.94
288.6	158.94
288.831	146.94
289.062	165.94
289.293	147.94
289.524	163.94
289.755	137.94
289.986	148.94
290.217	151.94
290.448	147.94
290.679	150.94
290.91	165.94
291.141	155.94
291.371	169.94
291.602	158.94
291.833	143.94
292.064	154.94
292.295	144.94
292.526	164.94
292.757	165.94
292.987	166.94
293.218	165.94
293.449	144.94
293.68	171.94
293.91	150.94
294.141	155.94
294.372	172.94
294.603	177.94
294.833	162.94
295.064	152.94
295.295	143.94
295.525	146.94
295.756	153.94
295.987	143.94
296.217	159.94
296.448	158.94
296.679	160.94
296.909	170.94
297.14	177.94
297.37	165.94
297.601	154.94
297.831	162.94
298.062	170.94
298.292	166.94
298.523	156.94
298.753	160.94
298.984	174.94
299.214	162.94
299.445	161.94
299.675	174.94
299.905	180.94
300.136	170.94
300.366	164.94
300.597	168.94
300.827	182.94
301.057	192.94
301.288	166.94
301.518	167.94
301.748	156.94
301.979	171.94
302.209	159.94
302.439	159.94
302.669	175.94
302.9	164.94
303.13	155.94
303.36	162.94
303.59	178.94
303.82	174.94
304.051	159.94
304.281	164.94
304.511	167.94
304.741	170.94
304.971	174.94
305.201	168.94
305.431	171.94
305.661	164.94
305.891	175.94
306.121	170.94
306.352	167.94
306.582	162.94
306.812	161.94
307.042	174.94
307.272	171.94
307.502	165.94
307.731	156.94
307.961	169.94
308.191	155.94
308.421	174.94
308.651	170.94
308.881	167.94
309.111	161.94
309.341	172.94
309.571	166.94
309.8	168.94
310.03	182.94
310.26	166.94
310.49	170.94
310.72	156.94
310.949	179.94
311.179	161.94
311.409	176.94
311.639	179.94
311.868	179.94
312.098	154.94
312.328	174.94
312.557	170.94
312.787	170.94
313.017	174.94
313.246	164.94
313.476	168.94
313.706	169.94
313.935	180.94
314.165	178.94
314.394	182.94
314.624	187.94
314.853	170.94
315.083	178.94
315.312	165.94
315.542	180.94
315.771	181.94
316.001	178.94
316.23	172.94
316.46	164.94
316.689	162.94
316.919	165.94
317.148	164.94
317.377	181.94
317.607	180.94
317.836	176.94
318.065	163.94
318.295	171.94
318.524	175.94
318.753	179.94
318.983	176.94
319.212	172.94
319.441	186.94
319.67	164.94
319.9	190.94
320.129	166.94
320.358	164.94
320.587	171.94
320.816	166.94
321.046	161.94
321.275	178.94
321.504	161.94
321.733	163.94
321.962	182.94
322.191	188.94
322.42	160.94
322.649	170.94
322.878	172.94
323.108	169.94
323.337	178.94
323.566	168.94
323.795	172.94
324.024	186.94
324.253	174.94
324.482	159.94
324.71	180.94
324.939	174.94
325.168	182.94
325.397	183.94
325.626	192.94
325.855	199.94
326.084	178.94
326.313	176.94
326.542	198.94
326.77	198.94
326.999	186.94
327.228	200.94
327.457	191.94
327.686	187.94
327.914	194.94
328.143	195.94
328.372	186.94
328.6	184.94
328.829	182.94
329.058	172.94
329.287	172.94
329.515	193.94
329.744	198.94
329.972	183.94
330.201	184.94
330.43	194.94
330.658	184.94
330.887	187.94
331.115	197.94
331.344	180.94
331.572	200.94
331.801	200.94
332.03	213.94
332.258	197.94
332.486	202.94
332.715	200.94
332.943	196.94
333.172	226.94
333.4	244.94
333.629	224.94
333.857	236.94
334.085	226.94
334.314	229.94
334.542	203.94
334.771	212.94
334.999	227.94
335.227	212.94
335.455	228.94
335.684	211.94
335.912	209.94
336.14	217.94
336.369	214.94
336.597	202.94
336.825	212.94
337.053	198.94
337.281	190.94
337.51	199.94
337.738	209.94
337.966	210.94
338.194	171.94
338.422	192.94
338.65	170.94
338.878	179.94
339.106	201.94
339.334	202.94
339.562	169.94
339.79	180.94
340.018	191.94
340.246	193.94
340.474	192.94
340.702	185.94
340.93	199.94
341.158	195.94
341.386	185.94
341.614	191.94
341.842	192.94
342.07	194.94
342.298	187.94
342.526	192.94
342.754	186.94
342.981	190.94
343.209	183.94
343.437	207.94
343.665	203.94
343.893	217.94
344.12	219.94
344.348	225.94
344.576	207.94
344.804	187.94
345.031	197.94
345.259	185.94
345.487	180.94
345.714	194.94
345.942	191.94
346.17	194.94
346.397	174.94
346.625	162.94
346.853	178.94
347.08	176.94
347.308	193.94
347.535	198.94
347.763	182.94
347.99	181.94
348.218	175.94
348.445	184.94
348.673	183.94
348.9	180.94
349.128	198.94
349.355	182.94
349.583	201.94
349.81	190.94
350.037	177.94
350.265	199.94
350.492	186.94
350.72	182.94
350.947	185.94
351.174	192.94
351.402	185.94
351.629	180.94
351.856	171.94
352.083	183.94
352.311	164.94
352.538	191.94
352.765	182.94
352.992	179.94
353.22	182.94
353.447	165.94
353.674	184.94
353.901	191.94
354.128	172.94
354.355	180.94
354.583	194.94
354.81	192.94
355.037	194.94
355.264	183.94
355.491	177.94
355.718	182.94
355.945	184.94
356.172	170.94
356.399	176.94
356.626	174.94
356.853	171.94
357.08	166.94
357.307	179.94
357.534	168.94
357.761	190.94
357.988	187.94
358.215	181.94
358.441	174.94
358.668	177.94
358.895	180.94
359.122	174.94
359.349	162.94
359.576	194.94
359.802	198.94
360.029	176.94
360.256	172.94
360.483	167.94
360.709	182.94
360.936	169.94
361.163	184.94
361.39	198.94
361.616	178.94
361.843	184.94
362.07	171.94
362.296	171.94
362.523	164.94
362.749	186.94
362.976	167.94
363.203	182.94
363.429	177.94
363.656	175.94
363.882	171.94
364.109	182.94
364.335	167.94
364.562	164.94
364.788	175.94
365.015	188.94
365.241	183.94
365.468	183.94
365.694	179.94
365.92	189.94
366.147	166.94
366.373	182.94
366.599	174.94
366.826	192.94
367.052	179.94
367.278	179.94
367.505	187.94
367.731	170.94
367.957	204.94
368.184	179.94
368.41	170.94
368.636	185.94
368.862	180.94
369.089	177.94
369.315	168.94
369.541	199.94
369.767	186.94
369.993	183.94
370.219	195.94
370.445	191.94
370.672	176.94
370.898	171.94
371.124	193.94
371.35	172.94
371.576	186.94
371.802	196.94
372.028	187.94
372.254	196.94
372.48	192.94
372.706	178.94
372.932	184.94
373.158	199.94
373.384	182.94
373.61	184.94
373.835	193.94
374.061	175.94
374.287	200.94
374.513	197.94
374.739	196.94
374.965	202.94
375.191	182.94
375.416	216.94
375.642	202.94
375.868	193.94
376.094	184.94
376.319	188.94
376.545	184.94
376.771	185.94
376.997	192.94
377.222	196.94
377.448	183.94
377.674	207.94
377.899	196.94
378.125	196.94
378.35	193.94
378.576	186.94
378.802	182.94
379.027	172.94
379.253	190.94
379.478	179.94
379.704	191.94
379.929	185.94
380.155	192.94
380.38	174.94
380.606	196.94
380.831	193.94
381.057	196.94
381.282	184.94
381.507	206.94
381.733	186.94
381.958	192.94
382.184	194.94
382.409	197.94
382.634	193.94
382.86	203.94
383.085	196.94
383.31	216.94
383.535	214.94
383.761	220.94
383.986	217.94
384.211	194.94
384.436	211.94
384.662	199.94
384.887	203.94
385.112	223.94
385.337	214.94
385.562	215.94
385.787	214.94
386.013	211.94
386.238	206.94
386.463	211.94
386.688	208.94
386.913	207.94
387.138	206.94
387.363	203.94
387.588	189.94
387.813	218.94
388.038	219.94
388.263	214.94
388.488	202.94
388.713	204.94
388.938	207.94
389.163	209.94
389.387	215.94
389.612	201.94
389.837	206.94
390.062	225.94
390.287	198.94
390.512	191.94
390.736	210.94
390.961	206.94
391.186	219.94
391.411	223.94
391.636	224.94
391.86	232.94
392.085	244.94
392.31	233.94
392.534	220.94
392.759	224.94
392.984	217.94
393.208	218.94
393.433	216.94
393.658	218.94
393.882	221.94
394.107	223.94
394.331	219.94
394.556	238.94
394.78	222.94
395.005	224.94
395.229	224.94
395.454	216.94
395.678	227.94
395.903	231.94
396.127	229.94
396.352	226.94
396.576	205.94
396.801	199.94
397.025	215.94
397.249	223.94
397.474	217.94
397.698	218.94
397.922	230.94
398.147	244.94
398.371	227.94
398.595	227.94
398.82	240.94
399.044	265.94
399.268	282.94
399.492	313.94
399.717	353.94
399.941	351.94
400.165	305.94
400.389	293.94
400.613	248.94
400.837	265.94
401.062	257.94
401.286	264.94
401.51	242.94
401.734	250.94
401.958	249.94
402.182	242.94
402.406	260.94
402.63	235.94
402.854	280.94
403.078	270.94
403.302	287.94
403.526	282.94
403.75	297.94
403.974	284.94
404.198	290.94
404.422	297.94
404.645	298.94
404.869	281.94
405.093	279.94
405.317	270.94
405.541	279.94
405.765	260.94
405.988	278.94
406.212	267.94
406.436	254.94
406.66	260.94
406.883	288.94
407.107	301.94
407.331	303.94
407.555	319.94
407.778	307.94
408.002	299.94
408.226	307.94
408.449	274.94
408.673	288.94
408.896	290.94
409.12	293.94
409.344	277.94
409.567	286.94
409.791	283.94
410.014	271.94
410.238	266.94
410.461	283.94
410.685	284.94
410.908	266.94
411.132	265.94
411.355	268.94
411.578	252.94
411.802	264.94
412.025	262.94
412.249	277.94
412.472	264.94
412.695	247.94
412.919	241.94
413.142	230.94
413.365	250.94
413.589	238.94
413.812	233.94
414.035	230.94
414.258	247.94
414.482	246.94
414.705	257.94
414.928	258.94
415.151	256.94
415.374	249.94
415.597	234.94
415.821	242.94
416.044	260.94
416.267	240.94
416.49	242.94
416.713	250.94
416.936	248.94
417.159	247.94
417.382	232.94
417.605	242.94
417.828	245.94
418.051	257.94
418.274	259.94
418.497	241.94
418.72	242.94
418.943	257.94
419.166	265.94
419.389	274.94
419.611	260.94
419.834	267.94
420.057	267.94
420.28	243.94
420.503	243.94
420.726	239.94
420.948	254.94
421.171	247.94
421.394	252.94
421.617	252.94
421.839	257.94
422.062	265.94
422.285	268.94
422.507	246.94
422.73	252.94
422.953	246.94
423.175	234.94
423.398	268.94
423.621	273.94
423.843	266.94
424.066	264.94
424.288	271.94
424.511	275.94
424.733	264.94
424.956	256.94
425.178	248.94
425.401	262.94
425.623	242.94
425.846	252.94
426.068	226.94
426.291	229.94
426.513	240.94
426.735	226.94
426.958	222.94
427.18	221.94
427.402	231.94
427.625	228.94
427.847	226.94
428.069	230.94
428.292	217.94
428.514	224.94
428.736	223.94
428.958	244.94
429.181	211.94
429.403	222.94
429.625	229.94
429.847	219.94
430.069	209.94
430.292	217.94
430.514	223.94
430.736	232.94
430.958	210.94
431.18	208.94
431.402	220.94
431.624	218.94
431.846	232.94
432.068	233.94
432.29	227.94
432.512	214.94
432.734	215.94
432.956	218.94
433.178	222.94
433.4	226.94
433.622	226.94
433.844	239.94
434.066	217.94
434.287	226.94
434.509	238.94
434.731	240.94
434.953	227.94
435.175	262.94
435.397	249.94
435.618	238.94
435.84	229.94
436.062	238.94
436.284	240.94
436.505	225.94
436.727	229.94
436.949	222.94
437.17	234.94
437.392	208.94
437.614	205.94
437.835	209.94
438.057	213.94
438.278	216.94
438.5	223.94
438.721	225.94
438.943	228.94
439.165	211.94
439.386	214.94
439.608	201.94
439.829	225.94
440.05	213.94
440.272	223.94
440.493	221.94
440.715	231.94
440.936	218.94
441.158	243.94
441.379	226.94
441.6	247.94
441.822	262.94
442.043	255.94
442.264	235.94
442.486	263.94
442.707	232.94
442.928	238.94
443.149	242.94
443.371	250.94
443.592	252.94
443.813	252.94
444.034	254.94
444.255	247.94
444.476	231.94
444.698	279.94
444.919	295.94
445.14	369.94
445.361	302.94
445.582	258.94
445.803	216.94
446.024	242.94
446.245	241.94
446.466	241.94
446.687	232.94
446.908	209.94
447.129	233.94
447.35	218.94
447.571	214.94
447.792	203.94
448.013	222.94
448.234	209.94
448.455	213.94
448.675	207.94
448.896	207.94
449.117	214.94
449.338	210.94
449.559	198.94
449.779	200.94
450	223.94
450.221	213.94
450.442	224.94
450.662	219.94
450.883	210.94
451.104	212.94
451.324	213.94
451.545	226.94
451.766	228.94
451.986	224.94
452.207	210.94
452.428	215.94
452.648	218.94
452.869	225.94
453.089	206.94
453.31	206.94
453.53	204.94
453.751	210.94
453.971	200.94
454.192	216.94
454.412	210.94
454.633	206.94
454.853	196.94
455.073	192.94
455.294	199.94
455.514	203.94
455.734	198.94
455.955	198.94
456.175	169.94
456.395	187.94
456.616	215.94
456.836	184.94
457.056	190.94
457.276	201.94
457.497	198.94
457.717	213.94
457.937	220.94
458.157	195.94
458.377	208.94
458.598	219.94
458.818	228.94
459.038	209.94
459.258	225.94
459.478	239.94
459.698	209.94
459.918	218.94
460.138	231.94
460.358	251.94
460.578	258.94
460.798	256.94
461.018	260.94
461.238	267.94
461.458	244.94
461.678	252.94
461.898	259.94
462.118	253.94
462.338	286.94
462.558	279.94
462.777	286.94
462.997	318.94
463.217	352.94
463.437	335.94
463.657	327.94
463.876	295.94
464.096	298.94
464.316	282.94
464.536	298.94
464.755	290.94
464.975	268.94
465.195	274.94
465.414	258.94
465.634	240.94
465.854	233.94
466.073	233.94
466.293	223.94
466.512	229.94
466.732	216.94
466.951	233.94
467.171	215.94
467.391	219.94
467.61	238.94
467.829	208.94
468.049	224.94
468.268	223.94
468.488	210.94
468.707	207.94
468.927	208.94
469.146	204.94
469.365	211.94
469.585	223.94
469.804	229.94
470.023	220.94
470.243	230.94
470.462	250.94
470.681	235.94
470.901	230.94
471.12	229.94
471.339	232.94
471.558	233.94
471.777	224.94
471.997	240.94
472.216	206.94
472.435	216.94
472.654	209.94
472.873	208.94
473.092	206.94
473.311	213.94
473.53	217.94
473.749	224.94
473.968	204.94
474.187	209.94
474.406	209.94
474.625	210.94
474.844	220.94
475.063	203.94
475.282	218.94
475.501	203.94
475.72	215.94
475.939	217.94
476.158	225.94
476.377	226.94
476.596	225.94
476.814	227.94
477.033	237.94
477.252	237.94
477.471	221.94
477.69	249.94
477.908	231.94
478.127	249.94
478.346	243.94
478.564	258.94
478.783	240.94
479.002	262.94
479.22	258.94
479.439	263.94
479.658	245.94
479.876	256.94
480.095	265.94
480.313	273.94
480.532	266.94
480.751	269.94
480.969	263.94
481.188	252.94
481.406	233.94
481.624	239.94
481.843	228.94
482.061	242.94
482.28	238.94
482.498	241.94
482.717	227.94
482.935	239.94
483.153	225.94
483.372	225.94
483.59	247.94
483.808	220.94
484.027	248.94
484.245	228.94
484.463	242.94
484.681	258.94
484.9	240.94
485.118	230.94
485.336	257.94
485.554	252.94
485.772	259.94
485.99	262.94
486.209	240.94
486.427	252.94
486.645	244.94
486.863	255.94
487.081	265.94
487.299	260.94
487.517	246.94
487.735	258.94
487.953	249.94
488.171	267.94
488.389	240.94
488.607	228.94
488.825	252.94
489.043	254.94
489.261	259.94
489.479	230.94
489.696	266.94
489.914	237.94
490.132	245.94
490.35	250.94
490.568	257.94
490.786	254.94
491.003	260.94
491.221	234.94
491.439	254.94
491.657	252.94
491.874	257.94
492.092	258.94
492.31	256.94
492.527	263.94
492.745	256.94
492.963	252.94
493.18	245.94
493.398	256.94
493.615	267.94
493.833	243.94
494.05	271.94
494.268	271.94
494.485	267.94
494.703	277.94
494.92	260.94
495.138	254.94
495.355	276.94
495.573	263.94
495.79	270.94
496.008	262.94
496.225	277.94
496.442	278.94
496.66	266.94
496.877	265.94
497.094	264.94
497.312	274.94
497.529	280.94
497.746	283.94
497.963	284.94
498.181	307.94
498.398	311.94
498.615	310.94
498.832	337.94
499.049	344.94
499.267	383.94
499.484	420.94
499.701	475.94
499.918	526.94
500.135	610.94
500.352	677.94
500.569	715.94
500.786	696.94
501.003	646.94
501.22	582.94
501.437	512.94
501.654	440.94
501.871	404.94
502.088	389.94
502.305	378.94
502.522	358.94
502.739	356.94
502.956	317.94
503.172	300.94
503.389	289.94
