Data from 0.5MCu(NO3)2.Standard.Lamp.E10.CV._HRD10591_16-03-46-753.txt Node
Date: Mon Jul 22 16:03:46 EDT 2019
User: cochatt
Spectrometer: HR+D1059
Trigger mode: 1
Integration Time (sec): 1.000000E-1
Scans to average: 1
Electric dark correction enabled: true
Nonlinearity correction enabled: false
Boxcar width: 0
XAxis mode: Wavelengths
Number of Pixels in Spectrum: 2048
>>>>>Begin Spectral Data<<<<<
223.165	-29.25
223.4	-29.25
223.635	-29.25
223.869	-19.25
224.104	-15.25
224.338	-11.25
224.573	-22.25
224.808	-1.25
225.042	-21.25
225.277	-8.25
225.511	3.75
225.746	-3.25
225.98	22.75
226.215	22.75
226.449	19.75
226.683	18.75
226.918	15.75
227.152	27.75
227.387	38.75
227.621	38.75
227.856	53.75
228.09	50.75
228.324	59.75
228.559	51.75
228.793	66.75
229.027	56.75
229.262	51.75
229.496	76.75
229.73	74.75
229.964	71.75
230.199	81.75
230.433	69.75
230.667	85.75
230.901	83.75
231.136	76.75
231.37	89.75
231.604	86.75
231.838	84.75
232.072	92.75
232.306	79.75
232.541	80.75
232.775	90.75
233.009	74.75
233.243	83.75
233.477	88.75
233.711	99.75
233.945	103.75
234.179	87.75
234.413	94.75
234.647	85.75
234.881	89.75
235.115	87.75
235.349	84.75
235.583	91.75
235.817	86.75
236.051	92.75
236.285	82.75
236.519	72.75
236.753	78.75
236.987	94.75
237.221	87.75
237.455	81.75
237.689	84.75
237.922	88.75
238.156	106.75
238.39	91.75
238.624	81.75
238.858	83.75
239.091	83.75
239.325	96.75
239.559	98.75
239.793	84.75
240.027	98.75
240.26	90.75
240.494	90.75
240.728	96.75
240.961	95.75
241.195	102.75
241.429	95.75
241.662	79.75
241.896	98.75
242.13	84.75
242.363	89.75
242.597	90.75
242.83	83.75
243.064	85.75
243.298	99.75
243.531	94.75
243.765	90.75
243.998	105.75
244.232	99.75
244.465	98.75
244.699	88.75
244.932	93.75
245.166	90.75
245.399	86.75
245.633	111.75
245.866	107.75
246.099	91.75
246.333	107.75
246.566	92.75
246.8	96.75
247.033	107.75
247.266	102.75
247.5	97.75
247.733	97.75
247.966	93.75
248.2	122.75
248.433	99.75
248.666	99.75
248.899	92.75
249.133	104.75
249.366	99.75
249.599	97.75
249.832	107.75
250.066	107.75
250.299	96.75
250.532	112.75
250.765	103.75
250.998	98.75
251.231	104.75
251.465	97.75
251.698	102.75
251.931	90.75
252.164	110.75
252.397	99.75
252.63	94.75
252.863	108.75
253.096	106.75
253.329	100.75
253.562	101.75
253.795	110.75
254.028	106.75
254.261	104.75
254.494	111.75
254.727	98.75
254.96	115.75
255.193	99.75
255.426	106.75
255.659	119.75
255.892	122.75
256.124	121.75
256.357	119.75
256.59	103.75
256.823	107.75
257.056	107.75
257.289	105.75
257.521	110.75
257.754	116.75
257.987	111.75
258.22	113.75
258.452	123.75
258.685	117.75
258.918	124.75
259.151	105.75
259.383	111.75
259.616	111.75
259.849	103.75
260.081	121.75
260.314	106.75
260.547	120.75
260.779	110.75
261.012	111.75
261.244	113.75
261.477	128.75
261.71	120.75
261.942	107.75
262.175	118.75
262.407	114.75
262.64	121.75
262.872	108.75
263.105	119.75
263.337	112.75
263.57	122.75
263.802	108.75
264.035	121.75
264.267	118.75
264.499	127.75
264.732	119.75
264.964	129.75
265.197	121.75
265.429	142.75
265.661	128.75
265.894	117.75
266.126	122.75
266.358	103.75
266.591	126.75
266.823	130.75
267.055	109.75
267.287	103.75
267.52	138.75
267.752	122.75
267.984	128.75
268.216	125.75
268.448	135.75
268.681	133.75
268.913	126.75
269.145	116.75
269.377	122.75
269.609	136.75
269.841	123.75
270.073	137.75
270.306	120.75
270.538	120.75
270.77	128.75
271.002	133.75
271.234	142.75
271.466	125.75
271.698	132.75
271.93	128.75
272.162	136.75
272.394	136.75
272.626	134.75
272.858	123.75
273.09	137.75
273.322	135.75
273.553	122.75
273.785	134.75
274.017	135.75
274.249	123.75
274.481	129.75
274.713	136.75
274.945	138.75
275.176	127.75
275.408	122.75
275.64	119.75
275.872	128.75
276.104	134.75
276.335	133.75
276.567	125.75
276.799	151.75
277.031	112.75
277.262	139.75
277.494	144.75
277.726	150.75
277.957	124.75
278.189	131.75
278.421	131.75
278.652	140.75
278.884	132.75
279.115	140.75
279.347	125.75
279.579	140.75
279.81	130.75
280.042	138.75
280.273	144.75
280.505	139.75
280.736	126.75
280.968	140.75
281.199	153.75
281.431	138.75
281.662	140.75
281.894	137.75
282.125	144.75
282.356	156.75
282.588	143.75
282.819	135.75
283.051	158.75
283.282	139.75
283.513	140.75
283.745	141.75
283.976	134.75
284.207	150.75
284.439	151.75
284.67	140.75
284.901	148.75
285.132	156.75
285.364	137.75
285.595	159.75
285.826	154.75
286.057	158.75
286.288	131.75
286.52	153.75
286.751	150.75
286.982	150.75
287.213	153.75
287.444	147.75
287.675	149.75
287.906	161.75
288.138	163.75
288.369	161.75
288.6	159.75
288.831	164.75
289.062	158.75
289.293	162.75
289.524	167.75
289.755	156.75
289.986	155.75
290.217	150.75
290.448	154.75
290.679	162.75
290.91	151.75
291.141	167.75
291.371	143.75
291.602	162.75
291.833	140.75
292.064	142.75
292.295	168.75
292.526	167.75
292.757	157.75
292.987	140.75
293.218	150.75
293.449	162.75
293.68	152.75
293.91	139.75
294.141	150.75
294.372	169.75
294.603	163.75
294.833	162.75
295.064	168.75
295.295	171.75
295.525	163.75
295.756	175.75
295.987	158.75
296.217	160.75
296.448	166.75
296.679	171.75
296.909	166.75
297.14	162.75
297.37	170.75
297.601	173.75
297.831	176.75
298.062	166.75
298.292	180.75
298.523	167.75
298.753	172.75
298.984	162.75
299.214	167.75
299.445	167.75
299.675	162.75
299.905	168.75
300.136	173.75
300.366	161.75
300.597	178.75
300.827	164.75
301.057	162.75
301.288	167.75
301.518	182.75
301.748	167.75
301.979	176.75
302.209	166.75
302.439	178.75
302.669	175.75
302.9	163.75
303.13	177.75
303.36	153.75
303.59	160.75
303.82	176.75
304.051	181.75
304.281	164.75
304.511	168.75
304.741	171.75
304.971	175.75
305.201	170.75
305.431	175.75
305.661	178.75
305.891	178.75
306.121	184.75
306.352	163.75
306.582	164.75
306.812	169.75
307.042	178.75
307.272	166.75
307.502	160.75
307.731	161.75
307.961	162.75
308.191	158.75
308.421	176.75
308.651	167.75
308.881	177.75
309.111	160.75
309.341	165.75
309.571	174.75
309.8	168.75
310.03	170.75
310.26	169.75
310.49	162.75
310.72	166.75
310.949	159.75
311.179	190.75
311.409	175.75
311.639	187.75
311.868	176.75
312.098	177.75
312.328	181.75
312.557	183.75
312.787	161.75
313.017	186.75
313.246	176.75
313.476	156.75
313.706	188.75
313.935	169.75
314.165	183.75
314.394	185.75
314.624	182.75
314.853	178.75
315.083	156.75
315.312	183.75
315.542	167.75
315.771	177.75
316.001	186.75
316.23	180.75
316.46	177.75
316.689	161.75
316.919	172.75
317.148	178.75
317.377	179.75
317.607	175.75
317.836	167.75
318.065	182.75
318.295	177.75
318.524	174.75
318.753	183.75
318.983	168.75
319.212	178.75
319.441	170.75
319.67	169.75
319.9	179.75
320.129	176.75
320.358	164.75
320.587	161.75
320.816	178.75
321.046	179.75
321.275	184.75
321.504	186.75
321.733	187.75
321.962	175.75
322.191	179.75
322.42	177.75
322.649	169.75
322.878	179.75
323.108	160.75
323.337	173.75
323.566	162.75
323.795	180.75
324.024	192.75
324.253	176.75
324.482	192.75
324.71	178.75
324.939	170.75
325.168	191.75
325.397	174.75
325.626	192.75
325.855	181.75
326.084	172.75
326.313	195.75
326.542	185.75
326.77	193.75
326.999	190.75
327.228	193.75
327.457	177.75
327.686	174.75
327.914	182.75
328.143	182.75
328.372	207.75
328.6	184.75
328.829	184.75
329.058	189.75
329.287	180.75
329.515	187.75
329.744	199.75
329.972	190.75
330.201	184.75
330.43	196.75
330.658	195.75
330.887	197.75
331.115	190.75
331.344	179.75
331.572	191.75
331.801	204.75
332.03	196.75
332.258	199.75
332.486	228.75
332.715	223.75
332.943	209.75
333.172	219.75
333.4	213.75
333.629	238.75
333.857	226.75
334.085	252.75
334.314	217.75
334.542	224.75
334.771	227.75
334.999	216.75
335.227	215.75
335.455	203.75
335.684	211.75
335.912	204.75
336.14	225.75
336.369	250.75
336.597	214.75
336.825	206.75
337.053	215.75
337.281	219.75
337.51	194.75
337.738	201.75
337.966	201.75
338.194	183.75
338.422	201.75
338.65	190.75
338.878	192.75
339.106	210.75
339.334	206.75
339.562	187.75
339.79	192.75
340.018	187.75
340.246	180.75
340.474	192.75
340.702	191.75
340.93	172.75
341.158	200.75
341.386	205.75
341.614	196.75
341.842	178.75
342.07	175.75
342.298	200.75
342.526	178.75
342.754	184.75
342.981	180.75
343.209	195.75
343.437	203.75
343.665	209.75
343.893	209.75
344.12	226.75
344.348	224.75
344.576	212.75
344.804	211.75
345.031	192.75
345.259	207.75
345.487	188.75
345.714	193.75
345.942	177.75
346.17	185.75
346.397	179.75
346.625	182.75
346.853	172.75
347.08	179.75
347.308	182.75
347.535	200.75
347.763	186.75
347.99	198.75
348.218	202.75
348.445	184.75
348.673	195.75
348.9	181.75
349.128	200.75
349.355	175.75
349.583	177.75
349.81	175.75
350.037	181.75
350.265	184.75
350.492	185.75
350.72	184.75
350.947	175.75
351.174	187.75
351.402	183.75
351.629	189.75
351.856	179.75
352.083	174.75
352.311	185.75
352.538	176.75
352.765	184.75
352.992	183.75
353.22	164.75
353.447	179.75
353.674	182.75
353.901	190.75
354.128	180.75
354.355	176.75
354.583	174.75
354.81	179.75
355.037	177.75
355.264	194.75
355.491	177.75
355.718	195.75
355.945	187.75
356.172	184.75
356.399	164.75
356.626	193.75
356.853	181.75
357.08	174.75
357.307	178.75
357.534	186.75
357.761	181.75
357.988	168.75
358.215	178.75
358.441	202.75
358.668	185.75
358.895	172.75
359.122	196.75
359.349	170.75
359.576	198.75
359.802	186.75
360.029	187.75
360.256	175.75
360.483	182.75
360.709	177.75
360.936	190.75
361.163	183.75
361.39	167.75
361.616	190.75
361.843	168.75
362.07	181.75
362.296	171.75
362.523	166.75
362.749	174.75
362.976	179.75
363.203	193.75
363.429	183.75
363.656	179.75
363.882	166.75
364.109	196.75
364.335	182.75
364.562	186.75
364.788	182.75
365.015	169.75
365.241	174.75
365.468	165.75
365.694	183.75
365.92	182.75
366.147	170.75
366.373	179.75
366.599	195.75
366.826	160.75
367.052	182.75
367.278	179.75
367.505	168.75
367.731	171.75
367.957	176.75
368.184	188.75
368.41	179.75
368.636	183.75
368.862	179.75
369.089	185.75
369.315	171.75
369.541	182.75
369.767	180.75
369.993	177.75
370.219	182.75
370.445	174.75
370.672	204.75
370.898	188.75
371.124	187.75
371.35	178.75
371.576	202.75
371.802	184.75
372.028	190.75
372.254	188.75
372.48	184.75
372.706	194.75
372.932	196.75
373.158	195.75
373.384	188.75
373.61	188.75
373.835	190.75
374.061	212.75
374.287	197.75
374.513	209.75
374.739	204.75
374.965	184.75
375.191	204.75
375.416	193.75
375.642	184.75
375.868	200.75
376.094	191.75
376.319	188.75
376.545	184.75
376.771	194.75
376.997	190.75
377.222	191.75
377.448	207.75
377.674	198.75
377.899	170.75
378.125	191.75
378.35	198.75
378.576	192.75
378.802	196.75
379.027	191.75
379.253	186.75
379.478	182.75
379.704	188.75
379.929	187.75
380.155	186.75
380.38	170.75
380.606	183.75
380.831	180.75
381.057	194.75
381.282	174.75
381.507	185.75
381.733	200.75
381.958	185.75
382.184	196.75
382.409	201.75
382.634	207.75
382.86	190.75
383.085	191.75
383.31	197.75
383.535	206.75
383.761	216.75
383.986	200.75
384.211	205.75
384.436	207.75
384.662	198.75
384.887	206.75
385.112	228.75
385.337	218.75
385.562	210.75
385.787	219.75
386.013	225.75
386.238	228.75
386.463	211.75
386.688	222.75
386.913	219.75
387.138	218.75
387.363	221.75
387.588	206.75
387.813	216.75
388.038	212.75
388.263	210.75
388.488	227.75
388.713	216.75
388.938	219.75
389.163	206.75
389.387	207.75
389.612	200.75
389.837	212.75
390.062	204.75
390.287	213.75
390.512	216.75
390.736	206.75
390.961	211.75
391.186	209.75
391.411	220.75
391.636	224.75
391.86	214.75
392.085	238.75
392.31	235.75
392.534	224.75
392.759	215.75
392.984	219.75
393.208	221.75
393.433	216.75
393.658	230.75
393.882	220.75
394.107	215.75
394.331	219.75
394.556	215.75
394.78	220.75
395.005	222.75
395.229	218.75
395.454	215.75
395.678	223.75
395.903	226.75
396.127	235.75
396.352	220.75
396.576	218.75
396.801	208.75
397.025	201.75
397.249	221.75
397.474	218.75
397.698	224.75
397.922	234.75
398.147	217.75
398.371	225.75
398.595	229.75
398.82	233.75
399.044	244.75
399.268	286.75
399.492	312.75
399.717	348.75
399.941	326.75
400.165	302.75
400.389	262.75
400.613	272.75
400.837	263.75
401.062	256.75
401.286	233.75
401.51	250.75
401.734	254.75
401.958	266.75
402.182	256.75
402.406	263.75
402.63	254.75
402.854	266.75
403.078	270.75
403.302	285.75
403.526	287.75
403.75	290.75
403.974	274.75
404.198	296.75
404.422	274.75
404.645	271.75
404.869	281.75
405.093	272.75
405.317	271.75
405.541	253.75
405.765	267.75
405.988	266.75
406.212	259.75
406.436	274.75
406.66	273.75
406.883	259.75
407.107	282.75
407.331	320.75
407.555	314.75
407.778	304.75
408.002	310.75
408.226	296.75
408.449	281.75
408.673	277.75
408.896	255.75
409.12	280.75
409.344	284.75
409.567	262.75
409.791	270.75
410.014	279.75
410.238	257.75
410.461	277.75
410.685	286.75
410.908	278.75
411.132	269.75
411.355	226.75
411.578	256.75
411.802	243.75
412.025	247.75
412.249	261.75
412.472	267.75
412.695	250.75
412.919	243.75
413.142	244.75
413.365	255.75
413.589	256.75
413.812	255.75
414.035	241.75
414.258	248.75
414.482	247.75
414.705	261.75
414.928	257.75
415.151	256.75
415.374	228.75
415.597	260.75
415.821	227.75
416.044	227.75
416.267	234.75
416.49	245.75
416.713	244.75
416.936	245.75
417.159	252.75
417.382	233.75
417.605	253.75
417.828	256.75
418.051	251.75
418.274	240.75
418.497	246.75
418.72	255.75
418.943	250.75
419.166	264.75
419.389	252.75
419.611	271.75
419.834	260.75
420.057	247.75
420.28	248.75
420.503	236.75
420.726	230.75
420.948	243.75
421.171	242.75
421.394	231.75
421.617	240.75
421.839	238.75
422.062	253.75
422.285	224.75
422.507	242.75
422.73	259.75
422.953	252.75
423.175	252.75
423.398	253.75
423.621	244.75
423.843	261.75
424.066	262.75
424.288	279.75
424.511	265.75
424.733	241.75
424.956	256.75
425.178	259.75
425.401	231.75
425.623	246.75
425.846	235.75
426.068	240.75
426.291	222.75
426.513	219.75
426.735	235.75
426.958	218.75
427.18	228.75
427.402	223.75
427.625	229.75
427.847	224.75
428.069	242.75
428.292	238.75
428.514	211.75
428.736	222.75
428.958	226.75
429.181	220.75
429.403	222.75
429.625	222.75
429.847	217.75
430.069	218.75
430.292	234.75
430.514	226.75
430.736	216.75
430.958	224.75
431.18	214.75
431.402	207.75
431.624	224.75
431.846	216.75
432.068	229.75
432.29	222.75
432.512	241.75
432.734	238.75
432.956	224.75
433.178	240.75
433.4	223.75
433.622	226.75
433.844	212.75
434.066	242.75
434.287	236.75
434.509	227.75
434.731	242.75
434.953	235.75
435.175	237.75
435.397	238.75
435.618	232.75
435.84	226.75
436.062	228.75
436.284	214.75
436.505	233.75
436.727	225.75
436.949	236.75
437.17	234.75
437.392	242.75
437.614	218.75
437.835	230.75
438.057	224.75
438.278	216.75
438.5	232.75
438.721	230.75
438.943	219.75
439.165	215.75
439.386	233.75
439.608	235.75
439.829	225.75
440.05	213.75
440.272	228.75
440.493	235.75
440.715	232.75
440.936	227.75
441.158	218.75
441.379	252.75
441.6	258.75
441.822	266.75
442.043	255.75
442.264	241.75
442.486	238.75
442.707	242.75
442.928	225.75
443.149	244.75
443.371	224.75
443.592	258.75
443.813	250.75
444.034	235.75
444.255	254.75
444.476	271.75
444.698	270.75
444.919	295.75
445.14	394.75
445.361	314.75
445.582	265.75
445.803	233.75
446.024	228.75
446.245	242.75
446.466	225.75
446.687	234.75
446.908	232.75
447.129	204.75
447.35	216.75
447.571	234.75
447.792	208.75
448.013	208.75
448.234	209.75
448.455	206.75
448.675	203.75
448.896	199.75
449.117	223.75
449.338	231.75
449.559	230.75
449.779	201.75
450	207.75
450.221	218.75
450.442	210.75
450.662	240.75
450.883	220.75
451.104	197.75
451.324	215.75
451.545	214.75
451.766	202.75
451.986	221.75
452.207	214.75
452.428	201.75
452.648	204.75
452.869	211.75
453.089	203.75
453.31	203.75
453.53	215.75
453.751	202.75
453.971	218.75
454.192	214.75
454.412	212.75
454.633	201.75
454.853	203.75
455.073	180.75
455.294	203.75
455.514	188.75
455.734	203.75
455.955	210.75
456.175	203.75
456.395	208.75
456.616	214.75
456.836	202.75
457.056	203.75
457.276	202.75
457.497	203.75
457.717	192.75
457.937	207.75
458.157	218.75
458.377	204.75
458.598	193.75
458.818	197.75
459.038	207.75
459.258	238.75
459.478	223.75
459.698	225.75
459.918	247.75
460.138	243.75
460.358	262.75
460.578	258.75
460.798	243.75
461.018	259.75
461.238	263.75
461.458	258.75
461.678	258.75
461.898	256.75
462.118	254.75
462.338	264.75
462.558	270.75
462.777	277.75
462.997	298.75
463.217	322.75
463.437	337.75
463.657	298.75
463.876	294.75
464.096	305.75
464.316	305.75
464.536	282.75
464.755	299.75
464.975	284.75
465.195	265.75
465.414	244.75
465.634	246.75
465.854	236.75
466.073	226.75
466.293	237.75
466.512	215.75
466.732	221.75
466.951	227.75
467.171	225.75
467.391	232.75
467.61	218.75
467.829	216.75
468.049	223.75
468.268	216.75
468.488	210.75
468.707	202.75
468.927	208.75
469.146	219.75
469.365	215.75
469.585	209.75
469.804	212.75
470.023	235.75
470.243	242.75
470.462	235.75
470.681	225.75
470.901	241.75
471.12	240.75
471.339	221.75
471.558	235.75
471.777	244.75
471.997	224.75
472.216	219.75
472.435	220.75
472.654	206.75
472.873	207.75
473.092	206.75
473.311	224.75
473.53	214.75
473.749	202.75
473.968	201.75
474.187	215.75
474.406	201.75
474.625	207.75
474.844	211.75
475.063	216.75
475.282	217.75
475.501	231.75
475.72	216.75
475.939	202.75
476.158	224.75
476.377	218.75
476.596	214.75
476.814	212.75
477.033	226.75
477.252	226.75
477.471	214.75
477.69	246.75
477.908	251.75
478.127	243.75
478.346	250.75
478.564	257.75
478.783	260.75
479.002	262.75
479.22	258.75
479.439	250.75
479.658	260.75
479.876	256.75
480.095	244.75
480.313	255.75
480.532	258.75
480.751	272.75
480.969	263.75
481.188	251.75
481.406	246.75
481.624	228.75
481.843	220.75
482.061	227.75
482.28	240.75
482.498	231.75
482.717	212.75
482.935	240.75
483.153	231.75
483.372	253.75
483.59	235.75
483.808	241.75
484.027	228.75
484.245	247.75
484.463	251.75
484.681	257.75
484.9	248.75
485.118	254.75
485.336	242.75
485.554	260.75
485.772	257.75
485.99	248.75
486.209	256.75
486.427	246.75
486.645	267.75
486.863	270.75
487.081	252.75
487.299	265.75
487.517	259.75
487.735	248.75
487.953	264.75
488.171	252.75
488.389	257.75
488.607	246.75
488.825	244.75
489.043	269.75
489.261	239.75
489.479	242.75
489.696	234.75
489.914	252.75
490.132	269.75
490.35	238.75
490.568	268.75
490.786	262.75
491.003	249.75
491.221	251.75
491.439	263.75
491.657	265.75
491.874	256.75
492.092	270.75
492.31	261.75
492.527	264.75
492.745	257.75
492.963	262.75
493.18	246.75
493.398	263.75
493.615	274.75
493.833	258.75
494.05	263.75
494.268	275.75
494.485	244.75
494.703	263.75
494.92	275.75
495.138	274.75
495.355	255.75
495.573	266.75
495.79	258.75
496.008	285.75
496.225	286.75
496.442	280.75
496.66	276.75
496.877	264.75
497.094	268.75
497.312	283.75
497.529	271.75
497.746	301.75
497.963	291.75
498.181	310.75
498.398	291.75
498.615	335.75
498.832	342.75
499.049	359.75
499.267	379.75
499.484	420.75
499.701	448.75
499.918	514.75
500.135	617.75
500.352	650.75
500.569	697.75
500.786	671.75
501.003	629.75
501.22	563.75
501.437	502.75
501.654	457.75
501.871	424.75
502.088	390.75
502.305	373.75
502.522	347.75
502.739	323.75
502.956	315.75
503.172	310.75
503.389	296.75
