Data from 0.5MCu(NO3)2.Standard.Lamp.E10.CV._HRD10591_16-05-20-753.txt Node
Date: Mon Jul 22 16:05:20 EDT 2019
User: cochatt
Spectrometer: HR+D1059
Trigger mode: 1
Integration Time (sec): 1.000000E-1
Scans to average: 1
Electric dark correction enabled: true
Nonlinearity correction enabled: false
Boxcar width: 0
XAxis mode: Wavelengths
Number of Pixels in Spectrum: 2048
>>>>>Begin Spectral Data<<<<<
223.165	-10.56
223.4	-10.56
223.635	-10.56
223.869	-5.56
224.104	-24.56
224.338	-4.56
224.573	-24.56
224.808	-13.56
225.042	-7.56
225.277	-7.56
225.511	-4.56
225.746	7.44
225.98	8.44
226.215	5.44
226.449	15.44
226.683	22.44
226.918	22.44
227.152	21.44
227.387	56.44
227.621	40.44
227.856	54.44
228.09	52.44
228.324	53.44
228.559	68.44
228.793	71.44
229.027	58.44
229.262	72.44
229.496	90.44
229.73	80.44
229.964	93.44
230.199	83.44
230.433	84.44
230.667	88.44
230.901	81.44
231.136	76.44
231.37	80.44
231.604	74.44
231.838	76.44
232.072	98.44
232.306	75.44
232.541	94.44
232.775	80.44
233.009	93.44
233.243	81.44
233.477	68.44
233.711	95.44
233.945	92.44
234.179	87.44
234.413	93.44
234.647	99.44
234.881	93.44
235.115	90.44
235.349	93.44
235.583	101.44
235.817	79.44
236.051	93.44
236.285	100.44
236.519	87.44
236.753	85.44
236.987	94.44
237.221	90.44
237.455	92.44
237.689	100.44
237.922	102.44
238.156	82.44
238.39	75.44
238.624	100.44
238.858	92.44
239.091	99.44
239.325	88.44
239.559	85.44
239.793	84.44
240.027	91.44
240.26	96.44
240.494	100.44
240.728	112.44
240.961	77.44
241.195	97.44
241.429	105.44
241.662	86.44
241.896	91.44
242.13	84.44
242.363	93.44
242.597	113.44
242.83	87.44
243.064	86.44
243.298	100.44
243.531	98.44
243.765	90.44
243.998	85.44
244.232	85.44
244.465	104.44
244.699	92.44
244.932	112.44
245.166	99.44
245.399	102.44
245.633	95.44
245.866	102.44
246.099	100.44
246.333	84.44
246.566	93.44
246.8	94.44
247.033	109.44
247.266	101.44
247.5	104.44
247.733	107.44
247.966	103.44
248.2	107.44
248.433	109.44
248.666	97.44
248.899	120.44
249.133	114.44
249.366	114.44
249.599	101.44
249.832	93.44
250.066	88.44
250.299	100.44
250.532	99.44
250.765	110.44
250.998	99.44
251.231	104.44
251.465	101.44
251.698	110.44
251.931	111.44
252.164	105.44
252.397	94.44
252.63	99.44
252.863	120.44
253.096	105.44
253.329	108.44
253.562	128.44
253.795	107.44
254.028	113.44
254.261	115.44
254.494	103.44
254.727	110.44
254.96	122.44
255.193	108.44
255.426	133.44
255.659	105.44
255.892	101.44
256.124	124.44
256.357	122.44
256.59	107.44
256.823	119.44
257.056	100.44
257.289	107.44
257.521	115.44
257.754	107.44
257.987	114.44
258.22	117.44
258.452	133.44
258.685	127.44
258.918	110.44
259.151	121.44
259.383	118.44
259.616	128.44
259.849	117.44
260.081	105.44
260.314	129.44
260.547	130.44
260.779	126.44
261.012	124.44
261.244	129.44
261.477	114.44
261.71	113.44
261.942	122.44
262.175	115.44
262.407	118.44
262.64	118.44
262.872	115.44
263.105	121.44
263.337	131.44
263.57	117.44
263.802	118.44
264.035	140.44
264.267	126.44
264.499	134.44
264.732	128.44
264.964	125.44
265.197	120.44
265.429	125.44
265.661	150.44
265.894	127.44
266.126	124.44
266.358	122.44
266.591	121.44
266.823	120.44
267.055	127.44
267.287	117.44
267.52	136.44
267.752	117.44
267.984	134.44
268.216	139.44
268.448	133.44
268.681	144.44
268.913	139.44
269.145	141.44
269.377	128.44
269.609	126.44
269.841	143.44
270.073	127.44
270.306	112.44
270.538	117.44
270.77	135.44
271.002	141.44
271.234	131.44
271.466	137.44
271.698	128.44
271.93	134.44
272.162	135.44
272.394	135.44
272.626	131.44
272.858	127.44
273.09	115.44
273.322	139.44
273.553	135.44
273.785	136.44
274.017	137.44
274.249	124.44
274.481	139.44
274.713	130.44
274.945	128.44
275.176	131.44
275.408	156.44
275.64	126.44
275.872	147.44
276.104	148.44
276.335	151.44
276.567	134.44
276.799	139.44
277.031	131.44
277.262	136.44
277.494	151.44
277.726	151.44
277.957	143.44
278.189	134.44
278.421	132.44
278.652	138.44
278.884	132.44
279.115	131.44
279.347	147.44
279.579	139.44
279.81	141.44
280.042	153.44
280.273	137.44
280.505	145.44
280.736	141.44
280.968	155.44
281.199	141.44
281.431	145.44
281.662	149.44
281.894	147.44
282.125	156.44
282.356	155.44
282.588	152.44
282.819	155.44
283.051	148.44
283.282	159.44
283.513	159.44
283.745	138.44
283.976	156.44
284.207	162.44
284.439	150.44
284.67	159.44
284.901	157.44
285.132	156.44
285.364	165.44
285.595	164.44
285.826	163.44
286.057	137.44
286.288	165.44
286.52	152.44
286.751	151.44
286.982	149.44
287.213	168.44
287.444	170.44
287.675	168.44
287.906	173.44
288.138	153.44
288.369	163.44
288.6	146.44
288.831	163.44
289.062	154.44
289.293	134.44
289.524	162.44
289.755	165.44
289.986	154.44
290.217	159.44
290.448	169.44
290.679	177.44
290.91	169.44
291.141	174.44
291.371	162.44
291.602	166.44
291.833	154.44
292.064	156.44
292.295	158.44
292.526	169.44
292.757	171.44
292.987	168.44
293.218	155.44
293.449	161.44
293.68	156.44
293.91	159.44
294.141	172.44
294.372	162.44
294.603	162.44
294.833	163.44
295.064	162.44
295.295	183.44
295.525	157.44
295.756	167.44
295.987	159.44
296.217	174.44
296.448	179.44
296.679	165.44
296.909	163.44
297.14	161.44
297.37	174.44
297.601	158.44
297.831	187.44
298.062	181.44
298.292	182.44
298.523	182.44
298.753	175.44
298.984	179.44
299.214	179.44
299.445	166.44
299.675	181.44
299.905	191.44
300.136	193.44
300.366	188.44
300.597	166.44
300.827	181.44
301.057	180.44
301.288	176.44
301.518	167.44
301.748	179.44
301.979	170.44
302.209	165.44
302.439	168.44
302.669	192.44
302.9	170.44
303.13	184.44
303.36	182.44
303.59	169.44
303.82	185.44
304.051	177.44
304.281	193.44
304.511	184.44
304.741	171.44
304.971	183.44
305.201	180.44
305.431	184.44
305.661	178.44
305.891	170.44
306.121	195.44
306.352	185.44
306.582	185.44
306.812	172.44
307.042	181.44
307.272	162.44
307.502	181.44
307.731	167.44
307.961	174.44
308.191	188.44
308.421	195.44
308.651	183.44
308.881	181.44
309.111	172.44
309.341	171.44
309.571	168.44
309.8	177.44
310.03	183.44
310.26	191.44
310.49	178.44
310.72	174.44
310.949	174.44
311.179	171.44
311.409	171.44
311.639	163.44
311.868	174.44
312.098	166.44
312.328	186.44
312.557	183.44
312.787	193.44
313.017	177.44
313.246	186.44
313.476	180.44
313.706	180.44
313.935	189.44
314.165	187.44
314.394	185.44
314.624	202.44
314.853	189.44
315.083	196.44
315.312	198.44
315.542	194.44
315.771	183.44
316.001	192.44
316.23	185.44
316.46	186.44
316.689	189.44
316.919	181.44
317.148	192.44
317.377	182.44
317.607	183.44
317.836	173.44
318.065	180.44
318.295	181.44
318.524	174.44
318.753	188.44
318.983	185.44
319.212	161.44
319.441	165.44
319.67	188.44
319.9	193.44
320.129	182.44
320.358	171.44
320.587	170.44
320.816	171.44
321.046	179.44
321.275	187.44
321.504	174.44
321.733	190.44
321.962	190.44
322.191	193.44
322.42	183.44
322.649	190.44
322.878	200.44
323.108	190.44
323.337	191.44
323.566	198.44
323.795	186.44
324.024	190.44
324.253	179.44
324.482	192.44
324.71	189.44
324.939	182.44
325.168	188.44
325.397	188.44
325.626	177.44
325.855	201.44
326.084	198.44
326.313	198.44
326.542	197.44
326.77	205.44
326.999	195.44
327.228	202.44
327.457	180.44
327.686	166.44
327.914	187.44
328.143	199.44
328.372	190.44
328.6	206.44
328.829	198.44
329.058	188.44
329.287	168.44
329.515	195.44
329.744	211.44
329.972	177.44
330.201	186.44
330.43	196.44
330.658	203.44
330.887	208.44
331.115	208.44
331.344	207.44
331.572	194.44
331.801	188.44
332.03	214.44
332.258	217.44
332.486	209.44
332.715	223.44
332.943	245.44
333.172	243.44
333.4	244.44
333.629	233.44
333.857	242.44
334.085	247.44
334.314	243.44
334.542	241.44
334.771	232.44
334.999	230.44
335.227	234.44
335.455	227.44
335.684	241.44
335.912	220.44
336.14	233.44
336.369	236.44
336.597	229.44
336.825	204.44
337.053	224.44
337.281	231.44
337.51	213.44
337.738	200.44
337.966	213.44
338.194	212.44
338.422	189.44
338.65	197.44
338.878	185.44
339.106	211.44
339.334	200.44
339.562	207.44
339.79	198.44
340.018	178.44
340.246	189.44
340.474	208.44
340.702	202.44
340.93	202.44
341.158	204.44
341.386	194.44
341.614	201.44
341.842	200.44
342.07	185.44
342.298	202.44
342.526	204.44
342.754	212.44
342.981	204.44
343.209	214.44
343.437	212.44
343.665	224.44
343.893	228.44
344.12	238.44
344.348	217.44
344.576	222.44
344.804	221.44
345.031	211.44
345.259	213.44
345.487	207.44
345.714	205.44
345.942	193.44
346.17	215.44
346.397	206.44
346.625	214.44
346.853	205.44
347.08	196.44
347.308	217.44
347.535	201.44
347.763	196.44
347.99	185.44
348.218	211.44
348.445	211.44
348.673	197.44
348.9	204.44
349.128	208.44
349.355	200.44
349.583	185.44
349.81	202.44
350.037	203.44
350.265	187.44
350.492	197.44
350.72	188.44
350.947	204.44
351.174	209.44
351.402	188.44
351.629	191.44
351.856	191.44
352.083	206.44
352.311	190.44
352.538	178.44
352.765	193.44
352.992	198.44
353.22	196.44
353.447	185.44
353.674	193.44
353.901	204.44
354.128	199.44
354.355	201.44
354.583	174.44
354.81	196.44
355.037	191.44
355.264	205.44
355.491	193.44
355.718	193.44
355.945	195.44
356.172	181.44
356.399	179.44
356.626	171.44
356.853	205.44
357.08	180.44
357.307	189.44
357.534	201.44
357.761	190.44
357.988	181.44
358.215	203.44
358.441	179.44
358.668	194.44
358.895	206.44
359.122	187.44
359.349	191.44
359.576	194.44
359.802	198.44
360.029	194.44
360.256	167.44
360.483	188.44
360.709	187.44
360.936	195.44
361.163	192.44
361.39	197.44
361.616	179.44
361.843	205.44
362.07	192.44
362.296	189.44
362.523	193.44
362.749	195.44
362.976	185.44
363.203	187.44
363.429	193.44
363.656	191.44
363.882	190.44
364.109	187.44
364.335	180.44
364.562	197.44
364.788	191.44
365.015	198.44
365.241	197.44
365.468	199.44
365.694	183.44
365.92	178.44
366.147	195.44
366.373	179.44
366.599	193.44
366.826	182.44
367.052	192.44
367.278	196.44
367.505	181.44
367.731	209.44
367.957	179.44
368.184	197.44
368.41	213.44
368.636	199.44
368.862	194.44
369.089	195.44
369.315	185.44
369.541	184.44
369.767	194.44
369.993	190.44
370.219	197.44
370.445	201.44
370.672	187.44
370.898	191.44
371.124	196.44
371.35	193.44
371.576	201.44
371.802	208.44
372.028	198.44
372.254	195.44
372.48	219.44
372.706	216.44
372.932	198.44
373.158	214.44
373.384	197.44
373.61	190.44
373.835	197.44
374.061	226.44
374.287	198.44
374.513	193.44
374.739	216.44
374.965	219.44
375.191	222.44
375.416	204.44
375.642	218.44
375.868	212.44
376.094	202.44
376.319	206.44
376.545	211.44
376.771	191.44
376.997	194.44
377.222	201.44
377.448	199.44
377.674	211.44
377.899	208.44
378.125	195.44
378.35	191.44
378.576	183.44
378.802	181.44
379.027	211.44
379.253	194.44
379.478	203.44
379.704	213.44
379.929	204.44
380.155	205.44
380.38	169.44
380.606	201.44
380.831	210.44
381.057	203.44
381.282	205.44
381.507	202.44
381.733	187.44
381.958	201.44
382.184	199.44
382.409	195.44
382.634	204.44
382.86	202.44
383.085	208.44
383.31	201.44
383.535	221.44
383.761	214.44
383.986	208.44
384.211	217.44
384.436	220.44
384.662	237.44
384.887	232.44
385.112	223.44
385.337	226.44
385.562	236.44
385.787	232.44
386.013	244.44
386.238	233.44
386.463	197.44
386.688	220.44
386.913	226.44
387.138	236.44
387.363	223.44
387.588	213.44
387.813	222.44
388.038	219.44
388.263	228.44
388.488	220.44
388.713	217.44
388.938	211.44
389.163	217.44
389.387	216.44
389.612	219.44
389.837	222.44
390.062	236.44
390.287	228.44
390.512	205.44
390.736	205.44
390.961	217.44
391.186	204.44
391.411	217.44
391.636	234.44
391.86	239.44
392.085	241.44
392.31	253.44
392.534	247.44
392.759	238.44
392.984	237.44
393.208	232.44
393.433	243.44
393.658	237.44
393.882	253.44
394.107	233.44
394.331	242.44
394.556	233.44
394.78	229.44
395.005	238.44
395.229	245.44
395.454	259.44
395.678	249.44
395.903	258.44
396.127	235.44
396.352	226.44
396.576	208.44
396.801	238.44
397.025	233.44
397.249	261.44
397.474	250.44
397.698	244.44
397.922	242.44
398.147	236.44
398.371	226.44
398.595	243.44
398.82	262.44
399.044	273.44
399.268	315.44
399.492	355.44
399.717	389.44
399.941	379.44
400.165	341.44
400.389	299.44
400.613	288.44
400.837	289.44
401.062	279.44
401.286	261.44
401.51	254.44
401.734	244.44
401.958	255.44
402.182	272.44
402.406	257.44
402.63	267.44
402.854	276.44
403.078	295.44
403.302	295.44
403.526	310.44
403.75	300.44
403.974	291.44
404.198	294.44
404.422	312.44
404.645	291.44
404.869	289.44
405.093	300.44
405.317	290.44
405.541	283.44
405.765	278.44
405.988	275.44
406.212	294.44
406.436	269.44
406.66	287.44
406.883	282.44
407.107	303.44
407.331	339.44
407.555	323.44
407.778	326.44
408.002	309.44
408.226	306.44
408.449	297.44
408.673	293.44
408.896	286.44
409.12	285.44
409.344	280.44
409.567	293.44
409.791	285.44
410.014	303.44
410.238	291.44
410.461	288.44
410.685	299.44
410.908	294.44
411.132	281.44
411.355	273.44
411.578	263.44
411.802	260.44
412.025	279.44
412.249	279.44
412.472	269.44
412.695	274.44
412.919	276.44
413.142	276.44
413.365	268.44
413.589	276.44
413.812	274.44
414.035	266.44
414.258	261.44
414.482	260.44
414.705	266.44
414.928	271.44
415.151	251.44
415.374	275.44
415.597	260.44
415.821	248.44
416.044	250.44
416.267	256.44
416.49	267.44
416.713	269.44
416.936	253.44
417.159	262.44
417.382	259.44
417.605	265.44
417.828	281.44
418.051	262.44
418.274	262.44
418.497	253.44
418.72	263.44
418.943	267.44
419.166	278.44
419.389	292.44
419.611	289.44
419.834	298.44
420.057	279.44
420.28	259.44
420.503	266.44
420.726	250.44
420.948	265.44
421.171	269.44
421.394	252.44
421.617	248.44
421.839	269.44
422.062	257.44
422.285	249.44
422.507	277.44
422.73	272.44
422.953	270.44
423.175	265.44
423.398	285.44
423.621	270.44
423.843	267.44
424.066	295.44
424.288	271.44
424.511	276.44
424.733	269.44
424.956	257.44
425.178	265.44
425.401	277.44
425.623	262.44
425.846	245.44
426.068	243.44
426.291	256.44
426.513	228.44
426.735	245.44
426.958	254.44
427.18	231.44
427.402	262.44
427.625	246.44
427.847	245.44
428.069	248.44
428.292	261.44
428.514	245.44
428.736	237.44
428.958	226.44
429.181	242.44
429.403	224.44
429.625	245.44
429.847	225.44
430.069	236.44
430.292	229.44
430.514	221.44
430.736	240.44
430.958	212.44
431.18	232.44
431.402	231.44
431.624	243.44
431.846	241.44
432.068	247.44
432.29	247.44
432.512	242.44
432.734	245.44
432.956	230.44
433.178	253.44
433.4	247.44
433.622	250.44
433.844	255.44
434.066	235.44
434.287	246.44
434.509	255.44
434.731	257.44
434.953	266.44
435.175	272.44
435.397	274.44
435.618	253.44
435.84	249.44
436.062	242.44
436.284	249.44
436.505	241.44
436.727	255.44
436.949	235.44
437.17	229.44
437.392	253.44
437.614	226.44
437.835	231.44
438.057	238.44
438.278	251.44
438.5	244.44
438.721	225.44
438.943	242.44
439.165	230.44
439.386	217.44
439.608	228.44
439.829	249.44
440.05	247.44
440.272	228.44
440.493	246.44
440.715	247.44
440.936	253.44
441.158	250.44
441.379	277.44
441.6	268.44
441.822	266.44
442.043	279.44
442.264	256.44
442.486	257.44
442.707	238.44
442.928	257.44
443.149	248.44
443.371	252.44
443.592	266.44
443.813	260.44
444.034	268.44
444.255	278.44
444.476	290.44
444.698	303.44
444.919	325.44
445.14	439.44
445.361	343.44
445.582	292.44
445.803	227.44
446.024	257.44
446.245	235.44
446.466	250.44
446.687	238.44
446.908	243.44
447.129	222.44
447.35	247.44
447.571	224.44
447.792	223.44
448.013	220.44
448.234	214.44
448.455	214.44
448.675	214.44
448.896	214.44
449.117	217.44
449.338	206.44
449.559	230.44
449.779	199.44
450	219.44
450.221	229.44
450.442	232.44
450.662	223.44
450.883	218.44
451.104	220.44
451.324	229.44
451.545	229.44
451.766	224.44
451.986	217.44
452.207	216.44
452.428	235.44
452.648	214.44
452.869	203.44
453.089	220.44
453.31	220.44
453.53	226.44
453.751	218.44
453.971	212.44
454.192	209.44
454.412	233.44
454.633	214.44
454.853	213.44
455.073	216.44
455.294	205.44
455.514	214.44
455.734	204.44
455.955	213.44
456.175	213.44
456.395	215.44
456.616	213.44
456.836	209.44
457.056	207.44
457.276	224.44
457.497	208.44
457.717	230.44
457.937	210.44
458.157	221.44
458.377	227.44
458.598	218.44
458.818	231.44
459.038	220.44
459.258	233.44
459.478	245.44
459.698	256.44
459.918	253.44
460.138	286.44
460.358	262.44
460.578	277.44
460.798	277.44
461.018	279.44
461.238	263.44
461.458	279.44
461.678	262.44
461.898	284.44
462.118	281.44
462.338	298.44
462.558	300.44
462.777	312.44
462.997	341.44
463.217	348.44
463.437	362.44
463.657	336.44
463.876	315.44
464.096	299.44
464.316	315.44
464.536	297.44
464.755	300.44
464.975	289.44
465.195	281.44
465.414	279.44
465.634	275.44
465.854	235.44
466.073	238.44
466.293	238.44
466.512	236.44
466.732	242.44
466.951	238.44
467.171	233.44
467.391	252.44
467.61	232.44
467.829	223.44
468.049	221.44
468.268	217.44
468.488	214.44
468.707	221.44
468.927	229.44
469.146	231.44
469.365	226.44
469.585	225.44
469.804	215.44
470.023	250.44
470.243	227.44
470.462	245.44
470.681	246.44
470.901	264.44
471.12	236.44
471.339	245.44
471.558	205.44
471.777	248.44
471.997	240.44
472.216	236.44
472.435	213.44
472.654	225.44
472.873	217.44
473.092	216.44
473.311	212.44
473.53	212.44
473.749	230.44
473.968	234.44
474.187	223.44
474.406	226.44
474.625	229.44
474.844	229.44
475.063	219.44
475.282	227.44
475.501	219.44
475.72	226.44
475.939	223.44
476.158	214.44
476.377	236.44
476.596	228.44
476.814	256.44
477.033	214.44
477.252	222.44
477.471	237.44
477.69	235.44
477.908	258.44
478.127	269.44
478.346	253.44
478.564	261.44
478.783	265.44
479.002	269.44
479.22	251.44
479.439	265.44
479.658	256.44
479.876	264.44
480.095	284.44
480.313	287.44
480.532	282.44
480.751	293.44
480.969	276.44
481.188	266.44
481.406	241.44
481.624	257.44
481.843	271.44
482.061	260.44
482.28	231.44
482.498	260.44
482.717	253.44
482.935	250.44
483.153	257.44
483.372	253.44
483.59	250.44
483.808	259.44
484.027	282.44
484.245	266.44
484.463	275.44
484.681	257.44
484.9	265.44
485.118	274.44
485.336	259.44
485.554	257.44
485.772	263.44
485.99	241.44
486.209	279.44
486.427	257.44
486.645	265.44
486.863	274.44
487.081	269.44
487.299	266.44
487.517	267.44
487.735	275.44
487.953	261.44
488.171	265.44
488.389	271.44
488.607	259.44
488.825	260.44
489.043	266.44
489.261	254.44
489.479	255.44
489.696	257.44
489.914	277.44
490.132	282.44
490.35	290.44
490.568	266.44
490.786	268.44
491.003	282.44
491.221	272.44
491.439	272.44
491.657	270.44
491.874	273.44
492.092	263.44
492.31	265.44
492.527	282.44
492.745	280.44
492.963	269.44
493.18	291.44
493.398	269.44
493.615	278.44
493.833	260.44
494.05	282.44
494.268	281.44
494.485	282.44
494.703	283.44
494.92	273.44
495.138	292.44
495.355	291.44
495.573	281.44
495.79	297.44
496.008	270.44
496.225	271.44
496.442	273.44
496.66	284.44
496.877	295.44
497.094	289.44
497.312	306.44
497.529	309.44
497.746	309.44
497.963	323.44
498.181	313.44
498.398	321.44
498.615	355.44
498.832	357.44
499.049	393.44
499.267	420.44
499.484	466.44
499.701	505.44
499.918	557.44
500.135	617.44
500.352	751.44
500.569	785.44
500.786	740.44
501.003	701.44
501.22	645.44
501.437	545.44
501.654	481.44
501.871	437.44
502.088	415.44
502.305	383.44
502.522	375.44
502.739	362.44
502.956	360.44
503.172	331.44
