Data from 0.5MCu(NO3)2.Standard.Lamp.E10.CV._HRD10591_16-06-45-754.txt Node
Date: Mon Jul 22 16:06:45 EDT 2019
User: cochatt
Spectrometer: HR+D1059
Trigger mode: 1
Integration Time (sec): 1.000000E-1
Scans to average: 1
Electric dark correction enabled: true
Nonlinearity correction enabled: false
Boxcar width: 0
XAxis mode: Wavelengths
Number of Pixels in Spectrum: 2048
>>>>>Begin Spectral Data<<<<<
223.165	-15.31
223.4	-15.31
223.635	-15.31
223.869	-10.31
224.104	-22.31
224.338	-10.31
224.573	-8.31
224.808	-5.31
225.042	-3.31
225.277	-12.31
225.511	-0.31
225.746	2.69
225.98	6.69
226.215	3.69
226.449	2.69
226.683	26.69
226.918	18.69
227.152	26.69
227.387	23.69
227.621	48.69
227.856	46.69
228.09	59.69
228.324	64.69
228.559	58.69
228.793	57.69
229.027	67.69
229.262	78.69
229.496	67.69
229.73	89.69
229.964	94.69
230.199	77.69
230.433	76.69
230.667	78.69
230.901	77.69
231.136	80.69
231.37	91.69
231.604	77.69
231.838	92.69
232.072	78.69
232.306	98.69
232.541	97.69
232.775	91.69
233.009	93.69
233.243	98.69
233.477	82.69
233.711	91.69
233.945	84.69
234.179	97.69
234.413	98.69
234.647	79.69
234.881	99.69
235.115	94.69
235.349	74.69
235.583	108.69
235.817	96.69
236.051	91.69
236.285	82.69
236.519	91.69
236.753	79.69
236.987	98.69
237.221	85.69
237.455	91.69
237.689	96.69
237.922	89.69
238.156	88.69
238.39	89.69
238.624	101.69
238.858	90.69
239.091	84.69
239.325	102.69
239.559	90.69
239.793	100.69
240.027	98.69
240.26	104.69
240.494	92.69
240.728	82.69
240.961	76.69
241.195	95.69
241.429	102.69
241.662	89.69
241.896	93.69
242.13	85.69
242.363	104.69
242.597	107.69
242.83	116.69
243.064	99.69
243.298	96.69
243.531	94.69
243.765	107.69
243.998	108.69
244.232	101.69
244.465	114.69
244.699	97.69
244.932	96.69
245.166	99.69
245.399	92.69
245.633	106.69
245.866	111.69
246.099	93.69
246.333	95.69
246.566	99.69
246.8	103.69
247.033	108.69
247.266	96.69
247.5	94.69
247.733	110.69
247.966	94.69
248.2	122.69
248.433	113.69
248.666	111.69
248.899	103.69
249.133	107.69
249.366	110.69
249.599	116.69
249.832	112.69
250.066	125.69
250.299	102.69
250.532	117.69
250.765	120.69
250.998	109.69
251.231	120.69
251.465	112.69
251.698	104.69
251.931	98.69
252.164	102.69
252.397	116.69
252.63	117.69
252.863	112.69
253.096	109.69
253.329	113.69
253.562	126.69
253.795	123.69
254.028	117.69
254.261	113.69
254.494	118.69
254.727	119.69
254.96	120.69
255.193	117.69
255.426	109.69
255.659	118.69
255.892	122.69
256.124	110.69
256.357	116.69
256.59	132.69
256.823	123.69
257.056	117.69
257.289	112.69
257.521	123.69
257.754	119.69
257.987	134.69
258.22	123.69
258.452	132.69
258.685	124.69
258.918	130.69
259.151	112.69
259.383	122.69
259.616	124.69
259.849	136.69
260.081	130.69
260.314	126.69
260.547	120.69
260.779	130.69
261.012	122.69
261.244	131.69
261.477	140.69
261.71	121.69
261.942	117.69
262.175	121.69
262.407	113.69
262.64	129.69
262.872	112.69
263.105	117.69
263.337	145.69
263.57	149.69
263.802	132.69
264.035	124.69
264.267	134.69
264.499	139.69
264.732	135.69
264.964	138.69
265.197	146.69
265.429	135.69
265.661	130.69
265.894	150.69
266.126	143.69
266.358	119.69
266.591	132.69
266.823	136.69
267.055	145.69
267.287	139.69
267.52	141.69
267.752	129.69
267.984	136.69
268.216	154.69
268.448	140.69
268.681	140.69
268.913	155.69
269.145	154.69
269.377	139.69
269.609	144.69
269.841	143.69
270.073	136.69
270.306	127.69
270.538	142.69
270.77	150.69
271.002	143.69
271.234	134.69
271.466	142.69
271.698	139.69
271.93	140.69
272.162	158.69
272.394	156.69
272.626	139.69
272.858	140.69
273.09	153.69
273.322	167.69
273.553	163.69
273.785	150.69
274.017	141.69
274.249	142.69
274.481	146.69
274.713	147.69
274.945	149.69
275.176	154.69
275.408	144.69
275.64	153.69
275.872	142.69
276.104	160.69
276.335	152.69
276.567	158.69
276.799	149.69
277.031	165.69
277.262	154.69
277.494	136.69
277.726	145.69
277.957	159.69
278.189	149.69
278.421	146.69
278.652	150.69
278.884	151.69
279.115	168.69
279.347	166.69
279.579	150.69
279.81	155.69
280.042	177.69
280.273	162.69
280.505	159.69
280.736	162.69
280.968	155.69
281.199	170.69
281.431	166.69
281.662	169.69
281.894	172.69
282.125	180.69
282.356	152.69
282.588	156.69
282.819	180.69
283.051	162.69
283.282	164.69
283.513	170.69
283.745	161.69
283.976	152.69
284.207	168.69
284.439	157.69
284.67	170.69
284.901	171.69
285.132	169.69
285.364	167.69
285.595	180.69
285.826	172.69
286.057	168.69
286.288	161.69
286.52	167.69
286.751	145.69
286.982	180.69
287.213	175.69
287.444	166.69
287.675	158.69
287.906	183.69
288.138	166.69
288.369	178.69
288.6	179.69
288.831	176.69
289.062	190.69
289.293	161.69
289.524	179.69
289.755	187.69
289.986	180.69
290.217	182.69
290.448	158.69
290.679	184.69
290.91	179.69
291.141	188.69
291.371	167.69
291.602	182.69
291.833	192.69
292.064	163.69
292.295	184.69
292.526	170.69
292.757	182.69
292.987	184.69
293.218	166.69
293.449	188.69
293.68	175.69
293.91	189.69
294.141	192.69
294.372	187.69
294.603	172.69
294.833	184.69
295.064	178.69
295.295	190.69
295.525	173.69
295.756	199.69
295.987	184.69
296.217	197.69
296.448	191.69
296.679	187.69
296.909	196.69
297.14	190.69
297.37	202.69
297.601	189.69
297.831	193.69
298.062	196.69
298.292	188.69
298.523	186.69
298.753	195.69
298.984	196.69
299.214	200.69
299.445	195.69
299.675	196.69
299.905	212.69
300.136	202.69
300.366	193.69
300.597	187.69
300.827	195.69
301.057	213.69
301.288	206.69
301.518	215.69
301.748	212.69
301.979	204.69
302.209	197.69
302.439	210.69
302.669	203.69
302.9	189.69
303.13	202.69
303.36	202.69
303.59	208.69
303.82	191.69
304.051	201.69
304.281	204.69
304.511	195.69
304.741	193.69
304.971	204.69
305.201	187.69
305.431	201.69
305.661	198.69
305.891	200.69
306.121	192.69
306.352	189.69
306.582	194.69
306.812	197.69
307.042	195.69
307.272	214.69
307.502	194.69
307.731	186.69
307.961	196.69
308.191	185.69
308.421	201.69
308.651	180.69
308.881	201.69
309.111	205.69
309.341	187.69
309.571	193.69
309.8	197.69
310.03	219.69
310.26	214.69
310.49	197.69
310.72	194.69
310.949	202.69
311.179	195.69
311.409	206.69
311.639	211.69
311.868	210.69
312.098	221.69
312.328	205.69
312.557	210.69
312.787	209.69
313.017	198.69
313.246	202.69
313.476	204.69
313.706	193.69
313.935	206.69
314.165	210.69
314.394	209.69
314.624	221.69
314.853	213.69
315.083	208.69
315.312	201.69
315.542	227.69
315.771	207.69
316.001	212.69
316.23	227.69
316.46	226.69
316.689	199.69
316.919	221.69
317.148	198.69
317.377	189.69
317.607	199.69
317.836	202.69
318.065	200.69
318.295	211.69
318.524	204.69
318.753	198.69
318.983	193.69
319.212	197.69
319.441	206.69
319.67	205.69
319.9	208.69
320.129	188.69
320.358	206.69
320.587	197.69
320.816	205.69
321.046	194.69
321.275	212.69
321.504	182.69
321.733	201.69
321.962	209.69
322.191	206.69
322.42	199.69
322.649	199.69
322.878	210.69
323.108	195.69
323.337	218.69
323.566	205.69
323.795	218.69
324.024	205.69
324.253	201.69
324.482	194.69
324.71	229.69
324.939	222.69
325.168	218.69
325.397	201.69
325.626	209.69
325.855	216.69
326.084	224.69
326.313	235.69
326.542	232.69
326.77	227.69
326.999	209.69
327.228	212.69
327.457	230.69
327.686	218.69
327.914	211.69
328.143	215.69
328.372	217.69
328.6	218.69
328.829	218.69
329.058	223.69
329.287	208.69
329.515	210.69
329.744	226.69
329.972	241.69
330.201	208.69
330.43	220.69
330.658	221.69
330.887	231.69
331.115	233.69
331.344	223.69
331.572	231.69
331.801	229.69
332.03	237.69
332.258	264.69
332.486	240.69
332.715	264.69
332.943	244.69
333.172	266.69
333.4	275.69
333.629	281.69
333.857	285.69
334.085	285.69
334.314	281.69
334.542	285.69
334.771	276.69
334.999	257.69
335.227	264.69
335.455	252.69
335.684	270.69
335.912	266.69
336.14	260.69
336.369	244.69
336.597	250.69
336.825	265.69
337.053	258.69
337.281	243.69
337.51	242.69
337.738	271.69
337.966	250.69
338.194	245.69
338.422	234.69
338.65	231.69
338.878	251.69
339.106	229.69
339.334	224.69
339.562	221.69
339.79	230.69
340.018	224.69
340.246	218.69
340.474	237.69
340.702	229.69
340.93	229.69
341.158	232.69
341.386	228.69
341.614	211.69
341.842	214.69
342.07	219.69
342.298	215.69
342.526	201.69
342.754	229.69
342.981	222.69
343.209	222.69
343.437	242.69
343.665	257.69
343.893	276.69
344.12	260.69
344.348	260.69
344.576	257.69
344.804	246.69
345.031	237.69
345.259	228.69
345.487	219.69
345.714	212.69
345.942	225.69
346.17	215.69
346.397	229.69
346.625	232.69
346.853	224.69
347.08	223.69
347.308	236.69
347.535	215.69
347.763	242.69
347.99	244.69
348.218	236.69
348.445	224.69
348.673	237.69
348.9	223.69
349.128	224.69
349.355	229.69
349.583	225.69
349.81	237.69
350.037	229.69
350.265	211.69
350.492	237.69
350.72	211.69
350.947	200.69
351.174	218.69
351.402	214.69
351.629	226.69
351.856	197.69
352.083	220.69
352.311	207.69
352.538	212.69
352.765	225.69
352.992	212.69
353.22	206.69
353.447	210.69
353.674	207.69
353.901	229.69
354.128	227.69
354.355	222.69
354.583	209.69
354.81	224.69
355.037	228.69
355.264	215.69
355.491	195.69
355.718	223.69
355.945	187.69
356.172	222.69
356.399	232.69
356.626	211.69
356.853	230.69
357.08	210.69
357.307	212.69
357.534	200.69
357.761	207.69
357.988	213.69
358.215	210.69
358.441	212.69
358.668	224.69
358.895	217.69
359.122	207.69
359.349	195.69
359.576	227.69
359.802	218.69
360.029	205.69
360.256	209.69
360.483	228.69
360.709	220.69
360.936	218.69
361.163	220.69
361.39	203.69
361.616	216.69
361.843	199.69
362.07	227.69
362.296	216.69
362.523	196.69
362.749	210.69
362.976	204.69
363.203	212.69
363.429	210.69
363.656	217.69
363.882	197.69
364.109	208.69
364.335	228.69
364.562	204.69
364.788	213.69
365.015	205.69
365.241	228.69
365.468	200.69
365.694	217.69
365.92	220.69
366.147	212.69
366.373	214.69
366.599	195.69
366.826	214.69
367.052	214.69
367.278	212.69
367.505	193.69
367.731	210.69
367.957	211.69
368.184	208.69
368.41	210.69
368.636	203.69
368.862	241.69
369.089	214.69
369.315	208.69
369.541	233.69
369.767	229.69
369.993	231.69
370.219	228.69
370.445	222.69
370.672	220.69
370.898	225.69
371.124	227.69
371.35	228.69
371.576	233.69
371.802	220.69
372.028	227.69
372.254	212.69
372.48	213.69
372.706	229.69
372.932	240.69
373.158	211.69
373.384	214.69
373.61	221.69
373.835	223.69
374.061	211.69
374.287	206.69
374.513	219.69
374.739	249.69
374.965	242.69
375.191	248.69
375.416	245.69
375.642	226.69
375.868	249.69
376.094	229.69
376.319	242.69
376.545	224.69
376.771	219.69
376.997	242.69
377.222	225.69
377.448	220.69
377.674	215.69
377.899	224.69
378.125	213.69
378.35	219.69
378.576	217.69
378.802	203.69
379.027	237.69
379.253	216.69
379.478	231.69
379.704	226.69
379.929	233.69
380.155	214.69
380.38	219.69
380.606	227.69
380.831	212.69
381.057	234.69
381.282	220.69
381.507	230.69
381.733	214.69
381.958	220.69
382.184	224.69
382.409	225.69
382.634	243.69
382.86	218.69
383.085	228.69
383.31	235.69
383.535	236.69
383.761	253.69
383.986	235.69
384.211	261.69
384.436	249.69
384.662	269.69
384.887	254.69
385.112	258.69
385.337	253.69
385.562	261.69
385.787	249.69
386.013	257.69
386.238	278.69
386.463	240.69
386.688	253.69
386.913	241.69
387.138	249.69
387.363	236.69
387.588	249.69
387.813	244.69
388.038	233.69
388.263	252.69
388.488	232.69
388.713	254.69
388.938	255.69
389.163	235.69
389.387	243.69
389.612	230.69
389.837	244.69
390.062	242.69
390.287	261.69
390.512	244.69
390.736	260.69
390.961	259.69
391.186	281.69
391.411	289.69
391.636	276.69
391.86	271.69
392.085	274.69
392.31	273.69
392.534	271.69
392.759	264.69
392.984	269.69
393.208	258.69
393.433	286.69
393.658	251.69
393.882	261.69
394.107	261.69
394.331	271.69
394.556	260.69
394.78	264.69
395.005	257.69
395.229	288.69
395.454	280.69
395.678	278.69
395.903	277.69
396.127	252.69
396.352	254.69
396.576	259.69
396.801	260.69
397.025	262.69
397.249	273.69
397.474	292.69
397.698	280.69
397.922	267.69
398.147	270.69
398.371	280.69
398.595	292.69
398.82	282.69
399.044	316.69
399.268	350.69
399.492	404.69
399.717	439.69
399.941	442.69
400.165	381.69
400.389	342.69
400.613	315.69
400.837	304.69
401.062	294.69
401.286	286.69
401.51	294.69
401.734	284.69
401.958	299.69
402.182	304.69
402.406	318.69
402.63	332.69
402.854	331.69
403.078	341.69
403.302	353.69
403.526	338.69
403.75	333.69
403.974	332.69
404.198	335.69
404.422	351.69
404.645	349.69
404.869	327.69
405.093	334.69
405.317	314.69
405.541	323.69
405.765	328.69
405.988	321.69
406.212	333.69
406.436	311.69
406.66	334.69
406.883	346.69
407.107	358.69
407.331	368.69
407.555	387.69
407.778	355.69
408.002	368.69
408.226	329.69
408.449	340.69
408.673	321.69
408.896	329.69
409.12	310.69
409.344	330.69
409.567	324.69
409.791	346.69
410.014	331.69
410.238	344.69
410.461	329.69
410.685	330.69
410.908	324.69
411.132	313.69
411.355	322.69
411.578	320.69
411.802	305.69
412.025	309.69
412.249	310.69
412.472	316.69
412.695	297.69
412.919	288.69
413.142	290.69
413.365	310.69
413.589	318.69
413.812	299.69
414.035	310.69
414.258	299.69
414.482	300.69
414.705	312.69
414.928	304.69
415.151	308.69
415.374	317.69
415.597	282.69
415.821	290.69
416.044	279.69
416.267	266.69
416.49	277.69
416.713	294.69
416.936	296.69
417.159	294.69
417.382	293.69
417.605	285.69
417.828	300.69
418.051	312.69
418.274	296.69
418.497	288.69
418.72	309.69
418.943	299.69
419.166	307.69
419.389	336.69
419.611	315.69
419.834	310.69
420.057	301.69
420.28	285.69
420.503	297.69
420.726	308.69
420.948	271.69
421.171	317.69
421.394	276.69
421.617	289.69
421.839	270.69
422.062	306.69
422.285	278.69
422.507	308.69
422.73	320.69
422.953	291.69
423.175	296.69
423.398	325.69
423.621	317.69
423.843	325.69
424.066	294.69
424.288	312.69
424.511	321.69
424.733	311.69
424.956	292.69
425.178	295.69
425.401	288.69
425.623	310.69
425.846	308.69
426.068	281.69
426.291	290.69
426.513	298.69
426.735	270.69
426.958	286.69
427.18	266.69
427.402	276.69
427.625	282.69
427.847	243.69
428.069	244.69
428.292	279.69
428.514	263.69
428.736	252.69
428.958	277.69
429.181	252.69
429.403	268.69
429.625	269.69
429.847	262.69
430.069	258.69
430.292	262.69
430.514	262.69
430.736	265.69
430.958	273.69
431.18	271.69
431.402	266.69
431.624	261.69
431.846	264.69
432.068	259.69
432.29	272.69
432.512	286.69
432.734	253.69
432.956	261.69
433.178	267.69
433.4	262.69
433.622	276.69
433.844	263.69
434.066	272.69
434.287	256.69
434.509	285.69
434.731	278.69
434.953	302.69
435.175	318.69
435.397	310.69
435.618	296.69
435.84	273.69
436.062	277.69
436.284	269.69
436.505	271.69
436.727	251.69
436.949	263.69
437.17	256.69
437.392	276.69
437.614	272.69
437.835	259.69
438.057	246.69
438.278	260.69
438.5	266.69
438.721	265.69
438.943	238.69
439.165	240.69
439.386	263.69
439.608	281.69
439.829	264.69
440.05	284.69
440.272	267.69
440.493	261.69
440.715	280.69
440.936	297.69
441.158	275.69
441.379	290.69
441.6	295.69
441.822	299.69
442.043	297.69
442.264	302.69
442.486	295.69
442.707	285.69
442.928	282.69
443.149	299.69
443.371	281.69
443.592	281.69
443.813	305.69
444.034	294.69
444.255	315.69
444.476	318.69
444.698	329.69
444.919	350.69
445.14	405.69
445.361	350.69
445.582	309.69
445.803	274.69
446.024	267.69
446.245	283.69
446.466	275.69
446.687	264.69
446.908	258.69
447.129	252.69
447.35	247.69
447.571	256.69
447.792	253.69
448.013	255.69
448.234	259.69
448.455	256.69
448.675	243.69
448.896	260.69
449.117	253.69
449.338	246.69
449.559	251.69
449.779	234.69
450	262.69
450.221	260.69
450.442	237.69
450.662	269.69
450.883	250.69
451.104	254.69
451.324	257.69
451.545	246.69
451.766	260.69
451.986	265.69
452.207	233.69
452.428	262.69
452.648	260.69
452.869	259.69
453.089	264.69
453.31	244.69
453.53	259.69
453.751	260.69
453.971	239.69
454.192	243.69
454.412	232.69
454.633	237.69
454.853	234.69
455.073	226.69
455.294	243.69
455.514	226.69
455.734	223.69
455.955	244.69
456.175	220.69
456.395	250.69
456.616	242.69
456.836	220.69
457.056	244.69
457.276	222.69
457.497	237.69
457.717	229.69
457.937	263.69
458.157	247.69
458.377	249.69
458.598	258.69
458.818	246.69
459.038	250.69
459.258	258.69
459.478	282.69
459.698	279.69
459.918	291.69
460.138	308.69
460.358	299.69
460.578	317.69
460.798	318.69
461.018	326.69
461.238	312.69
461.458	298.69
461.678	299.69
461.898	317.69
462.118	309.69
462.338	310.69
462.558	312.69
462.777	340.69
462.997	379.69
463.217	406.69
463.437	411.69
463.657	352.69
463.876	345.69
464.096	355.69
464.316	361.69
464.536	370.69
464.755	352.69
464.975	325.69
465.195	322.69
465.414	289.69
465.634	278.69
465.854	284.69
466.073	293.69
466.293	282.69
466.512	275.69
466.732	265.69
466.951	274.69
467.171	257.69
467.391	254.69
467.61	267.69
467.829	255.69
468.049	258.69
468.268	250.69
468.488	261.69
468.707	254.69
468.927	237.69
469.146	269.69
469.365	261.69
469.585	258.69
469.804	271.69
470.023	257.69
470.243	261.69
470.462	274.69
470.681	267.69
470.901	267.69
471.12	266.69
471.339	288.69
471.558	270.69
471.777	276.69
471.997	264.69
472.216	261.69
472.435	262.69
472.654	259.69
472.873	255.69
473.092	245.69
473.311	244.69
473.53	256.69
473.749	243.69
473.968	249.69
474.187	252.69
474.406	244.69
474.625	249.69
474.844	264.69
475.063	247.69
475.282	254.69
475.501	269.69
475.72	253.69
475.939	262.69
476.158	246.69
476.377	258.69
476.596	251.69
476.814	273.69
477.033	276.69
477.252	266.69
477.471	277.69
477.69	284.69
477.908	283.69
478.127	299.69
478.346	313.69
478.564	300.69
478.783	304.69
479.002	315.69
479.22	331.69
479.439	299.69
479.658	291.69
479.876	290.69
480.095	287.69
480.313	297.69
480.532	325.69
480.751	332.69
480.969	314.69
481.188	294.69
481.406	296.69
481.624	298.69
481.843	284.69
482.061	276.69
482.28	281.69
482.498	274.69
482.717	258.69
482.935	278.69
483.153	284.69
483.372	297.69
483.59	288.69
483.808	276.69
484.027	292.69
484.245	290.69
484.463	294.69
484.681	281.69
484.9	276.69
485.118	285.69
485.336	284.69
485.554	287.69
485.772	293.69
485.99	297.69
486.209	322.69
486.427	328.69
486.645	315.69
486.863	321.69
487.081	294.69
487.299	316.69
487.517	314.69
487.735	289.69
487.953	298.69
488.171	304.69
488.389	284.69
488.607	293.69
488.825	278.69
489.043	287.69
489.261	299.69
489.479	289.69
489.696	312.69
489.914	297.69
490.132	299.69
490.35	285.69
490.568	308.69
490.786	324.69
491.003	309.69
491.221	312.69
491.439	300.69
491.657	308.69
491.874	320.69
492.092	315.69
492.31	304.69
492.527	309.69
492.745	309.69
492.963	298.69
493.18	315.69
493.398	303.69
493.615	321.69
493.833	316.69
494.05	298.69
494.268	308.69
494.485	331.69
494.703	312.69
494.92	340.69
495.138	300.69
495.355	324.69
495.573	328.69
495.79	304.69
496.008	313.69
496.225	324.69
496.442	329.69
496.66	332.69
496.877	340.69
497.094	322.69
497.312	347.69
497.529	321.69
497.746	353.69
497.963	354.69
498.181	363.69
498.398	379.69
498.615	398.69
498.832	414.69
499.049	446.69
499.267	488.69
499.484	523.69
499.701	568.69
499.918	639.69
500.135	726.69
500.352	846.69
500.569	910.69
500.786	885.69
501.003	811.69
501.22	706.69
501.437	646.69
501.654	552.69
501.871	497.69
502.088	475.69
502.305	423.69
502.522	407.69
502.739	418.69
502.956	387.69
503.172	356.69
