Data from 0.5MCu(NO3)2.Standard.Lamp.E10.CV._HRD10591_16-06-56-754.txt Node
Date: Mon Jul 22 16:06:56 EDT 2019
User: cochatt
Spectrometer: HR+D1059
Trigger mode: 1
Integration Time (sec): 1.000000E-1
Scans to average: 1
Electric dark correction enabled: true
Nonlinearity correction enabled: false
Boxcar width: 0
XAxis mode: Wavelengths
Number of Pixels in Spectrum: 2048
>>>>>Begin Spectral Data<<<<<
223.165	-7.94
223.4	-7.94
223.635	-7.94
223.869	-25.94
224.104	-19.94
224.338	-18.94
224.573	-16.94
224.808	-8.94
225.042	-6.94
225.277	-7.94
225.511	-2.94
225.746	1.06
225.98	13.06
226.215	13.06
226.449	18.06
226.683	10.06
226.918	27.06
227.152	34.06
227.387	34.06
227.621	40.06
227.856	38.06
228.09	53.06
228.324	57.06
228.559	66.06
228.793	56.06
229.027	67.06
229.262	77.06
229.496	61.06
229.73	65.06
229.964	84.06
230.199	87.06
230.433	82.06
230.667	81.06
230.901	89.06
231.136	97.06
231.37	91.06
231.604	83.06
231.838	79.06
232.072	82.06
232.306	87.06
232.541	99.06
232.775	84.06
233.009	79.06
233.243	78.06
233.477	91.06
233.711	85.06
233.945	78.06
234.179	94.06
234.413	92.06
234.647	86.06
234.881	91.06
235.115	98.06
235.349	94.06
235.583	92.06
235.817	92.06
236.051	82.06
236.285	91.06
236.519	102.06
236.753	97.06
236.987	96.06
237.221	84.06
237.455	93.06
237.689	90.06
237.922	84.06
238.156	91.06
238.39	77.06
238.624	89.06
238.858	82.06
239.091	94.06
239.325	92.06
239.559	102.06
239.793	78.06
240.027	94.06
240.26	86.06
240.494	98.06
240.728	79.06
240.961	89.06
241.195	96.06
241.429	89.06
241.662	89.06
241.896	69.06
242.13	79.06
242.363	87.06
242.597	90.06
242.83	81.06
243.064	98.06
243.298	78.06
243.531	101.06
243.765	99.06
243.998	104.06
244.232	104.06
244.465	98.06
244.699	94.06
244.932	84.06
245.166	86.06
245.399	96.06
245.633	109.06
245.866	96.06
246.099	92.06
246.333	91.06
246.566	102.06
246.8	101.06
247.033	105.06
247.266	114.06
247.5	98.06
247.733	96.06
247.966	102.06
248.2	108.06
248.433	101.06
248.666	106.06
248.899	94.06
249.133	102.06
249.366	111.06
249.599	110.06
249.832	112.06
250.066	110.06
250.299	87.06
250.532	126.06
250.765	107.06
250.998	125.06
251.231	95.06
251.465	98.06
251.698	111.06
251.931	122.06
252.164	103.06
252.397	86.06
252.63	101.06
252.863	104.06
253.096	85.06
253.329	100.06
253.562	105.06
253.795	120.06
254.028	93.06
254.261	115.06
254.494	110.06
254.727	108.06
254.96	117.06
255.193	106.06
255.426	105.06
255.659	106.06
255.892	120.06
256.124	100.06
256.357	107.06
256.59	98.06
256.823	104.06
257.056	102.06
257.289	110.06
257.521	107.06
257.754	102.06
257.987	115.06
258.22	108.06
258.452	130.06
258.685	92.06
258.918	112.06
259.151	100.06
259.383	120.06
259.616	120.06
259.849	127.06
260.081	123.06
260.314	116.06
260.547	103.06
260.779	126.06
261.012	108.06
261.244	122.06
261.477	136.06
261.71	109.06
261.942	114.06
262.175	117.06
262.407	117.06
262.64	122.06
262.872	117.06
263.105	120.06
263.337	121.06
263.57	109.06
263.802	117.06
264.035	119.06
264.267	122.06
264.499	116.06
264.732	118.06
264.964	122.06
265.197	133.06
265.429	125.06
265.661	134.06
265.894	116.06
266.126	139.06
266.358	138.06
266.591	125.06
266.823	129.06
267.055	114.06
267.287	130.06
267.52	124.06
267.752	124.06
267.984	118.06
268.216	132.06
268.448	117.06
268.681	117.06
268.913	121.06
269.145	114.06
269.377	130.06
269.609	124.06
269.841	140.06
270.073	136.06
270.306	128.06
270.538	131.06
270.77	120.06
271.002	122.06
271.234	127.06
271.466	137.06
271.698	123.06
271.93	142.06
272.162	141.06
272.394	131.06
272.626	143.06
272.858	126.06
273.09	136.06
273.322	132.06
273.553	116.06
273.785	128.06
274.017	130.06
274.249	123.06
274.481	128.06
274.713	122.06
274.945	130.06
275.176	131.06
275.408	130.06
275.64	139.06
275.872	150.06
276.104	139.06
276.335	132.06
276.567	140.06
276.799	142.06
277.031	145.06
277.262	137.06
277.494	124.06
277.726	130.06
277.957	157.06
278.189	132.06
278.421	145.06
278.652	143.06
278.884	132.06
279.115	133.06
279.347	126.06
279.579	134.06
279.81	138.06
280.042	138.06
280.273	134.06
280.505	141.06
280.736	147.06
280.968	157.06
281.199	129.06
281.431	153.06
281.662	136.06
281.894	141.06
282.125	152.06
282.356	148.06
282.588	141.06
282.819	133.06
283.051	149.06
283.282	154.06
283.513	154.06
283.745	163.06
283.976	160.06
284.207	165.06
284.439	169.06
284.67	147.06
284.901	142.06
285.132	145.06
285.364	134.06
285.595	166.06
285.826	136.06
286.057	146.06
286.288	149.06
286.52	170.06
286.751	159.06
286.982	157.06
287.213	153.06
287.444	151.06
287.675	161.06
287.906	152.06
288.138	142.06
288.369	152.06
288.6	170.06
288.831	152.06
289.062	155.06
289.293	149.06
289.524	162.06
289.755	146.06
289.986	146.06
290.217	157.06
290.448	152.06
290.679	164.06
290.91	155.06
291.141	156.06
291.371	156.06
291.602	153.06
291.833	153.06
292.064	165.06
292.295	157.06
292.526	149.06
292.757	161.06
292.987	151.06
293.218	168.06
293.449	155.06
293.68	153.06
293.91	148.06
294.141	158.06
294.372	162.06
294.603	164.06
294.833	158.06
295.064	165.06
295.295	150.06
295.525	161.06
295.756	155.06
295.987	162.06
296.217	178.06
296.448	170.06
296.679	171.06
296.909	167.06
297.14	177.06
297.37	164.06
297.601	162.06
297.831	157.06
298.062	170.06
298.292	173.06
298.523	165.06
298.753	187.06
298.984	202.06
299.214	176.06
299.445	167.06
299.675	169.06
299.905	164.06
300.136	169.06
300.366	158.06
300.597	170.06
300.827	174.06
301.057	188.06
301.288	175.06
301.518	183.06
301.748	172.06
301.979	165.06
302.209	187.06
302.439	182.06
302.669	177.06
302.9	169.06
303.13	169.06
303.36	181.06
303.59	163.06
303.82	174.06
304.051	181.06
304.281	172.06
304.511	165.06
304.741	182.06
304.971	177.06
305.201	173.06
305.431	177.06
305.661	169.06
305.891	178.06
306.121	154.06
306.352	142.06
306.582	176.06
306.812	160.06
307.042	184.06
307.272	180.06
307.502	163.06
307.731	173.06
307.961	168.06
308.191	177.06
308.421	181.06
308.651	169.06
308.881	164.06
309.111	172.06
309.341	174.06
309.571	164.06
309.8	161.06
310.03	173.06
310.26	180.06
310.49	164.06
310.72	153.06
310.949	170.06
311.179	173.06
311.409	164.06
311.639	177.06
311.868	180.06
312.098	166.06
312.328	166.06
312.557	183.06
312.787	169.06
313.017	168.06
313.246	163.06
313.476	182.06
313.706	170.06
313.935	190.06
314.165	185.06
314.394	166.06
314.624	172.06
314.853	168.06
315.083	182.06
315.312	188.06
315.542	172.06
315.771	180.06
316.001	180.06
316.23	186.06
316.46	172.06
316.689	180.06
316.919	171.06
317.148	183.06
317.377	185.06
317.607	173.06
317.836	169.06
318.065	171.06
318.295	168.06
318.524	147.06
318.753	172.06
318.983	183.06
319.212	168.06
319.441	190.06
319.67	188.06
319.9	181.06
320.129	190.06
320.358	189.06
320.587	172.06
320.816	189.06
321.046	192.06
321.275	168.06
321.504	170.06
321.733	190.06
321.962	163.06
322.191	182.06
322.42	178.06
322.649	179.06
322.878	160.06
323.108	179.06
323.337	187.06
323.566	174.06
323.795	184.06
324.024	179.06
324.253	169.06
324.482	166.06
324.71	196.06
324.939	196.06
325.168	183.06
325.397	188.06
325.626	197.06
325.855	184.06
326.084	189.06
326.313	172.06
326.542	180.06
326.77	177.06
326.999	196.06
327.228	184.06
327.457	186.06
327.686	186.06
327.914	209.06
328.143	187.06
328.372	178.06
328.6	205.06
328.829	189.06
329.058	186.06
329.287	210.06
329.515	199.06
329.744	162.06
329.972	203.06
330.201	186.06
330.43	182.06
330.658	200.06
330.887	190.06
331.115	202.06
331.344	201.06
331.572	202.06
331.801	204.06
332.03	212.06
332.258	188.06
332.486	227.06
332.715	216.06
332.943	213.06
333.172	238.06
333.4	233.06
333.629	241.06
333.857	241.06
334.085	225.06
334.314	249.06
334.542	226.06
334.771	219.06
334.999	221.06
335.227	228.06
335.455	247.06
335.684	216.06
335.912	237.06
336.14	217.06
336.369	222.06
336.597	212.06
336.825	200.06
337.053	205.06
337.281	204.06
337.51	215.06
337.738	204.06
337.966	204.06
338.194	194.06
338.422	198.06
338.65	196.06
338.878	193.06
339.106	211.06
339.334	186.06
339.562	192.06
339.79	200.06
340.018	198.06
340.246	192.06
340.474	195.06
340.702	196.06
340.93	199.06
341.158	199.06
341.386	194.06
341.614	186.06
341.842	185.06
342.07	204.06
342.298	191.06
342.526	197.06
342.754	195.06
342.981	209.06
343.209	180.06
343.437	193.06
343.665	202.06
343.893	227.06
344.12	228.06
344.348	218.06
344.576	197.06
344.804	199.06
345.031	190.06
345.259	199.06
345.487	190.06
345.714	199.06
345.942	201.06
346.17	195.06
346.397	201.06
346.625	197.06
346.853	206.06
347.08	208.06
347.308	183.06
347.535	182.06
347.763	199.06
347.99	216.06
348.218	203.06
348.445	188.06
348.673	217.06
348.9	196.06
349.128	177.06
349.355	202.06
349.583	194.06
349.81	195.06
350.037	195.06
350.265	192.06
350.492	183.06
350.72	191.06
350.947	178.06
351.174	163.06
351.402	186.06
351.629	195.06
351.856	184.06
352.083	178.06
352.311	191.06
352.538	173.06
352.765	184.06
352.992	184.06
353.22	197.06
353.447	184.06
353.674	184.06
353.901	180.06
354.128	187.06
354.355	193.06
354.583	185.06
354.81	182.06
355.037	183.06
355.264	188.06
355.491	183.06
355.718	174.06
355.945	182.06
356.172	188.06
356.399	202.06
356.626	170.06
356.853	178.06
357.08	182.06
357.307	187.06
357.534	179.06
357.761	188.06
357.988	188.06
358.215	194.06
358.441	202.06
358.668	184.06
358.895	198.06
359.122	145.06
359.349	195.06
359.576	176.06
359.802	182.06
360.029	181.06
360.256	188.06
360.483	179.06
360.709	174.06
360.936	188.06
361.163	186.06
361.39	189.06
361.616	195.06
361.843	193.06
362.07	180.06
362.296	182.06
362.523	183.06
362.749	172.06
362.976	181.06
363.203	180.06
363.429	166.06
363.656	178.06
363.882	193.06
364.109	162.06
364.335	182.06
364.562	187.06
364.788	196.06
365.015	196.06
365.241	182.06
365.468	185.06
365.694	183.06
365.92	193.06
366.147	185.06
366.373	186.06
366.599	184.06
366.826	171.06
367.052	182.06
367.278	200.06
367.505	165.06
367.731	186.06
367.957	178.06
368.184	183.06
368.41	189.06
368.636	173.06
368.862	192.06
369.089	194.06
369.315	181.06
369.541	188.06
369.767	183.06
369.993	165.06
370.219	178.06
370.445	171.06
370.672	204.06
370.898	203.06
371.124	190.06
371.35	195.06
371.576	189.06
371.802	194.06
372.028	188.06
372.254	187.06
372.48	188.06
372.706	193.06
372.932	189.06
373.158	194.06
373.384	212.06
373.61	201.06
373.835	203.06
374.061	204.06
374.287	200.06
374.513	201.06
374.739	205.06
374.965	207.06
375.191	203.06
375.416	217.06
375.642	198.06
375.868	199.06
376.094	210.06
376.319	187.06
376.545	199.06
376.771	196.06
376.997	181.06
377.222	197.06
377.448	179.06
377.674	189.06
377.899	196.06
378.125	195.06
378.35	200.06
378.576	182.06
378.802	184.06
379.027	196.06
379.253	196.06
379.478	193.06
379.704	195.06
379.929	208.06
380.155	201.06
380.38	194.06
380.606	190.06
380.831	189.06
381.057	189.06
381.282	184.06
381.507	200.06
381.733	183.06
381.958	187.06
382.184	203.06
382.409	203.06
382.634	190.06
382.86	213.06
383.085	204.06
383.31	182.06
383.535	223.06
383.761	206.06
383.986	215.06
384.211	221.06
384.436	207.06
384.662	202.06
384.887	212.06
385.112	213.06
385.337	228.06
385.562	230.06
385.787	208.06
386.013	229.06
386.238	219.06
386.463	221.06
386.688	211.06
386.913	219.06
387.138	202.06
387.363	207.06
387.588	207.06
387.813	230.06
388.038	212.06
388.263	220.06
388.488	214.06
388.713	210.06
388.938	214.06
389.163	207.06
389.387	201.06
389.612	216.06
389.837	202.06
390.062	213.06
390.287	206.06
390.512	206.06
390.736	217.06
390.961	216.06
391.186	201.06
391.411	210.06
391.636	226.06
391.86	232.06
392.085	228.06
392.31	230.06
392.534	236.06
392.759	226.06
392.984	215.06
393.208	218.06
393.433	215.06
393.658	224.06
393.882	237.06
394.107	223.06
394.331	218.06
394.556	209.06
394.78	225.06
395.005	246.06
395.229	240.06
395.454	214.06
395.678	228.06
395.903	242.06
396.127	241.06
396.352	221.06
396.576	216.06
396.801	212.06
397.025	232.06
397.249	221.06
397.474	237.06
397.698	242.06
397.922	238.06
398.147	225.06
398.371	234.06
398.595	246.06
398.82	230.06
399.044	270.06
399.268	283.06
399.492	317.06
399.717	364.06
399.941	344.06
400.165	317.06
400.389	295.06
400.613	270.06
400.837	236.06
401.062	258.06
401.286	242.06
401.51	247.06
401.734	242.06
401.958	259.06
402.182	267.06
402.406	261.06
402.63	263.06
402.854	254.06
403.078	262.06
403.302	279.06
403.526	297.06
403.75	289.06
403.974	290.06
404.198	292.06
404.422	292.06
404.645	277.06
404.869	295.06
405.093	280.06
405.317	284.06
405.541	280.06
405.765	262.06
405.988	264.06
406.212	279.06
406.436	264.06
406.66	290.06
406.883	288.06
407.107	284.06
407.331	306.06
407.555	330.06
407.778	320.06
408.002	309.06
408.226	290.06
408.449	285.06
408.673	301.06
408.896	288.06
409.12	274.06
409.344	281.06
409.567	295.06
409.791	276.06
410.014	278.06
410.238	294.06
410.461	275.06
410.685	294.06
410.908	270.06
411.132	274.06
411.355	267.06
411.578	259.06
411.802	268.06
412.025	265.06
412.249	260.06
412.472	270.06
412.695	264.06
412.919	252.06
413.142	264.06
413.365	260.06
413.589	263.06
413.812	247.06
414.035	261.06
414.258	266.06
414.482	265.06
414.705	242.06
414.928	263.06
415.151	256.06
415.374	250.06
415.597	268.06
415.821	266.06
416.044	244.06
416.267	246.06
416.49	248.06
416.713	244.06
416.936	257.06
417.159	247.06
417.382	241.06
417.605	255.06
417.828	253.06
418.051	268.06
418.274	254.06
418.497	262.06
418.72	243.06
418.943	248.06
419.166	273.06
419.389	275.06
419.611	281.06
419.834	275.06
420.057	260.06
420.28	261.06
420.503	264.06
420.726	263.06
420.948	272.06
421.171	254.06
421.394	253.06
421.617	247.06
421.839	232.06
422.062	280.06
422.285	254.06
422.507	226.06
422.73	266.06
422.953	265.06
423.175	267.06
423.398	289.06
423.621	269.06
423.843	279.06
424.066	282.06
424.288	261.06
424.511	261.06
424.733	264.06
424.956	265.06
425.178	243.06
425.401	266.06
425.623	252.06
425.846	236.06
426.068	229.06
426.291	252.06
426.513	229.06
426.735	237.06
426.958	244.06
427.18	240.06
427.402	231.06
427.625	232.06
427.847	224.06
428.069	230.06
428.292	233.06
428.514	235.06
428.736	209.06
428.958	226.06
429.181	221.06
429.403	236.06
429.625	217.06
429.847	221.06
430.069	230.06
430.292	242.06
430.514	219.06
430.736	229.06
430.958	203.06
431.18	214.06
431.402	231.06
431.624	238.06
431.846	232.06
432.068	233.06
432.29	225.06
432.512	230.06
432.734	220.06
432.956	231.06
433.178	235.06
433.4	248.06
433.622	239.06
433.844	207.06
434.066	233.06
434.287	233.06
434.509	235.06
434.731	240.06
434.953	260.06
435.175	242.06
435.397	234.06
435.618	257.06
435.84	234.06
436.062	225.06
436.284	225.06
436.505	220.06
436.727	222.06
436.949	261.06
437.17	230.06
437.392	226.06
437.614	218.06
437.835	224.06
438.057	225.06
438.278	226.06
438.5	233.06
438.721	232.06
438.943	230.06
439.165	221.06
439.386	220.06
439.608	201.06
439.829	227.06
440.05	243.06
440.272	217.06
440.493	217.06
440.715	234.06
440.936	255.06
441.158	246.06
441.379	260.06
441.6	261.06
441.822	254.06
442.043	270.06
442.264	262.06
442.486	253.06
442.707	247.06
442.928	251.06
443.149	251.06
443.371	267.06
443.592	248.06
443.813	230.06
444.034	265.06
444.255	269.06
444.476	266.06
444.698	277.06
444.919	290.06
445.14	369.06
445.361	304.06
445.582	261.06
445.803	260.06
446.024	236.06
446.245	221.06
446.466	242.06
446.687	242.06
446.908	219.06
447.129	242.06
447.35	224.06
447.571	215.06
447.792	215.06
448.013	232.06
448.234	213.06
448.455	212.06
448.675	217.06
448.896	191.06
449.117	226.06
449.338	216.06
449.559	218.06
449.779	206.06
450	219.06
450.221	232.06
450.442	218.06
450.662	220.06
450.883	214.06
451.104	229.06
451.324	221.06
451.545	224.06
451.766	223.06
451.986	229.06
452.207	226.06
452.428	220.06
452.648	229.06
452.869	211.06
453.089	216.06
453.31	213.06
453.53	221.06
453.751	220.06
453.971	212.06
454.192	206.06
454.412	211.06
454.633	219.06
454.853	205.06
455.073	226.06
455.294	211.06
455.514	211.06
455.734	216.06
455.955	219.06
456.175	195.06
456.395	189.06
456.616	219.06
456.836	211.06
457.056	211.06
457.276	197.06
457.497	209.06
457.717	212.06
457.937	204.06
458.157	203.06
458.377	214.06
458.598	203.06
458.818	203.06
459.038	231.06
459.258	228.06
459.478	224.06
459.698	228.06
459.918	241.06
460.138	251.06
460.358	267.06
460.578	262.06
460.798	261.06
461.018	262.06
461.238	275.06
461.458	270.06
461.678	273.06
461.898	257.06
462.118	268.06
462.338	293.06
462.558	299.06
462.777	297.06
462.997	294.06
463.217	342.06
463.437	359.06
463.657	314.06
463.876	314.06
464.096	311.06
464.316	308.06
464.536	299.06
464.755	296.06
464.975	273.06
465.195	269.06
465.414	251.06
465.634	248.06
465.854	250.06
466.073	244.06
466.293	237.06
466.512	224.06
466.732	228.06
466.951	240.06
467.171	229.06
467.391	258.06
467.61	231.06
467.829	230.06
468.049	239.06
468.268	224.06
468.488	209.06
468.707	228.06
468.927	221.06
469.146	211.06
469.365	221.06
469.585	225.06
469.804	241.06
470.023	231.06
470.243	245.06
470.462	246.06
470.681	243.06
470.901	234.06
471.12	255.06
471.339	234.06
471.558	222.06
471.777	218.06
471.997	213.06
472.216	228.06
472.435	228.06
472.654	223.06
472.873	221.06
473.092	213.06
473.311	224.06
473.53	211.06
473.749	230.06
473.968	212.06
474.187	235.06
474.406	215.06
474.625	213.06
474.844	232.06
475.063	222.06
475.282	228.06
475.501	224.06
475.72	212.06
475.939	230.06
476.158	235.06
476.377	234.06
476.596	231.06
476.814	219.06
477.033	216.06
477.252	224.06
477.471	221.06
477.69	234.06
477.908	240.06
478.127	253.06
478.346	246.06
478.564	253.06
478.783	270.06
479.002	263.06
479.22	261.06
479.439	268.06
479.658	254.06
479.876	246.06
480.095	242.06
480.313	275.06
480.532	279.06
480.751	295.06
480.969	301.06
481.188	256.06
481.406	255.06
481.624	236.06
481.843	239.06
482.061	254.06
482.28	243.06
482.498	234.06
482.717	237.06
482.935	218.06
483.153	236.06
483.372	259.06
483.59	260.06
483.808	244.06
484.027	234.06
484.245	249.06
484.463	243.06
484.681	249.06
484.9	254.06
485.118	248.06
485.336	269.06
485.554	258.06
485.772	280.06
485.99	256.06
486.209	250.06
486.427	257.06
486.645	263.06
486.863	272.06
487.081	271.06
487.299	253.06
487.517	268.06
487.735	252.06
487.953	268.06
488.171	256.06
488.389	261.06
488.607	258.06
488.825	247.06
489.043	250.06
489.261	267.06
489.479	251.06
489.696	256.06
489.914	258.06
490.132	280.06
490.35	246.06
490.568	254.06
490.786	262.06
491.003	268.06
491.221	278.06
491.439	248.06
491.657	243.06
491.874	270.06
492.092	248.06
492.31	257.06
492.527	260.06
492.745	276.06
492.963	269.06
493.18	251.06
493.398	250.06
493.615	280.06
493.833	268.06
494.05	260.06
494.268	257.06
494.485	272.06
494.703	281.06
494.92	260.06
495.138	262.06
495.355	256.06
495.573	276.06
495.79	268.06
496.008	262.06
496.225	277.06
496.442	268.06
496.66	272.06
496.877	275.06
497.094	284.06
497.312	286.06
497.529	287.06
497.746	304.06
497.963	306.06
498.181	311.06
498.398	313.06
498.615	338.06
498.832	354.06
499.049	370.06
499.267	405.06
499.484	467.06
499.701	466.06
499.918	523.06
500.135	602.06
500.352	704.06
500.569	738.06
500.786	728.06
501.003	646.06
501.22	582.06
501.437	534.06
501.654	464.06
501.871	417.06
502.088	381.06
502.305	380.06
502.522	357.06
502.739	357.06
502.956	331.06
503.172	312.06
503.389	309.06
