Data from 0.5MCu(NO3)2.Standard.Lamp.E10.CV._HRD10591_16-06-42-754.txt Node
Date: Mon Jul 22 16:06:42 EDT 2019
User: cochatt
Spectrometer: HR+D1059
Trigger mode: 1
Integration Time (sec): 1.000000E-1
Scans to average: 1
Electric dark correction enabled: true
Nonlinearity correction enabled: false
Boxcar width: 0
XAxis mode: Wavelengths
Number of Pixels in Spectrum: 2048
>>>>>Begin Spectral Data<<<<<
223.165	-19.31
223.4	-19.31
223.635	-19.31
223.869	-18.31
224.104	-22.31
224.338	-27.31
224.573	-23.31
224.808	-12.31
225.042	-2.31
225.277	-3.31
225.511	5.69
225.746	2.69
225.98	12.69
226.215	12.69
226.449	22.69
226.683	15.69
226.918	32.69
227.152	23.69
227.387	42.69
227.621	44.69
227.856	41.69
228.09	49.69
228.324	52.69
228.559	63.69
228.793	61.69
229.027	65.69
229.262	86.69
229.496	69.69
229.73	74.69
229.964	71.69
230.199	71.69
230.433	84.69
230.667	74.69
230.901	94.69
231.136	94.69
231.37	100.69
231.604	98.69
231.838	93.69
232.072	95.69
232.306	100.69
232.541	76.69
232.775	92.69
233.009	78.69
233.243	85.69
233.477	91.69
233.711	84.69
233.945	82.69
234.179	83.69
234.413	91.69
234.647	87.69
234.881	83.69
235.115	93.69
235.349	99.69
235.583	97.69
235.817	67.69
236.051	79.69
236.285	98.69
236.519	91.69
236.753	90.69
236.987	88.69
237.221	76.69
237.455	91.69
237.689	89.69
237.922	78.69
238.156	83.69
238.39	84.69
238.624	80.69
238.858	87.69
239.091	79.69
239.325	82.69
239.559	89.69
239.793	82.69
240.027	90.69
240.26	85.69
240.494	83.69
240.728	85.69
240.961	103.69
241.195	89.69
241.429	90.69
241.662	98.69
241.896	89.69
242.13	89.69
242.363	94.69
242.597	82.69
242.83	117.69
243.064	108.69
243.298	94.69
243.531	96.69
243.765	110.69
243.998	90.69
244.232	89.69
244.465	97.69
244.699	83.69
244.932	96.69
245.166	105.69
245.399	111.69
245.633	99.69
245.866	80.69
246.099	99.69
246.333	97.69
246.566	103.69
246.8	99.69
247.033	112.69
247.266	105.69
247.5	81.69
247.733	98.69
247.966	98.69
248.2	99.69
248.433	98.69
248.666	94.69
248.899	103.69
249.133	105.69
249.366	96.69
249.599	93.69
249.832	111.69
250.066	105.69
250.299	106.69
250.532	108.69
250.765	94.69
250.998	103.69
251.231	107.69
251.465	96.69
251.698	91.69
251.931	110.69
252.164	102.69
252.397	114.69
252.63	113.69
252.863	108.69
253.096	112.69
253.329	126.69
253.562	100.69
253.795	100.69
254.028	110.69
254.261	96.69
254.494	93.69
254.727	107.69
254.96	106.69
255.193	99.69
255.426	116.69
255.659	103.69
255.892	107.69
256.124	121.69
256.357	119.69
256.59	110.69
256.823	115.69
257.056	121.69
257.289	115.69
257.521	108.69
257.754	111.69
257.987	127.69
258.22	120.69
258.452	118.69
258.685	119.69
258.918	104.69
259.151	117.69
259.383	120.69
259.616	116.69
259.849	113.69
260.081	121.69
260.314	115.69
260.547	108.69
260.779	105.69
261.012	124.69
261.244	112.69
261.477	107.69
261.71	126.69
261.942	119.69
262.175	108.69
262.407	132.69
262.64	124.69
262.872	129.69
263.105	125.69
263.337	124.69
263.57	121.69
263.802	119.69
264.035	119.69
264.267	133.69
264.499	120.69
264.732	117.69
264.964	123.69
265.197	129.69
265.429	135.69
265.661	127.69
265.894	133.69
266.126	128.69
266.358	131.69
266.591	122.69
266.823	116.69
267.055	117.69
267.287	121.69
267.52	126.69
267.752	127.69
267.984	120.69
268.216	126.69
268.448	125.69
268.681	117.69
268.913	119.69
269.145	132.69
269.377	127.69
269.609	121.69
269.841	119.69
270.073	143.69
270.306	135.69
270.538	129.69
270.77	113.69
271.002	131.69
271.234	126.69
271.466	131.69
271.698	130.69
271.93	127.69
272.162	130.69
272.394	134.69
272.626	131.69
272.858	130.69
273.09	129.69
273.322	137.69
273.553	146.69
273.785	137.69
274.017	121.69
274.249	128.69
274.481	115.69
274.713	129.69
274.945	133.69
275.176	136.69
275.408	133.69
275.64	133.69
275.872	144.69
276.104	137.69
276.335	152.69
276.567	142.69
276.799	137.69
277.031	124.69
277.262	140.69
277.494	137.69
277.726	146.69
277.957	153.69
278.189	134.69
278.421	138.69
278.652	142.69
278.884	144.69
279.115	138.69
279.347	145.69
279.579	138.69
279.81	155.69
280.042	148.69
280.273	149.69
280.505	141.69
280.736	149.69
280.968	142.69
281.199	138.69
281.431	132.69
281.662	128.69
281.894	146.69
282.125	146.69
282.356	140.69
282.588	132.69
282.819	147.69
283.051	145.69
283.282	132.69
283.513	155.69
283.745	138.69
283.976	154.69
284.207	149.69
284.439	144.69
284.67	159.69
284.901	138.69
285.132	140.69
285.364	146.69
285.595	145.69
285.826	165.69
286.057	150.69
286.288	141.69
286.52	148.69
286.751	161.69
286.982	153.69
287.213	155.69
287.444	161.69
287.675	154.69
287.906	159.69
288.138	149.69
288.369	160.69
288.6	150.69
288.831	157.69
289.062	163.69
289.293	159.69
289.524	147.69
289.755	164.69
289.986	155.69
290.217	179.69
290.448	178.69
290.679	166.69
290.91	155.69
291.141	147.69
291.371	159.69
291.602	172.69
291.833	164.69
292.064	170.69
292.295	168.69
292.526	159.69
292.757	159.69
292.987	151.69
293.218	159.69
293.449	159.69
293.68	163.69
293.91	166.69
294.141	156.69
294.372	168.69
294.603	163.69
294.833	161.69
295.064	149.69
295.295	164.69
295.525	152.69
295.756	145.69
295.987	167.69
296.217	170.69
296.448	162.69
296.679	168.69
296.909	166.69
297.14	163.69
297.37	171.69
297.601	175.69
297.831	159.69
298.062	177.69
298.292	171.69
298.523	175.69
298.753	167.69
298.984	175.69
299.214	157.69
299.445	192.69
299.675	172.69
299.905	175.69
300.136	170.69
300.366	166.69
300.597	185.69
300.827	180.69
301.057	191.69
301.288	168.69
301.518	189.69
301.748	170.69
301.979	179.69
302.209	168.69
302.439	177.69
302.669	162.69
302.9	177.69
303.13	178.69
303.36	168.69
303.59	193.69
303.82	181.69
304.051	181.69
304.281	173.69
304.511	167.69
304.741	183.69
304.971	180.69
305.201	175.69
305.431	183.69
305.661	174.69
305.891	189.69
306.121	164.69
306.352	185.69
306.582	178.69
306.812	163.69
307.042	171.69
307.272	170.69
307.502	170.69
307.731	147.69
307.961	160.69
308.191	171.69
308.421	175.69
308.651	176.69
308.881	166.69
309.111	152.69
309.341	180.69
309.571	183.69
309.8	170.69
310.03	186.69
310.26	180.69
310.49	188.69
310.72	170.69
310.949	160.69
311.179	181.69
311.409	186.69
311.639	172.69
311.868	176.69
312.098	183.69
312.328	177.69
312.557	186.69
312.787	163.69
313.017	187.69
313.246	181.69
313.476	179.69
313.706	195.69
313.935	185.69
314.165	196.69
314.394	188.69
314.624	178.69
314.853	188.69
315.083	188.69
315.312	186.69
315.542	183.69
315.771	171.69
316.001	176.69
316.23	152.69
316.46	164.69
316.689	175.69
316.919	164.69
317.148	177.69
317.377	169.69
317.607	179.69
317.836	175.69
318.065	176.69
318.295	185.69
318.524	176.69
318.753	172.69
318.983	194.69
319.212	176.69
319.441	169.69
319.67	163.69
319.9	186.69
320.129	193.69
320.358	183.69
320.587	179.69
320.816	169.69
321.046	178.69
321.275	183.69
321.504	172.69
321.733	188.69
321.962	193.69
322.191	191.69
322.42	173.69
322.649	178.69
322.878	189.69
323.108	191.69
323.337	187.69
323.566	182.69
323.795	184.69
324.024	180.69
324.253	171.69
324.482	203.69
324.71	176.69
324.939	181.69
325.168	182.69
325.397	186.69
325.626	185.69
325.855	185.69
326.084	197.69
326.313	191.69
326.542	209.69
326.77	218.69
326.999	198.69
327.228	191.69
327.457	197.69
327.686	203.69
327.914	209.69
328.143	211.69
328.372	204.69
328.6	164.69
328.829	209.69
329.058	185.69
329.287	184.69
329.515	188.69
329.744	177.69
329.972	186.69
330.201	170.69
330.43	181.69
330.658	207.69
330.887	201.69
331.115	185.69
331.344	204.69
331.572	202.69
331.801	187.69
332.03	211.69
332.258	202.69
332.486	222.69
332.715	231.69
332.943	220.69
333.172	242.69
333.4	233.69
333.629	245.69
333.857	239.69
334.085	252.69
334.314	234.69
334.542	224.69
334.771	224.69
334.999	236.69
335.227	225.69
335.455	217.69
335.684	229.69
335.912	208.69
336.14	208.69
336.369	217.69
336.597	226.69
336.825	219.69
337.053	212.69
337.281	228.69
337.51	205.69
337.738	207.69
337.966	217.69
338.194	207.69
338.422	205.69
338.65	201.69
338.878	204.69
339.106	196.69
339.334	209.69
339.562	187.69
339.79	197.69
340.018	198.69
340.246	201.69
340.474	203.69
340.702	203.69
340.93	206.69
341.158	185.69
341.386	207.69
341.614	179.69
341.842	187.69
342.07	187.69
342.298	201.69
342.526	183.69
342.754	191.69
342.981	189.69
343.209	210.69
343.437	195.69
343.665	217.69
343.893	228.69
344.12	221.69
344.348	224.69
344.576	200.69
344.804	197.69
345.031	208.69
345.259	200.69
345.487	185.69
345.714	185.69
345.942	190.69
346.17	178.69
346.397	208.69
346.625	191.69
346.853	190.69
347.08	189.69
347.308	184.69
347.535	201.69
347.763	189.69
347.99	203.69
348.218	206.69
348.445	187.69
348.673	189.69
348.9	195.69
349.128	201.69
349.355	182.69
349.583	183.69
349.81	207.69
350.037	191.69
350.265	195.69
350.492	181.69
350.72	164.69
350.947	186.69
351.174	201.69
351.402	202.69
351.629	190.69
351.856	172.69
352.083	180.69
352.311	171.69
352.538	186.69
352.765	192.69
352.992	197.69
353.22	179.69
353.447	192.69
353.674	186.69
353.901	179.69
354.128	187.69
354.355	186.69
354.583	170.69
354.81	184.69
355.037	184.69
355.264	183.69
355.491	180.69
355.718	187.69
355.945	200.69
356.172	181.69
356.399	170.69
356.626	188.69
356.853	205.69
357.08	202.69
357.307	180.69
357.534	187.69
357.761	166.69
357.988	182.69
358.215	180.69
358.441	188.69
358.668	184.69
358.895	200.69
359.122	196.69
359.349	196.69
359.576	189.69
359.802	183.69
360.029	197.69
360.256	187.69
360.483	182.69
360.709	181.69
360.936	199.69
361.163	186.69
361.39	191.69
361.616	186.69
361.843	178.69
362.07	184.69
362.296	194.69
362.523	176.69
362.749	182.69
362.976	193.69
363.203	201.69
363.429	181.69
363.656	189.69
363.882	176.69
364.109	194.69
364.335	177.69
364.562	177.69
364.788	187.69
365.015	195.69
365.241	195.69
365.468	185.69
365.694	187.69
365.92	189.69
366.147	197.69
366.373	196.69
366.599	200.69
366.826	200.69
367.052	192.69
367.278	175.69
367.505	175.69
367.731	173.69
367.957	180.69
368.184	170.69
368.41	196.69
368.636	184.69
368.862	187.69
369.089	199.69
369.315	193.69
369.541	185.69
369.767	192.69
369.993	185.69
370.219	181.69
370.445	187.69
370.672	199.69
370.898	212.69
371.124	198.69
371.35	203.69
371.576	199.69
371.802	186.69
372.028	182.69
372.254	187.69
372.48	184.69
372.706	204.69
372.932	215.69
373.158	212.69
373.384	195.69
373.61	199.69
373.835	197.69
374.061	199.69
374.287	212.69
374.513	199.69
374.739	200.69
374.965	224.69
375.191	219.69
375.416	219.69
375.642	212.69
375.868	216.69
376.094	212.69
376.319	205.69
376.545	211.69
376.771	201.69
376.997	198.69
377.222	188.69
377.448	201.69
377.674	196.69
377.899	188.69
378.125	181.69
378.35	184.69
378.576	196.69
378.802	182.69
379.027	209.69
379.253	200.69
379.478	188.69
379.704	192.69
379.929	209.69
380.155	185.69
380.38	211.69
380.606	190.69
380.831	186.69
381.057	190.69
381.282	198.69
381.507	203.69
381.733	198.69
381.958	192.69
382.184	190.69
382.409	200.69
382.634	199.69
382.86	202.69
383.085	200.69
383.31	211.69
383.535	203.69
383.761	209.69
383.986	213.69
384.211	209.69
384.436	231.69
384.662	228.69
384.887	231.69
385.112	211.69
385.337	231.69
385.562	233.69
385.787	221.69
386.013	222.69
386.238	231.69
386.463	231.69
386.688	215.69
386.913	230.69
387.138	211.69
387.363	224.69
387.588	232.69
387.813	226.69
388.038	195.69
388.263	241.69
388.488	221.69
388.713	204.69
388.938	216.69
389.163	224.69
389.387	204.69
389.612	220.69
389.837	207.69
390.062	215.69
390.287	228.69
390.512	217.69
390.736	204.69
390.961	211.69
391.186	240.69
391.411	243.69
391.636	262.69
391.86	245.69
392.085	244.69
392.31	241.69
392.534	257.69
392.759	235.69
392.984	236.69
393.208	225.69
393.433	221.69
393.658	251.69
393.882	218.69
394.107	233.69
394.331	236.69
394.556	216.69
394.78	215.69
395.005	235.69
395.229	224.69
395.454	229.69
395.678	250.69
395.903	251.69
396.127	252.69
396.352	220.69
396.576	242.69
396.801	227.69
397.025	218.69
397.249	236.69
397.474	253.69
397.698	241.69
397.922	239.69
398.147	228.69
398.371	247.69
398.595	232.69
398.82	259.69
399.044	270.69
399.268	279.69
399.492	334.69
399.717	356.69
399.941	362.69
400.165	323.69
400.389	290.69
400.613	260.69
400.837	292.69
401.062	281.69
401.286	265.69
401.51	255.69
401.734	257.69
401.958	270.69
402.182	263.69
402.406	263.69
402.63	280.69
402.854	286.69
403.078	273.69
403.302	287.69
403.526	307.69
403.75	288.69
403.974	303.69
404.198	309.69
404.422	303.69
404.645	302.69
404.869	298.69
405.093	287.69
405.317	278.69
405.541	287.69
405.765	268.69
405.988	265.69
406.212	290.69
406.436	281.69
406.66	283.69
406.883	283.69
407.107	312.69
407.331	320.69
407.555	321.69
407.778	333.69
408.002	310.69
408.226	304.69
408.449	300.69
408.673	298.69
408.896	284.69
409.12	293.69
409.344	284.69
409.567	279.69
409.791	306.69
410.014	306.69
410.238	287.69
410.461	289.69
410.685	280.69
410.908	256.69
411.132	279.69
411.355	281.69
411.578	271.69
411.802	275.69
412.025	262.69
412.249	277.69
412.472	280.69
412.695	269.69
412.919	261.69
413.142	268.69
413.365	256.69
413.589	260.69
413.812	274.69
414.035	256.69
414.258	254.69
414.482	258.69
414.705	254.69
414.928	264.69
415.151	278.69
415.374	255.69
415.597	253.69
415.821	247.69
416.044	246.69
416.267	273.69
416.49	247.69
416.713	252.69
416.936	267.69
417.159	264.69
417.382	264.69
417.605	259.69
417.828	252.69
418.051	259.69
418.274	264.69
418.497	261.69
418.72	268.69
418.943	276.69
419.166	292.69
419.389	278.69
419.611	289.69
419.834	267.69
420.057	255.69
420.28	263.69
420.503	270.69
420.726	258.69
420.948	262.69
421.171	250.69
421.394	270.69
421.617	264.69
421.839	244.69
422.062	266.69
422.285	263.69
422.507	274.69
422.73	277.69
422.953	272.69
423.175	272.69
423.398	264.69
423.621	271.69
423.843	259.69
424.066	284.69
424.288	277.69
424.511	268.69
424.733	272.69
424.956	268.69
425.178	270.69
425.401	250.69
425.623	257.69
425.846	241.69
426.068	248.69
426.291	245.69
426.513	247.69
426.735	234.69
426.958	237.69
427.18	240.69
427.402	255.69
427.625	243.69
427.847	221.69
428.069	239.69
428.292	236.69
428.514	246.69
428.736	233.69
428.958	209.69
429.181	233.69
429.403	234.69
429.625	228.69
429.847	231.69
430.069	224.69
430.292	240.69
430.514	225.69
430.736	233.69
430.958	244.69
431.18	232.69
431.402	232.69
431.624	236.69
431.846	240.69
432.068	243.69
432.29	236.69
432.512	245.69
432.734	235.69
432.956	243.69
433.178	216.69
433.4	225.69
433.622	234.69
433.844	237.69
434.066	248.69
434.287	226.69
434.509	242.69
434.731	242.69
434.953	274.69
435.175	274.69
435.397	247.69
435.618	248.69
435.84	232.69
436.062	215.69
436.284	227.69
436.505	239.69
436.727	223.69
436.949	245.69
437.17	243.69
437.392	242.69
437.614	220.69
437.835	214.69
438.057	236.69
438.278	225.69
438.5	240.69
438.721	220.69
438.943	225.69
439.165	237.69
439.386	250.69
439.608	237.69
439.829	231.69
440.05	228.69
440.272	240.69
440.493	235.69
440.715	251.69
440.936	238.69
441.158	237.69
441.379	255.69
441.6	272.69
441.822	276.69
442.043	279.69
442.264	249.69
442.486	247.69
442.707	250.69
442.928	241.69
443.149	249.69
443.371	249.69
443.592	259.69
443.813	259.69
444.034	268.69
444.255	265.69
444.476	289.69
444.698	301.69
444.919	321.69
445.14	379.69
445.361	301.69
445.582	268.69
445.803	252.69
446.024	263.69
446.245	257.69
446.466	232.69
446.687	243.69
446.908	250.69
447.129	233.69
447.35	250.69
447.571	215.69
447.792	225.69
448.013	202.69
448.234	209.69
448.455	215.69
448.675	219.69
448.896	225.69
449.117	245.69
449.338	232.69
449.559	229.69
449.779	201.69
450	211.69
450.221	210.69
450.442	216.69
450.662	226.69
450.883	228.69
451.104	240.69
451.324	236.69
451.545	234.69
451.766	209.69
451.986	222.69
452.207	228.69
452.428	233.69
452.648	217.69
452.869	231.69
453.089	217.69
453.31	202.69
453.53	220.69
453.751	231.69
453.971	227.69
454.192	224.69
454.412	218.69
454.633	206.69
454.853	201.69
455.073	210.69
455.294	220.69
455.514	225.69
455.734	220.69
455.955	203.69
456.175	211.69
456.395	209.69
456.616	209.69
456.836	224.69
457.056	196.69
457.276	201.69
457.497	203.69
457.717	200.69
457.937	201.69
458.157	218.69
458.377	218.69
458.598	226.69
458.818	222.69
459.038	231.69
459.258	217.69
459.478	241.69
459.698	227.69
459.918	259.69
460.138	267.69
460.358	269.69
460.578	289.69
460.798	277.69
461.018	272.69
461.238	259.69
461.458	260.69
461.678	264.69
461.898	285.69
462.118	258.69
462.338	285.69
462.558	293.69
462.777	295.69
462.997	328.69
463.217	368.69
463.437	373.69
463.657	331.69
463.876	309.69
464.096	308.69
464.316	324.69
464.536	328.69
464.755	320.69
464.975	300.69
465.195	291.69
465.414	264.69
465.634	242.69
465.854	228.69
466.073	252.69
466.293	234.69
466.512	244.69
466.732	221.69
466.951	244.69
467.171	237.69
467.391	244.69
467.61	232.69
467.829	225.69
468.049	232.69
468.268	233.69
468.488	216.69
468.707	235.69
468.927	234.69
469.146	223.69
469.365	213.69
469.585	248.69
469.804	228.69
470.023	237.69
470.243	232.69
470.462	234.69
470.681	243.69
470.901	233.69
471.12	227.69
471.339	223.69
471.558	223.69
471.777	217.69
471.997	239.69
472.216	241.69
472.435	227.69
472.654	228.69
472.873	218.69
473.092	222.69
473.311	214.69
473.53	226.69
473.749	227.69
473.968	230.69
474.187	224.69
474.406	204.69
474.625	217.69
474.844	248.69
475.063	226.69
475.282	220.69
475.501	239.69
475.72	236.69
475.939	228.69
476.158	252.69
476.377	235.69
476.596	215.69
476.814	226.69
477.033	234.69
477.252	224.69
477.471	226.69
477.69	247.69
477.908	265.69
478.127	277.69
478.346	251.69
478.564	258.69
478.783	268.69
479.002	273.69
479.22	263.69
479.439	273.69
479.658	264.69
479.876	253.69
480.095	263.69
480.313	280.69
480.532	294.69
480.751	297.69
480.969	257.69
481.188	250.69
481.406	266.69
481.624	254.69
481.843	225.69
482.061	260.69
482.28	251.69
482.498	251.69
482.717	234.69
482.935	253.69
483.153	252.69
483.372	246.69
483.59	252.69
483.808	244.69
484.027	265.69
484.245	251.69
484.463	241.69
484.681	257.69
484.9	269.69
485.118	265.69
485.336	257.69
485.554	255.69
485.772	268.69
485.99	275.69
486.209	284.69
486.427	256.69
486.645	271.69
486.863	266.69
487.081	283.69
487.299	251.69
487.517	253.69
487.735	265.69
487.953	274.69
488.171	248.69
488.389	281.69
488.607	242.69
488.825	255.69
489.043	262.69
489.261	247.69
489.479	251.69
489.696	248.69
489.914	259.69
490.132	257.69
490.35	265.69
490.568	279.69
490.786	267.69
491.003	258.69
491.221	262.69
491.439	252.69
491.657	246.69
491.874	255.69
492.092	265.69
492.31	266.69
492.527	297.69
492.745	254.69
492.963	248.69
493.18	276.69
493.398	289.69
493.615	262.69
493.833	285.69
494.05	259.69
494.268	272.69
494.485	275.69
494.703	266.69
494.92	283.69
495.138	283.69
495.355	278.69
495.573	285.69
495.79	265.69
496.008	281.69
496.225	286.69
496.442	280.69
496.66	287.69
496.877	283.69
497.094	279.69
497.312	295.69
497.529	297.69
497.746	292.69
497.963	316.69
498.181	318.69
498.398	313.69
498.615	342.69
498.832	357.69
499.049	375.69
499.267	419.69
499.484	451.69
499.701	501.69
499.918	551.69
500.135	634.69
500.352	716.69
500.569	754.69
500.786	770.69
501.003	690.69
501.22	601.69
501.437	539.69
501.654	464.69
501.871	447.69
502.088	405.69
502.305	383.69
502.522	364.69
502.739	363.69
502.956	367.69
503.172	315.69
503.389	319.69
