Data from 0.5MCu(NO3)2.Standard.Lamp.E10.CV._HRD10591_16-05-05-754.txt Node
Date: Mon Jul 22 16:05:05 EDT 2019
User: cochatt
Spectrometer: HR+D1059
Trigger mode: 1
Integration Time (sec): 1.000000E-1
Scans to average: 1
Electric dark correction enabled: true
Nonlinearity correction enabled: false
Boxcar width: 0
XAxis mode: Wavelengths
Number of Pixels in Spectrum: 2048
>>>>>Begin Spectral Data<<<<<
223.165	-10.5
223.4	-10.5
223.635	-10.5
223.869	-21.5
224.104	-12.5
224.338	-9.5
224.573	-11.5
224.808	-10.5
225.042	-4.5
225.277	-12.5
225.511	-2.5
225.746	-9.5
225.98	4.5
226.215	13.5
226.449	19.5
226.683	7.5
226.918	30.5
227.152	29.5
227.387	43.5
227.621	21.5
227.856	43.5
228.09	47.5
228.324	56.5
228.559	59.5
228.793	52.5
229.027	56.5
229.262	75.5
229.496	88.5
229.73	70.5
229.964	65.5
230.199	86.5
230.433	76.5
230.667	71.5
230.901	71.5
231.136	86.5
231.37	92.5
231.604	83.5
231.838	88.5
232.072	79.5
232.306	84.5
232.541	90.5
232.775	84.5
233.009	86.5
233.243	95.5
233.477	93.5
233.711	77.5
233.945	97.5
234.179	85.5
234.413	78.5
234.647	85.5
234.881	85.5
235.115	82.5
235.349	78.5
235.583	90.5
235.817	91.5
236.051	101.5
236.285	85.5
236.519	87.5
236.753	96.5
236.987	92.5
237.221	75.5
237.455	81.5
237.689	85.5
237.922	84.5
238.156	68.5
238.39	82.5
238.624	86.5
238.858	104.5
239.091	90.5
239.325	74.5
239.559	82.5
239.793	94.5
240.027	92.5
240.26	92.5
240.494	84.5
240.728	84.5
240.961	96.5
241.195	89.5
241.429	76.5
241.662	97.5
241.896	88.5
242.13	111.5
242.363	94.5
242.597	92.5
242.83	98.5
243.064	94.5
243.298	93.5
243.531	97.5
243.765	96.5
243.998	98.5
244.232	99.5
244.465	93.5
244.699	101.5
244.932	111.5
245.166	98.5
245.399	93.5
245.633	97.5
245.866	90.5
246.099	99.5
246.333	87.5
246.566	94.5
246.8	101.5
247.033	100.5
247.266	95.5
247.5	97.5
247.733	101.5
247.966	89.5
248.2	112.5
248.433	113.5
248.666	93.5
248.899	102.5
249.133	116.5
249.366	103.5
249.599	99.5
249.832	100.5
250.066	106.5
250.299	90.5
250.532	115.5
250.765	103.5
250.998	119.5
251.231	115.5
251.465	98.5
251.698	103.5
251.931	104.5
252.164	105.5
252.397	99.5
252.63	106.5
252.863	107.5
253.096	114.5
253.329	97.5
253.562	101.5
253.795	95.5
254.028	102.5
254.261	104.5
254.494	109.5
254.727	112.5
254.96	111.5
255.193	117.5
255.426	114.5
255.659	103.5
255.892	101.5
256.124	124.5
256.357	111.5
256.59	111.5
256.823	112.5
257.056	99.5
257.289	115.5
257.521	99.5
257.754	100.5
257.987	102.5
258.22	118.5
258.452	122.5
258.685	119.5
258.918	108.5
259.151	115.5
259.383	119.5
259.616	100.5
259.849	113.5
260.081	111.5
260.314	111.5
260.547	118.5
260.779	129.5
261.012	117.5
261.244	109.5
261.477	113.5
261.71	120.5
261.942	119.5
262.175	131.5
262.407	106.5
262.64	119.5
262.872	134.5
263.105	124.5
263.337	123.5
263.57	123.5
263.802	106.5
264.035	121.5
264.267	113.5
264.499	133.5
264.732	118.5
264.964	126.5
265.197	118.5
265.429	121.5
265.661	99.5
265.894	115.5
266.126	120.5
266.358	125.5
266.591	125.5
266.823	138.5
267.055	136.5
267.287	124.5
267.52	116.5
267.752	128.5
267.984	135.5
268.216	115.5
268.448	129.5
268.681	123.5
268.913	120.5
269.145	117.5
269.377	130.5
269.609	129.5
269.841	129.5
270.073	124.5
270.306	117.5
270.538	131.5
270.77	113.5
271.002	126.5
271.234	121.5
271.466	125.5
271.698	131.5
271.93	127.5
272.162	118.5
272.394	131.5
272.626	127.5
272.858	127.5
273.09	130.5
273.322	128.5
273.553	124.5
273.785	114.5
274.017	131.5
274.249	133.5
274.481	123.5
274.713	131.5
274.945	136.5
275.176	136.5
275.408	144.5
275.64	139.5
275.872	129.5
276.104	132.5
276.335	118.5
276.567	138.5
276.799	129.5
277.031	129.5
277.262	144.5
277.494	133.5
277.726	149.5
277.957	135.5
278.189	135.5
278.421	118.5
278.652	153.5
278.884	132.5
279.115	140.5
279.347	138.5
279.579	153.5
279.81	138.5
280.042	136.5
280.273	141.5
280.505	144.5
280.736	137.5
280.968	140.5
281.199	133.5
281.431	129.5
281.662	132.5
281.894	133.5
282.125	143.5
282.356	146.5
282.588	142.5
282.819	149.5
283.051	150.5
283.282	145.5
283.513	143.5
283.745	149.5
283.976	146.5
284.207	147.5
284.439	144.5
284.67	147.5
284.901	146.5
285.132	149.5
285.364	166.5
285.595	149.5
285.826	151.5
286.057	136.5
286.288	148.5
286.52	141.5
286.751	139.5
286.982	151.5
287.213	155.5
287.444	156.5
287.675	158.5
287.906	156.5
288.138	158.5
288.369	167.5
288.6	160.5
288.831	159.5
289.062	162.5
289.293	152.5
289.524	140.5
289.755	154.5
289.986	151.5
290.217	171.5
290.448	155.5
290.679	148.5
290.91	150.5
291.141	167.5
291.371	158.5
291.602	153.5
291.833	158.5
292.064	145.5
292.295	162.5
292.526	177.5
292.757	139.5
292.987	149.5
293.218	135.5
293.449	149.5
293.68	160.5
293.91	157.5
294.141	147.5
294.372	162.5
294.603	151.5
294.833	155.5
295.064	154.5
295.295	165.5
295.525	157.5
295.756	158.5
295.987	161.5
296.217	162.5
296.448	147.5
296.679	157.5
296.909	159.5
297.14	161.5
297.37	187.5
297.601	161.5
297.831	177.5
298.062	150.5
298.292	171.5
298.523	167.5
298.753	170.5
298.984	157.5
299.214	159.5
299.445	148.5
299.675	158.5
299.905	170.5
300.136	179.5
300.366	167.5
300.597	168.5
300.827	158.5
301.057	163.5
301.288	180.5
301.518	170.5
301.748	168.5
301.979	178.5
302.209	174.5
302.439	167.5
302.669	173.5
302.9	164.5
303.13	170.5
303.36	183.5
303.59	169.5
303.82	161.5
304.051	164.5
304.281	156.5
304.511	171.5
304.741	164.5
304.971	175.5
305.201	167.5
305.431	183.5
305.661	168.5
305.891	154.5
306.121	177.5
306.352	175.5
306.582	170.5
306.812	163.5
307.042	167.5
307.272	162.5
307.502	163.5
307.731	185.5
307.961	181.5
308.191	168.5
308.421	146.5
308.651	161.5
308.881	163.5
309.111	166.5
309.341	157.5
309.571	157.5
309.8	180.5
310.03	189.5
310.26	180.5
310.49	181.5
310.72	167.5
310.949	167.5
311.179	181.5
311.409	157.5
311.639	163.5
311.868	169.5
312.098	177.5
312.328	165.5
312.557	188.5
312.787	184.5
313.017	179.5
313.246	175.5
313.476	181.5
313.706	178.5
313.935	168.5
314.165	182.5
314.394	180.5
314.624	176.5
314.853	176.5
315.083	177.5
315.312	183.5
315.542	171.5
315.771	189.5
316.001	167.5
316.23	177.5
316.46	180.5
316.689	166.5
316.919	168.5
317.148	173.5
317.377	161.5
317.607	170.5
317.836	177.5
318.065	187.5
318.295	191.5
318.524	172.5
318.753	176.5
318.983	167.5
319.212	156.5
319.441	178.5
319.67	179.5
319.9	162.5
320.129	169.5
320.358	177.5
320.587	161.5
320.816	173.5
321.046	178.5
321.275	167.5
321.504	178.5
321.733	183.5
321.962	191.5
322.191	172.5
322.42	185.5
322.649	161.5
322.878	180.5
323.108	173.5
323.337	169.5
323.566	185.5
323.795	185.5
324.024	176.5
324.253	173.5
324.482	188.5
324.71	175.5
324.939	191.5
325.168	191.5
325.397	187.5
325.626	170.5
325.855	163.5
326.084	185.5
326.313	189.5
326.542	195.5
326.77	192.5
326.999	192.5
327.228	185.5
327.457	165.5
327.686	175.5
327.914	175.5
328.143	172.5
328.372	189.5
328.6	179.5
328.829	185.5
329.058	177.5
329.287	188.5
329.515	200.5
329.744	188.5
329.972	173.5
330.201	176.5
330.43	184.5
330.658	191.5
330.887	202.5
331.115	200.5
331.344	195.5
331.572	194.5
331.801	211.5
332.03	201.5
332.258	193.5
332.486	197.5
332.715	202.5
332.943	212.5
333.172	222.5
333.4	232.5
333.629	218.5
333.857	230.5
334.085	224.5
334.314	217.5
334.542	218.5
334.771	229.5
334.999	208.5
335.227	204.5
335.455	216.5
335.684	213.5
335.912	198.5
336.14	199.5
336.369	200.5
336.597	213.5
336.825	204.5
337.053	218.5
337.281	203.5
337.51	199.5
337.738	209.5
337.966	203.5
338.194	214.5
338.422	209.5
338.65	192.5
338.878	192.5
339.106	202.5
339.334	202.5
339.562	197.5
339.79	198.5
340.018	183.5
340.246	195.5
340.474	192.5
340.702	190.5
340.93	194.5
341.158	185.5
341.386	197.5
341.614	181.5
341.842	189.5
342.07	184.5
342.298	185.5
342.526	198.5
342.754	196.5
342.981	195.5
343.209	195.5
343.437	192.5
343.665	193.5
343.893	218.5
344.12	215.5
344.348	224.5
344.576	205.5
344.804	208.5
345.031	190.5
345.259	197.5
345.487	190.5
345.714	197.5
345.942	181.5
346.17	193.5
346.397	200.5
346.625	160.5
346.853	198.5
347.08	192.5
347.308	200.5
347.535	193.5
347.763	208.5
347.99	195.5
348.218	191.5
348.445	189.5
348.673	185.5
348.9	201.5
349.128	195.5
349.355	185.5
349.583	193.5
349.81	194.5
350.037	188.5
350.265	182.5
350.492	179.5
350.72	161.5
350.947	168.5
351.174	183.5
351.402	190.5
351.629	176.5
351.856	184.5
352.083	184.5
352.311	176.5
352.538	174.5
352.765	179.5
352.992	171.5
353.22	182.5
353.447	177.5
353.674	173.5
353.901	194.5
354.128	175.5
354.355	188.5
354.583	184.5
354.81	179.5
355.037	192.5
355.264	202.5
355.491	181.5
355.718	185.5
355.945	183.5
356.172	188.5
356.399	189.5
356.626	180.5
356.853	190.5
357.08	181.5
357.307	178.5
357.534	188.5
357.761	167.5
357.988	162.5
358.215	175.5
358.441	175.5
358.668	176.5
358.895	176.5
359.122	178.5
359.349	184.5
359.576	183.5
359.802	172.5
360.029	181.5
360.256	185.5
360.483	182.5
360.709	179.5
360.936	188.5
361.163	193.5
361.39	170.5
361.616	179.5
361.843	183.5
362.07	163.5
362.296	181.5
362.523	178.5
362.749	196.5
362.976	188.5
363.203	184.5
363.429	172.5
363.656	168.5
363.882	179.5
364.109	186.5
364.335	170.5
364.562	183.5
364.788	181.5
365.015	173.5
365.241	191.5
365.468	184.5
365.694	179.5
365.92	179.5
366.147	186.5
366.373	180.5
366.599	179.5
366.826	186.5
367.052	179.5
367.278	164.5
367.505	175.5
367.731	175.5
367.957	177.5
368.184	180.5
368.41	181.5
368.636	180.5
368.862	167.5
369.089	181.5
369.315	183.5
369.541	187.5
369.767	175.5
369.993	206.5
370.219	172.5
370.445	179.5
370.672	178.5
370.898	188.5
371.124	178.5
371.35	193.5
371.576	186.5
371.802	199.5
372.028	172.5
372.254	182.5
372.48	200.5
372.706	201.5
372.932	184.5
373.158	194.5
373.384	200.5
373.61	197.5
373.835	187.5
374.061	188.5
374.287	186.5
374.513	201.5
374.739	186.5
374.965	195.5
375.191	205.5
375.416	203.5
375.642	198.5
375.868	195.5
376.094	201.5
376.319	194.5
376.545	181.5
376.771	188.5
376.997	191.5
377.222	185.5
377.448	185.5
377.674	193.5
377.899	182.5
378.125	184.5
378.35	179.5
378.576	195.5
378.802	183.5
379.027	186.5
379.253	194.5
379.478	195.5
379.704	187.5
379.929	178.5
380.155	195.5
380.38	177.5
380.606	178.5
380.831	194.5
381.057	178.5
381.282	170.5
381.507	180.5
381.733	199.5
381.958	173.5
382.184	202.5
382.409	194.5
382.634	199.5
382.86	213.5
383.085	196.5
383.31	204.5
383.535	206.5
383.761	213.5
383.986	215.5
384.211	213.5
384.436	203.5
384.662	223.5
384.887	209.5
385.112	205.5
385.337	231.5
385.562	213.5
385.787	218.5
386.013	241.5
386.238	222.5
386.463	205.5
386.688	230.5
386.913	222.5
387.138	219.5
387.363	210.5
387.588	219.5
387.813	211.5
388.038	229.5
388.263	217.5
388.488	215.5
388.713	198.5
388.938	198.5
389.163	205.5
389.387	218.5
389.612	204.5
389.837	217.5
390.062	191.5
390.287	211.5
390.512	196.5
390.736	207.5
390.961	216.5
391.186	205.5
391.411	224.5
391.636	222.5
391.86	229.5
392.085	241.5
392.31	208.5
392.534	221.5
392.759	256.5
392.984	212.5
393.208	229.5
393.433	220.5
393.658	208.5
393.882	229.5
394.107	219.5
394.331	211.5
394.556	210.5
394.78	215.5
395.005	206.5
395.229	223.5
395.454	220.5
395.678	222.5
395.903	241.5
396.127	224.5
396.352	214.5
396.576	215.5
396.801	243.5
397.025	227.5
397.249	225.5
397.474	220.5
397.698	231.5
397.922	229.5
398.147	220.5
398.371	238.5
398.595	230.5
398.82	228.5
399.044	263.5
399.268	282.5
399.492	327.5
399.717	358.5
399.941	347.5
400.165	316.5
400.389	277.5
400.613	264.5
400.837	242.5
401.062	244.5
401.286	217.5
401.51	248.5
401.734	259.5
401.958	245.5
402.182	235.5
402.406	255.5
402.63	245.5
402.854	266.5
403.078	260.5
403.302	274.5
403.526	261.5
403.75	276.5
403.974	293.5
404.198	274.5
404.422	270.5
404.645	277.5
404.869	279.5
405.093	263.5
405.317	265.5
405.541	264.5
405.765	272.5
405.988	236.5
406.212	261.5
406.436	266.5
406.66	275.5
406.883	272.5
407.107	292.5
407.331	295.5
407.555	307.5
407.778	300.5
408.002	285.5
408.226	275.5
408.449	281.5
408.673	284.5
408.896	281.5
409.12	292.5
409.344	277.5
409.567	259.5
409.791	287.5
410.014	273.5
410.238	275.5
410.461	289.5
410.685	281.5
410.908	275.5
411.132	266.5
411.355	261.5
411.578	244.5
411.802	244.5
412.025	250.5
412.249	272.5
412.472	257.5
412.695	244.5
412.919	244.5
413.142	246.5
413.365	244.5
413.589	240.5
413.812	239.5
414.035	227.5
414.258	228.5
414.482	238.5
414.705	244.5
414.928	244.5
415.151	245.5
415.374	258.5
415.597	247.5
415.821	241.5
416.044	243.5
416.267	242.5
416.49	245.5
416.713	240.5
416.936	245.5
417.159	239.5
417.382	239.5
417.605	239.5
417.828	236.5
418.051	248.5
418.274	249.5
418.497	256.5
418.72	258.5
418.943	227.5
419.166	265.5
419.389	266.5
419.611	272.5
419.834	251.5
420.057	234.5
420.28	231.5
420.503	242.5
420.726	240.5
420.948	245.5
421.171	244.5
421.394	263.5
421.617	247.5
421.839	247.5
422.062	264.5
422.285	254.5
422.507	245.5
422.73	265.5
422.953	240.5
423.175	255.5
423.398	266.5
423.621	266.5
423.843	246.5
424.066	241.5
424.288	260.5
424.511	252.5
424.733	244.5
424.956	271.5
425.178	237.5
425.401	259.5
425.623	242.5
425.846	246.5
426.068	245.5
426.291	251.5
426.513	224.5
426.735	235.5
426.958	218.5
427.18	225.5
427.402	214.5
427.625	233.5
427.847	235.5
428.069	224.5
428.292	228.5
428.514	193.5
428.736	229.5
428.958	209.5
429.181	208.5
429.403	215.5
429.625	223.5
429.847	187.5
430.069	218.5
430.292	232.5
430.514	207.5
430.736	218.5
430.958	215.5
431.18	205.5
431.402	227.5
431.624	216.5
431.846	229.5
432.068	228.5
432.29	221.5
432.512	225.5
432.734	239.5
432.956	220.5
433.178	234.5
433.4	228.5
433.622	236.5
433.844	244.5
434.066	232.5
434.287	223.5
434.509	226.5
434.731	253.5
434.953	251.5
435.175	242.5
435.397	243.5
435.618	239.5
435.84	240.5
436.062	218.5
436.284	218.5
436.505	210.5
436.727	244.5
436.949	235.5
437.17	220.5
437.392	216.5
437.614	217.5
437.835	220.5
438.057	208.5
438.278	205.5
438.5	213.5
438.721	215.5
438.943	231.5
439.165	213.5
439.386	214.5
439.608	229.5
439.829	233.5
440.05	223.5
440.272	223.5
440.493	236.5
440.715	234.5
440.936	239.5
441.158	241.5
441.379	256.5
441.6	257.5
441.822	251.5
442.043	240.5
442.264	235.5
442.486	231.5
442.707	226.5
442.928	246.5
443.149	241.5
443.371	249.5
443.592	223.5
443.813	247.5
444.034	242.5
444.255	241.5
444.476	265.5
444.698	282.5
444.919	294.5
445.14	411.5
445.361	330.5
445.582	262.5
445.803	227.5
446.024	234.5
446.245	223.5
446.466	223.5
446.687	213.5
446.908	221.5
447.129	226.5
447.35	203.5
447.571	224.5
447.792	219.5
448.013	214.5
448.234	217.5
448.455	218.5
448.675	202.5
448.896	210.5
449.117	202.5
449.338	201.5
449.559	211.5
449.779	224.5
450	206.5
450.221	213.5
450.442	224.5
450.662	213.5
450.883	217.5
451.104	211.5
451.324	221.5
451.545	216.5
451.766	217.5
451.986	192.5
452.207	213.5
452.428	220.5
452.648	210.5
452.869	210.5
453.089	208.5
453.31	207.5
453.53	214.5
453.751	225.5
453.971	219.5
454.192	210.5
454.412	220.5
454.633	212.5
454.853	213.5
455.073	181.5
455.294	194.5
455.514	210.5
455.734	189.5
455.955	192.5
456.175	199.5
456.395	187.5
456.616	189.5
456.836	203.5
457.056	202.5
457.276	187.5
457.497	187.5
457.717	184.5
457.937	193.5
458.157	214.5
458.377	218.5
458.598	212.5
458.818	219.5
459.038	205.5
459.258	209.5
459.478	216.5
459.698	234.5
459.918	223.5
460.138	241.5
460.358	259.5
460.578	262.5
460.798	269.5
461.018	242.5
461.238	246.5
461.458	250.5
461.678	259.5
461.898	265.5
462.118	263.5
462.338	263.5
462.558	273.5
462.777	284.5
462.997	297.5
463.217	337.5
463.437	330.5
463.657	315.5
463.876	274.5
464.096	283.5
464.316	272.5
464.536	299.5
464.755	278.5
464.975	275.5
465.195	264.5
465.414	244.5
465.634	243.5
465.854	231.5
466.073	232.5
466.293	217.5
466.512	226.5
466.732	224.5
466.951	211.5
467.171	217.5
467.391	246.5
467.61	217.5
467.829	220.5
468.049	240.5
468.268	208.5
468.488	234.5
468.707	211.5
468.927	209.5
469.146	204.5
469.365	220.5
469.585	209.5
469.804	228.5
470.023	208.5
470.243	235.5
470.462	234.5
470.681	228.5
470.901	240.5
471.12	219.5
471.339	239.5
471.558	229.5
471.777	231.5
471.997	221.5
472.216	210.5
472.435	217.5
472.654	213.5
472.873	205.5
473.092	233.5
473.311	208.5
473.53	202.5
473.749	204.5
473.968	197.5
474.187	211.5
474.406	193.5
474.625	213.5
474.844	211.5
475.063	219.5
475.282	213.5
475.501	208.5
475.72	220.5
475.939	216.5
476.158	224.5
476.377	226.5
476.596	226.5
476.814	215.5
477.033	214.5
477.252	226.5
477.471	232.5
477.69	222.5
477.908	244.5
478.127	248.5
478.346	243.5
478.564	249.5
478.783	247.5
479.002	251.5
479.22	257.5
479.439	259.5
479.658	248.5
479.876	245.5
480.095	256.5
480.313	259.5
480.532	267.5
480.751	256.5
480.969	243.5
481.188	249.5
481.406	255.5
481.624	244.5
481.843	226.5
482.061	237.5
482.28	247.5
482.498	227.5
482.717	245.5
482.935	237.5
483.153	241.5
483.372	227.5
483.59	239.5
483.808	247.5
484.027	246.5
484.245	221.5
484.463	252.5
484.681	252.5
484.9	247.5
485.118	235.5
485.336	240.5
485.554	253.5
485.772	255.5
485.99	255.5
486.209	261.5
486.427	239.5
486.645	247.5
486.863	255.5
487.081	262.5
487.299	234.5
487.517	244.5
487.735	230.5
487.953	260.5
488.171	244.5
488.389	253.5
488.607	242.5
488.825	245.5
489.043	255.5
489.261	260.5
489.479	277.5
489.696	249.5
489.914	234.5
490.132	246.5
490.35	263.5
490.568	248.5
490.786	252.5
491.003	243.5
491.221	270.5
491.439	265.5
491.657	270.5
491.874	265.5
492.092	261.5
492.31	257.5
492.527	252.5
492.745	275.5
492.963	277.5
493.18	263.5
493.398	273.5
493.615	253.5
493.833	255.5
494.05	247.5
494.268	260.5
494.485	266.5
494.703	269.5
494.92	265.5
495.138	279.5
495.355	272.5
495.573	276.5
495.79	261.5
496.008	261.5
496.225	269.5
496.442	271.5
496.66	264.5
496.877	259.5
497.094	287.5
497.312	262.5
497.529	274.5
497.746	288.5
497.963	289.5
498.181	310.5
498.398	306.5
498.615	328.5
498.832	353.5
499.049	368.5
499.267	377.5
499.484	407.5
499.701	462.5
499.918	511.5
500.135	553.5
500.352	660.5
500.569	680.5
500.786	700.5
501.003	629.5
501.22	562.5
501.437	491.5
501.654	443.5
501.871	411.5
502.088	395.5
502.305	354.5
502.522	338.5
502.739	336.5
502.956	346.5
503.172	314.5
503.389	289.5
503.606	294.5
503.823	287.5
504.04	280.5
504.256	297.5
504.473	288.5
504.69	321.5
504.907	315.5
505.123	289.5
505.34	260.5
505.557	270.5
505.773	268.5
505.99	255.5
506.207	240.5
506.423	258.5
506.64	240.5
506.856	261.5
507.073	235.5
507.289	245.5
507.506	251.5
507.722	249.5
507.939	240.5
508.155	248.5
508.372	228.5
508.588	253.5
508.805	244.5
509.021	241.5
509.238	223.5
509.454	218.5
509.67	229.5
509.887	213.5
510.103	229.5
510.319	217.5
510.536	209.5
510.752	232.5
510.968	232.5
511.184	215.5
511.401	231.5
511.617	224.5
511.833	230.5
512.049	247.5
512.265	221.5
512.481	216.5
512.698	229.5
512.914	202.5
513.13	220.5
513.346	218.5
513.562	216.5
513.778	215.5
513.994	219.5
514.21	218.5
514.426	225.5
514.642	245.5
514.858	233.5
515.074	227.5
515.29	228.5
515.506	241.5
515.721	232.5
515.937	234.5
516.153	253.5
516.369	247.5
516.585	249.5
516.801	269.5
517.016	258.5
517.232	273.5
517.448	290.5
517.664	288.5
517.879	326.5
518.095	316.5
518.311	300.5
518.527	282.5
518.742	277.5
518.958	267.5
519.173	255.5
519.389	247.5
519.605	245.5
519.82	257.5
520.036	222.5
520.251	244.5
520.467	241.5
520.682	238.5
520.898	222.5
521.113	222.5
521.329	226.5
