Data from 0.5MCu(NO3)2.Standard.Lamp.E10.CV._HRD10591_16-05-39-753.txt Node
Date: Mon Jul 22 16:05:39 EDT 2019
User: cochatt
Spectrometer: HR+D1059
Trigger mode: 1
Integration Time (sec): 1.000000E-1
Scans to average: 1
Electric dark correction enabled: true
Nonlinearity correction enabled: false
Boxcar width: 0
XAxis mode: Wavelengths
Number of Pixels in Spectrum: 2048
>>>>>Begin Spectral Data<<<<<
223.165	-26.75
223.4	-26.75
223.635	-26.75
223.869	-21.75
224.104	-9.75
224.338	-19.75
224.573	-12.75
224.808	-10.75
225.042	-10.75
225.277	0.25
225.511	2.25
225.746	8.25
225.98	14.25
226.215	18.25
226.449	9.25
226.683	6.25
226.918	22.25
227.152	31.25
227.387	31.25
227.621	28.25
227.856	37.25
228.09	42.25
228.324	50.25
228.559	73.25
228.793	55.25
229.027	69.25
229.262	67.25
229.496	82.25
229.73	91.25
229.964	97.25
230.199	102.25
230.433	79.25
230.667	95.25
230.901	89.25
231.136	86.25
231.37	90.25
231.604	78.25
231.838	89.25
232.072	99.25
232.306	90.25
232.541	93.25
232.775	95.25
233.009	91.25
233.243	95.25
233.477	86.25
233.711	97.25
233.945	92.25
234.179	93.25
234.413	85.25
234.647	83.25
234.881	91.25
235.115	85.25
235.349	92.25
235.583	78.25
235.817	92.25
236.051	97.25
236.285	92.25
236.519	109.25
236.753	101.25
236.987	92.25
237.221	96.25
237.455	89.25
237.689	86.25
237.922	94.25
238.156	103.25
238.39	97.25
238.624	104.25
238.858	95.25
239.091	82.25
239.325	89.25
239.559	96.25
239.793	88.25
240.027	101.25
240.26	94.25
240.494	102.25
240.728	100.25
240.961	102.25
241.195	110.25
241.429	106.25
241.662	90.25
241.896	89.25
242.13	95.25
242.363	100.25
242.597	101.25
242.83	108.25
243.064	104.25
243.298	94.25
243.531	102.25
243.765	93.25
243.998	93.25
244.232	108.25
244.465	110.25
244.699	107.25
244.932	107.25
245.166	102.25
245.399	96.25
245.633	101.25
245.866	109.25
246.099	97.25
246.333	92.25
246.566	106.25
246.8	106.25
247.033	99.25
247.266	112.25
247.5	106.25
247.733	94.25
247.966	100.25
248.2	120.25
248.433	88.25
248.666	121.25
248.899	105.25
249.133	106.25
249.366	116.25
249.599	103.25
249.832	98.25
250.066	98.25
250.299	103.25
250.532	114.25
250.765	113.25
250.998	116.25
251.231	112.25
251.465	113.25
251.698	103.25
251.931	115.25
252.164	127.25
252.397	120.25
252.63	119.25
252.863	107.25
253.096	99.25
253.329	120.25
253.562	124.25
253.795	115.25
254.028	133.25
254.261	122.25
254.494	125.25
254.727	123.25
254.96	107.25
255.193	129.25
255.426	117.25
255.659	114.25
255.892	117.25
256.124	106.25
256.357	118.25
256.59	121.25
256.823	118.25
257.056	114.25
257.289	115.25
257.521	125.25
257.754	135.25
257.987	119.25
258.22	125.25
258.452	128.25
258.685	132.25
258.918	126.25
259.151	130.25
259.383	120.25
259.616	121.25
259.849	141.25
260.081	113.25
260.314	126.25
260.547	122.25
260.779	140.25
261.012	142.25
261.244	134.25
261.477	129.25
261.71	138.25
261.942	137.25
262.175	143.25
262.407	131.25
262.64	140.25
262.872	131.25
263.105	149.25
263.337	143.25
263.57	134.25
263.802	125.25
264.035	141.25
264.267	138.25
264.499	133.25
264.732	127.25
264.964	129.25
265.197	131.25
265.429	153.25
265.661	141.25
265.894	128.25
266.126	134.25
266.358	125.25
266.591	145.25
266.823	134.25
267.055	149.25
267.287	123.25
267.52	148.25
267.752	139.25
267.984	147.25
268.216	136.25
268.448	143.25
268.681	146.25
268.913	150.25
269.145	151.25
269.377	147.25
269.609	133.25
269.841	148.25
270.073	135.25
270.306	143.25
270.538	140.25
270.77	155.25
271.002	150.25
271.234	144.25
271.466	157.25
271.698	164.25
271.93	154.25
272.162	143.25
272.394	150.25
272.626	143.25
272.858	163.25
273.09	140.25
273.322	155.25
273.553	142.25
273.785	159.25
274.017	154.25
274.249	146.25
274.481	146.25
274.713	148.25
274.945	141.25
275.176	145.25
275.408	142.25
275.64	155.25
275.872	143.25
276.104	162.25
276.335	166.25
276.567	179.25
276.799	182.25
277.031	161.25
277.262	153.25
277.494	148.25
277.726	166.25
277.957	161.25
278.189	163.25
278.421	164.25
278.652	155.25
278.884	155.25
279.115	166.25
279.347	158.25
279.579	158.25
279.81	174.25
280.042	161.25
280.273	175.25
280.505	161.25
280.736	170.25
280.968	179.25
281.199	172.25
281.431	171.25
281.662	175.25
281.894	171.25
282.125	173.25
282.356	169.25
282.588	176.25
282.819	164.25
283.051	166.25
283.282	169.25
283.513	169.25
283.745	168.25
283.976	183.25
284.207	189.25
284.439	180.25
284.67	171.25
284.901	183.25
285.132	159.25
285.364	170.25
285.595	170.25
285.826	187.25
286.057	190.25
286.288	187.25
286.52	183.25
286.751	172.25
286.982	160.25
287.213	174.25
287.444	169.25
287.675	180.25
287.906	196.25
288.138	179.25
288.369	182.25
288.6	180.25
288.831	188.25
289.062	177.25
289.293	189.25
289.524	190.25
289.755	199.25
289.986	190.25
290.217	185.25
290.448	179.25
290.679	186.25
290.91	186.25
291.141	165.25
291.371	207.25
291.602	177.25
291.833	191.25
292.064	168.25
292.295	195.25
292.526	189.25
292.757	187.25
292.987	177.25
293.218	169.25
293.449	182.25
293.68	189.25
293.91	185.25
294.141	175.25
294.372	189.25
294.603	199.25
294.833	202.25
295.064	172.25
295.295	183.25
295.525	207.25
295.756	207.25
295.987	205.25
296.217	187.25
296.448	189.25
296.679	190.25
296.909	196.25
297.14	193.25
297.37	199.25
297.601	213.25
297.831	193.25
298.062	198.25
298.292	205.25
298.523	207.25
298.753	213.25
298.984	205.25
299.214	212.25
299.445	212.25
299.675	195.25
299.905	210.25
300.136	199.25
300.366	218.25
300.597	207.25
300.827	215.25
301.057	205.25
301.288	216.25
301.518	231.25
301.748	199.25
301.979	214.25
302.209	201.25
302.439	216.25
302.669	203.25
302.9	214.25
303.13	193.25
303.36	217.25
303.59	205.25
303.82	201.25
304.051	220.25
304.281	196.25
304.511	209.25
304.741	204.25
304.971	210.25
305.201	199.25
305.431	196.25
305.661	201.25
305.891	214.25
306.121	218.25
306.352	220.25
306.582	208.25
306.812	213.25
307.042	196.25
307.272	206.25
307.502	210.25
307.731	199.25
307.961	194.25
308.191	181.25
308.421	204.25
308.651	210.25
308.881	206.25
309.111	214.25
309.341	210.25
309.571	203.25
309.8	209.25
310.03	200.25
310.26	205.25
310.49	222.25
310.72	217.25
310.949	208.25
311.179	208.25
311.409	196.25
311.639	193.25
311.868	220.25
312.098	188.25
312.328	201.25
312.557	206.25
312.787	227.25
313.017	197.25
313.246	202.25
313.476	204.25
313.706	209.25
313.935	212.25
314.165	222.25
314.394	214.25
314.624	213.25
314.853	227.25
315.083	198.25
315.312	206.25
315.542	221.25
315.771	220.25
316.001	217.25
316.23	213.25
316.46	214.25
316.689	212.25
316.919	189.25
317.148	209.25
317.377	218.25
317.607	210.25
317.836	223.25
318.065	214.25
318.295	221.25
318.524	213.25
318.753	227.25
318.983	214.25
319.212	231.25
319.441	212.25
319.67	222.25
319.9	226.25
320.129	192.25
320.358	204.25
320.587	211.25
320.816	215.25
321.046	214.25
321.275	221.25
321.504	212.25
321.733	214.25
321.962	216.25
322.191	197.25
322.42	197.25
322.649	216.25
322.878	216.25
323.108	201.25
323.337	220.25
323.566	227.25
323.795	211.25
324.024	239.25
324.253	209.25
324.482	198.25
324.71	223.25
324.939	210.25
325.168	201.25
325.397	212.25
325.626	210.25
325.855	219.25
326.084	224.25
326.313	230.25
326.542	212.25
326.77	238.25
326.999	212.25
327.228	241.25
327.457	220.25
327.686	235.25
327.914	238.25
328.143	233.25
328.372	234.25
328.6	233.25
328.829	239.25
329.058	229.25
329.287	213.25
329.515	218.25
329.744	214.25
329.972	217.25
330.201	233.25
330.43	241.25
330.658	215.25
330.887	225.25
331.115	221.25
331.344	234.25
331.572	249.25
331.801	251.25
332.03	246.25
332.258	230.25
332.486	249.25
332.715	268.25
332.943	269.25
333.172	277.25
333.4	275.25
333.629	277.25
333.857	287.25
334.085	265.25
334.314	282.25
334.542	283.25
334.771	273.25
334.999	272.25
335.227	275.25
335.455	267.25
335.684	270.25
335.912	254.25
336.14	251.25
336.369	275.25
336.597	277.25
336.825	263.25
337.053	252.25
337.281	244.25
337.51	259.25
337.738	246.25
337.966	258.25
338.194	236.25
338.422	257.25
338.65	249.25
338.878	238.25
339.106	228.25
339.334	241.25
339.562	245.25
339.79	235.25
340.018	248.25
340.246	232.25
340.474	229.25
340.702	241.25
340.93	235.25
341.158	236.25
341.386	257.25
341.614	241.25
341.842	234.25
342.07	234.25
342.298	235.25
342.526	242.25
342.754	232.25
342.981	228.25
343.209	245.25
343.437	238.25
343.665	267.25
343.893	275.25
344.12	284.25
344.348	251.25
344.576	239.25
344.804	260.25
345.031	257.25
345.259	243.25
345.487	233.25
345.714	231.25
345.942	226.25
346.17	229.25
346.397	221.25
346.625	228.25
346.853	213.25
347.08	218.25
347.308	233.25
347.535	222.25
347.763	225.25
347.99	244.25
348.218	246.25
348.445	241.25
348.673	236.25
348.9	247.25
349.128	233.25
349.355	221.25
349.583	213.25
349.81	227.25
350.037	239.25
350.265	241.25
350.492	224.25
350.72	218.25
350.947	229.25
351.174	221.25
351.402	218.25
351.629	213.25
351.856	217.25
352.083	215.25
352.311	218.25
352.538	215.25
352.765	236.25
352.992	226.25
353.22	199.25
353.447	220.25
353.674	214.25
353.901	219.25
354.128	201.25
354.355	231.25
354.583	231.25
354.81	230.25
355.037	223.25
355.264	238.25
355.491	218.25
355.718	216.25
355.945	227.25
356.172	220.25
356.399	231.25
356.626	241.25
356.853	206.25
357.08	227.25
357.307	218.25
357.534	230.25
357.761	199.25
357.988	216.25
358.215	231.25
358.441	225.25
358.668	206.25
358.895	220.25
359.122	220.25
359.349	224.25
359.576	220.25
359.802	242.25
360.029	195.25
360.256	212.25
360.483	211.25
360.709	203.25
360.936	211.25
361.163	228.25
361.39	235.25
361.616	218.25
361.843	232.25
362.07	224.25
362.296	221.25
362.523	223.25
362.749	206.25
362.976	211.25
363.203	208.25
363.429	227.25
363.656	244.25
363.882	236.25
364.109	225.25
364.335	227.25
364.562	223.25
364.788	212.25
365.015	206.25
365.241	201.25
365.468	205.25
365.694	219.25
365.92	218.25
366.147	187.25
366.373	201.25
366.599	229.25
366.826	214.25
367.052	221.25
367.278	220.25
367.505	225.25
367.731	208.25
367.957	207.25
368.184	218.25
368.41	217.25
368.636	210.25
368.862	229.25
369.089	214.25
369.315	217.25
369.541	220.25
369.767	221.25
369.993	226.25
370.219	221.25
370.445	222.25
370.672	223.25
370.898	216.25
371.124	216.25
371.35	232.25
371.576	245.25
371.802	224.25
372.028	213.25
372.254	212.25
372.48	235.25
372.706	219.25
372.932	234.25
373.158	241.25
373.384	233.25
373.61	225.25
373.835	232.25
374.061	229.25
374.287	222.25
374.513	216.25
374.739	245.25
374.965	255.25
375.191	251.25
375.416	263.25
375.642	250.25
375.868	255.25
376.094	247.25
376.319	245.25
376.545	229.25
376.771	226.25
376.997	234.25
377.222	246.25
377.448	238.25
377.674	225.25
377.899	235.25
378.125	210.25
378.35	217.25
378.576	232.25
378.802	211.25
379.027	220.25
379.253	242.25
379.478	221.25
379.704	231.25
379.929	229.25
380.155	226.25
380.38	220.25
380.606	226.25
380.831	228.25
381.057	244.25
381.282	236.25
381.507	237.25
381.733	230.25
381.958	227.25
382.184	229.25
382.409	241.25
382.634	233.25
382.86	229.25
383.085	246.25
383.31	263.25
383.535	253.25
383.761	244.25
383.986	251.25
384.211	253.25
384.436	277.25
384.662	264.25
384.887	264.25
385.112	257.25
385.337	278.25
385.562	257.25
385.787	272.25
386.013	271.25
386.238	250.25
386.463	260.25
386.688	274.25
386.913	256.25
387.138	250.25
387.363	258.25
387.588	273.25
387.813	253.25
388.038	270.25
388.263	255.25
388.488	249.25
388.713	279.25
388.938	269.25
389.163	257.25
389.387	252.25
389.612	267.25
389.837	271.25
390.062	262.25
390.287	243.25
390.512	255.25
390.736	251.25
390.961	245.25
391.186	259.25
391.411	280.25
391.636	271.25
391.86	285.25
392.085	301.25
392.31	286.25
392.534	279.25
392.759	272.25
392.984	279.25
393.208	267.25
393.433	269.25
393.658	283.25
393.882	281.25
394.107	291.25
394.331	287.25
394.556	269.25
394.78	274.25
395.005	277.25
395.229	269.25
395.454	284.25
395.678	298.25
395.903	290.25
396.127	291.25
396.352	283.25
396.576	273.25
396.801	265.25
397.025	246.25
397.249	294.25
397.474	280.25
397.698	282.25
397.922	285.25
398.147	274.25
398.371	278.25
398.595	292.25
398.82	290.25
399.044	324.25
399.268	337.25
399.492	413.25
399.717	469.25
399.941	448.25
400.165	405.25
400.389	370.25
400.613	331.25
400.837	300.25
401.062	293.25
401.286	300.25
401.51	336.25
401.734	296.25
401.958	317.25
402.182	297.25
402.406	302.25
402.63	322.25
402.854	331.25
403.078	340.25
403.302	343.25
403.526	347.25
403.75	350.25
403.974	354.25
404.198	366.25
404.422	373.25
404.645	343.25
404.869	348.25
405.093	350.25
405.317	338.25
405.541	328.25
405.765	318.25
405.988	310.25
406.212	328.25
406.436	335.25
406.66	349.25
406.883	349.25
407.107	363.25
407.331	380.25
407.555	391.25
407.778	376.25
408.002	384.25
408.226	355.25
408.449	354.25
408.673	338.25
408.896	339.25
409.12	323.25
409.344	335.25
409.567	347.25
409.791	345.25
410.014	361.25
410.238	342.25
410.461	351.25
410.685	339.25
410.908	333.25
411.132	329.25
411.355	336.25
411.578	310.25
411.802	309.25
412.025	320.25
412.249	334.25
412.472	310.25
412.695	322.25
412.919	297.25
413.142	313.25
413.365	295.25
413.589	308.25
413.812	302.25
414.035	295.25
414.258	289.25
414.482	308.25
414.705	289.25
414.928	315.25
415.151	315.25
415.374	296.25
415.597	306.25
415.821	295.25
416.044	317.25
416.267	293.25
416.49	297.25
416.713	284.25
416.936	305.25
417.159	281.25
417.382	295.25
417.605	301.25
417.828	300.25
418.051	322.25
418.274	290.25
418.497	317.25
418.72	307.25
418.943	318.25
419.166	337.25
419.389	354.25
419.611	328.25
419.834	330.25
420.057	297.25
420.28	329.25
420.503	305.25
420.726	310.25
420.948	298.25
421.171	305.25
421.394	308.25
421.617	291.25
421.839	294.25
422.062	280.25
422.285	306.25
422.507	300.25
422.73	308.25
422.953	328.25
423.175	313.25
423.398	324.25
423.621	331.25
423.843	333.25
424.066	315.25
424.288	303.25
424.511	309.25
424.733	324.25
424.956	307.25
425.178	315.25
425.401	311.25
425.623	314.25
425.846	294.25
426.068	291.25
426.291	289.25
426.513	300.25
426.735	295.25
426.958	283.25
427.18	272.25
427.402	297.25
427.625	291.25
427.847	264.25
428.069	294.25
428.292	277.25
428.514	279.25
428.736	271.25
428.958	293.25
429.181	293.25
429.403	293.25
429.625	295.25
429.847	286.25
430.069	271.25
430.292	282.25
430.514	264.25
430.736	270.25
430.958	270.25
431.18	250.25
431.402	263.25
431.624	273.25
431.846	267.25
432.068	286.25
432.29	287.25
432.512	275.25
432.734	271.25
432.956	282.25
433.178	270.25
433.4	289.25
433.622	268.25
433.844	265.25
434.066	280.25
434.287	266.25
434.509	293.25
434.731	293.25
434.953	302.25
435.175	299.25
435.397	302.25
435.618	294.25
435.84	293.25
436.062	287.25
436.284	269.25
436.505	277.25
436.727	281.25
436.949	283.25
437.17	275.25
437.392	265.25
437.614	258.25
437.835	281.25
438.057	271.25
438.278	278.25
438.5	270.25
438.721	263.25
438.943	253.25
439.165	274.25
439.386	279.25
439.608	289.25
439.829	290.25
440.05	277.25
440.272	279.25
440.493	286.25
440.715	283.25
440.936	277.25
441.158	298.25
441.379	286.25
441.6	323.25
441.822	312.25
442.043	320.25
442.264	311.25
442.486	297.25
442.707	291.25
442.928	310.25
443.149	297.25
443.371	295.25
443.592	292.25
443.813	296.25
444.034	295.25
444.255	305.25
444.476	341.25
444.698	355.25
444.919	362.25
445.14	461.25
445.361	375.25
445.582	314.25
445.803	300.25
446.024	284.25
446.245	268.25
446.466	282.25
446.687	265.25
446.908	282.25
447.129	267.25
447.35	273.25
447.571	269.25
447.792	277.25
448.013	273.25
448.234	254.25
448.455	263.25
448.675	282.25
448.896	253.25
449.117	243.25
449.338	256.25
449.559	258.25
449.779	250.25
450	243.25
450.221	262.25
450.442	269.25
450.662	278.25
450.883	276.25
451.104	257.25
451.324	263.25
451.545	265.25
451.766	246.25
451.986	249.25
452.207	246.25
452.428	268.25
452.648	257.25
452.869	253.25
453.089	266.25
453.31	258.25
453.53	256.25
453.751	230.25
453.971	242.25
454.192	232.25
454.412	257.25
454.633	246.25
454.853	238.25
455.073	255.25
455.294	237.25
455.514	247.25
455.734	245.25
455.955	222.25
456.175	235.25
456.395	231.25
456.616	243.25
456.836	251.25
457.056	226.25
457.276	223.25
457.497	261.25
457.717	240.25
457.937	245.25
458.157	231.25
458.377	243.25
458.598	265.25
458.818	261.25
459.038	261.25
459.258	286.25
459.478	290.25
459.698	287.25
459.918	277.25
460.138	312.25
460.358	309.25
460.578	300.25
460.798	309.25
461.018	324.25
461.238	312.25
461.458	317.25
461.678	308.25
461.898	334.25
462.118	318.25
462.338	339.25
462.558	354.25
462.777	360.25
462.997	408.25
463.217	429.25
463.437	433.25
463.657	381.25
463.876	379.25
464.096	358.25
464.316	376.25
464.536	371.25
464.755	357.25
464.975	339.25
465.195	328.25
465.414	318.25
465.634	274.25
465.854	283.25
466.073	270.25
466.293	270.25
466.512	289.25
466.732	266.25
466.951	276.25
467.171	261.25
467.391	259.25
467.61	265.25
467.829	290.25
468.049	267.25
468.268	270.25
468.488	254.25
468.707	259.25
468.927	266.25
469.146	255.25
469.365	267.25
469.585	264.25
469.804	275.25
470.023	268.25
470.243	286.25
470.462	276.25
470.681	287.25
470.901	297.25
471.12	292.25
471.339	265.25
471.558	268.25
471.777	268.25
471.997	266.25
472.216	274.25
472.435	259.25
472.654	266.25
472.873	267.25
473.092	258.25
473.311	261.25
473.53	270.25
473.749	261.25
473.968	259.25
474.187	264.25
474.406	255.25
474.625	269.25
474.844	271.25
475.063	249.25
475.282	263.25
475.501	271.25
475.72	265.25
475.939	258.25
476.158	287.25
476.377	260.25
476.596	267.25
476.814	264.25
477.033	275.25
477.252	299.25
477.471	290.25
477.69	313.25
477.908	278.25
478.127	305.25
478.346	306.25
478.564	311.25
478.783	299.25
479.002	334.25
479.22	327.25
479.439	320.25
479.658	305.25
479.876	316.25
480.095	321.25
480.313	334.25
480.532	325.25
480.751	336.25
480.969	318.25
481.188	317.25
481.406	308.25
481.624	297.25
481.843	295.25
482.061	297.25
482.28	297.25
482.498	284.25
482.717	289.25
482.935	287.25
483.153	286.25
483.372	278.25
483.59	295.25
483.808	310.25
484.027	312.25
484.245	303.25
484.463	292.25
484.681	303.25
484.9	313.25
485.118	306.25
485.336	305.25
485.554	294.25
485.772	321.25
485.99	331.25
486.209	315.25
486.427	311.25
486.645	314.25
486.863	317.25
487.081	303.25
487.299	300.25
487.517	333.25
487.735	298.25
487.953	319.25
488.171	330.25
488.389	320.25
488.607	294.25
488.825	307.25
489.043	300.25
489.261	317.25
489.479	290.25
489.696	302.25
489.914	299.25
490.132	313.25
490.35	297.25
490.568	307.25
490.786	309.25
491.003	310.25
491.221	308.25
491.439	321.25
491.657	291.25
491.874	309.25
492.092	305.25
492.31	321.25
492.527	316.25
492.745	334.25
492.963	329.25
493.18	330.25
493.398	329.25
493.615	325.25
493.833	327.25
494.05	316.25
494.268	321.25
494.485	339.25
494.703	311.25
494.92	316.25
495.138	324.25
495.355	318.25
495.573	330.25
495.79	313.25
496.008	330.25
496.225	343.25
496.442	330.25
496.66	351.25
496.877	337.25
497.094	358.25
497.312	378.25
497.529	341.25
497.746	363.25
497.963	378.25
498.181	379.25
498.398	404.25
498.615	430.25
498.832	440.25
499.049	456.25
499.267	477.25
499.484	555.25
499.701	589.25
499.918	659.25
500.135	758.25
500.352	862.25
500.569	910.25
500.786	905.25
501.003	844.25
501.22	748.25
501.437	650.25
501.654	593.25
501.871	523.25
502.088	469.25
502.305	451.25
502.522	449.25
502.739	426.25
502.956	424.25
