Data from 0.5MCu(NO3)2.Standard.Lamp.E10.CV._HRD10591_16-05-56-754.txt Node
Date: Mon Jul 22 16:05:56 EDT 2019
User: cochatt
Spectrometer: HR+D1059
Trigger mode: 1
Integration Time (sec): 1.000000E-1
Scans to average: 1
Electric dark correction enabled: true
Nonlinearity correction enabled: false
Boxcar width: 0
XAxis mode: Wavelengths
Number of Pixels in Spectrum: 2048
>>>>>Begin Spectral Data<<<<<
223.165	-17.38
223.4	-17.38
223.635	-17.38
223.869	-18.38
224.104	-10.38
224.338	2.62
224.573	-23.38
224.808	-12.38
225.042	-10.38
225.277	-6.38
225.511	2.62
225.746	-5.38
225.98	4.62
226.215	13.62
226.449	3.62
226.683	12.62
226.918	28.62
227.152	35.62
227.387	31.62
227.621	40.62
227.856	54.62
228.09	53.62
228.324	41.62
228.559	65.62
228.793	62.62
229.027	71.62
229.262	71.62
229.496	79.62
229.73	76.62
229.964	74.62
230.199	70.62
230.433	99.62
230.667	88.62
230.901	91.62
231.136	84.62
231.37	96.62
231.604	91.62
231.838	81.62
232.072	81.62
232.306	77.62
232.541	88.62
232.775	80.62
233.009	91.62
233.243	90.62
233.477	94.62
233.711	92.62
233.945	94.62
234.179	82.62
234.413	100.62
234.647	98.62
234.881	90.62
235.115	89.62
235.349	102.62
235.583	104.62
235.817	88.62
236.051	111.62
236.285	80.62
236.519	107.62
236.753	100.62
236.987	105.62
237.221	89.62
237.455	83.62
237.689	95.62
237.922	85.62
238.156	84.62
238.39	91.62
238.624	84.62
238.858	85.62
239.091	86.62
239.325	108.62
239.559	89.62
239.793	97.62
240.027	99.62
240.26	112.62
240.494	93.62
240.728	92.62
240.961	104.62
241.195	100.62
241.429	105.62
241.662	101.62
241.896	98.62
242.13	103.62
242.363	98.62
242.597	94.62
242.83	90.62
243.064	112.62
243.298	94.62
243.531	107.62
243.765	114.62
243.998	102.62
244.232	96.62
244.465	113.62
244.699	116.62
244.932	91.62
245.166	93.62
245.399	112.62
245.633	108.62
245.866	104.62
246.099	105.62
246.333	113.62
246.566	101.62
246.8	95.62
247.033	102.62
247.266	99.62
247.5	106.62
247.733	108.62
247.966	86.62
248.2	105.62
248.433	119.62
248.666	97.62
248.899	106.62
249.133	114.62
249.366	128.62
249.599	117.62
249.832	116.62
250.066	101.62
250.299	118.62
250.532	128.62
250.765	117.62
250.998	112.62
251.231	113.62
251.465	109.62
251.698	117.62
251.931	120.62
252.164	115.62
252.397	114.62
252.63	110.62
252.863	114.62
253.096	124.62
253.329	110.62
253.562	105.62
253.795	121.62
254.028	113.62
254.261	118.62
254.494	126.62
254.727	116.62
254.96	119.62
255.193	128.62
255.426	116.62
255.659	130.62
255.892	118.62
256.124	113.62
256.357	126.62
256.59	123.62
256.823	116.62
257.056	108.62
257.289	134.62
257.521	111.62
257.754	123.62
257.987	118.62
258.22	129.62
258.452	136.62
258.685	117.62
258.918	135.62
259.151	130.62
259.383	140.62
259.616	133.62
259.849	125.62
260.081	125.62
260.314	108.62
260.547	119.62
260.779	122.62
261.012	126.62
261.244	122.62
261.477	136.62
261.71	130.62
261.942	129.62
262.175	137.62
262.407	119.62
262.64	119.62
262.872	123.62
263.105	129.62
263.337	120.62
263.57	141.62
263.802	152.62
264.035	132.62
264.267	135.62
264.499	118.62
264.732	138.62
264.964	125.62
265.197	136.62
265.429	114.62
265.661	133.62
265.894	134.62
266.126	140.62
266.358	134.62
266.591	140.62
266.823	138.62
267.055	133.62
267.287	140.62
267.52	131.62
267.752	140.62
267.984	160.62
268.216	153.62
268.448	138.62
268.681	137.62
268.913	135.62
269.145	147.62
269.377	151.62
269.609	138.62
269.841	142.62
270.073	133.62
270.306	141.62
270.538	140.62
270.77	134.62
271.002	148.62
271.234	164.62
271.466	138.62
271.698	133.62
271.93	161.62
272.162	149.62
272.394	153.62
272.626	146.62
272.858	150.62
273.09	143.62
273.322	144.62
273.553	147.62
273.785	126.62
274.017	130.62
274.249	147.62
274.481	144.62
274.713	153.62
274.945	160.62
275.176	143.62
275.408	152.62
275.64	148.62
275.872	141.62
276.104	156.62
276.335	153.62
276.567	148.62
276.799	154.62
277.031	162.62
277.262	147.62
277.494	158.62
277.726	166.62
277.957	162.62
278.189	139.62
278.421	156.62
278.652	165.62
278.884	155.62
279.115	169.62
279.347	156.62
279.579	147.62
279.81	152.62
280.042	136.62
280.273	152.62
280.505	178.62
280.736	166.62
280.968	166.62
281.199	164.62
281.431	155.62
281.662	163.62
281.894	163.62
282.125	167.62
282.356	169.62
282.588	168.62
282.819	159.62
283.051	189.62
283.282	154.62
283.513	170.62
283.745	179.62
283.976	178.62
284.207	161.62
284.439	159.62
284.67	177.62
284.901	168.62
285.132	164.62
285.364	165.62
285.595	168.62
285.826	182.62
286.057	173.62
286.288	162.62
286.52	171.62
286.751	182.62
286.982	172.62
287.213	175.62
287.444	184.62
287.675	180.62
287.906	169.62
288.138	180.62
288.369	167.62
288.6	176.62
288.831	184.62
289.062	182.62
289.293	181.62
289.524	169.62
289.755	190.62
289.986	173.62
290.217	192.62
290.448	180.62
290.679	187.62
290.91	178.62
291.141	178.62
291.371	177.62
291.602	179.62
291.833	184.62
292.064	195.62
292.295	178.62
292.526	173.62
292.757	183.62
292.987	180.62
293.218	188.62
293.449	188.62
293.68	194.62
293.91	182.62
294.141	189.62
294.372	169.62
294.603	185.62
294.833	183.62
295.064	204.62
295.295	192.62
295.525	182.62
295.756	188.62
295.987	186.62
296.217	176.62
296.448	190.62
296.679	190.62
296.909	200.62
297.14	200.62
297.37	194.62
297.601	174.62
297.831	198.62
298.062	205.62
298.292	201.62
298.523	196.62
298.753	216.62
298.984	202.62
299.214	206.62
299.445	189.62
299.675	205.62
299.905	198.62
300.136	210.62
300.366	194.62
300.597	206.62
300.827	213.62
301.057	206.62
301.288	214.62
301.518	192.62
301.748	203.62
301.979	208.62
302.209	202.62
302.439	206.62
302.669	204.62
302.9	194.62
303.13	209.62
303.36	206.62
303.59	198.62
303.82	205.62
304.051	188.62
304.281	216.62
304.511	198.62
304.741	200.62
304.971	208.62
305.201	197.62
305.431	193.62
305.661	207.62
305.891	199.62
306.121	185.62
306.352	198.62
306.582	193.62
306.812	204.62
307.042	229.62
307.272	201.62
307.502	194.62
307.731	214.62
307.961	205.62
308.191	203.62
308.421	215.62
308.651	197.62
308.881	206.62
309.111	202.62
309.341	185.62
309.571	213.62
309.8	199.62
310.03	215.62
310.26	203.62
310.49	204.62
310.72	196.62
310.949	207.62
311.179	198.62
311.409	209.62
311.639	202.62
311.868	213.62
312.098	207.62
312.328	208.62
312.557	224.62
312.787	191.62
313.017	201.62
313.246	196.62
313.476	213.62
313.706	212.62
313.935	230.62
314.165	218.62
314.394	199.62
314.624	209.62
314.853	214.62
315.083	204.62
315.312	209.62
315.542	195.62
315.771	207.62
316.001	208.62
316.23	229.62
316.46	216.62
316.689	207.62
316.919	200.62
317.148	207.62
317.377	209.62
317.607	204.62
317.836	194.62
318.065	212.62
318.295	219.62
318.524	211.62
318.753	214.62
318.983	201.62
319.212	205.62
319.441	193.62
319.67	197.62
319.9	209.62
320.129	201.62
320.358	190.62
320.587	195.62
320.816	197.62
321.046	197.62
321.275	210.62
321.504	219.62
321.733	208.62
321.962	217.62
322.191	218.62
322.42	205.62
322.649	211.62
322.878	206.62
323.108	202.62
323.337	198.62
323.566	204.62
323.795	209.62
324.024	213.62
324.253	202.62
324.482	208.62
324.71	225.62
324.939	225.62
325.168	226.62
325.397	224.62
325.626	218.62
325.855	222.62
326.084	222.62
326.313	216.62
326.542	232.62
326.77	241.62
326.999	202.62
327.228	214.62
327.457	216.62
327.686	215.62
327.914	219.62
328.143	236.62
328.372	217.62
328.6	225.62
328.829	244.62
329.058	213.62
329.287	232.62
329.515	218.62
329.744	225.62
329.972	232.62
330.201	219.62
330.43	226.62
330.658	217.62
330.887	211.62
331.115	212.62
331.344	236.62
331.572	236.62
331.801	225.62
332.03	261.62
332.258	241.62
332.486	246.62
332.715	248.62
332.943	253.62
333.172	263.62
333.4	275.62
333.629	266.62
333.857	280.62
334.085	286.62
334.314	261.62
334.542	262.62
334.771	269.62
334.999	262.62
335.227	242.62
335.455	249.62
335.684	261.62
335.912	260.62
336.14	254.62
336.369	234.62
336.597	262.62
336.825	236.62
337.053	253.62
337.281	235.62
337.51	238.62
337.738	240.62
337.966	248.62
338.194	242.62
338.422	253.62
338.65	241.62
338.878	241.62
339.106	240.62
339.334	243.62
339.562	218.62
339.79	233.62
340.018	225.62
340.246	230.62
340.474	211.62
340.702	227.62
340.93	219.62
341.158	224.62
341.386	222.62
341.614	245.62
341.842	237.62
342.07	215.62
342.298	237.62
342.526	221.62
342.754	236.62
342.981	226.62
343.209	221.62
343.437	235.62
343.665	260.62
343.893	276.62
344.12	292.62
344.348	266.62
344.576	240.62
344.804	245.62
345.031	253.62
345.259	235.62
345.487	229.62
345.714	218.62
345.942	211.62
346.17	219.62
346.397	222.62
346.625	225.62
346.853	217.62
347.08	228.62
347.308	226.62
347.535	218.62
347.763	233.62
347.99	232.62
348.218	241.62
348.445	238.62
348.673	226.62
348.9	211.62
349.128	222.62
349.355	213.62
349.583	217.62
349.81	232.62
350.037	212.62
350.265	216.62
350.492	223.62
350.72	237.62
350.947	222.62
351.174	210.62
351.402	203.62
351.629	217.62
351.856	220.62
352.083	209.62
352.311	193.62
352.538	218.62
352.765	210.62
352.992	224.62
353.22	229.62
353.447	211.62
353.674	219.62
353.901	214.62
354.128	219.62
354.355	208.62
354.583	216.62
354.81	221.62
355.037	202.62
355.264	205.62
355.491	210.62
355.718	207.62
355.945	224.62
356.172	231.62
356.399	221.62
356.626	211.62
356.853	210.62
357.08	201.62
357.307	230.62
357.534	211.62
357.761	221.62
357.988	222.62
358.215	210.62
358.441	223.62
358.668	219.62
358.895	194.62
359.122	207.62
359.349	202.62
359.576	207.62
359.802	225.62
360.029	205.62
360.256	220.62
360.483	215.62
360.709	213.62
360.936	214.62
361.163	210.62
361.39	209.62
361.616	212.62
361.843	219.62
362.07	216.62
362.296	212.62
362.523	207.62
362.749	215.62
362.976	209.62
363.203	209.62
363.429	220.62
363.656	204.62
363.882	204.62
364.109	205.62
364.335	218.62
364.562	199.62
364.788	202.62
365.015	211.62
365.241	219.62
365.468	210.62
365.694	192.62
365.92	231.62
366.147	211.62
366.373	197.62
366.599	185.62
366.826	221.62
367.052	202.62
367.278	198.62
367.505	212.62
367.731	218.62
367.957	211.62
368.184	236.62
368.41	212.62
368.636	212.62
368.862	215.62
369.089	215.62
369.315	211.62
369.541	217.62
369.767	217.62
369.993	208.62
370.219	214.62
370.445	219.62
370.672	224.62
370.898	200.62
371.124	207.62
371.35	214.62
371.576	228.62
371.802	216.62
372.028	214.62
372.254	224.62
372.48	236.62
372.706	223.62
372.932	221.62
373.158	223.62
373.384	222.62
373.61	226.62
373.835	219.62
374.061	216.62
374.287	241.62
374.513	263.62
374.739	238.62
374.965	246.62
375.191	247.62
375.416	228.62
375.642	236.62
375.868	244.62
376.094	228.62
376.319	224.62
376.545	233.62
376.771	216.62
376.997	220.62
377.222	242.62
377.448	220.62
377.674	219.62
377.899	220.62
378.125	218.62
378.35	219.62
378.576	219.62
378.802	218.62
379.027	220.62
379.253	225.62
379.478	216.62
379.704	223.62
379.929	218.62
380.155	208.62
380.38	233.62
380.606	218.62
380.831	214.62
381.057	225.62
381.282	210.62
381.507	214.62
381.733	218.62
381.958	224.62
382.184	239.62
382.409	231.62
382.634	235.62
382.86	221.62
383.085	232.62
383.31	229.62
383.535	238.62
383.761	240.62
383.986	251.62
384.211	231.62
384.436	245.62
384.662	237.62
384.887	242.62
385.112	241.62
385.337	248.62
385.562	263.62
385.787	249.62
386.013	261.62
386.238	249.62
386.463	260.62
386.688	259.62
386.913	243.62
387.138	254.62
387.363	247.62
387.588	253.62
387.813	259.62
388.038	257.62
388.263	247.62
388.488	237.62
388.713	243.62
388.938	231.62
389.163	230.62
389.387	245.62
389.612	244.62
389.837	258.62
390.062	254.62
390.287	247.62
390.512	243.62
390.736	264.62
390.961	238.62
391.186	253.62
391.411	259.62
391.636	269.62
391.86	265.62
392.085	301.62
392.31	273.62
392.534	259.62
392.759	274.62
392.984	259.62
393.208	262.62
393.433	265.62
393.658	269.62
393.882	281.62
394.107	266.62
394.331	282.62
394.556	256.62
394.78	260.62
395.005	236.62
395.229	273.62
395.454	246.62
395.678	284.62
395.903	285.62
396.127	267.62
396.352	260.62
396.576	276.62
396.801	275.62
397.025	268.62
397.249	257.62
397.474	275.62
397.698	266.62
397.922	264.62
398.147	262.62
398.371	282.62
398.595	268.62
398.82	288.62
399.044	300.62
399.268	325.62
399.492	385.62
399.717	418.62
399.941	452.62
400.165	386.62
400.389	335.62
400.613	308.62
400.837	286.62
401.062	304.62
401.286	315.62
401.51	307.62
401.734	304.62
401.958	289.62
402.182	308.62
402.406	285.62
402.63	298.62
402.854	305.62
403.078	316.62
403.302	308.62
403.526	333.62
403.75	334.62
403.974	338.62
404.198	355.62
404.422	344.62
404.645	339.62
404.869	330.62
405.093	351.62
405.317	316.62
405.541	337.62
405.765	336.62
405.988	326.62
406.212	326.62
406.436	325.62
406.66	337.62
406.883	316.62
407.107	345.62
407.331	381.62
407.555	371.62
407.778	376.62
408.002	353.62
408.226	368.62
408.449	349.62
408.673	343.62
408.896	310.62
409.12	322.62
409.344	338.62
409.567	313.62
409.791	332.62
410.014	347.62
410.238	346.62
410.461	330.62
410.685	310.62
410.908	297.62
411.132	320.62
411.355	297.62
411.578	281.62
411.802	306.62
412.025	296.62
412.249	306.62
412.472	314.62
412.695	298.62
412.919	306.62
413.142	275.62
413.365	294.62
413.589	279.62
413.812	285.62
414.035	290.62
414.258	290.62
414.482	283.62
414.705	296.62
414.928	293.62
415.151	276.62
415.374	291.62
415.597	290.62
415.821	298.62
416.044	294.62
416.267	286.62
416.49	287.62
416.713	300.62
416.936	285.62
417.159	285.62
417.382	305.62
417.605	298.62
417.828	293.62
418.051	303.62
418.274	293.62
418.497	311.62
418.72	308.62
418.943	295.62
419.166	314.62
419.389	335.62
419.611	330.62
419.834	323.62
420.057	286.62
420.28	298.62
420.503	284.62
420.726	295.62
420.948	294.62
421.171	300.62
421.394	278.62
421.617	294.62
421.839	300.62
422.062	295.62
422.285	276.62
422.507	315.62
422.73	300.62
422.953	302.62
423.175	314.62
423.398	314.62
423.621	325.62
423.843	312.62
424.066	324.62
424.288	311.62
424.511	314.62
424.733	324.62
424.956	287.62
425.178	290.62
425.401	298.62
425.623	294.62
425.846	288.62
426.068	288.62
426.291	271.62
426.513	272.62
426.735	269.62
426.958	277.62
427.18	277.62
427.402	264.62
427.625	267.62
427.847	233.62
428.069	266.62
428.292	251.62
428.514	262.62
428.736	264.62
428.958	269.62
429.181	254.62
429.403	252.62
429.625	243.62
429.847	262.62
430.069	244.62
430.292	256.62
430.514	259.62
430.736	251.62
430.958	251.62
431.18	244.62
431.402	252.62
431.624	270.62
431.846	269.62
432.068	273.62
432.29	280.62
432.512	262.62
432.734	266.62
432.956	266.62
433.178	269.62
433.4	278.62
433.622	270.62
433.844	271.62
434.066	270.62
434.287	282.62
434.509	261.62
434.731	290.62
434.953	289.62
435.175	297.62
435.397	290.62
435.618	279.62
435.84	283.62
436.062	259.62
436.284	262.62
436.505	273.62
436.727	272.62
436.949	269.62
437.17	273.62
437.392	268.62
437.614	260.62
437.835	250.62
438.057	264.62
438.278	274.62
438.5	265.62
438.721	263.62
438.943	273.62
439.165	278.62
439.386	276.62
439.608	268.62
439.829	248.62
440.05	247.62
440.272	253.62
440.493	278.62
440.715	274.62
440.936	271.62
441.158	281.62
441.379	297.62
441.6	294.62
441.822	292.62
442.043	310.62
442.264	288.62
442.486	294.62
442.707	301.62
442.928	290.62
443.149	294.62
443.371	296.62
443.592	288.62
443.813	297.62
444.034	302.62
444.255	306.62
444.476	312.62
444.698	334.62
444.919	342.62
445.14	416.62
445.361	356.62
445.582	307.62
445.803	282.62
446.024	285.62
446.245	293.62
446.466	284.62
446.687	267.62
446.908	271.62
447.129	273.62
447.35	258.62
447.571	243.62
447.792	243.62
448.013	252.62
448.234	242.62
448.455	244.62
448.675	256.62
448.896	249.62
449.117	242.62
449.338	257.62
449.559	256.62
449.779	240.62
450	261.62
450.221	250.62
450.442	229.62
450.662	258.62
450.883	267.62
451.104	237.62
451.324	252.62
451.545	265.62
451.766	261.62
451.986	266.62
452.207	257.62
452.428	252.62
452.648	256.62
452.869	242.62
453.089	256.62
453.31	257.62
453.53	260.62
453.751	261.62
453.971	242.62
454.192	245.62
454.412	228.62
454.633	247.62
454.853	234.62
455.073	235.62
455.294	247.62
455.514	233.62
455.734	249.62
455.955	228.62
456.175	250.62
456.395	224.62
456.616	220.62
456.836	225.62
457.056	234.62
457.276	234.62
457.497	237.62
457.717	236.62
457.937	224.62
458.157	234.62
458.377	220.62
458.598	237.62
458.818	255.62
459.038	240.62
459.258	256.62
459.478	257.62
459.698	274.62
459.918	275.62
460.138	284.62
460.358	311.62
460.578	308.62
460.798	320.62
461.018	314.62
461.238	301.62
461.458	312.62
461.678	306.62
461.898	308.62
462.118	314.62
462.338	330.62
462.558	319.62
462.777	344.62
462.997	368.62
463.217	413.62
463.437	406.62
463.657	377.62
463.876	362.62
464.096	354.62
464.316	366.62
464.536	354.62
464.755	329.62
464.975	329.62
465.195	308.62
465.414	308.62
465.634	277.62
465.854	282.62
466.073	282.62
466.293	266.62
466.512	260.62
466.732	271.62
466.951	273.62
467.171	243.62
467.391	249.62
467.61	262.62
467.829	261.62
468.049	262.62
468.268	251.62
468.488	256.62
468.707	244.62
468.927	245.62
469.146	245.62
469.365	240.62
469.585	263.62
469.804	275.62
470.023	260.62
470.243	263.62
470.462	260.62
470.681	281.62
470.901	260.62
471.12	273.62
471.339	256.62
471.558	258.62
471.777	252.62
471.997	257.62
472.216	249.62
472.435	274.62
472.654	245.62
472.873	249.62
473.092	239.62
473.311	243.62
473.53	258.62
473.749	236.62
473.968	253.62
474.187	248.62
474.406	256.62
474.625	237.62
474.844	245.62
475.063	240.62
475.282	251.62
475.501	261.62
475.72	248.62
475.939	273.62
476.158	249.62
476.377	263.62
476.596	245.62
476.814	258.62
477.033	233.62
477.252	257.62
477.471	278.62
477.69	278.62
477.908	285.62
478.127	290.62
478.346	307.62
478.564	283.62
478.783	295.62
479.002	286.62
479.22	300.62
479.439	297.62
479.658	288.62
479.876	312.62
480.095	299.62
480.313	312.62
480.532	314.62
480.751	320.62
480.969	296.62
481.188	301.62
481.406	290.62
481.624	274.62
481.843	288.62
482.061	286.62
482.28	274.62
482.498	291.62
482.717	271.62
482.935	275.62
483.153	291.62
483.372	263.62
483.59	283.62
483.808	268.62
484.027	297.62
484.245	277.62
484.463	292.62
484.681	314.62
484.9	285.62
485.118	289.62
485.336	287.62
485.554	321.62
485.772	319.62
485.99	316.62
486.209	306.62
486.427	312.62
486.645	320.62
486.863	292.62
487.081	308.62
487.299	286.62
487.517	294.62
487.735	302.62
487.953	307.62
488.171	322.62
488.389	282.62
488.607	295.62
488.825	284.62
489.043	296.62
489.261	285.62
489.479	285.62
489.696	299.62
489.914	290.62
490.132	297.62
490.35	310.62
490.568	304.62
490.786	294.62
491.003	304.62
491.221	302.62
491.439	304.62
491.657	291.62
491.874	317.62
492.092	302.62
492.31	319.62
492.527	297.62
492.745	304.62
492.963	299.62
493.18	300.62
493.398	326.62
493.615	299.62
493.833	306.62
494.05	314.62
494.268	317.62
494.485	317.62
494.703	306.62
494.92	335.62
495.138	320.62
495.355	324.62
495.573	294.62
495.79	301.62
496.008	323.62
496.225	324.62
496.442	322.62
496.66	310.62
496.877	314.62
497.094	319.62
497.312	322.62
497.529	331.62
497.746	329.62
497.963	323.62
498.181	344.62
498.398	364.62
498.615	376.62
498.832	417.62
499.049	437.62
499.267	462.62
499.484	546.62
499.701	542.62
499.918	644.62
500.135	709.62
500.352	839.62
500.569	867.62
500.786	861.62
501.003	752.62
501.22	691.62
501.437	593.62
501.654	520.62
501.871	493.62
502.088	468.62
502.305	446.62
502.522	419.62
502.739	406.62
502.956	380.62
