Data from 0.5MCu(NO3)2.Standard.Lamp.E10.CV._HRD10591_16-05-11-753.txt Node
Date: Mon Jul 22 16:05:11 EDT 2019
User: cochatt
Spectrometer: HR+D1059
Trigger mode: 1
Integration Time (sec): 1.000000E-1
Scans to average: 1
Electric dark correction enabled: true
Nonlinearity correction enabled: false
Boxcar width: 0
XAxis mode: Wavelengths
Number of Pixels in Spectrum: 2048
>>>>>Begin Spectral Data<<<<<
223.165	-22.38
223.4	-22.38
223.635	-22.38
223.869	-10.38
224.104	-28.38
224.338	-12.38
224.573	-0.38
224.808	-21.38
225.042	8.62
225.277	-8.38
225.511	-16.38
225.746	-1.38
225.98	8.62
226.215	8.62
226.449	7.62
226.683	26.62
226.918	23.62
227.152	37.62
227.387	29.62
227.621	49.62
227.856	48.62
228.09	48.62
228.324	50.62
228.559	54.62
228.793	56.62
229.027	67.62
229.262	74.62
229.496	54.62
229.73	78.62
229.964	80.62
230.199	88.62
230.433	81.62
230.667	88.62
230.901	89.62
231.136	95.62
231.37	84.62
231.604	81.62
231.838	97.62
232.072	85.62
232.306	111.62
232.541	106.62
232.775	102.62
233.009	95.62
233.243	84.62
233.477	92.62
233.711	106.62
233.945	98.62
234.179	106.62
234.413	122.62
234.647	90.62
234.881	101.62
235.115	94.62
235.349	96.62
235.583	96.62
235.817	92.62
236.051	100.62
236.285	94.62
236.519	98.62
236.753	105.62
236.987	102.62
237.221	102.62
237.455	93.62
237.689	95.62
237.922	105.62
238.156	97.62
238.39	91.62
238.624	96.62
238.858	86.62
239.091	95.62
239.325	89.62
239.559	88.62
239.793	100.62
240.027	96.62
240.26	105.62
240.494	99.62
240.728	101.62
240.961	98.62
241.195	90.62
241.429	90.62
241.662	95.62
241.896	106.62
242.13	94.62
242.363	88.62
242.597	98.62
242.83	101.62
243.064	98.62
243.298	98.62
243.531	120.62
243.765	107.62
243.998	102.62
244.232	101.62
244.465	119.62
244.699	101.62
244.932	106.62
245.166	116.62
245.399	108.62
245.633	99.62
245.866	107.62
246.099	121.62
246.333	102.62
246.566	104.62
246.8	121.62
247.033	86.62
247.266	116.62
247.5	107.62
247.733	117.62
247.966	121.62
248.2	120.62
248.433	107.62
248.666	116.62
248.899	113.62
249.133	120.62
249.366	99.62
249.599	111.62
249.832	133.62
250.066	125.62
250.299	133.62
250.532	104.62
250.765	127.62
250.998	118.62
251.231	127.62
251.465	125.62
251.698	111.62
251.931	122.62
252.164	123.62
252.397	121.62
252.63	146.62
252.863	110.62
253.096	129.62
253.329	115.62
253.562	121.62
253.795	124.62
254.028	127.62
254.261	131.62
254.494	131.62
254.727	134.62
254.96	123.62
255.193	115.62
255.426	126.62
255.659	113.62
255.892	129.62
256.124	118.62
256.357	138.62
256.59	132.62
256.823	119.62
257.056	123.62
257.289	124.62
257.521	130.62
257.754	141.62
257.987	127.62
258.22	139.62
258.452	128.62
258.685	140.62
258.918	137.62
259.151	130.62
259.383	140.62
259.616	141.62
259.849	138.62
260.081	127.62
260.314	138.62
260.547	140.62
260.779	125.62
261.012	141.62
261.244	135.62
261.477	155.62
261.71	140.62
261.942	145.62
262.175	153.62
262.407	140.62
262.64	137.62
262.872	141.62
263.105	132.62
263.337	150.62
263.57	148.62
263.802	133.62
264.035	137.62
264.267	146.62
264.499	153.62
264.732	142.62
264.964	145.62
265.197	144.62
265.429	154.62
265.661	140.62
265.894	134.62
266.126	140.62
266.358	140.62
266.591	138.62
266.823	153.62
267.055	143.62
267.287	161.62
267.52	164.62
267.752	165.62
267.984	150.62
268.216	137.62
268.448	160.62
268.681	157.62
268.913	160.62
269.145	155.62
269.377	140.62
269.609	152.62
269.841	155.62
270.073	153.62
270.306	156.62
270.538	165.62
270.77	159.62
271.002	160.62
271.234	155.62
271.466	163.62
271.698	151.62
271.93	151.62
272.162	167.62
272.394	163.62
272.626	163.62
272.858	153.62
273.09	185.62
273.322	179.62
273.553	164.62
273.785	166.62
274.017	153.62
274.249	153.62
274.481	167.62
274.713	156.62
274.945	152.62
275.176	158.62
275.408	157.62
275.64	168.62
275.872	172.62
276.104	167.62
276.335	172.62
276.567	177.62
276.799	168.62
277.031	159.62
277.262	163.62
277.494	152.62
277.726	169.62
277.957	160.62
278.189	176.62
278.421	175.62
278.652	171.62
278.884	187.62
279.115	166.62
279.347	185.62
279.579	183.62
279.81	162.62
280.042	182.62
280.273	171.62
280.505	165.62
280.736	170.62
280.968	161.62
281.199	179.62
281.431	178.62
281.662	159.62
281.894	180.62
282.125	186.62
282.356	193.62
282.588	184.62
282.819	179.62
283.051	176.62
283.282	186.62
283.513	184.62
283.745	175.62
283.976	186.62
284.207	181.62
284.439	179.62
284.67	181.62
284.901	194.62
285.132	185.62
285.364	181.62
285.595	180.62
285.826	209.62
286.057	185.62
286.288	204.62
286.52	196.62
286.751	184.62
286.982	188.62
287.213	188.62
287.444	197.62
287.675	191.62
287.906	183.62
288.138	187.62
288.369	201.62
288.6	197.62
288.831	178.62
289.062	197.62
289.293	196.62
289.524	196.62
289.755	176.62
289.986	219.62
290.217	199.62
290.448	213.62
290.679	187.62
290.91	198.62
291.141	208.62
291.371	215.62
291.602	195.62
291.833	205.62
292.064	200.62
292.295	202.62
292.526	208.62
292.757	210.62
292.987	209.62
293.218	217.62
293.449	212.62
293.68	200.62
293.91	204.62
294.141	205.62
294.372	193.62
294.603	212.62
294.833	203.62
295.064	212.62
295.295	222.62
295.525	205.62
295.756	219.62
295.987	204.62
296.217	191.62
296.448	209.62
296.679	208.62
296.909	196.62
297.14	201.62
297.37	221.62
297.601	226.62
297.831	221.62
298.062	223.62
298.292	216.62
298.523	222.62
298.753	219.62
298.984	241.62
299.214	216.62
299.445	208.62
299.675	218.62
299.905	218.62
300.136	210.62
300.366	235.62
300.597	226.62
300.827	205.62
301.057	232.62
301.288	218.62
301.518	224.62
301.748	243.62
301.979	224.62
302.209	207.62
302.439	219.62
302.669	218.62
302.9	228.62
303.13	228.62
303.36	231.62
303.59	205.62
303.82	223.62
304.051	225.62
304.281	230.62
304.511	239.62
304.741	231.62
304.971	216.62
305.201	225.62
305.431	224.62
305.661	212.62
305.891	227.62
306.121	232.62
306.352	227.62
306.582	223.62
306.812	210.62
307.042	213.62
307.272	223.62
307.502	213.62
307.731	219.62
307.961	211.62
308.191	214.62
308.421	208.62
308.651	225.62
308.881	231.62
309.111	217.62
309.341	207.62
309.571	208.62
309.8	230.62
310.03	230.62
310.26	237.62
310.49	228.62
310.72	223.62
310.949	239.62
311.179	218.62
311.409	225.62
311.639	229.62
311.868	221.62
312.098	229.62
312.328	233.62
312.557	214.62
312.787	233.62
313.017	228.62
313.246	239.62
313.476	241.62
313.706	242.62
313.935	239.62
314.165	236.62
314.394	220.62
314.624	250.62
314.853	230.62
315.083	228.62
315.312	235.62
315.542	232.62
315.771	220.62
316.001	221.62
316.23	250.62
316.46	221.62
316.689	217.62
316.919	235.62
317.148	235.62
317.377	240.62
317.607	225.62
317.836	242.62
318.065	230.62
318.295	236.62
318.524	219.62
318.753	225.62
318.983	216.62
319.212	219.62
319.441	234.62
319.67	220.62
319.9	232.62
320.129	228.62
320.358	231.62
320.587	245.62
320.816	235.62
321.046	213.62
321.275	247.62
321.504	244.62
321.733	223.62
321.962	245.62
322.191	239.62
322.42	230.62
322.649	233.62
322.878	236.62
323.108	232.62
323.337	231.62
323.566	232.62
323.795	225.62
324.024	237.62
324.253	258.62
324.482	249.62
324.71	245.62
324.939	232.62
325.168	245.62
325.397	232.62
325.626	247.62
325.855	253.62
326.084	260.62
326.313	257.62
326.542	241.62
326.77	236.62
326.999	232.62
327.228	234.62
327.457	237.62
327.686	243.62
327.914	264.62
328.143	265.62
328.372	256.62
328.6	232.62
328.829	257.62
329.058	253.62
329.287	244.62
329.515	252.62
329.744	253.62
329.972	256.62
330.201	255.62
330.43	255.62
330.658	250.62
330.887	252.62
331.115	274.62
331.344	284.62
331.572	260.62
331.801	266.62
332.03	277.62
332.258	291.62
332.486	270.62
332.715	277.62
332.943	306.62
333.172	326.62
333.4	305.62
333.629	319.62
333.857	322.62
334.085	300.62
334.314	310.62
334.542	283.62
334.771	288.62
334.999	291.62
335.227	305.62
335.455	291.62
335.684	279.62
335.912	279.62
336.14	284.62
336.369	290.62
336.597	291.62
336.825	282.62
337.053	289.62
337.281	285.62
337.51	275.62
337.738	273.62
337.966	281.62
338.194	280.62
338.422	279.62
338.65	274.62
338.878	263.62
339.106	248.62
339.334	266.62
339.562	262.62
339.79	232.62
340.018	261.62
340.246	256.62
340.474	261.62
340.702	263.62
340.93	251.62
341.158	263.62
341.386	275.62
341.614	248.62
341.842	257.62
342.07	247.62
342.298	247.62
342.526	260.62
342.754	269.62
342.981	265.62
343.209	271.62
343.437	269.62
343.665	268.62
343.893	300.62
344.12	299.62
344.348	292.62
344.576	297.62
344.804	280.62
345.031	272.62
345.259	267.62
345.487	245.62
345.714	261.62
345.942	252.62
346.17	257.62
346.397	247.62
346.625	263.62
346.853	251.62
347.08	249.62
347.308	252.62
347.535	266.62
347.763	253.62
347.99	266.62
348.218	252.62
348.445	277.62
348.673	248.62
348.9	248.62
349.128	258.62
349.355	258.62
349.583	240.62
349.81	246.62
350.037	249.62
350.265	256.62
350.492	244.62
350.72	232.62
350.947	231.62
351.174	243.62
351.402	252.62
351.629	230.62
351.856	238.62
352.083	251.62
352.311	239.62
352.538	216.62
352.765	243.62
352.992	245.62
353.22	246.62
353.447	232.62
353.674	230.62
353.901	224.62
354.128	256.62
354.355	246.62
354.583	241.62
354.81	226.62
355.037	255.62
355.264	244.62
355.491	236.62
355.718	245.62
355.945	249.62
356.172	247.62
356.399	266.62
356.626	243.62
356.853	247.62
357.08	245.62
357.307	251.62
357.534	234.62
357.761	231.62
357.988	233.62
358.215	249.62
358.441	246.62
358.668	240.62
358.895	233.62
359.122	236.62
359.349	232.62
359.576	215.62
359.802	233.62
360.029	246.62
360.256	233.62
360.483	252.62
360.709	261.62
360.936	241.62
361.163	236.62
361.39	239.62
361.616	233.62
361.843	239.62
362.07	236.62
362.296	243.62
362.523	242.62
362.749	242.62
362.976	236.62
363.203	228.62
363.429	238.62
363.656	227.62
363.882	232.62
364.109	241.62
364.335	245.62
364.562	260.62
364.788	245.62
365.015	231.62
365.241	249.62
365.468	233.62
365.694	226.62
365.92	249.62
366.147	218.62
366.373	225.62
366.599	231.62
366.826	252.62
367.052	247.62
367.278	237.62
367.505	255.62
367.731	236.62
367.957	248.62
368.184	215.62
368.41	249.62
368.636	229.62
368.862	241.62
369.089	239.62
369.315	245.62
369.541	239.62
369.767	258.62
369.993	260.62
370.219	234.62
370.445	233.62
370.672	253.62
370.898	242.62
371.124	239.62
371.35	243.62
371.576	242.62
371.802	236.62
372.028	257.62
372.254	247.62
372.48	247.62
372.706	268.62
372.932	260.62
373.158	270.62
373.384	262.62
373.61	252.62
373.835	247.62
374.061	251.62
374.287	242.62
374.513	248.62
374.739	266.62
374.965	266.62
375.191	277.62
375.416	281.62
375.642	265.62
375.868	269.62
376.094	255.62
376.319	256.62
376.545	259.62
376.771	241.62
376.997	248.62
377.222	265.62
377.448	261.62
377.674	253.62
377.899	247.62
378.125	258.62
378.35	240.62
378.576	264.62
378.802	232.62
379.027	256.62
379.253	249.62
379.478	226.62
379.704	245.62
379.929	233.62
380.155	253.62
380.38	240.62
380.606	237.62
380.831	243.62
381.057	239.62
381.282	248.62
381.507	247.62
381.733	260.62
381.958	268.62
382.184	263.62
382.409	250.62
382.634	263.62
382.86	253.62
383.085	263.62
383.31	260.62
383.535	289.62
383.761	287.62
383.986	269.62
384.211	275.62
384.436	291.62
384.662	294.62
384.887	277.62
385.112	287.62
385.337	292.62
385.562	298.62
385.787	290.62
386.013	292.62
386.238	283.62
386.463	287.62
386.688	292.62
386.913	275.62
387.138	277.62
387.363	298.62
387.588	309.62
387.813	293.62
388.038	285.62
388.263	272.62
388.488	296.62
388.713	290.62
388.938	300.62
389.163	288.62
389.387	292.62
389.612	269.62
389.837	280.62
390.062	270.62
390.287	265.62
390.512	267.62
390.736	295.62
390.961	288.62
391.186	292.62
391.411	289.62
391.636	299.62
391.86	302.62
392.085	319.62
392.31	323.62
392.534	299.62
392.759	313.62
392.984	308.62
393.208	305.62
393.433	298.62
393.658	297.62
393.882	293.62
394.107	318.62
394.331	301.62
394.556	305.62
394.78	294.62
395.005	317.62
395.229	304.62
395.454	297.62
395.678	298.62
395.903	305.62
396.127	323.62
396.352	295.62
396.576	296.62
396.801	297.62
397.025	315.62
397.249	317.62
397.474	299.62
397.698	300.62
397.922	319.62
398.147	305.62
398.371	314.62
398.595	319.62
398.82	327.62
399.044	343.62
399.268	396.62
399.492	443.62
399.717	504.62
399.941	472.62
400.165	421.62
400.389	376.62
400.613	383.62
400.837	352.62
401.062	356.62
401.286	339.62
401.51	316.62
401.734	322.62
401.958	344.62
402.182	343.62
402.406	344.62
402.63	351.62
402.854	359.62
403.078	374.62
403.302	369.62
403.526	379.62
403.75	404.62
403.974	406.62
404.198	401.62
404.422	396.62
404.645	391.62
404.869	374.62
405.093	379.62
405.317	385.62
405.541	371.62
405.765	362.62
405.988	368.62
406.212	363.62
406.436	365.62
406.66	381.62
406.883	392.62
407.107	388.62
407.331	433.62
407.555	423.62
407.778	428.62
408.002	439.62
408.226	411.62
408.449	392.62
408.673	387.62
408.896	394.62
409.12	372.62
409.344	388.62
409.567	384.62
409.791	383.62
410.014	379.62
410.238	382.62
410.461	385.62
410.685	370.62
410.908	360.62
411.132	347.62
411.355	340.62
411.578	332.62
411.802	333.62
412.025	370.62
412.249	351.62
412.472	345.62
412.695	336.62
412.919	321.62
413.142	343.62
413.365	323.62
413.589	333.62
413.812	332.62
414.035	315.62
414.258	320.62
414.482	331.62
414.705	329.62
414.928	352.62
415.151	358.62
415.374	332.62
415.597	325.62
415.821	339.62
416.044	341.62
416.267	325.62
416.49	322.62
416.713	333.62
416.936	319.62
417.159	340.62
417.382	346.62
417.605	322.62
417.828	336.62
418.051	350.62
418.274	368.62
418.497	349.62
418.72	343.62
418.943	353.62
419.166	361.62
419.389	373.62
419.611	397.62
419.834	363.62
420.057	345.62
420.28	353.62
420.503	341.62
420.726	327.62
420.948	335.62
421.171	333.62
421.394	339.62
421.617	331.62
421.839	311.62
422.062	322.62
422.285	326.62
422.507	336.62
422.73	354.62
422.953	341.62
423.175	352.62
423.398	344.62
423.621	354.62
423.843	352.62
424.066	338.62
424.288	351.62
424.511	344.62
424.733	344.62
424.956	351.62
425.178	323.62
425.401	346.62
425.623	355.62
425.846	309.62
426.068	322.62
426.291	308.62
426.513	321.62
426.735	322.62
426.958	326.62
427.18	303.62
427.402	309.62
427.625	293.62
427.847	304.62
428.069	312.62
428.292	295.62
428.514	287.62
428.736	313.62
428.958	303.62
429.181	293.62
429.403	291.62
429.625	300.62
429.847	279.62
430.069	282.62
430.292	299.62
430.514	308.62
430.736	310.62
430.958	296.62
431.18	298.62
431.402	284.62
431.624	285.62
431.846	295.62
432.068	306.62
432.29	313.62
432.512	292.62
432.734	303.62
432.956	285.62
433.178	314.62
433.4	312.62
433.622	311.62
433.844	307.62
434.066	282.62
434.287	297.62
434.509	305.62
434.731	335.62
434.953	317.62
435.175	329.62
435.397	321.62
435.618	309.62
435.84	300.62
436.062	304.62
436.284	307.62
436.505	303.62
436.727	295.62
436.949	313.62
437.17	299.62
437.392	292.62
437.614	296.62
437.835	285.62
438.057	288.62
438.278	298.62
438.5	297.62
438.721	281.62
438.943	293.62
439.165	273.62
439.386	288.62
439.608	312.62
439.829	299.62
440.05	303.62
440.272	298.62
440.493	299.62
440.715	321.62
440.936	305.62
441.158	311.62
441.379	313.62
441.6	345.62
441.822	334.62
442.043	314.62
442.264	325.62
442.486	339.62
442.707	333.62
442.928	327.62
443.149	326.62
443.371	323.62
443.592	333.62
443.813	347.62
444.034	336.62
444.255	337.62
444.476	361.62
444.698	391.62
444.919	395.62
445.14	520.62
445.361	437.62
445.582	341.62
445.803	319.62
446.024	316.62
446.245	322.62
446.466	308.62
446.687	297.62
446.908	287.62
447.129	303.62
447.35	281.62
447.571	288.62
447.792	293.62
448.013	294.62
448.234	272.62
448.455	293.62
448.675	298.62
448.896	288.62
449.117	281.62
449.338	270.62
449.559	273.62
449.779	279.62
450	289.62
450.221	285.62
450.442	281.62
450.662	280.62
450.883	309.62
451.104	289.62
451.324	284.62
451.545	295.62
451.766	308.62
451.986	275.62
452.207	311.62
452.428	298.62
452.648	305.62
452.869	283.62
453.089	275.62
453.31	267.62
453.53	290.62
453.751	256.62
453.971	259.62
454.192	275.62
454.412	265.62
454.633	270.62
454.853	269.62
455.073	260.62
455.294	255.62
455.514	271.62
455.734	263.62
455.955	264.62
456.175	270.62
456.395	254.62
456.616	269.62
456.836	260.62
457.056	264.62
457.276	246.62
457.497	271.62
457.717	253.62
457.937	260.62
458.157	280.62
458.377	269.62
458.598	276.62
458.818	289.62
459.038	290.62
459.258	297.62
459.478	302.62
459.698	324.62
459.918	308.62
460.138	320.62
460.358	344.62
460.578	343.62
460.798	357.62
461.018	361.62
461.238	320.62
461.458	317.62
461.678	346.62
461.898	333.62
462.118	353.62
462.338	374.62
462.558	377.62
462.777	390.62
462.997	443.62
463.217	468.62
463.437	461.62
463.657	426.62
463.876	411.62
464.096	401.62
464.316	408.62
464.536	429.62
464.755	394.62
464.975	405.62
465.195	374.62
465.414	347.62
465.634	332.62
465.854	312.62
466.073	299.62
466.293	298.62
466.512	293.62
466.732	294.62
466.951	299.62
467.171	292.62
467.391	292.62
467.61	282.62
467.829	294.62
468.049	294.62
468.268	286.62
468.488	293.62
468.707	290.62
468.927	285.62
469.146	288.62
469.365	272.62
469.585	287.62
469.804	309.62
470.023	299.62
470.243	284.62
470.462	333.62
470.681	306.62
470.901	306.62
471.12	313.62
471.339	300.62
471.558	293.62
471.777	282.62
471.997	295.62
472.216	289.62
472.435	279.62
472.654	277.62
472.873	275.62
473.092	266.62
473.311	271.62
473.53	275.62
473.749	276.62
473.968	277.62
474.187	281.62
474.406	279.62
474.625	289.62
474.844	295.62
475.063	281.62
475.282	280.62
475.501	299.62
475.72	285.62
475.939	276.62
476.158	279.62
476.377	277.62
476.596	293.62
476.814	296.62
477.033	279.62
477.252	317.62
477.471	313.62
477.69	313.62
477.908	324.62
478.127	324.62
478.346	333.62
478.564	329.62
478.783	355.62
479.002	336.62
479.22	342.62
479.439	351.62
479.658	335.62
479.876	340.62
480.095	357.62
480.313	368.62
480.532	376.62
480.751	386.62
480.969	341.62
481.188	331.62
481.406	339.62
481.624	305.62
481.843	340.62
482.061	320.62
482.28	323.62
482.498	305.62
482.717	310.62
482.935	320.62
483.153	328.62
483.372	318.62
483.59	335.62
483.808	319.62
484.027	337.62
484.245	311.62
484.463	315.62
484.681	328.62
484.9	344.62
485.118	327.62
485.336	330.62
485.554	338.62
485.772	333.62
485.99	343.62
486.209	338.62
486.427	363.62
486.645	338.62
486.863	367.62
487.081	339.62
487.299	331.62
487.517	333.62
487.735	343.62
487.953	333.62
488.171	346.62
488.389	350.62
488.607	308.62
488.825	329.62
489.043	329.62
489.261	316.62
489.479	321.62
489.696	328.62
489.914	344.62
490.132	351.62
490.35	338.62
490.568	338.62
490.786	328.62
491.003	334.62
491.221	331.62
491.439	353.62
491.657	343.62
491.874	352.62
492.092	353.62
492.31	359.62
492.527	356.62
492.745	345.62
492.963	352.62
493.18	345.62
493.398	362.62
493.615	354.62
493.833	344.62
494.05	359.62
494.268	362.62
494.485	379.62
494.703	356.62
494.92	358.62
495.138	350.62
495.355	334.62
495.573	362.62
495.79	342.62
496.008	354.62
496.225	356.62
496.442	373.62
496.66	379.62
496.877	369.62
497.094	387.62
497.312	372.62
497.529	364.62
497.746	401.62
497.963	403.62
498.181	431.62
498.398	433.62
498.615	446.62
498.832	462.62
499.049	503.62
499.267	556.62
499.484	608.62
499.701	683.62
499.918	743.62
500.135	819.62
500.352	957.62
500.569	994.62
500.786	1021.62
501.003	935.62
501.22	833.62
501.437	724.62
501.654	639.62
501.871	596.62
502.088	548.62
502.305	515.62
502.522	483.62
502.739	451.62
502.956	447.62
