Data from 0.5MCu(NO3)2.Standard.Lamp.E10.CV._HRD10591_16-06-59-754.txt Node
Date: Mon Jul 22 16:06:59 EDT 2019
User: cochatt
Spectrometer: HR+D1059
Trigger mode: 1
Integration Time (sec): 1.000000E-1
Scans to average: 1
Electric dark correction enabled: true
Nonlinearity correction enabled: false
Boxcar width: 0
XAxis mode: Wavelengths
Number of Pixels in Spectrum: 2048
>>>>>Begin Spectral Data<<<<<
223.165	-9.88
223.4	-9.88
223.635	-9.88
223.869	-14.88
224.104	-16.88
224.338	0.12
224.573	-18.88
224.808	-7.88
225.042	-0.88
225.277	-13.88
225.511	-6.88
225.746	-2.88
225.98	13.12
226.215	13.12
226.449	8.12
226.683	9.12
226.918	30.12
227.152	19.12
227.387	28.12
227.621	38.12
227.856	50.12
228.09	42.12
228.324	39.12
228.559	47.12
228.793	64.12
229.027	68.12
229.262	76.12
229.496	70.12
229.73	75.12
229.964	77.12
230.199	73.12
230.433	77.12
230.667	69.12
230.901	82.12
231.136	77.12
231.37	99.12
231.604	100.12
231.838	82.12
232.072	101.12
232.306	97.12
232.541	90.12
232.775	87.12
233.009	86.12
233.243	83.12
233.477	104.12
233.711	80.12
233.945	83.12
234.179	90.12
234.413	89.12
234.647	74.12
234.881	84.12
235.115	82.12
235.349	90.12
235.583	101.12
235.817	94.12
236.051	84.12
236.285	83.12
236.519	92.12
236.753	93.12
236.987	78.12
237.221	90.12
237.455	87.12
237.689	87.12
237.922	89.12
238.156	94.12
238.39	90.12
238.624	88.12
238.858	95.12
239.091	99.12
239.325	71.12
239.559	92.12
239.793	84.12
240.027	84.12
240.26	94.12
240.494	98.12
240.728	88.12
240.961	90.12
241.195	93.12
241.429	88.12
241.662	78.12
241.896	85.12
242.13	100.12
242.363	99.12
242.597	89.12
242.83	100.12
243.064	98.12
243.298	102.12
243.531	95.12
243.765	82.12
243.998	95.12
244.232	88.12
244.465	85.12
244.699	95.12
244.932	96.12
245.166	104.12
245.399	102.12
245.633	94.12
245.866	96.12
246.099	104.12
246.333	82.12
246.566	107.12
246.8	88.12
247.033	102.12
247.266	110.12
247.5	101.12
247.733	91.12
247.966	103.12
248.2	109.12
248.433	106.12
248.666	103.12
248.899	97.12
249.133	90.12
249.366	113.12
249.599	104.12
249.832	107.12
250.066	104.12
250.299	96.12
250.532	103.12
250.765	107.12
250.998	94.12
251.231	97.12
251.465	103.12
251.698	102.12
251.931	97.12
252.164	100.12
252.397	106.12
252.63	114.12
252.863	99.12
253.096	102.12
253.329	109.12
253.562	112.12
253.795	97.12
254.028	98.12
254.261	118.12
254.494	111.12
254.727	94.12
254.96	117.12
255.193	111.12
255.426	109.12
255.659	115.12
255.892	103.12
256.124	119.12
256.357	115.12
256.59	102.12
256.823	113.12
257.056	101.12
257.289	106.12
257.521	114.12
257.754	120.12
257.987	102.12
258.22	102.12
258.452	99.12
258.685	113.12
258.918	125.12
259.151	111.12
259.383	110.12
259.616	120.12
259.849	114.12
260.081	96.12
260.314	119.12
260.547	118.12
260.779	116.12
261.012	122.12
261.244	112.12
261.477	121.12
261.71	114.12
261.942	108.12
262.175	122.12
262.407	112.12
262.64	113.12
262.872	116.12
263.105	123.12
263.337	120.12
263.57	110.12
263.802	117.12
264.035	110.12
264.267	110.12
264.499	116.12
264.732	124.12
264.964	127.12
265.197	130.12
265.429	126.12
265.661	120.12
265.894	122.12
266.126	119.12
266.358	117.12
266.591	114.12
266.823	122.12
267.055	136.12
267.287	131.12
267.52	120.12
267.752	126.12
267.984	119.12
268.216	126.12
268.448	115.12
268.681	146.12
268.913	123.12
269.145	135.12
269.377	130.12
269.609	123.12
269.841	120.12
270.073	120.12
270.306	141.12
270.538	119.12
270.77	133.12
271.002	109.12
271.234	141.12
271.466	130.12
271.698	133.12
271.93	129.12
272.162	139.12
272.394	139.12
272.626	138.12
272.858	134.12
273.09	134.12
273.322	143.12
273.553	147.12
273.785	129.12
274.017	133.12
274.249	131.12
274.481	136.12
274.713	132.12
274.945	156.12
275.176	138.12
275.408	127.12
275.64	133.12
275.872	146.12
276.104	127.12
276.335	131.12
276.567	135.12
276.799	135.12
277.031	144.12
277.262	160.12
277.494	137.12
277.726	152.12
277.957	138.12
278.189	126.12
278.421	135.12
278.652	134.12
278.884	130.12
279.115	152.12
279.347	140.12
279.579	136.12
279.81	145.12
280.042	126.12
280.273	134.12
280.505	153.12
280.736	143.12
280.968	135.12
281.199	140.12
281.431	136.12
281.662	130.12
281.894	141.12
282.125	160.12
282.356	146.12
282.588	142.12
282.819	144.12
283.051	165.12
283.282	143.12
283.513	136.12
283.745	147.12
283.976	152.12
284.207	155.12
284.439	145.12
284.67	159.12
284.901	138.12
285.132	155.12
285.364	146.12
285.595	146.12
285.826	166.12
286.057	150.12
286.288	157.12
286.52	169.12
286.751	146.12
286.982	148.12
287.213	153.12
287.444	141.12
287.675	162.12
287.906	157.12
288.138	155.12
288.369	159.12
288.6	154.12
288.831	153.12
289.062	153.12
289.293	158.12
289.524	151.12
289.755	163.12
289.986	159.12
290.217	150.12
290.448	159.12
290.679	158.12
290.91	153.12
291.141	152.12
291.371	150.12
291.602	166.12
291.833	166.12
292.064	159.12
292.295	155.12
292.526	157.12
292.757	157.12
292.987	154.12
293.218	166.12
293.449	155.12
293.68	156.12
293.91	166.12
294.141	156.12
294.372	163.12
294.603	154.12
294.833	154.12
295.064	152.12
295.295	161.12
295.525	149.12
295.756	160.12
295.987	162.12
296.217	167.12
296.448	162.12
296.679	163.12
296.909	155.12
297.14	176.12
297.37	175.12
297.601	170.12
297.831	155.12
298.062	178.12
298.292	180.12
298.523	169.12
298.753	193.12
298.984	185.12
299.214	163.12
299.445	166.12
299.675	188.12
299.905	169.12
300.136	152.12
300.366	173.12
300.597	173.12
300.827	186.12
301.057	165.12
301.288	168.12
301.518	176.12
301.748	175.12
301.979	177.12
302.209	190.12
302.439	173.12
302.669	184.12
302.9	188.12
303.13	194.12
303.36	168.12
303.59	181.12
303.82	162.12
304.051	170.12
304.281	186.12
304.511	169.12
304.741	163.12
304.971	162.12
305.201	184.12
305.431	173.12
305.661	184.12
305.891	161.12
306.121	162.12
306.352	175.12
306.582	173.12
306.812	165.12
307.042	173.12
307.272	171.12
307.502	164.12
307.731	170.12
307.961	173.12
308.191	177.12
308.421	177.12
308.651	168.12
308.881	164.12
309.111	164.12
309.341	178.12
309.571	168.12
309.8	171.12
310.03	166.12
310.26	168.12
310.49	164.12
310.72	165.12
310.949	191.12
311.179	168.12
311.409	162.12
311.639	182.12
311.868	191.12
312.098	183.12
312.328	174.12
312.557	179.12
312.787	202.12
313.017	186.12
313.246	181.12
313.476	168.12
313.706	191.12
313.935	169.12
314.165	190.12
314.394	187.12
314.624	185.12
314.853	180.12
315.083	200.12
315.312	177.12
315.542	170.12
315.771	189.12
316.001	181.12
316.23	179.12
316.46	185.12
316.689	181.12
316.919	174.12
317.148	187.12
317.377	168.12
317.607	161.12
317.836	163.12
318.065	170.12
318.295	175.12
318.524	181.12
318.753	175.12
318.983	173.12
319.212	177.12
319.441	173.12
319.67	176.12
319.9	183.12
320.129	170.12
320.358	173.12
320.587	198.12
320.816	180.12
321.046	178.12
321.275	162.12
321.504	161.12
321.733	166.12
321.962	168.12
322.191	182.12
322.42	175.12
322.649	177.12
322.878	192.12
323.108	186.12
323.337	187.12
323.566	166.12
323.795	186.12
324.024	184.12
324.253	169.12
324.482	185.12
324.71	185.12
324.939	189.12
325.168	165.12
325.397	157.12
325.626	178.12
325.855	170.12
326.084	181.12
326.313	201.12
326.542	186.12
326.77	181.12
326.999	189.12
327.228	180.12
327.457	200.12
327.686	194.12
327.914	190.12
328.143	198.12
328.372	194.12
328.6	193.12
328.829	183.12
329.058	189.12
329.287	201.12
329.515	170.12
329.744	179.12
329.972	168.12
330.201	196.12
330.43	203.12
330.658	185.12
330.887	176.12
331.115	196.12
331.344	194.12
331.572	198.12
331.801	192.12
332.03	208.12
332.258	196.12
332.486	218.12
332.715	202.12
332.943	240.12
333.172	226.12
333.4	233.12
333.629	244.12
333.857	234.12
334.085	221.12
334.314	226.12
334.542	214.12
334.771	229.12
334.999	218.12
335.227	217.12
335.455	212.12
335.684	210.12
335.912	215.12
336.14	196.12
336.369	210.12
336.597	209.12
336.825	220.12
337.053	217.12
337.281	227.12
337.51	201.12
337.738	211.12
337.966	201.12
338.194	200.12
338.422	186.12
338.65	197.12
338.878	203.12
339.106	205.12
339.334	207.12
339.562	199.12
339.79	189.12
340.018	195.12
340.246	184.12
340.474	207.12
340.702	189.12
340.93	183.12
341.158	191.12
341.386	198.12
341.614	187.12
341.842	190.12
342.07	185.12
342.298	186.12
342.526	194.12
342.754	189.12
342.981	186.12
343.209	190.12
343.437	201.12
343.665	199.12
343.893	229.12
344.12	237.12
344.348	225.12
344.576	186.12
344.804	203.12
345.031	198.12
345.259	200.12
345.487	182.12
345.714	194.12
345.942	203.12
346.17	184.12
346.397	169.12
346.625	200.12
346.853	198.12
347.08	185.12
347.308	205.12
347.535	181.12
347.763	187.12
347.99	200.12
348.218	194.12
348.445	195.12
348.673	200.12
348.9	191.12
349.128	200.12
349.355	203.12
349.583	176.12
349.81	187.12
350.037	190.12
350.265	190.12
350.492	183.12
350.72	180.12
350.947	183.12
351.174	191.12
351.402	179.12
351.629	181.12
351.856	180.12
352.083	191.12
352.311	193.12
352.538	181.12
352.765	182.12
352.992	190.12
353.22	187.12
353.447	182.12
353.674	188.12
353.901	171.12
354.128	179.12
354.355	189.12
354.583	189.12
354.81	193.12
355.037	187.12
355.264	195.12
355.491	179.12
355.718	191.12
355.945	187.12
356.172	177.12
356.399	179.12
356.626	193.12
356.853	192.12
357.08	189.12
357.307	169.12
357.534	197.12
357.761	197.12
357.988	184.12
358.215	191.12
358.441	194.12
358.668	174.12
358.895	192.12
359.122	202.12
359.349	203.12
359.576	185.12
359.802	188.12
360.029	179.12
360.256	176.12
360.483	178.12
360.709	187.12
360.936	184.12
361.163	187.12
361.39	182.12
361.616	189.12
361.843	182.12
362.07	189.12
362.296	179.12
362.523	184.12
362.749	177.12
362.976	177.12
363.203	183.12
363.429	177.12
363.656	191.12
363.882	186.12
364.109	184.12
364.335	185.12
364.562	177.12
364.788	191.12
365.015	179.12
365.241	173.12
365.468	178.12
365.694	167.12
365.92	176.12
366.147	187.12
366.373	199.12
366.599	177.12
366.826	176.12
367.052	186.12
367.278	181.12
367.505	188.12
367.731	197.12
367.957	182.12
368.184	183.12
368.41	191.12
368.636	190.12
368.862	193.12
369.089	185.12
369.315	186.12
369.541	195.12
369.767	200.12
369.993	185.12
370.219	191.12
370.445	179.12
370.672	188.12
370.898	179.12
371.124	183.12
371.35	195.12
371.576	198.12
371.802	181.12
372.028	189.12
372.254	182.12
372.48	185.12
372.706	189.12
372.932	206.12
373.158	214.12
373.384	198.12
373.61	182.12
373.835	192.12
374.061	175.12
374.287	181.12
374.513	200.12
374.739	206.12
374.965	216.12
375.191	199.12
375.416	204.12
375.642	206.12
375.868	209.12
376.094	202.12
376.319	192.12
376.545	180.12
376.771	201.12
376.997	194.12
377.222	201.12
377.448	200.12
377.674	181.12
377.899	190.12
378.125	189.12
378.35	186.12
378.576	187.12
378.802	190.12
379.027	195.12
379.253	183.12
379.478	194.12
379.704	191.12
379.929	195.12
380.155	193.12
380.38	182.12
380.606	211.12
380.831	189.12
381.057	195.12
381.282	191.12
381.507	190.12
381.733	199.12
381.958	207.12
382.184	205.12
382.409	182.12
382.634	186.12
382.86	187.12
383.085	204.12
383.31	201.12
383.535	214.12
383.761	205.12
383.986	201.12
384.211	208.12
384.436	215.12
384.662	212.12
384.887	229.12
385.112	224.12
385.337	218.12
385.562	216.12
385.787	209.12
386.013	217.12
386.238	251.12
386.463	225.12
386.688	209.12
386.913	220.12
387.138	217.12
387.363	208.12
387.588	219.12
387.813	203.12
388.038	217.12
388.263	214.12
388.488	233.12
388.713	214.12
388.938	213.12
389.163	211.12
389.387	227.12
389.612	214.12
389.837	226.12
390.062	211.12
390.287	211.12
390.512	220.12
390.736	202.12
390.961	215.12
391.186	216.12
391.411	207.12
391.636	234.12
391.86	225.12
392.085	224.12
392.31	230.12
392.534	225.12
392.759	230.12
392.984	249.12
393.208	230.12
393.433	235.12
393.658	230.12
393.882	238.12
394.107	204.12
394.331	230.12
394.556	229.12
394.78	241.12
395.005	237.12
395.229	214.12
395.454	221.12
395.678	221.12
395.903	227.12
396.127	231.12
396.352	207.12
396.576	228.12
396.801	210.12
397.025	224.12
397.249	225.12
397.474	242.12
397.698	236.12
397.922	224.12
398.147	223.12
398.371	251.12
398.595	234.12
398.82	255.12
399.044	261.12
399.268	298.12
399.492	313.12
399.717	386.12
399.941	351.12
400.165	322.12
400.389	294.12
400.613	258.12
400.837	251.12
401.062	255.12
401.286	263.12
401.51	254.12
401.734	244.12
401.958	238.12
402.182	259.12
402.406	264.12
402.63	262.12
402.854	262.12
403.078	267.12
403.302	263.12
403.526	270.12
403.75	291.12
403.974	305.12
404.198	291.12
404.422	312.12
404.645	306.12
404.869	291.12
405.093	292.12
405.317	286.12
405.541	278.12
405.765	266.12
405.988	257.12
406.212	269.12
406.436	258.12
406.66	285.12
406.883	280.12
407.107	291.12
407.331	323.12
407.555	308.12
407.778	309.12
408.002	320.12
408.226	298.12
408.449	277.12
408.673	264.12
408.896	268.12
409.12	272.12
409.344	293.12
409.567	285.12
409.791	288.12
410.014	297.12
410.238	288.12
410.461	277.12
410.685	278.12
410.908	259.12
411.132	283.12
411.355	250.12
411.578	256.12
411.802	263.12
412.025	241.12
412.249	259.12
412.472	247.12
412.695	267.12
412.919	243.12
413.142	265.12
413.365	257.12
413.589	266.12
413.812	232.12
414.035	245.12
414.258	253.12
414.482	264.12
414.705	270.12
414.928	251.12
415.151	268.12
415.374	252.12
415.597	253.12
415.821	256.12
416.044	264.12
416.267	254.12
416.49	241.12
416.713	245.12
416.936	252.12
417.159	259.12
417.382	266.12
417.605	246.12
417.828	257.12
418.051	257.12
418.274	267.12
418.497	267.12
418.72	272.12
418.943	267.12
419.166	281.12
419.389	282.12
419.611	267.12
419.834	269.12
420.057	275.12
420.28	268.12
420.503	264.12
420.726	249.12
420.948	256.12
421.171	247.12
421.394	241.12
421.617	238.12
421.839	249.12
422.062	226.12
422.285	255.12
422.507	233.12
422.73	261.12
422.953	271.12
423.175	258.12
423.398	265.12
423.621	268.12
423.843	276.12
424.066	267.12
424.288	265.12
424.511	261.12
424.733	250.12
424.956	260.12
425.178	266.12
425.401	269.12
425.623	254.12
425.846	230.12
426.068	240.12
426.291	242.12
426.513	242.12
426.735	249.12
426.958	233.12
427.18	243.12
427.402	245.12
427.625	222.12
427.847	202.12
428.069	234.12
428.292	244.12
428.514	232.12
428.736	222.12
428.958	226.12
429.181	231.12
429.403	239.12
429.625	234.12
429.847	222.12
430.069	231.12
430.292	232.12
430.514	209.12
430.736	220.12
430.958	248.12
431.18	223.12
431.402	224.12
431.624	212.12
431.846	239.12
432.068	221.12
432.29	232.12
432.512	224.12
432.734	242.12
432.956	259.12
433.178	224.12
433.4	247.12
433.622	226.12
433.844	230.12
434.066	233.12
434.287	233.12
434.509	234.12
434.731	226.12
434.953	250.12
435.175	263.12
435.397	258.12
435.618	237.12
435.84	228.12
436.062	216.12
436.284	224.12
436.505	218.12
436.727	241.12
436.949	247.12
437.17	231.12
437.392	236.12
437.614	225.12
437.835	209.12
438.057	214.12
438.278	223.12
438.5	232.12
438.721	228.12
438.943	229.12
439.165	228.12
439.386	222.12
439.608	233.12
439.829	225.12
440.05	226.12
440.272	224.12
440.493	228.12
440.715	221.12
440.936	248.12
441.158	235.12
441.379	249.12
441.6	257.12
441.822	244.12
442.043	251.12
442.264	237.12
442.486	233.12
442.707	239.12
442.928	241.12
443.149	248.12
443.371	246.12
443.592	237.12
443.813	246.12
444.034	258.12
444.255	254.12
444.476	259.12
444.698	282.12
444.919	294.12
445.14	359.12
445.361	306.12
445.582	266.12
445.803	259.12
446.024	239.12
446.245	252.12
446.466	223.12
446.687	216.12
446.908	239.12
447.129	224.12
447.35	221.12
447.571	239.12
447.792	197.12
448.013	212.12
448.234	215.12
448.455	225.12
448.675	209.12
448.896	213.12
449.117	202.12
449.338	207.12
449.559	216.12
449.779	210.12
450	219.12
450.221	222.12
450.442	207.12
450.662	231.12
450.883	222.12
451.104	235.12
451.324	220.12
451.545	248.12
451.766	233.12
451.986	215.12
452.207	214.12
452.428	204.12
452.648	221.12
452.869	215.12
453.089	214.12
453.31	203.12
453.53	220.12
453.751	207.12
453.971	212.12
454.192	202.12
454.412	215.12
454.633	198.12
454.853	221.12
455.073	194.12
455.294	211.12
455.514	209.12
455.734	202.12
455.955	181.12
456.175	191.12
456.395	216.12
456.616	201.12
456.836	207.12
457.056	199.12
457.276	199.12
457.497	214.12
457.717	193.12
457.937	232.12
458.157	217.12
458.377	205.12
458.598	208.12
458.818	215.12
459.038	222.12
459.258	216.12
459.478	232.12
459.698	251.12
459.918	224.12
460.138	237.12
460.358	277.12
460.578	277.12
460.798	290.12
461.018	254.12
461.238	242.12
461.458	261.12
461.678	243.12
461.898	259.12
462.118	260.12
462.338	276.12
462.558	287.12
462.777	282.12
462.997	309.12
463.217	350.12
463.437	333.12
463.657	309.12
463.876	304.12
464.096	292.12
464.316	298.12
464.536	321.12
464.755	294.12
464.975	283.12
465.195	272.12
465.414	283.12
465.634	260.12
465.854	246.12
466.073	232.12
466.293	242.12
466.512	227.12
466.732	206.12
466.951	215.12
467.171	223.12
467.391	242.12
467.61	231.12
467.829	223.12
468.049	219.12
468.268	223.12
468.488	226.12
468.707	217.12
468.927	224.12
469.146	229.12
469.365	239.12
469.585	210.12
469.804	239.12
470.023	228.12
470.243	230.12
470.462	227.12
470.681	229.12
470.901	223.12
471.12	244.12
471.339	238.12
471.558	214.12
471.777	207.12
471.997	209.12
472.216	228.12
472.435	217.12
472.654	209.12
472.873	227.12
473.092	220.12
473.311	210.12
473.53	223.12
473.749	205.12
473.968	224.12
474.187	218.12
474.406	206.12
474.625	202.12
474.844	199.12
475.063	220.12
475.282	216.12
475.501	215.12
475.72	212.12
475.939	215.12
476.158	225.12
476.377	236.12
476.596	229.12
476.814	230.12
477.033	227.12
477.252	216.12
477.471	219.12
477.69	234.12
477.908	242.12
478.127	245.12
478.346	249.12
478.564	256.12
478.783	232.12
479.002	247.12
479.22	249.12
479.439	251.12
479.658	246.12
479.876	257.12
480.095	275.12
480.313	263.12
480.532	307.12
480.751	287.12
480.969	268.12
481.188	245.12
481.406	252.12
481.624	255.12
481.843	253.12
482.061	239.12
482.28	255.12
482.498	251.12
482.717	249.12
482.935	230.12
483.153	237.12
483.372	249.12
483.59	259.12
483.808	248.12
484.027	261.12
484.245	234.12
484.463	242.12
484.681	259.12
484.9	244.12
485.118	264.12
485.336	274.12
485.554	269.12
485.772	253.12
485.99	262.12
486.209	268.12
486.427	258.12
486.645	246.12
486.863	256.12
487.081	264.12
487.299	274.12
487.517	265.12
487.735	262.12
487.953	262.12
488.171	246.12
488.389	236.12
488.607	243.12
488.825	254.12
489.043	256.12
489.261	266.12
489.479	240.12
489.696	263.12
489.914	240.12
490.132	266.12
490.35	242.12
490.568	246.12
490.786	254.12
491.003	257.12
491.221	270.12
491.439	281.12
491.657	255.12
491.874	287.12
492.092	255.12
492.31	254.12
492.527	262.12
492.745	270.12
492.963	261.12
493.18	271.12
493.398	255.12
493.615	263.12
493.833	292.12
494.05	251.12
494.268	265.12
494.485	274.12
494.703	264.12
494.92	253.12
495.138	266.12
495.355	282.12
495.573	268.12
495.79	267.12
496.008	271.12
496.225	264.12
496.442	253.12
496.66	277.12
496.877	262.12
497.094	277.12
497.312	273.12
497.529	288.12
497.746	279.12
497.963	297.12
498.181	311.12
498.398	320.12
498.615	326.12
498.832	354.12
499.049	388.12
499.267	411.12
499.484	440.12
499.701	484.12
499.918	535.12
500.135	594.12
500.352	696.12
500.569	726.12
500.786	724.12
501.003	668.12
501.22	602.12
501.437	533.12
501.654	454.12
501.871	436.12
502.088	390.12
502.305	369.12
502.522	361.12
502.739	364.12
502.956	326.12
503.172	311.12
503.389	294.12
