Data from 0.5MCu(NO3)2.Standard.Lamp.E10.CV._HRD10591_16-04-58-753.txt Node
Date: Mon Jul 22 16:04:58 EDT 2019
User: cochatt
Spectrometer: HR+D1059
Trigger mode: 1
Integration Time (sec): 1.000000E-1
Scans to average: 1
Electric dark correction enabled: true
Nonlinearity correction enabled: false
Boxcar width: 0
XAxis mode: Wavelengths
Number of Pixels in Spectrum: 2048
>>>>>Begin Spectral Data<<<<<
223.165	-15.44
223.4	-15.44
223.635	-15.44
223.869	-32.44
224.104	-26.44
224.338	-14.44
224.573	-5.44
224.808	-0.44
225.042	-9.44
225.277	-5.44
225.511	-15.44
225.746	2.56
225.98	13.56
226.215	18.56
226.449	21.56
226.683	25.56
226.918	15.56
227.152	27.56
227.387	32.56
227.621	47.56
227.856	37.56
228.09	48.56
228.324	66.56
228.559	59.56
228.793	64.56
229.027	69.56
229.262	81.56
229.496	77.56
229.73	89.56
229.964	81.56
230.199	80.56
230.433	78.56
230.667	85.56
230.901	71.56
231.136	74.56
231.37	108.56
231.604	104.56
231.838	80.56
232.072	96.56
232.306	93.56
232.541	100.56
232.775	90.56
233.009	94.56
233.243	99.56
233.477	95.56
233.711	104.56
233.945	107.56
234.179	92.56
234.413	92.56
234.647	102.56
234.881	83.56
235.115	103.56
235.349	79.56
235.583	98.56
235.817	90.56
236.051	86.56
236.285	102.56
236.519	87.56
236.753	92.56
236.987	92.56
237.221	108.56
237.455	92.56
237.689	102.56
237.922	91.56
238.156	98.56
238.39	91.56
238.624	78.56
238.858	91.56
239.091	89.56
239.325	76.56
239.559	85.56
239.793	92.56
240.027	93.56
240.26	106.56
240.494	101.56
240.728	94.56
240.961	95.56
241.195	101.56
241.429	108.56
241.662	102.56
241.896	100.56
242.13	94.56
242.363	91.56
242.597	86.56
242.83	103.56
243.064	94.56
243.298	92.56
243.531	110.56
243.765	92.56
243.998	102.56
244.232	100.56
244.465	98.56
244.699	93.56
244.932	91.56
245.166	88.56
245.399	99.56
245.633	105.56
245.866	102.56
246.099	111.56
246.333	114.56
246.566	100.56
246.8	114.56
247.033	103.56
247.266	118.56
247.5	93.56
247.733	87.56
247.966	106.56
248.2	107.56
248.433	108.56
248.666	101.56
248.899	106.56
249.133	98.56
249.366	111.56
249.599	100.56
249.832	101.56
250.066	111.56
250.299	111.56
250.532	114.56
250.765	134.56
250.998	115.56
251.231	110.56
251.465	107.56
251.698	101.56
251.931	117.56
252.164	105.56
252.397	121.56
252.63	130.56
252.863	115.56
253.096	121.56
253.329	107.56
253.562	114.56
253.795	112.56
254.028	109.56
254.261	130.56
254.494	116.56
254.727	130.56
254.96	138.56
255.193	118.56
255.426	127.56
255.659	120.56
255.892	123.56
256.124	104.56
256.357	132.56
256.59	117.56
256.823	128.56
257.056	136.56
257.289	124.56
257.521	120.56
257.754	110.56
257.987	118.56
258.22	120.56
258.452	120.56
258.685	124.56
258.918	108.56
259.151	116.56
259.383	132.56
259.616	122.56
259.849	128.56
260.081	123.56
260.314	126.56
260.547	130.56
260.779	138.56
261.012	125.56
261.244	117.56
261.477	151.56
261.71	114.56
261.942	120.56
262.175	143.56
262.407	127.56
262.64	125.56
262.872	135.56
263.105	126.56
263.337	130.56
263.57	134.56
263.802	138.56
264.035	135.56
264.267	136.56
264.499	130.56
264.732	140.56
264.964	143.56
265.197	137.56
265.429	135.56
265.661	140.56
265.894	136.56
266.126	135.56
266.358	149.56
266.591	131.56
266.823	134.56
267.055	141.56
267.287	157.56
267.52	132.56
267.752	146.56
267.984	136.56
268.216	132.56
268.448	139.56
268.681	135.56
268.913	136.56
269.145	153.56
269.377	144.56
269.609	140.56
269.841	149.56
270.073	147.56
270.306	139.56
270.538	136.56
270.77	143.56
271.002	141.56
271.234	147.56
271.466	144.56
271.698	140.56
271.93	141.56
272.162	152.56
272.394	152.56
272.626	150.56
272.858	152.56
273.09	156.56
273.322	146.56
273.553	131.56
273.785	146.56
274.017	156.56
274.249	149.56
274.481	148.56
274.713	152.56
274.945	141.56
275.176	154.56
275.408	173.56
275.64	151.56
275.872	161.56
276.104	151.56
276.335	154.56
276.567	146.56
276.799	155.56
277.031	148.56
277.262	151.56
277.494	151.56
277.726	155.56
277.957	152.56
278.189	162.56
278.421	165.56
278.652	165.56
278.884	156.56
279.115	170.56
279.347	154.56
279.579	153.56
279.81	168.56
280.042	151.56
280.273	146.56
280.505	171.56
280.736	169.56
280.968	158.56
281.199	160.56
281.431	161.56
281.662	162.56
281.894	160.56
282.125	168.56
282.356	166.56
282.588	168.56
282.819	157.56
283.051	160.56
283.282	162.56
283.513	174.56
283.745	174.56
283.976	171.56
284.207	160.56
284.439	166.56
284.67	172.56
284.901	178.56
285.132	165.56
285.364	165.56
285.595	170.56
285.826	172.56
286.057	180.56
286.288	171.56
286.52	155.56
286.751	188.56
286.982	167.56
287.213	158.56
287.444	168.56
287.675	184.56
287.906	182.56
288.138	171.56
288.369	175.56
288.6	182.56
288.831	195.56
289.062	168.56
289.293	178.56
289.524	183.56
289.755	182.56
289.986	191.56
290.217	184.56
290.448	179.56
290.679	176.56
290.91	180.56
291.141	187.56
291.371	193.56
291.602	186.56
291.833	172.56
292.064	194.56
292.295	182.56
292.526	190.56
292.757	181.56
292.987	188.56
293.218	188.56
293.449	182.56
293.68	195.56
293.91	187.56
294.141	182.56
294.372	182.56
294.603	187.56
294.833	189.56
295.064	179.56
295.295	201.56
295.525	196.56
295.756	177.56
295.987	188.56
296.217	168.56
296.448	195.56
296.679	198.56
296.909	195.56
297.14	200.56
297.37	201.56
297.601	196.56
297.831	208.56
298.062	191.56
298.292	184.56
298.523	206.56
298.753	186.56
298.984	190.56
299.214	203.56
299.445	207.56
299.675	196.56
299.905	195.56
300.136	197.56
300.366	210.56
300.597	203.56
300.827	213.56
301.057	190.56
301.288	205.56
301.518	207.56
301.748	226.56
301.979	203.56
302.209	204.56
302.439	202.56
302.669	191.56
302.9	210.56
303.13	203.56
303.36	207.56
303.59	198.56
303.82	199.56
304.051	185.56
304.281	203.56
304.511	206.56
304.741	206.56
304.971	196.56
305.201	206.56
305.431	185.56
305.661	203.56
305.891	203.56
306.121	218.56
306.352	180.56
306.582	189.56
306.812	205.56
307.042	202.56
307.272	204.56
307.502	195.56
307.731	201.56
307.961	195.56
308.191	203.56
308.421	184.56
308.651	206.56
308.881	201.56
309.111	190.56
309.341	203.56
309.571	205.56
309.8	191.56
310.03	209.56
310.26	216.56
310.49	209.56
310.72	194.56
310.949	199.56
311.179	193.56
311.409	190.56
311.639	216.56
311.868	189.56
312.098	208.56
312.328	210.56
312.557	192.56
312.787	206.56
313.017	205.56
313.246	210.56
313.476	203.56
313.706	196.56
313.935	208.56
314.165	219.56
314.394	219.56
314.624	212.56
314.853	213.56
315.083	207.56
315.312	212.56
315.542	207.56
315.771	203.56
316.001	211.56
316.23	197.56
316.46	212.56
316.689	188.56
316.919	211.56
317.148	225.56
317.377	211.56
317.607	205.56
317.836	196.56
318.065	204.56
318.295	206.56
318.524	210.56
318.753	214.56
318.983	211.56
319.212	208.56
319.441	202.56
319.67	202.56
319.9	208.56
320.129	202.56
320.358	201.56
320.587	210.56
320.816	214.56
321.046	203.56
321.275	209.56
321.504	216.56
321.733	204.56
321.962	184.56
322.191	217.56
322.42	216.56
322.649	220.56
322.878	214.56
323.108	184.56
323.337	199.56
323.566	207.56
323.795	208.56
324.024	209.56
324.253	224.56
324.482	213.56
324.71	227.56
324.939	229.56
325.168	230.56
325.397	228.56
325.626	222.56
325.855	214.56
326.084	224.56
326.313	222.56
326.542	223.56
326.77	222.56
326.999	238.56
327.228	222.56
327.457	220.56
327.686	196.56
327.914	228.56
328.143	227.56
328.372	235.56
328.6	227.56
328.829	214.56
329.058	226.56
329.287	241.56
329.515	224.56
329.744	207.56
329.972	214.56
330.201	220.56
330.43	225.56
330.658	243.56
330.887	227.56
331.115	221.56
331.344	211.56
331.572	229.56
331.801	228.56
332.03	227.56
332.258	227.56
332.486	246.56
332.715	223.56
332.943	270.56
333.172	287.56
333.4	274.56
333.629	279.56
333.857	270.56
334.085	265.56
334.314	278.56
334.542	262.56
334.771	268.56
334.999	267.56
335.227	263.56
335.455	271.56
335.684	264.56
335.912	259.56
336.14	240.56
336.369	246.56
336.597	240.56
336.825	249.56
337.053	253.56
337.281	250.56
337.51	242.56
337.738	248.56
337.966	246.56
338.194	225.56
338.422	231.56
338.65	258.56
338.878	242.56
339.106	246.56
339.334	247.56
339.562	235.56
339.79	226.56
340.018	213.56
340.246	218.56
340.474	226.56
340.702	228.56
340.93	238.56
341.158	221.56
341.386	237.56
341.614	228.56
341.842	238.56
342.07	229.56
342.298	226.56
342.526	228.56
342.754	232.56
342.981	222.56
343.209	239.56
343.437	233.56
343.665	239.56
343.893	256.56
344.12	288.56
344.348	270.56
344.576	245.56
344.804	230.56
345.031	229.56
345.259	214.56
345.487	247.56
345.714	219.56
345.942	215.56
346.17	220.56
346.397	223.56
346.625	232.56
346.853	221.56
347.08	219.56
347.308	211.56
347.535	216.56
347.763	223.56
347.99	222.56
348.218	230.56
348.445	227.56
348.673	215.56
348.9	212.56
349.128	239.56
349.355	228.56
349.583	242.56
349.81	227.56
350.037	243.56
350.265	224.56
350.492	213.56
350.72	215.56
350.947	226.56
351.174	229.56
351.402	232.56
351.629	212.56
351.856	214.56
352.083	203.56
352.311	220.56
352.538	208.56
352.765	219.56
352.992	214.56
353.22	226.56
353.447	212.56
353.674	204.56
353.901	212.56
354.128	212.56
354.355	205.56
354.583	226.56
354.81	217.56
355.037	230.56
355.264	212.56
355.491	237.56
355.718	205.56
355.945	224.56
356.172	199.56
356.399	215.56
356.626	203.56
356.853	197.56
357.08	224.56
357.307	218.56
357.534	215.56
357.761	228.56
357.988	245.56
358.215	214.56
358.441	204.56
358.668	214.56
358.895	211.56
359.122	210.56
359.349	225.56
359.576	208.56
359.802	214.56
360.029	207.56
360.256	199.56
360.483	208.56
360.709	190.56
360.936	220.56
361.163	216.56
361.39	217.56
361.616	196.56
361.843	192.56
362.07	217.56
362.296	224.56
362.523	215.56
362.749	197.56
362.976	218.56
363.203	210.56
363.429	199.56
363.656	218.56
363.882	204.56
364.109	203.56
364.335	202.56
364.562	202.56
364.788	210.56
365.015	219.56
365.241	205.56
365.468	201.56
365.694	230.56
365.92	221.56
366.147	198.56
366.373	194.56
366.599	211.56
366.826	210.56
367.052	212.56
367.278	214.56
367.505	206.56
367.731	216.56
367.957	205.56
368.184	214.56
368.41	227.56
368.636	220.56
368.862	236.56
369.089	208.56
369.315	225.56
369.541	238.56
369.767	208.56
369.993	217.56
370.219	224.56
370.445	213.56
370.672	224.56
370.898	227.56
371.124	230.56
371.35	221.56
371.576	231.56
371.802	226.56
372.028	239.56
372.254	229.56
372.48	223.56
372.706	220.56
372.932	235.56
373.158	247.56
373.384	244.56
373.61	240.56
373.835	225.56
374.061	226.56
374.287	231.56
374.513	231.56
374.739	235.56
374.965	253.56
375.191	245.56
375.416	235.56
375.642	242.56
375.868	244.56
376.094	234.56
376.319	231.56
376.545	233.56
376.771	224.56
376.997	220.56
377.222	218.56
377.448	229.56
377.674	232.56
377.899	215.56
378.125	214.56
378.35	230.56
378.576	219.56
378.802	212.56
379.027	207.56
379.253	227.56
379.478	219.56
379.704	223.56
379.929	226.56
380.155	230.56
380.38	230.56
380.606	225.56
380.831	218.56
381.057	231.56
381.282	226.56
381.507	222.56
381.733	230.56
381.958	241.56
382.184	214.56
382.409	226.56
382.634	242.56
382.86	237.56
383.085	248.56
383.31	227.56
383.535	250.56
383.761	252.56
383.986	243.56
384.211	243.56
384.436	252.56
384.662	252.56
384.887	260.56
385.112	253.56
385.337	269.56
385.562	256.56
385.787	281.56
386.013	274.56
386.238	261.56
386.463	250.56
386.688	249.56
386.913	250.56
387.138	258.56
387.363	254.56
387.588	238.56
387.813	246.56
388.038	250.56
388.263	262.56
388.488	275.56
388.713	252.56
388.938	242.56
389.163	257.56
389.387	253.56
389.612	248.56
389.837	254.56
390.062	239.56
390.287	218.56
390.512	246.56
390.736	250.56
390.961	255.56
391.186	258.56
391.411	269.56
391.636	266.56
391.86	271.56
392.085	269.56
392.31	266.56
392.534	270.56
392.759	258.56
392.984	254.56
393.208	263.56
393.433	256.56
393.658	272.56
393.882	249.56
394.107	256.56
394.331	248.56
394.556	270.56
394.78	284.56
395.005	287.56
395.229	264.56
395.454	270.56
395.678	278.56
395.903	273.56
396.127	267.56
396.352	264.56
396.576	255.56
396.801	252.56
397.025	255.56
397.249	270.56
397.474	271.56
397.698	271.56
397.922	278.56
398.147	266.56
398.371	279.56
398.595	286.56
398.82	311.56
399.044	303.56
399.268	338.56
399.492	378.56
399.717	436.56
399.941	415.56
400.165	364.56
400.389	335.56
400.613	324.56
400.837	307.56
401.062	295.56
401.286	315.56
401.51	308.56
401.734	304.56
401.958	297.56
402.182	296.56
402.406	293.56
402.63	302.56
402.854	305.56
403.078	313.56
403.302	322.56
403.526	339.56
403.75	335.56
403.974	352.56
404.198	336.56
404.422	349.56
404.645	341.56
404.869	343.56
405.093	337.56
405.317	332.56
405.541	314.56
405.765	328.56
405.988	312.56
406.212	324.56
406.436	306.56
406.66	327.56
406.883	332.56
407.107	338.56
407.331	365.56
407.555	382.56
407.778	375.56
408.002	365.56
408.226	354.56
408.449	342.56
408.673	331.56
408.896	317.56
409.12	336.56
409.344	331.56
409.567	344.56
409.791	336.56
410.014	331.56
410.238	361.56
410.461	319.56
410.685	333.56
410.908	315.56
411.132	317.56
411.355	290.56
411.578	310.56
411.802	312.56
412.025	310.56
412.249	303.56
412.472	314.56
412.695	296.56
412.919	299.56
413.142	284.56
413.365	285.56
413.589	308.56
413.812	300.56
414.035	284.56
414.258	295.56
414.482	301.56
414.705	301.56
414.928	310.56
415.151	300.56
415.374	314.56
415.597	281.56
415.821	304.56
416.044	273.56
416.267	293.56
416.49	294.56
416.713	298.56
416.936	289.56
417.159	279.56
417.382	303.56
417.605	293.56
417.828	284.56
418.051	306.56
418.274	298.56
418.497	291.56
418.72	300.56
418.943	319.56
419.166	345.56
419.389	314.56
419.611	334.56
419.834	334.56
420.057	304.56
420.28	321.56
420.503	300.56
420.726	296.56
420.948	308.56
421.171	297.56
421.394	317.56
421.617	280.56
421.839	288.56
422.062	299.56
422.285	312.56
422.507	319.56
422.73	298.56
422.953	300.56
423.175	302.56
423.398	313.56
423.621	301.56
423.843	322.56
424.066	304.56
424.288	308.56
424.511	312.56
424.733	315.56
424.956	306.56
425.178	291.56
425.401	300.56
425.623	326.56
425.846	295.56
426.068	270.56
426.291	278.56
426.513	293.56
426.735	264.56
426.958	278.56
427.18	286.56
427.402	279.56
427.625	261.56
427.847	267.56
428.069	271.56
428.292	256.56
428.514	280.56
428.736	279.56
428.958	269.56
429.181	274.56
429.403	266.56
429.625	271.56
429.847	265.56
430.069	267.56
430.292	275.56
430.514	264.56
430.736	255.56
430.958	253.56
431.18	286.56
431.402	253.56
431.624	263.56
431.846	297.56
432.068	253.56
432.29	278.56
432.512	282.56
432.734	268.56
432.956	264.56
433.178	272.56
433.4	270.56
433.622	266.56
433.844	265.56
434.066	267.56
434.287	285.56
434.509	276.56
434.731	302.56
434.953	302.56
435.175	299.56
435.397	300.56
435.618	266.56
435.84	287.56
436.062	273.56
436.284	254.56
436.505	261.56
436.727	277.56
436.949	287.56
437.17	266.56
437.392	262.56
437.614	253.56
437.835	262.56
438.057	250.56
438.278	258.56
438.5	257.56
438.721	270.56
438.943	251.56
439.165	260.56
439.386	276.56
439.608	270.56
439.829	274.56
440.05	247.56
440.272	278.56
440.493	282.56
440.715	269.56
440.936	258.56
441.158	300.56
441.379	279.56
441.6	295.56
441.822	287.56
442.043	283.56
442.264	294.56
442.486	282.56
442.707	290.56
442.928	289.56
443.149	301.56
443.371	287.56
443.592	288.56
443.813	287.56
444.034	310.56
444.255	298.56
444.476	313.56
444.698	330.56
444.919	357.56
445.14	460.56
445.361	372.56
445.582	291.56
445.803	302.56
446.024	262.56
446.245	286.56
446.466	284.56
446.687	257.56
446.908	281.56
447.129	268.56
447.35	275.56
447.571	254.56
447.792	249.56
448.013	236.56
448.234	261.56
448.455	263.56
448.675	234.56
448.896	246.56
449.117	259.56
449.338	243.56
449.559	254.56
449.779	244.56
450	250.56
450.221	252.56
450.442	262.56
450.662	240.56
450.883	264.56
451.104	251.56
451.324	260.56
451.545	259.56
451.766	243.56
451.986	263.56
452.207	240.56
452.428	264.56
452.648	245.56
452.869	241.56
453.089	260.56
453.31	250.56
453.53	225.56
453.751	266.56
453.971	244.56
454.192	246.56
454.412	260.56
454.633	245.56
454.853	253.56
455.073	251.56
455.294	256.56
455.514	246.56
455.734	246.56
455.955	248.56
456.175	229.56
456.395	244.56
456.616	229.56
456.836	232.56
457.056	231.56
457.276	244.56
457.497	235.56
457.717	222.56
457.937	211.56
458.157	216.56
458.377	248.56
458.598	250.56
458.818	237.56
459.038	226.56
459.258	249.56
459.478	259.56
459.698	263.56
459.918	274.56
460.138	298.56
460.358	308.56
460.578	320.56
460.798	316.56
461.018	299.56
461.238	312.56
461.458	303.56
461.678	296.56
461.898	307.56
462.118	311.56
462.338	326.56
462.558	331.56
462.777	320.56
462.997	365.56
463.217	399.56
463.437	408.56
463.657	366.56
463.876	349.56
464.096	348.56
464.316	354.56
464.536	361.56
464.755	355.56
464.975	335.56
465.195	316.56
465.414	299.56
465.634	301.56
465.854	285.56
466.073	276.56
466.293	272.56
466.512	274.56
466.732	270.56
466.951	267.56
467.171	285.56
467.391	276.56
467.61	248.56
467.829	259.56
468.049	262.56
468.268	244.56
468.488	244.56
468.707	266.56
468.927	258.56
469.146	262.56
469.365	257.56
469.585	243.56
469.804	279.56
470.023	261.56
470.243	278.56
470.462	280.56
470.681	264.56
470.901	260.56
471.12	263.56
471.339	249.56
471.558	263.56
471.777	264.56
471.997	253.56
472.216	252.56
472.435	262.56
472.654	250.56
472.873	256.56
473.092	266.56
473.311	256.56
473.53	240.56
473.749	248.56
473.968	262.56
474.187	244.56
474.406	248.56
474.625	244.56
474.844	272.56
475.063	246.56
475.282	254.56
475.501	253.56
475.72	267.56
475.939	263.56
476.158	265.56
476.377	269.56
476.596	265.56
476.814	245.56
477.033	272.56
477.252	263.56
477.471	258.56
477.69	282.56
477.908	276.56
478.127	297.56
478.346	291.56
478.564	291.56
478.783	283.56
479.002	303.56
479.22	304.56
479.439	289.56
479.658	312.56
479.876	316.56
480.095	307.56
480.313	333.56
480.532	326.56
480.751	320.56
480.969	324.56
481.188	316.56
481.406	314.56
481.624	287.56
481.843	291.56
482.061	287.56
482.28	292.56
482.498	281.56
482.717	278.56
482.935	290.56
483.153	287.56
483.372	282.56
483.59	293.56
483.808	280.56
484.027	291.56
484.245	290.56
484.463	271.56
484.681	287.56
484.9	296.56
485.118	306.56
485.336	302.56
485.554	301.56
485.772	295.56
485.99	310.56
486.209	302.56
486.427	290.56
486.645	298.56
486.863	305.56
487.081	295.56
487.299	310.56
487.517	301.56
487.735	294.56
487.953	306.56
488.171	297.56
488.389	308.56
488.607	274.56
488.825	282.56
489.043	299.56
489.261	299.56
489.479	304.56
489.696	307.56
489.914	294.56
490.132	297.56
490.35	303.56
490.568	287.56
490.786	302.56
491.003	310.56
491.221	304.56
491.439	285.56
491.657	303.56
491.874	304.56
492.092	313.56
492.31	294.56
492.527	326.56
492.745	296.56
492.963	304.56
493.18	315.56
493.398	314.56
493.615	322.56
493.833	310.56
494.05	313.56
494.268	331.56
494.485	303.56
494.703	318.56
494.92	319.56
495.138	316.56
495.355	330.56
495.573	335.56
495.79	307.56
496.008	329.56
496.225	325.56
496.442	311.56
496.66	329.56
496.877	323.56
497.094	323.56
497.312	361.56
497.529	344.56
497.746	339.56
497.963	362.56
498.181	348.56
498.398	373.56
498.615	384.56
498.832	437.56
499.049	446.56
499.267	489.56
499.484	527.56
499.701	540.56
499.918	615.56
500.135	733.56
500.352	837.56
500.569	880.56
500.786	872.56
501.003	815.56
501.22	718.56
501.437	635.56
501.654	540.56
501.871	516.56
502.088	467.56
502.305	418.56
502.522	422.56
502.739	405.56
502.956	387.56
