Data from 0.5MCu(NO3)2.Standard.Lamp.E10.CV._HRD10591_16-05-42-753.txt Node
Date: Mon Jul 22 16:05:42 EDT 2019
User: cochatt
Spectrometer: HR+D1059
Trigger mode: 1
Integration Time (sec): 1.000000E-1
Scans to average: 1
Electric dark correction enabled: true
Nonlinearity correction enabled: false
Boxcar width: 0
XAxis mode: Wavelengths
Number of Pixels in Spectrum: 2048
>>>>>Begin Spectral Data<<<<<
223.165	-14.12
223.4	-14.12
223.635	-14.12
223.869	-16.12
224.104	-7.12
224.338	-14.12
224.573	-10.12
224.808	-12.12
225.042	-4.12
225.277	-7.12
225.511	-18.12
225.746	6.88
225.98	3.88
226.215	5.88
226.449	0.88
226.683	27.88
226.918	27.88
227.152	29.88
227.387	31.88
227.621	22.88
227.856	44.88
228.09	30.88
228.324	39.88
228.559	49.88
228.793	73.88
229.027	65.88
229.262	68.88
229.496	63.88
229.73	85.88
229.964	64.88
230.199	76.88
230.433	79.88
230.667	87.88
230.901	69.88
231.136	72.88
231.37	71.88
231.604	87.88
231.838	76.88
232.072	88.88
232.306	86.88
232.541	86.88
232.775	85.88
233.009	88.88
233.243	83.88
233.477	86.88
233.711	81.88
233.945	92.88
234.179	84.88
234.413	99.88
234.647	77.88
234.881	80.88
235.115	85.88
235.349	94.88
235.583	92.88
235.817	83.88
236.051	86.88
236.285	72.88
236.519	93.88
236.753	95.88
236.987	89.88
237.221	85.88
237.455	80.88
237.689	82.88
237.922	98.88
238.156	84.88
238.39	83.88
238.624	92.88
238.858	80.88
239.091	80.88
239.325	71.88
239.559	73.88
239.793	65.88
240.027	84.88
240.26	85.88
240.494	92.88
240.728	89.88
240.961	80.88
241.195	80.88
241.429	86.88
241.662	100.88
241.896	86.88
242.13	95.88
242.363	90.88
242.597	78.88
242.83	84.88
243.064	103.88
243.298	89.88
243.531	83.88
243.765	70.88
243.998	87.88
244.232	91.88
244.465	96.88
244.699	93.88
244.932	91.88
245.166	97.88
245.399	94.88
245.633	108.88
245.866	98.88
246.099	98.88
246.333	94.88
246.566	97.88
246.8	93.88
247.033	110.88
247.266	107.88
247.5	95.88
247.733	109.88
247.966	106.88
248.2	95.88
248.433	97.88
248.666	92.88
248.899	101.88
249.133	111.88
249.366	91.88
249.599	116.88
249.832	99.88
250.066	92.88
250.299	108.88
250.532	95.88
250.765	111.88
250.998	107.88
251.231	104.88
251.465	117.88
251.698	104.88
251.931	116.88
252.164	107.88
252.397	101.88
252.63	92.88
252.863	96.88
253.096	97.88
253.329	98.88
253.562	106.88
253.795	113.88
254.028	111.88
254.261	104.88
254.494	91.88
254.727	99.88
254.96	107.88
255.193	111.88
255.426	113.88
255.659	96.88
255.892	111.88
256.124	109.88
256.357	99.88
256.59	123.88
256.823	95.88
257.056	96.88
257.289	118.88
257.521	131.88
257.754	129.88
257.987	120.88
258.22	115.88
258.452	121.88
258.685	107.88
258.918	104.88
259.151	109.88
259.383	121.88
259.616	120.88
259.849	115.88
260.081	119.88
260.314	128.88
260.547	115.88
260.779	114.88
261.012	120.88
261.244	124.88
261.477	134.88
261.71	117.88
261.942	113.88
262.175	118.88
262.407	117.88
262.64	116.88
262.872	104.88
263.105	118.88
263.337	119.88
263.57	118.88
263.802	131.88
264.035	131.88
264.267	130.88
264.499	128.88
264.732	131.88
264.964	120.88
265.197	119.88
265.429	129.88
265.661	136.88
265.894	128.88
266.126	139.88
266.358	116.88
266.591	116.88
266.823	122.88
267.055	112.88
267.287	123.88
267.52	123.88
267.752	117.88
267.984	146.88
268.216	127.88
268.448	128.88
268.681	125.88
268.913	137.88
269.145	123.88
269.377	133.88
269.609	118.88
269.841	133.88
270.073	135.88
270.306	139.88
270.538	138.88
270.77	140.88
271.002	137.88
271.234	121.88
271.466	132.88
271.698	126.88
271.93	128.88
272.162	136.88
272.394	127.88
272.626	119.88
272.858	129.88
273.09	124.88
273.322	134.88
273.553	123.88
273.785	121.88
274.017	127.88
274.249	128.88
274.481	142.88
274.713	129.88
274.945	156.88
275.176	137.88
275.408	152.88
275.64	135.88
275.872	129.88
276.104	141.88
276.335	135.88
276.567	149.88
276.799	135.88
277.031	134.88
277.262	122.88
277.494	117.88
277.726	121.88
277.957	127.88
278.189	129.88
278.421	135.88
278.652	149.88
278.884	148.88
279.115	128.88
279.347	142.88
279.579	138.88
279.81	150.88
280.042	133.88
280.273	123.88
280.505	147.88
280.736	144.88
280.968	156.88
281.199	143.88
281.431	152.88
281.662	150.88
281.894	156.88
282.125	134.88
282.356	148.88
282.588	165.88
282.819	152.88
283.051	157.88
283.282	137.88
283.513	162.88
283.745	153.88
283.976	154.88
284.207	153.88
284.439	155.88
284.67	158.88
284.901	166.88
285.132	162.88
285.364	163.88
285.595	171.88
285.826	164.88
286.057	164.88
286.288	162.88
286.52	159.88
286.751	162.88
286.982	161.88
287.213	166.88
287.444	147.88
287.675	153.88
287.906	156.88
288.138	170.88
288.369	155.88
288.6	159.88
288.831	147.88
289.062	174.88
289.293	147.88
289.524	153.88
289.755	173.88
289.986	150.88
290.217	141.88
290.448	157.88
290.679	171.88
290.91	171.88
291.141	169.88
291.371	171.88
291.602	174.88
291.833	160.88
292.064	169.88
292.295	161.88
292.526	159.88
292.757	158.88
292.987	178.88
293.218	175.88
293.449	175.88
293.68	165.88
293.91	150.88
294.141	157.88
294.372	171.88
294.603	162.88
294.833	176.88
295.064	162.88
295.295	156.88
295.525	154.88
295.756	166.88
295.987	155.88
296.217	168.88
296.448	161.88
296.679	168.88
296.909	165.88
297.14	167.88
297.37	183.88
297.601	169.88
297.831	180.88
298.062	165.88
298.292	192.88
298.523	191.88
298.753	187.88
298.984	188.88
299.214	179.88
299.445	188.88
299.675	176.88
299.905	182.88
300.136	182.88
300.366	188.88
300.597	173.88
300.827	177.88
301.057	191.88
301.288	187.88
301.518	168.88
301.748	188.88
301.979	181.88
302.209	175.88
302.439	184.88
302.669	180.88
302.9	181.88
303.13	191.88
303.36	166.88
303.59	177.88
303.82	172.88
304.051	177.88
304.281	191.88
304.511	180.88
304.741	179.88
304.971	179.88
305.201	195.88
305.431	173.88
305.661	191.88
305.891	166.88
306.121	175.88
306.352	191.88
306.582	184.88
306.812	182.88
307.042	178.88
307.272	188.88
307.502	182.88
307.731	185.88
307.961	170.88
308.191	170.88
308.421	175.88
308.651	167.88
308.881	180.88
309.111	175.88
309.341	165.88
309.571	177.88
309.8	189.88
310.03	183.88
310.26	179.88
310.49	180.88
310.72	190.88
310.949	176.88
311.179	179.88
311.409	177.88
311.639	178.88
311.868	182.88
312.098	176.88
312.328	188.88
312.557	204.88
312.787	199.88
313.017	197.88
313.246	163.88
313.476	196.88
313.706	201.88
313.935	185.88
314.165	187.88
314.394	187.88
314.624	197.88
314.853	192.88
315.083	196.88
315.312	198.88
315.542	182.88
315.771	179.88
316.001	185.88
316.23	180.88
316.46	183.88
316.689	199.88
316.919	172.88
317.148	187.88
317.377	173.88
317.607	197.88
317.836	201.88
318.065	190.88
318.295	187.88
318.524	192.88
318.753	206.88
318.983	179.88
319.212	182.88
319.441	177.88
319.67	181.88
319.9	185.88
320.129	184.88
320.358	184.88
320.587	188.88
320.816	192.88
321.046	175.88
321.275	189.88
321.504	181.88
321.733	188.88
321.962	187.88
322.191	196.88
322.42	174.88
322.649	186.88
322.878	171.88
323.108	188.88
323.337	180.88
323.566	179.88
323.795	195.88
324.024	183.88
324.253	181.88
324.482	193.88
324.71	183.88
324.939	199.88
325.168	197.88
325.397	204.88
325.626	190.88
325.855	202.88
326.084	204.88
326.313	191.88
326.542	215.88
326.77	197.88
326.999	213.88
327.228	200.88
327.457	197.88
327.686	195.88
327.914	199.88
328.143	207.88
328.372	203.88
328.6	190.88
328.829	194.88
329.058	194.88
329.287	203.88
329.515	211.88
329.744	190.88
329.972	205.88
330.201	200.88
330.43	187.88
330.658	198.88
330.887	220.88
331.115	201.88
331.344	211.88
331.572	202.88
331.801	215.88
332.03	215.88
332.258	201.88
332.486	228.88
332.715	230.88
332.943	255.88
333.172	251.88
333.4	241.88
333.629	257.88
333.857	247.88
334.085	252.88
334.314	239.88
334.542	245.88
334.771	238.88
334.999	226.88
335.227	215.88
335.455	221.88
335.684	224.88
335.912	206.88
336.14	220.88
336.369	238.88
336.597	228.88
336.825	226.88
337.053	236.88
337.281	215.88
337.51	225.88
337.738	210.88
337.966	220.88
338.194	214.88
338.422	214.88
338.65	217.88
338.878	205.88
339.106	212.88
339.334	211.88
339.562	215.88
339.79	218.88
340.018	205.88
340.246	187.88
340.474	209.88
340.702	211.88
340.93	201.88
341.158	201.88
341.386	209.88
341.614	190.88
341.842	208.88
342.07	201.88
342.298	213.88
342.526	191.88
342.754	198.88
342.981	211.88
343.209	204.88
343.437	208.88
343.665	212.88
343.893	237.88
344.12	253.88
344.348	226.88
344.576	220.88
344.804	212.88
345.031	199.88
345.259	211.88
345.487	192.88
345.714	204.88
345.942	205.88
346.17	205.88
346.397	193.88
346.625	204.88
346.853	189.88
347.08	204.88
347.308	206.88
347.535	229.88
347.763	214.88
347.99	183.88
348.218	196.88
348.445	206.88
348.673	192.88
348.9	209.88
349.128	198.88
349.355	192.88
349.583	189.88
349.81	197.88
350.037	185.88
350.265	203.88
350.492	200.88
350.72	195.88
350.947	175.88
351.174	196.88
351.402	199.88
351.629	184.88
351.856	182.88
352.083	195.88
352.311	216.88
352.538	199.88
352.765	192.88
352.992	191.88
353.22	201.88
353.447	196.88
353.674	172.88
353.901	192.88
354.128	186.88
354.355	185.88
354.583	183.88
354.81	201.88
355.037	207.88
355.264	201.88
355.491	192.88
355.718	195.88
355.945	209.88
356.172	196.88
356.399	179.88
356.626	194.88
356.853	202.88
357.08	187.88
357.307	190.88
357.534	189.88
357.761	203.88
357.988	190.88
358.215	192.88
358.441	180.88
358.668	177.88
358.895	185.88
359.122	183.88
359.349	195.88
359.576	216.88
359.802	198.88
360.029	189.88
360.256	195.88
360.483	199.88
360.709	200.88
360.936	208.88
361.163	196.88
361.39	209.88
361.616	198.88
361.843	182.88
362.07	198.88
362.296	196.88
362.523	190.88
362.749	194.88
362.976	180.88
363.203	189.88
363.429	198.88
363.656	191.88
363.882	209.88
364.109	191.88
364.335	190.88
364.562	185.88
364.788	199.88
365.015	185.88
365.241	213.88
365.468	190.88
365.694	192.88
365.92	180.88
366.147	187.88
366.373	191.88
366.599	193.88
366.826	182.88
367.052	178.88
367.278	192.88
367.505	189.88
367.731	207.88
367.957	190.88
368.184	189.88
368.41	185.88
368.636	190.88
368.862	172.88
369.089	193.88
369.315	194.88
369.541	193.88
369.767	191.88
369.993	182.88
370.219	202.88
370.445	188.88
370.672	191.88
370.898	185.88
371.124	189.88
371.35	193.88
371.576	192.88
371.802	198.88
372.028	201.88
372.254	190.88
372.48	195.88
372.706	199.88
372.932	190.88
373.158	204.88
373.384	193.88
373.61	199.88
373.835	212.88
374.061	209.88
374.287	217.88
374.513	201.88
374.739	210.88
374.965	207.88
375.191	232.88
375.416	224.88
375.642	217.88
375.868	213.88
376.094	211.88
376.319	210.88
376.545	210.88
376.771	196.88
376.997	198.88
377.222	199.88
377.448	202.88
377.674	216.88
377.899	206.88
378.125	206.88
378.35	200.88
378.576	203.88
378.802	189.88
379.027	201.88
379.253	193.88
379.478	199.88
379.704	194.88
379.929	196.88
380.155	195.88
380.38	207.88
380.606	193.88
380.831	195.88
381.057	207.88
381.282	197.88
381.507	200.88
381.733	193.88
381.958	217.88
382.184	202.88
382.409	189.88
382.634	226.88
382.86	203.88
383.085	205.88
383.31	215.88
383.535	210.88
383.761	219.88
383.986	213.88
384.211	234.88
384.436	230.88
384.662	225.88
384.887	226.88
385.112	232.88
385.337	224.88
385.562	224.88
385.787	235.88
386.013	238.88
386.238	236.88
386.463	246.88
386.688	227.88
386.913	239.88
387.138	233.88
387.363	242.88
387.588	231.88
387.813	224.88
388.038	229.88
388.263	224.88
388.488	225.88
388.713	219.88
388.938	228.88
389.163	230.88
389.387	211.88
389.612	218.88
389.837	212.88
390.062	208.88
390.287	217.88
390.512	232.88
390.736	226.88
390.961	220.88
391.186	209.88
391.411	232.88
391.636	239.88
391.86	246.88
392.085	263.88
392.31	249.88
392.534	240.88
392.759	253.88
392.984	220.88
393.208	225.88
393.433	225.88
393.658	233.88
393.882	228.88
394.107	239.88
394.331	240.88
394.556	230.88
394.78	239.88
395.005	234.88
395.229	227.88
395.454	237.88
395.678	249.88
395.903	245.88
396.127	247.88
396.352	229.88
396.576	222.88
396.801	245.88
397.025	236.88
397.249	246.88
397.474	234.88
397.698	252.88
397.922	239.88
398.147	241.88
398.371	251.88
398.595	260.88
398.82	265.88
399.044	271.88
399.268	299.88
399.492	343.88
399.717	387.88
399.941	377.88
400.165	346.88
400.389	289.88
400.613	295.88
400.837	275.88
401.062	274.88
401.286	276.88
401.51	264.88
401.734	270.88
401.958	272.88
402.182	271.88
402.406	260.88
402.63	280.88
402.854	281.88
403.078	283.88
403.302	288.88
403.526	300.88
403.75	302.88
403.974	299.88
404.198	320.88
404.422	316.88
404.645	284.88
404.869	305.88
405.093	284.88
405.317	287.88
405.541	285.88
405.765	288.88
405.988	284.88
406.212	267.88
406.436	274.88
406.66	292.88
406.883	272.88
407.107	306.88
407.331	313.88
407.555	339.88
407.778	327.88
408.002	340.88
408.226	309.88
408.449	315.88
408.673	309.88
408.896	301.88
409.12	299.88
409.344	293.88
409.567	293.88
409.791	302.88
410.014	324.88
410.238	300.88
410.461	308.88
410.685	292.88
410.908	278.88
411.132	265.88
411.355	273.88
411.578	278.88
411.802	283.88
412.025	271.88
412.249	276.88
412.472	269.88
412.695	264.88
412.919	262.88
413.142	258.88
413.365	268.88
413.589	266.88
413.812	254.88
414.035	256.88
414.258	261.88
414.482	265.88
414.705	260.88
414.928	264.88
415.151	254.88
415.374	271.88
415.597	253.88
415.821	275.88
416.044	274.88
416.267	260.88
416.49	253.88
416.713	253.88
416.936	256.88
417.159	264.88
417.382	264.88
417.605	249.88
417.828	257.88
418.051	252.88
418.274	240.88
418.497	266.88
418.72	264.88
418.943	258.88
419.166	296.88
419.389	306.88
419.611	285.88
419.834	287.88
420.057	265.88
420.28	273.88
420.503	268.88
420.726	253.88
420.948	260.88
421.171	278.88
421.394	261.88
421.617	266.88
421.839	262.88
422.062	254.88
422.285	262.88
422.507	256.88
422.73	255.88
422.953	287.88
423.175	268.88
423.398	275.88
423.621	285.88
423.843	270.88
424.066	269.88
424.288	274.88
424.511	289.88
424.733	276.88
424.956	257.88
425.178	263.88
425.401	267.88
425.623	258.88
425.846	257.88
426.068	252.88
426.291	233.88
426.513	240.88
426.735	242.88
426.958	253.88
427.18	244.88
427.402	263.88
427.625	240.88
427.847	236.88
428.069	237.88
428.292	232.88
428.514	225.88
428.736	232.88
428.958	231.88
429.181	241.88
429.403	241.88
429.625	257.88
429.847	238.88
430.069	253.88
430.292	238.88
430.514	222.88
430.736	238.88
430.958	229.88
431.18	237.88
431.402	224.88
431.624	216.88
431.846	235.88
432.068	232.88
432.29	250.88
432.512	219.88
432.734	251.88
432.956	228.88
433.178	232.88
433.4	248.88
433.622	263.88
433.844	244.88
434.066	230.88
434.287	245.88
434.509	232.88
434.731	251.88
434.953	271.88
435.175	259.88
435.397	265.88
435.618	242.88
435.84	245.88
436.062	255.88
436.284	228.88
436.505	229.88
436.727	227.88
436.949	250.88
437.17	253.88
437.392	240.88
437.614	220.88
437.835	232.88
438.057	236.88
438.278	217.88
438.5	218.88
438.721	224.88
438.943	218.88
439.165	240.88
439.386	227.88
439.608	227.88
439.829	216.88
440.05	226.88
440.272	241.88
440.493	232.88
440.715	242.88
440.936	255.88
441.158	265.88
441.379	273.88
441.6	266.88
441.822	261.88
442.043	271.88
442.264	257.88
442.486	262.88
442.707	272.88
442.928	265.88
443.149	248.88
443.371	271.88
443.592	277.88
443.813	257.88
444.034	267.88
444.255	280.88
444.476	286.88
444.698	305.88
444.919	322.88
445.14	405.88
445.361	336.88
445.582	267.88
445.803	274.88
446.024	258.88
446.245	264.88
446.466	239.88
446.687	255.88
446.908	232.88
447.129	242.88
447.35	253.88
447.571	236.88
447.792	231.88
448.013	221.88
448.234	215.88
448.455	215.88
448.675	211.88
448.896	212.88
449.117	230.88
449.338	215.88
449.559	227.88
449.779	217.88
450	236.88
450.221	222.88
450.442	206.88
450.662	219.88
450.883	225.88
451.104	233.88
451.324	236.88
451.545	220.88
451.766	233.88
451.986	226.88
452.207	216.88
452.428	236.88
452.648	227.88
452.869	209.88
453.089	232.88
453.31	224.88
453.53	216.88
453.751	213.88
453.971	219.88
454.192	214.88
454.412	219.88
454.633	210.88
454.853	206.88
455.073	222.88
455.294	199.88
455.514	213.88
455.734	211.88
455.955	207.88
456.175	199.88
456.395	220.88
456.616	202.88
456.836	234.88
457.056	212.88
457.276	220.88
457.497	216.88
457.717	212.88
457.937	213.88
458.157	200.88
458.377	229.88
458.598	228.88
458.818	218.88
459.038	226.88
459.258	232.88
459.478	244.88
459.698	257.88
459.918	255.88
460.138	264.88
460.358	279.88
460.578	287.88
460.798	288.88
461.018	271.88
461.238	285.88
461.458	278.88
461.678	292.88
461.898	289.88
462.118	271.88
462.338	282.88
462.558	305.88
462.777	319.88
462.997	355.88
463.217	345.88
463.437	364.88
463.657	343.88
463.876	313.88
464.096	307.88
464.316	313.88
464.536	323.88
464.755	300.88
464.975	292.88
465.195	296.88
465.414	278.88
465.634	269.88
465.854	233.88
466.073	241.88
466.293	229.88
466.512	251.88
466.732	234.88
466.951	231.88
467.171	236.88
467.391	247.88
467.61	241.88
467.829	230.88
468.049	235.88
468.268	225.88
468.488	216.88
468.707	207.88
468.927	231.88
469.146	229.88
469.365	226.88
469.585	231.88
469.804	242.88
470.023	237.88
470.243	251.88
470.462	259.88
470.681	255.88
470.901	240.88
471.12	248.88
471.339	239.88
471.558	237.88
471.777	222.88
471.997	248.88
472.216	222.88
472.435	208.88
472.654	221.88
472.873	233.88
473.092	224.88
473.311	210.88
473.53	215.88
473.749	229.88
473.968	223.88
474.187	241.88
474.406	224.88
474.625	224.88
474.844	237.88
475.063	218.88
475.282	224.88
475.501	202.88
475.72	231.88
475.939	220.88
476.158	247.88
476.377	238.88
476.596	237.88
476.814	224.88
477.033	233.88
477.252	244.88
477.471	247.88
477.69	231.88
477.908	250.88
478.127	255.88
478.346	272.88
478.564	285.88
478.783	256.88
479.002	279.88
479.22	263.88
479.439	266.88
479.658	259.88
479.876	280.88
480.095	283.88
480.313	308.88
480.532	292.88
480.751	303.88
480.969	277.88
481.188	273.88
481.406	262.88
481.624	265.88
481.843	250.88
482.061	258.88
482.28	251.88
482.498	255.88
482.717	255.88
482.935	261.88
483.153	244.88
483.372	268.88
483.59	262.88
483.808	248.88
484.027	273.88
484.245	270.88
484.463	256.88
484.681	272.88
484.9	283.88
485.118	266.88
485.336	262.88
485.554	264.88
485.772	282.88
485.99	271.88
486.209	277.88
486.427	271.88
486.645	269.88
486.863	284.88
487.081	285.88
487.299	292.88
487.517	267.88
487.735	284.88
487.953	281.88
488.171	280.88
488.389	273.88
488.607	286.88
488.825	263.88
489.043	280.88
489.261	255.88
489.479	259.88
489.696	251.88
489.914	289.88
490.132	277.88
490.35	268.88
490.568	272.88
490.786	264.88
491.003	283.88
491.221	279.88
491.439	255.88
491.657	260.88
491.874	271.88
492.092	263.88
492.31	277.88
492.527	281.88
492.745	285.88
492.963	260.88
493.18	283.88
493.398	279.88
493.615	272.88
493.833	288.88
494.05	275.88
494.268	281.88
494.485	278.88
494.703	290.88
494.92	273.88
495.138	295.88
495.355	274.88
495.573	278.88
495.79	276.88
496.008	276.88
496.225	280.88
496.442	289.88
496.66	287.88
496.877	289.88
497.094	308.88
497.312	308.88
497.529	295.88
497.746	304.88
497.963	310.88
498.181	319.88
498.398	347.88
498.615	344.88
498.832	360.88
499.049	396.88
499.267	433.88
499.484	453.88
499.701	513.88
499.918	553.88
500.135	643.88
500.352	728.88
500.569	795.88
500.786	755.88
501.003	719.88
501.22	629.88
501.437	547.88
501.654	492.88
501.871	440.88
502.088	400.88
502.305	384.88
502.522	378.88
502.739	369.88
502.956	334.88
503.172	343.88
503.389	309.88
