Data from 0.5MCu(NO3)2.Standard.Lamp.E10.CV._HRD10591_16-04-24-752.txt Node
Date: Mon Jul 22 16:04:24 EDT 2019
User: cochatt
Spectrometer: HR+D1059
Trigger mode: 1
Integration Time (sec): 1.000000E-1
Scans to average: 1
Electric dark correction enabled: true
Nonlinearity correction enabled: false
Boxcar width: 0
XAxis mode: Wavelengths
Number of Pixels in Spectrum: 2048
>>>>>Begin Spectral Data<<<<<
223.165	-11.88
223.4	-11.88
223.635	-11.88
223.869	-11.88
224.104	-11.88
224.338	-18.88
224.573	-20.88
224.808	-16.88
225.042	-7.88
225.277	5.12
225.511	-4.88
225.746	1.12
225.98	18.12
226.215	13.12
226.449	11.12
226.683	25.12
226.918	13.12
227.152	18.12
227.387	51.12
227.621	47.12
227.856	42.12
228.09	35.12
228.324	51.12
228.559	72.12
228.793	69.12
229.027	67.12
229.262	71.12
229.496	75.12
229.73	63.12
229.964	76.12
230.199	65.12
230.433	79.12
230.667	75.12
230.901	88.12
231.136	89.12
231.37	85.12
231.604	88.12
231.838	85.12
232.072	85.12
232.306	91.12
232.541	93.12
232.775	100.12
233.009	88.12
233.243	83.12
233.477	85.12
233.711	91.12
233.945	91.12
234.179	89.12
234.413	82.12
234.647	93.12
234.881	86.12
235.115	86.12
235.349	96.12
235.583	87.12
235.817	76.12
236.051	95.12
236.285	91.12
236.519	93.12
236.753	83.12
236.987	74.12
237.221	89.12
237.455	92.12
237.689	89.12
237.922	87.12
238.156	93.12
238.39	75.12
238.624	82.12
238.858	94.12
239.091	90.12
239.325	70.12
239.559	67.12
239.793	100.12
240.027	97.12
240.26	89.12
240.494	104.12
240.728	91.12
240.961	100.12
241.195	98.12
241.429	90.12
241.662	91.12
241.896	86.12
242.13	90.12
242.363	80.12
242.597	104.12
242.83	101.12
243.064	83.12
243.298	87.12
243.531	93.12
243.765	91.12
243.998	88.12
244.232	93.12
244.465	103.12
244.699	81.12
244.932	98.12
245.166	108.12
245.399	93.12
245.633	89.12
245.866	89.12
246.099	95.12
246.333	95.12
246.566	93.12
246.8	98.12
247.033	102.12
247.266	115.12
247.5	92.12
247.733	87.12
247.966	102.12
248.2	116.12
248.433	104.12
248.666	104.12
248.899	97.12
249.133	90.12
249.366	117.12
249.599	105.12
249.832	106.12
250.066	111.12
250.299	107.12
250.532	101.12
250.765	102.12
250.998	98.12
251.231	100.12
251.465	96.12
251.698	105.12
251.931	114.12
252.164	112.12
252.397	106.12
252.63	107.12
252.863	114.12
253.096	108.12
253.329	99.12
253.562	115.12
253.795	107.12
254.028	123.12
254.261	120.12
254.494	111.12
254.727	109.12
254.96	109.12
255.193	112.12
255.426	117.12
255.659	118.12
255.892	134.12
256.124	117.12
256.357	114.12
256.59	91.12
256.823	117.12
257.056	119.12
257.289	111.12
257.521	109.12
257.754	109.12
257.987	106.12
258.22	116.12
258.452	130.12
258.685	121.12
258.918	120.12
259.151	120.12
259.383	121.12
259.616	118.12
259.849	124.12
260.081	115.12
260.314	121.12
260.547	108.12
260.779	104.12
261.012	83.12
261.244	130.12
261.477	106.12
261.71	129.12
261.942	116.12
262.175	114.12
262.407	95.12
262.64	127.12
262.872	121.12
263.105	123.12
263.337	124.12
263.57	115.12
263.802	123.12
264.035	126.12
264.267	137.12
264.499	121.12
264.732	125.12
264.964	137.12
265.197	129.12
265.429	136.12
265.661	139.12
265.894	138.12
266.126	122.12
266.358	119.12
266.591	116.12
266.823	119.12
267.055	138.12
267.287	121.12
267.52	109.12
267.752	125.12
267.984	131.12
268.216	140.12
268.448	114.12
268.681	141.12
268.913	124.12
269.145	115.12
269.377	141.12
269.609	129.12
269.841	135.12
270.073	132.12
270.306	126.12
270.538	114.12
270.77	117.12
271.002	141.12
271.234	138.12
271.466	137.12
271.698	130.12
271.93	127.12
272.162	123.12
272.394	128.12
272.626	123.12
272.858	135.12
273.09	131.12
273.322	134.12
273.553	131.12
273.785	123.12
274.017	122.12
274.249	141.12
274.481	138.12
274.713	131.12
274.945	134.12
275.176	136.12
275.408	130.12
275.64	138.12
275.872	142.12
276.104	134.12
276.335	152.12
276.567	133.12
276.799	129.12
277.031	147.12
277.262	141.12
277.494	149.12
277.726	137.12
277.957	132.12
278.189	153.12
278.421	147.12
278.652	137.12
278.884	135.12
279.115	146.12
279.347	133.12
279.579	135.12
279.81	149.12
280.042	137.12
280.273	147.12
280.505	135.12
280.736	140.12
280.968	144.12
281.199	145.12
281.431	156.12
281.662	139.12
281.894	139.12
282.125	131.12
282.356	167.12
282.588	155.12
282.819	137.12
283.051	132.12
283.282	142.12
283.513	166.12
283.745	152.12
283.976	147.12
284.207	139.12
284.439	147.12
284.67	141.12
284.901	150.12
285.132	151.12
285.364	136.12
285.595	147.12
285.826	163.12
286.057	176.12
286.288	165.12
286.52	147.12
286.751	147.12
286.982	146.12
287.213	147.12
287.444	165.12
287.675	149.12
287.906	148.12
288.138	156.12
288.369	150.12
288.6	156.12
288.831	174.12
289.062	155.12
289.293	153.12
289.524	167.12
289.755	153.12
289.986	146.12
290.217	171.12
290.448	158.12
290.679	179.12
290.91	168.12
291.141	159.12
291.371	165.12
291.602	154.12
291.833	177.12
292.064	161.12
292.295	168.12
292.526	174.12
292.757	166.12
292.987	171.12
293.218	169.12
293.449	165.12
293.68	176.12
293.91	169.12
294.141	177.12
294.372	175.12
294.603	159.12
294.833	164.12
295.064	161.12
295.295	167.12
295.525	160.12
295.756	170.12
295.987	165.12
296.217	172.12
296.448	176.12
296.679	175.12
296.909	164.12
297.14	159.12
297.37	173.12
297.601	183.12
297.831	182.12
298.062	179.12
298.292	185.12
298.523	171.12
298.753	181.12
298.984	181.12
299.214	176.12
299.445	185.12
299.675	161.12
299.905	184.12
300.136	177.12
300.366	192.12
300.597	191.12
300.827	171.12
301.057	164.12
301.288	179.12
301.518	172.12
301.748	181.12
301.979	178.12
302.209	194.12
302.439	183.12
302.669	168.12
302.9	193.12
303.13	168.12
303.36	180.12
303.59	170.12
303.82	179.12
304.051	177.12
304.281	184.12
304.511	188.12
304.741	173.12
304.971	163.12
305.201	174.12
305.431	171.12
305.661	183.12
305.891	178.12
306.121	179.12
306.352	187.12
306.582	190.12
306.812	194.12
307.042	180.12
307.272	171.12
307.502	193.12
307.731	171.12
307.961	169.12
308.191	172.12
308.421	188.12
308.651	179.12
308.881	185.12
309.111	196.12
309.341	171.12
309.571	156.12
309.8	177.12
310.03	183.12
310.26	189.12
310.49	172.12
310.72	172.12
310.949	171.12
311.179	167.12
311.409	169.12
311.639	180.12
311.868	181.12
312.098	179.12
312.328	193.12
312.557	193.12
312.787	188.12
313.017	185.12
313.246	190.12
313.476	156.12
313.706	193.12
313.935	206.12
314.165	202.12
314.394	184.12
314.624	182.12
314.853	178.12
315.083	189.12
315.312	195.12
315.542	180.12
315.771	179.12
316.001	172.12
316.23	187.12
316.46	187.12
316.689	195.12
316.919	196.12
317.148	186.12
317.377	184.12
317.607	178.12
317.836	183.12
318.065	178.12
318.295	182.12
318.524	157.12
318.753	160.12
318.983	185.12
319.212	184.12
319.441	187.12
319.67	179.12
319.9	187.12
320.129	181.12
320.358	174.12
320.587	182.12
320.816	176.12
321.046	194.12
321.275	177.12
321.504	182.12
321.733	176.12
321.962	190.12
322.191	186.12
322.42	180.12
322.649	187.12
322.878	185.12
323.108	184.12
323.337	191.12
323.566	183.12
323.795	197.12
324.024	186.12
324.253	181.12
324.482	184.12
324.71	179.12
324.939	191.12
325.168	184.12
325.397	183.12
325.626	195.12
325.855	179.12
326.084	184.12
326.313	206.12
326.542	203.12
326.77	217.12
326.999	197.12
327.228	193.12
327.457	181.12
327.686	193.12
327.914	186.12
328.143	203.12
328.372	187.12
328.6	189.12
328.829	196.12
329.058	197.12
329.287	193.12
329.515	191.12
329.744	203.12
329.972	200.12
330.201	187.12
330.43	207.12
330.658	205.12
330.887	219.12
331.115	205.12
331.344	203.12
331.572	212.12
331.801	223.12
332.03	205.12
332.258	219.12
332.486	223.12
332.715	221.12
332.943	231.12
333.172	254.12
333.4	246.12
333.629	263.12
333.857	257.12
334.085	226.12
334.314	235.12
334.542	236.12
334.771	228.12
334.999	246.12
335.227	231.12
335.455	230.12
335.684	212.12
335.912	219.12
336.14	237.12
336.369	228.12
336.597	208.12
336.825	231.12
337.053	201.12
337.281	223.12
337.51	220.12
337.738	204.12
337.966	209.12
338.194	205.12
338.422	188.12
338.65	200.12
338.878	201.12
339.106	211.12
339.334	226.12
339.562	209.12
339.79	210.12
340.018	201.12
340.246	188.12
340.474	199.12
340.702	211.12
340.93	192.12
341.158	201.12
341.386	206.12
341.614	214.12
341.842	199.12
342.07	188.12
342.298	196.12
342.526	203.12
342.754	202.12
342.981	204.12
343.209	194.12
343.437	228.12
343.665	230.12
343.893	228.12
344.12	219.12
344.348	225.12
344.576	225.12
344.804	214.12
345.031	201.12
345.259	203.12
345.487	192.12
345.714	211.12
345.942	189.12
346.17	222.12
346.397	205.12
346.625	206.12
346.853	194.12
347.08	191.12
347.308	205.12
347.535	215.12
347.763	198.12
347.99	208.12
348.218	195.12
348.445	191.12
348.673	211.12
348.9	195.12
349.128	183.12
349.355	195.12
349.583	189.12
349.81	186.12
350.037	205.12
350.265	204.12
350.492	185.12
350.72	197.12
350.947	201.12
351.174	198.12
351.402	179.12
351.629	200.12
351.856	193.12
352.083	179.12
352.311	179.12
352.538	204.12
352.765	210.12
352.992	193.12
353.22	195.12
353.447	187.12
353.674	197.12
353.901	175.12
354.128	163.12
354.355	180.12
354.583	177.12
354.81	194.12
355.037	197.12
355.264	193.12
355.491	196.12
355.718	194.12
355.945	186.12
356.172	197.12
356.399	187.12
356.626	183.12
356.853	189.12
357.08	177.12
357.307	183.12
357.534	183.12
357.761	200.12
357.988	188.12
358.215	184.12
358.441	191.12
358.668	200.12
358.895	193.12
359.122	187.12
359.349	194.12
359.576	197.12
359.802	188.12
360.029	187.12
360.256	180.12
360.483	182.12
360.709	200.12
360.936	210.12
361.163	179.12
361.39	195.12
361.616	196.12
361.843	174.12
362.07	204.12
362.296	187.12
362.523	195.12
362.749	188.12
362.976	189.12
363.203	196.12
363.429	188.12
363.656	188.12
363.882	201.12
364.109	214.12
364.335	175.12
364.562	199.12
364.788	191.12
365.015	188.12
365.241	187.12
365.468	191.12
365.694	177.12
365.92	192.12
366.147	195.12
366.373	170.12
366.599	192.12
366.826	187.12
367.052	180.12
367.278	200.12
367.505	179.12
367.731	201.12
367.957	202.12
368.184	200.12
368.41	191.12
368.636	202.12
368.862	199.12
369.089	203.12
369.315	204.12
369.541	187.12
369.767	188.12
369.993	199.12
370.219	193.12
370.445	198.12
370.672	196.12
370.898	197.12
371.124	200.12
371.35	203.12
371.576	204.12
371.802	197.12
372.028	206.12
372.254	201.12
372.48	194.12
372.706	193.12
372.932	202.12
373.158	211.12
373.384	216.12
373.61	203.12
373.835	218.12
374.061	214.12
374.287	183.12
374.513	205.12
374.739	198.12
374.965	204.12
375.191	210.12
375.416	227.12
375.642	207.12
375.868	205.12
376.094	193.12
376.319	182.12
376.545	208.12
376.771	207.12
376.997	192.12
377.222	199.12
377.448	201.12
377.674	194.12
377.899	203.12
378.125	210.12
378.35	192.12
378.576	191.12
378.802	189.12
379.027	195.12
379.253	191.12
379.478	200.12
379.704	189.12
379.929	195.12
380.155	206.12
380.38	183.12
380.606	205.12
380.831	192.12
381.057	190.12
381.282	208.12
381.507	194.12
381.733	197.12
381.958	194.12
382.184	193.12
382.409	189.12
382.634	205.12
382.86	212.12
383.085	224.12
383.31	241.12
383.535	212.12
383.761	209.12
383.986	229.12
384.211	222.12
384.436	213.12
384.662	225.12
384.887	234.12
385.112	235.12
385.337	236.12
385.562	251.12
385.787	231.12
386.013	225.12
386.238	221.12
386.463	217.12
386.688	234.12
386.913	239.12
387.138	226.12
387.363	213.12
387.588	236.12
387.813	228.12
388.038	217.12
388.263	213.12
388.488	228.12
388.713	228.12
388.938	212.12
389.163	218.12
389.387	229.12
389.612	223.12
389.837	234.12
390.062	225.12
390.287	224.12
390.512	223.12
390.736	211.12
390.961	239.12
391.186	236.12
391.411	223.12
391.636	253.12
391.86	231.12
392.085	251.12
392.31	250.12
392.534	220.12
392.759	241.12
392.984	234.12
393.208	229.12
393.433	250.12
393.658	235.12
393.882	227.12
394.107	226.12
394.331	233.12
394.556	214.12
394.78	243.12
395.005	251.12
395.229	234.12
395.454	231.12
395.678	254.12
395.903	248.12
396.127	234.12
396.352	232.12
396.576	230.12
396.801	236.12
397.025	241.12
397.249	235.12
397.474	239.12
397.698	239.12
397.922	252.12
398.147	228.12
398.371	235.12
398.595	228.12
398.82	259.12
399.044	260.12
399.268	276.12
399.492	336.12
399.717	386.12
399.941	405.12
400.165	348.12
400.389	301.12
400.613	269.12
400.837	272.12
401.062	275.12
401.286	265.12
401.51	263.12
401.734	252.12
401.958	257.12
402.182	271.12
402.406	251.12
402.63	274.12
402.854	281.12
403.078	292.12
403.302	293.12
403.526	296.12
403.75	286.12
403.974	305.12
404.198	323.12
404.422	324.12
404.645	300.12
404.869	284.12
405.093	288.12
405.317	295.12
405.541	287.12
405.765	280.12
405.988	272.12
406.212	287.12
406.436	292.12
406.66	296.12
406.883	292.12
407.107	307.12
407.331	327.12
407.555	340.12
407.778	319.12
408.002	332.12
408.226	317.12
408.449	303.12
408.673	298.12
408.896	307.12
409.12	290.12
409.344	281.12
409.567	311.12
409.791	285.12
410.014	297.12
410.238	305.12
410.461	291.12
410.685	306.12
410.908	300.12
411.132	292.12
411.355	269.12
411.578	261.12
411.802	273.12
412.025	277.12
412.249	257.12
412.472	273.12
412.695	271.12
412.919	256.12
413.142	263.12
413.365	247.12
413.589	272.12
413.812	266.12
414.035	268.12
414.258	285.12
414.482	255.12
414.705	274.12
414.928	251.12
415.151	252.12
415.374	277.12
415.597	263.12
415.821	265.12
416.044	252.12
416.267	237.12
416.49	251.12
416.713	279.12
416.936	261.12
417.159	259.12
417.382	287.12
417.605	258.12
417.828	270.12
418.051	260.12
418.274	273.12
418.497	267.12
418.72	242.12
418.943	261.12
419.166	289.12
419.389	289.12
419.611	300.12
419.834	273.12
420.057	279.12
420.28	260.12
420.503	274.12
420.726	265.12
420.948	266.12
421.171	258.12
421.394	269.12
421.617	274.12
421.839	255.12
422.062	282.12
422.285	257.12
422.507	267.12
422.73	255.12
422.953	269.12
423.175	264.12
423.398	289.12
423.621	287.12
423.843	297.12
424.066	278.12
424.288	279.12
424.511	271.12
424.733	279.12
424.956	278.12
425.178	255.12
425.401	257.12
425.623	261.12
425.846	263.12
426.068	251.12
426.291	266.12
426.513	255.12
426.735	241.12
426.958	251.12
427.18	233.12
427.402	235.12
427.625	231.12
427.847	244.12
428.069	241.12
428.292	259.12
428.514	229.12
428.736	232.12
428.958	232.12
429.181	228.12
429.403	242.12
429.625	241.12
429.847	253.12
430.069	243.12
430.292	226.12
430.514	223.12
430.736	232.12
430.958	231.12
431.18	237.12
431.402	258.12
431.624	220.12
431.846	239.12
432.068	223.12
432.29	235.12
432.512	255.12
432.734	247.12
432.956	237.12
433.178	234.12
433.4	239.12
433.622	245.12
433.844	242.12
434.066	263.12
434.287	242.12
434.509	264.12
434.731	275.12
434.953	246.12
435.175	275.12
435.397	263.12
435.618	244.12
435.84	248.12
436.062	226.12
436.284	232.12
436.505	237.12
436.727	247.12
436.949	243.12
437.17	248.12
437.392	230.12
437.614	226.12
437.835	231.12
438.057	219.12
438.278	220.12
438.5	226.12
438.721	225.12
438.943	221.12
439.165	230.12
439.386	239.12
439.608	224.12
439.829	241.12
440.05	240.12
440.272	228.12
440.493	232.12
440.715	235.12
440.936	242.12
441.158	242.12
441.379	269.12
441.6	268.12
441.822	285.12
442.043	282.12
442.264	240.12
442.486	250.12
442.707	262.12
442.928	251.12
443.149	264.12
443.371	250.12
443.592	255.12
443.813	263.12
444.034	264.12
444.255	277.12
444.476	288.12
444.698	299.12
444.919	327.12
445.14	419.12
445.361	335.12
445.582	272.12
445.803	232.12
446.024	249.12
446.245	241.12
446.466	243.12
446.687	243.12
446.908	257.12
447.129	237.12
447.35	225.12
447.571	225.12
447.792	225.12
448.013	221.12
448.234	211.12
448.455	212.12
448.675	221.12
448.896	208.12
449.117	204.12
449.338	214.12
449.559	213.12
449.779	202.12
450	228.12
450.221	239.12
450.442	219.12
450.662	226.12
450.883	241.12
451.104	253.12
451.324	225.12
451.545	249.12
451.766	230.12
451.986	233.12
452.207	229.12
452.428	242.12
452.648	241.12
452.869	206.12
453.089	220.12
453.31	238.12
453.53	212.12
453.751	223.12
453.971	233.12
454.192	234.12
454.412	203.12
454.633	211.12
454.853	196.12
455.073	225.12
455.294	212.12
455.514	219.12
455.734	211.12
455.955	204.12
456.175	202.12
456.395	210.12
456.616	231.12
456.836	235.12
457.056	207.12
457.276	183.12
457.497	203.12
457.717	212.12
457.937	204.12
458.157	207.12
458.377	209.12
458.598	219.12
458.818	240.12
459.038	241.12
459.258	233.12
459.478	248.12
459.698	253.12
459.918	235.12
460.138	253.12
460.358	260.12
460.578	271.12
460.798	271.12
461.018	268.12
461.238	289.12
461.458	263.12
461.678	273.12
461.898	275.12
462.118	291.12
462.338	294.12
462.558	305.12
462.777	307.12
462.997	343.12
463.217	379.12
463.437	361.12
463.657	334.12
463.876	312.12
464.096	303.12
464.316	309.12
464.536	319.12
464.755	301.12
464.975	304.12
465.195	291.12
465.414	258.12
465.634	262.12
465.854	257.12
466.073	232.12
466.293	267.12
466.512	233.12
466.732	221.12
466.951	247.12
467.171	237.12
467.391	249.12
467.61	223.12
467.829	243.12
468.049	233.12
468.268	224.12
468.488	219.12
468.707	208.12
468.927	228.12
469.146	236.12
469.365	215.12
469.585	243.12
469.804	229.12
470.023	226.12
470.243	243.12
470.462	242.12
470.681	261.12
470.901	256.12
471.12	236.12
471.339	231.12
471.558	252.12
471.777	234.12
471.997	223.12
472.216	229.12
472.435	228.12
472.654	228.12
472.873	243.12
473.092	218.12
473.311	226.12
473.53	226.12
473.749	236.12
473.968	233.12
474.187	205.12
474.406	222.12
474.625	227.12
474.844	218.12
475.063	235.12
475.282	229.12
475.501	239.12
475.72	224.12
475.939	218.12
476.158	212.12
476.377	222.12
476.596	235.12
476.814	219.12
477.033	224.12
477.252	246.12
477.471	247.12
477.69	227.12
477.908	236.12
478.127	252.12
478.346	275.12
478.564	278.12
478.783	248.12
479.002	273.12
479.22	285.12
479.439	278.12
479.658	267.12
479.876	275.12
480.095	268.12
480.313	301.12
480.532	308.12
480.751	309.12
480.969	277.12
481.188	253.12
481.406	264.12
481.624	260.12
481.843	267.12
482.061	260.12
482.28	266.12
482.498	248.12
482.717	251.12
482.935	257.12
483.153	284.12
483.372	246.12
483.59	255.12
483.808	259.12
484.027	258.12
484.245	247.12
484.463	253.12
484.681	270.12
484.9	265.12
485.118	269.12
485.336	266.12
485.554	267.12
485.772	288.12
485.99	291.12
486.209	264.12
486.427	284.12
486.645	278.12
486.863	283.12
487.081	269.12
487.299	281.12
487.517	272.12
487.735	264.12
487.953	278.12
488.171	289.12
488.389	255.12
488.607	255.12
488.825	263.12
489.043	249.12
489.261	275.12
489.479	246.12
489.696	272.12
489.914	265.12
490.132	268.12
490.35	259.12
490.568	283.12
490.786	273.12
491.003	256.12
491.221	274.12
491.439	265.12
491.657	275.12
491.874	280.12
492.092	273.12
492.31	266.12
492.527	262.12
492.745	272.12
492.963	275.12
493.18	283.12
493.398	271.12
493.615	288.12
493.833	275.12
494.05	272.12
494.268	290.12
494.485	280.12
494.703	290.12
494.92	261.12
495.138	280.12
495.355	309.12
495.573	281.12
495.79	268.12
496.008	298.12
496.225	300.12
496.442	284.12
496.66	298.12
496.877	318.12
497.094	320.12
497.312	321.12
497.529	288.12
497.746	291.12
497.963	312.12
498.181	317.12
498.398	348.12
498.615	356.12
498.832	375.12
499.049	395.12
499.267	431.12
499.484	466.12
499.701	498.12
499.918	547.12
500.135	648.12
500.352	746.12
500.569	789.12
500.786	782.12
501.003	716.12
501.22	614.12
501.437	563.12
501.654	490.12
501.871	456.12
502.088	413.12
502.305	391.12
502.522	387.12
502.739	360.12
502.956	345.12
503.172	355.12
