Data from 0.5MCu(NO3)2.Standard.Lamp.E10.CV._HRD10591_16-05-22-753.txt Node
Date: Mon Jul 22 16:05:22 EDT 2019
User: cochatt
Spectrometer: HR+D1059
Trigger mode: 1
Integration Time (sec): 1.000000E-1
Scans to average: 1
Electric dark correction enabled: true
Nonlinearity correction enabled: false
Boxcar width: 0
XAxis mode: Wavelengths
Number of Pixels in Spectrum: 2048
>>>>>Begin Spectral Data<<<<<
223.165	-23.12
223.4	-23.12
223.635	-23.12
223.869	-18.12
224.104	-22.12
224.338	-14.12
224.573	-20.12
224.808	-17.12
225.042	1.88
225.277	-6.12
225.511	-0.12
225.746	-1.12
225.98	5.88
226.215	12.88
226.449	21.88
226.683	22.88
226.918	20.88
227.152	35.88
227.387	39.88
227.621	33.88
227.856	49.88
228.09	24.88
228.324	55.88
228.559	54.88
228.793	51.88
229.027	63.88
229.262	76.88
229.496	74.88
229.73	75.88
229.964	91.88
230.199	76.88
230.433	91.88
230.667	84.88
230.901	93.88
231.136	80.88
231.37	98.88
231.604	92.88
231.838	97.88
232.072	96.88
232.306	84.88
232.541	90.88
232.775	99.88
233.009	103.88
233.243	94.88
233.477	89.88
233.711	96.88
233.945	90.88
234.179	100.88
234.413	89.88
234.647	100.88
234.881	102.88
235.115	102.88
235.349	101.88
235.583	106.88
235.817	99.88
236.051	107.88
236.285	92.88
236.519	103.88
236.753	100.88
236.987	91.88
237.221	98.88
237.455	96.88
237.689	104.88
237.922	92.88
238.156	102.88
238.39	97.88
238.624	93.88
238.858	92.88
239.091	82.88
239.325	116.88
239.559	91.88
239.793	89.88
240.027	100.88
240.26	106.88
240.494	96.88
240.728	101.88
240.961	102.88
241.195	108.88
241.429	113.88
241.662	93.88
241.896	114.88
242.13	87.88
242.363	120.88
242.597	100.88
242.83	104.88
243.064	98.88
243.298	96.88
243.531	113.88
243.765	101.88
243.998	109.88
244.232	96.88
244.465	106.88
244.699	117.88
244.932	95.88
245.166	109.88
245.399	129.88
245.633	105.88
245.866	113.88
246.099	120.88
246.333	116.88
246.566	111.88
246.8	110.88
247.033	120.88
247.266	123.88
247.5	117.88
247.733	118.88
247.966	107.88
248.2	131.88
248.433	116.88
248.666	122.88
248.899	113.88
249.133	121.88
249.366	122.88
249.599	123.88
249.832	119.88
250.066	117.88
250.299	110.88
250.532	129.88
250.765	109.88
250.998	115.88
251.231	107.88
251.465	121.88
251.698	133.88
251.931	114.88
252.164	130.88
252.397	124.88
252.63	127.88
252.863	122.88
253.096	126.88
253.329	126.88
253.562	120.88
253.795	131.88
254.028	129.88
254.261	122.88
254.494	139.88
254.727	138.88
254.96	121.88
255.193	141.88
255.426	140.88
255.659	136.88
255.892	129.88
256.124	139.88
256.357	130.88
256.59	137.88
256.823	117.88
257.056	128.88
257.289	131.88
257.521	124.88
257.754	140.88
257.987	150.88
258.22	140.88
258.452	144.88
258.685	135.88
258.918	142.88
259.151	144.88
259.383	149.88
259.616	123.88
259.849	135.88
260.081	135.88
260.314	151.88
260.547	139.88
260.779	144.88
261.012	129.88
261.244	142.88
261.477	139.88
261.71	148.88
261.942	141.88
262.175	142.88
262.407	152.88
262.64	151.88
262.872	119.88
263.105	146.88
263.337	135.88
263.57	149.88
263.802	153.88
264.035	156.88
264.267	140.88
264.499	147.88
264.732	150.88
264.964	153.88
265.197	149.88
265.429	152.88
265.661	158.88
265.894	143.88
266.126	149.88
266.358	154.88
266.591	154.88
266.823	151.88
267.055	153.88
267.287	164.88
267.52	144.88
267.752	139.88
267.984	161.88
268.216	159.88
268.448	165.88
268.681	167.88
268.913	155.88
269.145	156.88
269.377	153.88
269.609	158.88
269.841	170.88
270.073	152.88
270.306	153.88
270.538	152.88
270.77	163.88
271.002	153.88
271.234	157.88
271.466	180.88
271.698	167.88
271.93	169.88
272.162	152.88
272.394	179.88
272.626	153.88
272.858	158.88
273.09	162.88
273.322	155.88
273.553	157.88
273.785	170.88
274.017	174.88
274.249	161.88
274.481	189.88
274.713	170.88
274.945	174.88
275.176	189.88
275.408	163.88
275.64	164.88
275.872	173.88
276.104	160.88
276.335	181.88
276.567	181.88
276.799	181.88
277.031	181.88
277.262	186.88
277.494	155.88
277.726	177.88
277.957	177.88
278.189	174.88
278.421	188.88
278.652	191.88
278.884	182.88
279.115	178.88
279.347	179.88
279.579	180.88
279.81	193.88
280.042	188.88
280.273	194.88
280.505	198.88
280.736	202.88
280.968	193.88
281.199	193.88
281.431	194.88
281.662	192.88
281.894	187.88
282.125	184.88
282.356	208.88
282.588	192.88
282.819	194.88
283.051	194.88
283.282	182.88
283.513	212.88
283.745	200.88
283.976	201.88
284.207	183.88
284.439	215.88
284.67	193.88
284.901	203.88
285.132	196.88
285.364	209.88
285.595	205.88
285.826	197.88
286.057	198.88
286.288	204.88
286.52	188.88
286.751	181.88
286.982	207.88
287.213	197.88
287.444	201.88
287.675	196.88
287.906	198.88
288.138	207.88
288.369	212.88
288.6	205.88
288.831	230.88
289.062	217.88
289.293	207.88
289.524	205.88
289.755	202.88
289.986	220.88
290.217	205.88
290.448	206.88
290.679	206.88
290.91	215.88
291.141	213.88
291.371	207.88
291.602	205.88
291.833	217.88
292.064	226.88
292.295	209.88
292.526	210.88
292.757	221.88
292.987	225.88
293.218	217.88
293.449	210.88
293.68	226.88
293.91	215.88
294.141	220.88
294.372	214.88
294.603	215.88
294.833	205.88
295.064	213.88
295.295	220.88
295.525	218.88
295.756	228.88
295.987	213.88
296.217	210.88
296.448	217.88
296.679	225.88
296.909	211.88
297.14	232.88
297.37	227.88
297.601	235.88
297.831	224.88
298.062	231.88
298.292	230.88
298.523	235.88
298.753	244.88
298.984	241.88
299.214	227.88
299.445	236.88
299.675	230.88
299.905	236.88
300.136	222.88
300.366	222.88
300.597	221.88
300.827	234.88
301.057	226.88
301.288	243.88
301.518	244.88
301.748	241.88
301.979	236.88
302.209	247.88
302.439	230.88
302.669	259.88
302.9	248.88
303.13	230.88
303.36	229.88
303.59	216.88
303.82	252.88
304.051	241.88
304.281	234.88
304.511	253.88
304.741	233.88
304.971	234.88
305.201	245.88
305.431	229.88
305.661	240.88
305.891	237.88
306.121	233.88
306.352	228.88
306.582	219.88
306.812	243.88
307.042	238.88
307.272	234.88
307.502	240.88
307.731	245.88
307.961	238.88
308.191	221.88
308.421	231.88
308.651	252.88
308.881	245.88
309.111	258.88
309.341	239.88
309.571	237.88
309.8	225.88
310.03	227.88
310.26	218.88
310.49	234.88
310.72	249.88
310.949	238.88
311.179	227.88
311.409	234.88
311.639	252.88
311.868	227.88
312.098	255.88
312.328	229.88
312.557	251.88
312.787	239.88
313.017	259.88
313.246	250.88
313.476	264.88
313.706	253.88
313.935	249.88
314.165	244.88
314.394	263.88
314.624	258.88
314.853	243.88
315.083	245.88
315.312	248.88
315.542	246.88
315.771	245.88
316.001	234.88
316.23	245.88
316.46	234.88
316.689	231.88
316.919	246.88
317.148	253.88
317.377	239.88
317.607	244.88
317.836	230.88
318.065	233.88
318.295	259.88
318.524	233.88
318.753	243.88
318.983	258.88
319.212	242.88
319.441	247.88
319.67	246.88
319.9	241.88
320.129	241.88
320.358	256.88
320.587	256.88
320.816	236.88
321.046	233.88
321.275	241.88
321.504	240.88
321.733	244.88
321.962	237.88
322.191	254.88
322.42	259.88
322.649	249.88
322.878	237.88
323.108	247.88
323.337	255.88
323.566	257.88
323.795	250.88
324.024	245.88
324.253	241.88
324.482	241.88
324.71	226.88
324.939	257.88
325.168	247.88
325.397	244.88
325.626	257.88
325.855	261.88
326.084	266.88
326.313	253.88
326.542	265.88
326.77	259.88
326.999	262.88
327.228	261.88
327.457	264.88
327.686	261.88
327.914	259.88
328.143	283.88
328.372	260.88
328.6	256.88
328.829	270.88
329.058	267.88
329.287	268.88
329.515	259.88
329.744	260.88
329.972	256.88
330.201	267.88
330.43	261.88
330.658	263.88
330.887	266.88
331.115	268.88
331.344	261.88
331.572	272.88
331.801	286.88
332.03	281.88
332.258	292.88
332.486	295.88
332.715	311.88
332.943	317.88
333.172	313.88
333.4	349.88
333.629	333.88
333.857	351.88
334.085	334.88
334.314	327.88
334.542	337.88
334.771	321.88
334.999	323.88
335.227	330.88
335.455	310.88
335.684	314.88
335.912	299.88
336.14	332.88
336.369	315.88
336.597	294.88
336.825	314.88
337.053	290.88
337.281	302.88
337.51	308.88
337.738	301.88
337.966	298.88
338.194	292.88
338.422	273.88
338.65	295.88
338.878	271.88
339.106	278.88
339.334	299.88
339.562	275.88
339.79	262.88
340.018	281.88
340.246	274.88
340.474	259.88
340.702	277.88
340.93	285.88
341.158	279.88
341.386	251.88
341.614	285.88
341.842	263.88
342.07	275.88
342.298	275.88
342.526	278.88
342.754	235.88
342.981	259.88
343.209	266.88
343.437	283.88
343.665	305.88
343.893	320.88
344.12	316.88
344.348	327.88
344.576	310.88
344.804	266.88
345.031	293.88
345.259	291.88
345.487	263.88
345.714	283.88
345.942	265.88
346.17	268.88
346.397	258.88
346.625	267.88
346.853	253.88
347.08	253.88
347.308	269.88
347.535	271.88
347.763	292.88
347.99	277.88
348.218	283.88
348.445	279.88
348.673	283.88
348.9	257.88
349.128	266.88
349.355	268.88
349.583	269.88
349.81	266.88
350.037	269.88
350.265	265.88
350.492	269.88
350.72	257.88
350.947	270.88
351.174	253.88
351.402	248.88
351.629	265.88
351.856	258.88
352.083	242.88
352.311	264.88
352.538	270.88
352.765	267.88
352.992	272.88
353.22	258.88
353.447	262.88
353.674	271.88
353.901	253.88
354.128	245.88
354.355	267.88
354.583	279.88
354.81	243.88
355.037	241.88
355.264	265.88
355.491	264.88
355.718	264.88
355.945	260.88
356.172	262.88
356.399	261.88
356.626	248.88
356.853	261.88
357.08	269.88
357.307	251.88
357.534	263.88
357.761	239.88
357.988	268.88
358.215	268.88
358.441	262.88
358.668	258.88
358.895	251.88
359.122	250.88
359.349	254.88
359.576	263.88
359.802	259.88
360.029	257.88
360.256	265.88
360.483	261.88
360.709	256.88
360.936	266.88
361.163	241.88
361.39	249.88
361.616	263.88
361.843	252.88
362.07	252.88
362.296	239.88
362.523	264.88
362.749	260.88
362.976	241.88
363.203	244.88
363.429	233.88
363.656	254.88
363.882	250.88
364.109	249.88
364.335	250.88
364.562	246.88
364.788	246.88
365.015	258.88
365.241	250.88
365.468	252.88
365.694	231.88
365.92	230.88
366.147	275.88
366.373	253.88
366.599	247.88
366.826	256.88
367.052	252.88
367.278	265.88
367.505	255.88
367.731	258.88
367.957	271.88
368.184	253.88
368.41	259.88
368.636	234.88
368.862	246.88
369.089	253.88
369.315	258.88
369.541	265.88
369.767	246.88
369.993	265.88
370.219	249.88
370.445	256.88
370.672	278.88
370.898	245.88
371.124	254.88
371.35	266.88
371.576	270.88
371.802	286.88
372.028	275.88
372.254	270.88
372.48	262.88
372.706	284.88
372.932	281.88
373.158	281.88
373.384	287.88
373.61	277.88
373.835	293.88
374.061	271.88
374.287	287.88
374.513	284.88
374.739	289.88
374.965	288.88
375.191	293.88
375.416	294.88
375.642	283.88
375.868	294.88
376.094	285.88
376.319	286.88
376.545	278.88
376.771	276.88
376.997	249.88
377.222	284.88
377.448	277.88
377.674	269.88
377.899	257.88
378.125	249.88
378.35	268.88
378.576	279.88
378.802	264.88
379.027	263.88
379.253	274.88
379.478	266.88
379.704	258.88
379.929	282.88
380.155	282.88
380.38	261.88
380.606	267.88
380.831	279.88
381.057	257.88
381.282	255.88
381.507	261.88
381.733	263.88
381.958	252.88
382.184	274.88
382.409	281.88
382.634	286.88
382.86	301.88
383.085	302.88
383.31	275.88
383.535	309.88
383.761	295.88
383.986	309.88
384.211	327.88
384.436	305.88
384.662	293.88
384.887	312.88
385.112	285.88
385.337	311.88
385.562	317.88
385.787	330.88
386.013	301.88
386.238	302.88
386.463	307.88
386.688	317.88
386.913	332.88
387.138	317.88
387.363	294.88
387.588	306.88
387.813	294.88
388.038	312.88
388.263	313.88
388.488	316.88
388.713	305.88
388.938	302.88
389.163	307.88
389.387	305.88
389.612	308.88
389.837	313.88
390.062	299.88
390.287	318.88
390.512	296.88
390.736	317.88
390.961	278.88
391.186	306.88
391.411	309.88
391.636	332.88
391.86	346.88
392.085	350.88
392.31	354.88
392.534	357.88
392.759	321.88
392.984	329.88
393.208	309.88
393.433	327.88
393.658	328.88
393.882	317.88
394.107	321.88
394.331	302.88
394.556	343.88
394.78	328.88
395.005	333.88
395.229	311.88
395.454	346.88
395.678	331.88
395.903	335.88
396.127	316.88
396.352	325.88
396.576	311.88
396.801	324.88
397.025	328.88
397.249	319.88
397.474	329.88
397.698	326.88
397.922	355.88
398.147	316.88
398.371	327.88
398.595	346.88
398.82	373.88
399.044	391.88
399.268	411.88
399.492	466.88
399.717	546.88
399.941	531.88
400.165	487.88
400.389	420.88
400.613	396.88
400.837	372.88
401.062	385.88
401.286	373.88
401.51	359.88
401.734	356.88
401.958	375.88
402.182	377.88
402.406	381.88
402.63	398.88
402.854	390.88
403.078	390.88
403.302	404.88
403.526	418.88
403.75	428.88
403.974	427.88
404.198	427.88
404.422	443.88
404.645	441.88
404.869	413.88
405.093	410.88
405.317	383.88
405.541	388.88
405.765	421.88
405.988	391.88
406.212	400.88
406.436	382.88
406.66	407.88
406.883	413.88
407.107	414.88
407.331	432.88
407.555	485.88
407.778	460.88
408.002	432.88
408.226	446.88
408.449	445.88
408.673	419.88
408.896	413.88
409.12	412.88
409.344	412.88
409.567	406.88
409.791	435.88
410.014	400.88
410.238	421.88
410.461	409.88
410.685	395.88
410.908	412.88
411.132	405.88
411.355	365.88
411.578	385.88
411.802	374.88
412.025	383.88
412.249	389.88
412.472	377.88
412.695	379.88
412.919	361.88
413.142	349.88
413.365	358.88
413.589	343.88
413.812	358.88
414.035	369.88
414.258	351.88
414.482	347.88
414.705	362.88
414.928	361.88
415.151	374.88
415.374	375.88
415.597	349.88
415.821	364.88
416.044	363.88
416.267	332.88
416.49	337.88
416.713	331.88
416.936	359.88
417.159	348.88
417.382	334.88
417.605	360.88
417.828	362.88
418.051	358.88
418.274	362.88
418.497	364.88
418.72	376.88
418.943	378.88
419.166	376.88
419.389	401.88
419.611	411.88
419.834	392.88
420.057	394.88
420.28	371.88
420.503	364.88
420.726	367.88
420.948	360.88
421.171	369.88
421.394	357.88
421.617	343.88
421.839	354.88
422.062	373.88
422.285	371.88
422.507	359.88
422.73	366.88
422.953	374.88
423.175	382.88
423.398	386.88
423.621	393.88
423.843	377.88
424.066	395.88
424.288	369.88
424.511	389.88
424.733	388.88
424.956	371.88
425.178	363.88
425.401	364.88
425.623	355.88
425.846	349.88
426.068	355.88
426.291	349.88
426.513	343.88
426.735	331.88
426.958	344.88
427.18	342.88
427.402	350.88
427.625	323.88
427.847	320.88
428.069	330.88
428.292	306.88
428.514	317.88
428.736	313.88
428.958	316.88
429.181	331.88
429.403	304.88
429.625	321.88
429.847	300.88
430.069	329.88
430.292	329.88
430.514	306.88
430.736	316.88
430.958	313.88
431.18	332.88
431.402	326.88
431.624	326.88
431.846	317.88
432.068	317.88
432.29	315.88
432.512	323.88
432.734	321.88
432.956	326.88
433.178	325.88
433.4	329.88
433.622	348.88
433.844	337.88
434.066	339.88
434.287	349.88
434.509	331.88
434.731	362.88
434.953	369.88
435.175	377.88
435.397	372.88
435.618	351.88
435.84	335.88
436.062	342.88
436.284	325.88
436.505	299.88
436.727	335.88
436.949	333.88
437.17	344.88
437.392	300.88
437.614	325.88
437.835	311.88
438.057	318.88
438.278	315.88
438.5	327.88
438.721	319.88
438.943	314.88
439.165	309.88
439.386	312.88
439.608	324.88
439.829	332.88
440.05	340.88
440.272	329.88
440.493	317.88
440.715	338.88
440.936	363.88
441.158	326.88
441.379	343.88
441.6	345.88
441.822	355.88
442.043	359.88
442.264	360.88
442.486	339.88
442.707	354.88
442.928	348.88
443.149	340.88
443.371	358.88
443.592	360.88
443.813	370.88
444.034	371.88
444.255	381.88
444.476	371.88
444.698	419.88
444.919	436.88
445.14	540.88
445.361	446.88
445.582	372.88
445.803	338.88
446.024	341.88
446.245	341.88
446.466	317.88
446.687	316.88
446.908	336.88
447.129	328.88
447.35	319.88
447.571	330.88
447.792	303.88
448.013	329.88
448.234	291.88
448.455	312.88
448.675	305.88
448.896	300.88
449.117	295.88
449.338	309.88
449.559	305.88
449.779	299.88
450	298.88
450.221	297.88
450.442	311.88
450.662	296.88
450.883	298.88
451.104	309.88
451.324	305.88
451.545	305.88
451.766	313.88
451.986	310.88
452.207	315.88
452.428	306.88
452.648	313.88
452.869	305.88
453.089	313.88
453.31	291.88
453.53	293.88
453.751	298.88
453.971	295.88
454.192	302.88
454.412	295.88
454.633	301.88
454.853	297.88
455.073	301.88
455.294	297.88
455.514	299.88
455.734	282.88
455.955	284.88
456.175	291.88
456.395	269.88
456.616	285.88
456.836	280.88
457.056	282.88
457.276	284.88
457.497	282.88
457.717	281.88
457.937	301.88
458.157	289.88
458.377	282.88
458.598	295.88
458.818	294.88
459.038	305.88
459.258	317.88
459.478	327.88
459.698	337.88
459.918	354.88
460.138	379.88
460.358	380.88
460.578	383.88
460.798	367.88
461.018	394.88
461.238	372.88
461.458	390.88
461.678	388.88
461.898	390.88
462.118	377.88
462.338	419.88
462.558	400.88
462.777	419.88
462.997	448.88
463.217	488.88
463.437	520.88
463.657	455.88
463.876	448.88
464.096	463.88
464.316	433.88
464.536	435.88
464.755	424.88
464.975	412.88
465.195	393.88
465.414	385.88
465.634	357.88
465.854	334.88
466.073	333.88
466.293	325.88
466.512	321.88
466.732	319.88
466.951	312.88
467.171	311.88
467.391	298.88
467.61	319.88
467.829	309.88
468.049	305.88
468.268	301.88
468.488	296.88
468.707	330.88
468.927	316.88
469.146	316.88
469.365	333.88
469.585	295.88
469.804	329.88
470.023	335.88
470.243	327.88
470.462	356.88
470.681	325.88
470.901	342.88
471.12	316.88
471.339	332.88
471.558	301.88
471.777	307.88
471.997	306.88
472.216	300.88
472.435	315.88
472.654	295.88
472.873	313.88
473.092	301.88
473.311	298.88
473.53	309.88
473.749	277.88
473.968	314.88
474.187	294.88
474.406	303.88
474.625	307.88
474.844	323.88
475.063	284.88
475.282	318.88
475.501	290.88
475.72	305.88
475.939	323.88
476.158	315.88
476.377	330.88
476.596	309.88
476.814	333.88
477.033	294.88
477.252	333.88
477.471	338.88
477.69	324.88
477.908	339.88
478.127	372.88
478.346	342.88
478.564	347.88
478.783	375.88
479.002	372.88
479.22	397.88
479.439	375.88
479.658	349.88
479.876	381.88
480.095	377.88
480.313	389.88
480.532	399.88
480.751	383.88
480.969	381.88
481.188	360.88
481.406	377.88
481.624	357.88
481.843	357.88
482.061	349.88
482.28	324.88
482.498	340.88
482.717	346.88
482.935	364.88
483.153	351.88
483.372	340.88
483.59	338.88
483.808	331.88
484.027	348.88
484.245	347.88
484.463	348.88
484.681	374.88
484.9	369.88
485.118	364.88
485.336	359.88
485.554	375.88
485.772	356.88
485.99	379.88
486.209	364.88
486.427	364.88
486.645	379.88
486.863	395.88
487.081	373.88
487.299	369.88
487.517	385.88
487.735	371.88
487.953	384.88
488.171	347.88
488.389	355.88
488.607	374.88
488.825	351.88
489.043	349.88
489.261	359.88
489.479	381.88
489.696	363.88
489.914	359.88
490.132	376.88
490.35	369.88
490.568	356.88
490.786	354.88
491.003	351.88
491.221	371.88
491.439	379.88
491.657	375.88
491.874	377.88
492.092	371.88
492.31	380.88
492.527	379.88
492.745	344.88
492.963	369.88
493.18	381.88
493.398	361.88
493.615	380.88
493.833	391.88
494.05	388.88
494.268	399.88
494.485	385.88
494.703	379.88
494.92	389.88
495.138	390.88
495.355	386.88
495.573	384.88
495.79	389.88
496.008	382.88
496.225	383.88
496.442	394.88
496.66	399.88
496.877	405.88
497.094	393.88
497.312	418.88
497.529	429.88
497.746	420.88
497.963	437.88
498.181	444.88
498.398	474.88
498.615	486.88
498.832	515.88
499.049	541.88
499.267	605.88
499.484	649.88
499.701	736.88
499.918	790.88
500.135	911.88
500.352	1085.88
500.569	1116.88
500.786	1100.88
501.003	1025.88
501.22	917.88
501.437	801.88
501.654	698.88
501.871	619.88
502.088	597.88
502.305	563.88
502.522	533.88
502.739	491.88
