Data from 0.5MCu(NO3)2.Standard.Lamp.E10.CV._HRD10591_16-05-32-753.txt Node
Date: Mon Jul 22 16:05:32 EDT 2019
User: cochatt
Spectrometer: HR+D1059
Trigger mode: 1
Integration Time (sec): 1.000000E-1
Scans to average: 1
Electric dark correction enabled: true
Nonlinearity correction enabled: false
Boxcar width: 0
XAxis mode: Wavelengths
Number of Pixels in Spectrum: 2048
>>>>>Begin Spectral Data<<<<<
223.165	-29.56
223.4	-29.56
223.635	-29.56
223.869	-12.56
224.104	-12.56
224.338	-16.56
224.573	-9.56
224.808	-26.56
225.042	-20.56
225.277	-2.56
225.511	17.44
225.746	0.44
225.98	10.44
226.215	14.44
226.449	12.44
226.683	22.44
226.918	18.44
227.152	34.44
227.387	16.44
227.621	45.44
227.856	30.44
228.09	50.44
228.324	55.44
228.559	60.44
228.793	47.44
229.027	47.44
229.262	62.44
229.496	67.44
229.73	84.44
229.964	68.44
230.199	68.44
230.433	79.44
230.667	77.44
230.901	74.44
231.136	94.44
231.37	80.44
231.604	87.44
231.838	91.44
232.072	75.44
232.306	81.44
232.541	73.44
232.775	86.44
233.009	75.44
233.243	71.44
233.477	85.44
233.711	78.44
233.945	94.44
234.179	93.44
234.413	83.44
234.647	78.44
234.881	89.44
235.115	86.44
235.349	80.44
235.583	103.44
235.817	76.44
236.051	86.44
236.285	86.44
236.519	90.44
236.753	90.44
236.987	103.44
237.221	92.44
237.455	86.44
237.689	75.44
237.922	79.44
238.156	88.44
238.39	83.44
238.624	80.44
238.858	85.44
239.091	85.44
239.325	77.44
239.559	85.44
239.793	79.44
240.027	92.44
240.26	78.44
240.494	102.44
240.728	97.44
240.961	84.44
241.195	83.44
241.429	82.44
241.662	80.44
241.896	88.44
242.13	82.44
242.363	88.44
242.597	91.44
242.83	98.44
243.064	90.44
243.298	98.44
243.531	89.44
243.765	87.44
243.998	90.44
244.232	111.44
244.465	93.44
244.699	91.44
244.932	97.44
245.166	90.44
245.399	93.44
245.633	96.44
245.866	84.44
246.099	100.44
246.333	92.44
246.566	96.44
246.8	105.44
247.033	96.44
247.266	90.44
247.5	91.44
247.733	105.44
247.966	106.44
248.2	100.44
248.433	108.44
248.666	113.44
248.899	97.44
249.133	100.44
249.366	101.44
249.599	111.44
249.832	94.44
250.066	97.44
250.299	94.44
250.532	95.44
250.765	86.44
250.998	96.44
251.231	104.44
251.465	93.44
251.698	91.44
251.931	82.44
252.164	106.44
252.397	103.44
252.63	111.44
252.863	107.44
253.096	99.44
253.329	111.44
253.562	105.44
253.795	96.44
254.028	93.44
254.261	98.44
254.494	105.44
254.727	103.44
254.96	100.44
255.193	101.44
255.426	101.44
255.659	96.44
255.892	104.44
256.124	110.44
256.357	120.44
256.59	105.44
256.823	115.44
257.056	98.44
257.289	111.44
257.521	123.44
257.754	104.44
257.987	107.44
258.22	113.44
258.452	76.44
258.685	110.44
258.918	121.44
259.151	113.44
259.383	120.44
259.616	107.44
259.849	115.44
260.081	85.44
260.314	119.44
260.547	121.44
260.779	102.44
261.012	106.44
261.244	120.44
261.477	113.44
261.71	121.44
261.942	115.44
262.175	126.44
262.407	117.44
262.64	109.44
262.872	126.44
263.105	115.44
263.337	107.44
263.57	96.44
263.802	114.44
264.035	113.44
264.267	125.44
264.499	103.44
264.732	127.44
264.964	123.44
265.197	123.44
265.429	117.44
265.661	110.44
265.894	119.44
266.126	115.44
266.358	134.44
266.591	112.44
266.823	123.44
267.055	116.44
267.287	119.44
267.52	114.44
267.752	113.44
267.984	121.44
268.216	103.44
268.448	127.44
268.681	127.44
268.913	126.44
269.145	118.44
269.377	134.44
269.609	101.44
269.841	110.44
270.073	120.44
270.306	120.44
270.538	127.44
270.77	117.44
271.002	132.44
271.234	121.44
271.466	131.44
271.698	123.44
271.93	125.44
272.162	123.44
272.394	124.44
272.626	137.44
272.858	141.44
273.09	135.44
273.322	124.44
273.553	133.44
273.785	119.44
274.017	125.44
274.249	122.44
274.481	122.44
274.713	143.44
274.945	139.44
275.176	124.44
275.408	139.44
275.64	127.44
275.872	128.44
276.104	125.44
276.335	124.44
276.567	130.44
276.799	131.44
277.031	121.44
277.262	119.44
277.494	133.44
277.726	130.44
277.957	133.44
278.189	138.44
278.421	137.44
278.652	134.44
278.884	133.44
279.115	147.44
279.347	139.44
279.579	129.44
279.81	138.44
280.042	132.44
280.273	137.44
280.505	144.44
280.736	131.44
280.968	144.44
281.199	141.44
281.431	125.44
281.662	143.44
281.894	135.44
282.125	134.44
282.356	144.44
282.588	150.44
282.819	134.44
283.051	138.44
283.282	150.44
283.513	136.44
283.745	134.44
283.976	125.44
284.207	144.44
284.439	149.44
284.67	165.44
284.901	129.44
285.132	139.44
285.364	159.44
285.595	152.44
285.826	138.44
286.057	150.44
286.288	139.44
286.52	145.44
286.751	164.44
286.982	147.44
287.213	138.44
287.444	143.44
287.675	145.44
287.906	153.44
288.138	145.44
288.369	159.44
288.6	155.44
288.831	162.44
289.062	153.44
289.293	162.44
289.524	141.44
289.755	149.44
289.986	145.44
290.217	155.44
290.448	171.44
290.679	140.44
290.91	168.44
291.141	153.44
291.371	158.44
291.602	152.44
291.833	158.44
292.064	146.44
292.295	169.44
292.526	157.44
292.757	144.44
292.987	160.44
293.218	147.44
293.449	153.44
293.68	144.44
293.91	159.44
294.141	158.44
294.372	151.44
294.603	156.44
294.833	146.44
295.064	147.44
295.295	161.44
295.525	163.44
295.756	168.44
295.987	150.44
296.217	163.44
296.448	174.44
296.679	164.44
296.909	150.44
297.14	165.44
297.37	164.44
297.601	153.44
297.831	167.44
298.062	164.44
298.292	164.44
298.523	160.44
298.753	171.44
298.984	175.44
299.214	183.44
299.445	155.44
299.675	170.44
299.905	163.44
300.136	174.44
300.366	175.44
300.597	176.44
300.827	151.44
301.057	185.44
301.288	171.44
301.518	177.44
301.748	167.44
301.979	162.44
302.209	154.44
302.439	184.44
302.669	178.44
302.9	145.44
303.13	161.44
303.36	170.44
303.59	169.44
303.82	150.44
304.051	164.44
304.281	168.44
304.511	163.44
304.741	159.44
304.971	157.44
305.201	162.44
305.431	159.44
305.661	165.44
305.891	162.44
306.121	173.44
306.352	165.44
306.582	151.44
306.812	168.44
307.042	157.44
307.272	154.44
307.502	159.44
307.731	176.44
307.961	162.44
308.191	173.44
308.421	172.44
308.651	166.44
308.881	153.44
309.111	155.44
309.341	143.44
309.571	156.44
309.8	164.44
310.03	185.44
310.26	169.44
310.49	163.44
310.72	165.44
310.949	178.44
311.179	161.44
311.409	155.44
311.639	178.44
311.868	179.44
312.098	164.44
312.328	165.44
312.557	167.44
312.787	160.44
313.017	177.44
313.246	168.44
313.476	167.44
313.706	187.44
313.935	175.44
314.165	169.44
314.394	183.44
314.624	166.44
314.853	184.44
315.083	176.44
315.312	163.44
315.542	165.44
315.771	157.44
316.001	172.44
316.23	158.44
316.46	177.44
316.689	170.44
316.919	163.44
317.148	170.44
317.377	166.44
317.607	177.44
317.836	171.44
318.065	175.44
318.295	167.44
318.524	170.44
318.753	147.44
318.983	173.44
319.212	180.44
319.441	176.44
319.67	181.44
319.9	160.44
320.129	174.44
320.358	167.44
320.587	167.44
320.816	168.44
321.046	164.44
321.275	171.44
321.504	161.44
321.733	180.44
321.962	179.44
322.191	174.44
322.42	172.44
322.649	157.44
322.878	169.44
323.108	172.44
323.337	169.44
323.566	163.44
323.795	189.44
324.024	164.44
324.253	181.44
324.482	173.44
324.71	173.44
324.939	188.44
325.168	181.44
325.397	162.44
325.626	185.44
325.855	185.44
326.084	179.44
326.313	182.44
326.542	188.44
326.77	190.44
326.999	184.44
327.228	194.44
327.457	183.44
327.686	182.44
327.914	198.44
328.143	162.44
328.372	183.44
328.6	170.44
328.829	177.44
329.058	187.44
329.287	182.44
329.515	182.44
329.744	183.44
329.972	165.44
330.201	202.44
330.43	183.44
330.658	187.44
330.887	170.44
331.115	194.44
331.344	177.44
331.572	211.44
331.801	198.44
332.03	191.44
332.258	192.44
332.486	203.44
332.715	214.44
332.943	215.44
333.172	238.44
333.4	241.44
333.629	238.44
333.857	228.44
334.085	237.44
334.314	219.44
334.542	226.44
334.771	219.44
334.999	210.44
335.227	223.44
335.455	217.44
335.684	217.44
335.912	228.44
336.14	196.44
336.369	190.44
336.597	217.44
336.825	202.44
337.053	217.44
337.281	210.44
337.51	206.44
337.738	202.44
337.966	197.44
338.194	187.44
338.422	177.44
338.65	203.44
338.878	194.44
339.106	209.44
339.334	190.44
339.562	199.44
339.79	195.44
340.018	182.44
340.246	184.44
340.474	180.44
340.702	173.44
340.93	189.44
341.158	197.44
341.386	191.44
341.614	197.44
341.842	194.44
342.07	175.44
342.298	176.44
342.526	194.44
342.754	190.44
342.981	175.44
343.209	186.44
343.437	193.44
343.665	211.44
343.893	222.44
344.12	246.44
344.348	217.44
344.576	185.44
344.804	188.44
345.031	182.44
345.259	189.44
345.487	200.44
345.714	197.44
345.942	185.44
346.17	197.44
346.397	173.44
346.625	188.44
346.853	169.44
347.08	173.44
347.308	179.44
347.535	175.44
347.763	187.44
347.99	196.44
348.218	186.44
348.445	184.44
348.673	196.44
348.9	173.44
349.128	178.44
349.355	197.44
349.583	189.44
349.81	201.44
350.037	178.44
350.265	178.44
350.492	187.44
350.72	169.44
350.947	167.44
351.174	183.44
351.402	175.44
351.629	168.44
351.856	172.44
352.083	173.44
352.311	173.44
352.538	185.44
352.765	197.44
352.992	176.44
353.22	177.44
353.447	184.44
353.674	178.44
353.901	198.44
354.128	183.44
354.355	182.44
354.583	187.44
354.81	168.44
355.037	190.44
355.264	173.44
355.491	198.44
355.718	194.44
355.945	187.44
356.172	200.44
356.399	176.44
356.626	181.44
356.853	183.44
357.08	196.44
357.307	195.44
357.534	177.44
357.761	183.44
357.988	184.44
358.215	153.44
358.441	173.44
358.668	162.44
358.895	165.44
359.122	179.44
359.349	188.44
359.576	167.44
359.802	182.44
360.029	167.44
360.256	173.44
360.483	166.44
360.709	181.44
360.936	172.44
361.163	174.44
361.39	175.44
361.616	186.44
361.843	158.44
362.07	170.44
362.296	184.44
362.523	168.44
362.749	176.44
362.976	174.44
363.203	177.44
363.429	189.44
363.656	161.44
363.882	172.44
364.109	175.44
364.335	181.44
364.562	177.44
364.788	171.44
365.015	175.44
365.241	174.44
365.468	178.44
365.694	182.44
365.92	177.44
366.147	180.44
366.373	160.44
366.599	151.44
366.826	168.44
367.052	169.44
367.278	174.44
367.505	184.44
367.731	198.44
367.957	171.44
368.184	188.44
368.41	181.44
368.636	181.44
368.862	169.44
369.089	177.44
369.315	179.44
369.541	180.44
369.767	177.44
369.993	173.44
370.219	176.44
370.445	190.44
370.672	168.44
370.898	185.44
371.124	182.44
371.35	182.44
371.576	193.44
371.802	183.44
372.028	187.44
372.254	175.44
372.48	191.44
372.706	195.44
372.932	197.44
373.158	190.44
373.384	185.44
373.61	188.44
373.835	181.44
374.061	183.44
374.287	187.44
374.513	184.44
374.739	199.44
374.965	198.44
375.191	201.44
375.416	205.44
375.642	210.44
375.868	199.44
376.094	176.44
376.319	196.44
376.545	204.44
376.771	180.44
376.997	175.44
377.222	188.44
377.448	190.44
377.674	192.44
377.899	191.44
378.125	192.44
378.35	175.44
378.576	179.44
378.802	184.44
379.027	190.44
379.253	187.44
379.478	187.44
379.704	204.44
379.929	192.44
380.155	191.44
380.38	178.44
380.606	177.44
380.831	170.44
381.057	186.44
381.282	192.44
381.507	175.44
381.733	195.44
381.958	187.44
382.184	177.44
382.409	201.44
382.634	201.44
382.86	186.44
383.085	200.44
383.31	199.44
383.535	198.44
383.761	204.44
383.986	214.44
384.211	228.44
384.436	197.44
384.662	203.44
384.887	210.44
385.112	219.44
385.337	224.44
385.562	215.44
385.787	212.44
386.013	213.44
386.238	212.44
386.463	216.44
386.688	208.44
386.913	204.44
387.138	207.44
387.363	201.44
387.588	198.44
387.813	217.44
388.038	228.44
388.263	218.44
388.488	224.44
388.713	203.44
388.938	210.44
389.163	209.44
389.387	198.44
389.612	214.44
389.837	207.44
390.062	212.44
390.287	196.44
390.512	213.44
390.736	214.44
390.961	197.44
391.186	206.44
391.411	231.44
391.636	225.44
391.86	214.44
392.085	243.44
392.31	236.44
392.534	224.44
392.759	227.44
392.984	216.44
393.208	215.44
393.433	215.44
393.658	230.44
393.882	212.44
394.107	229.44
394.331	212.44
394.556	216.44
394.78	204.44
395.005	225.44
395.229	218.44
395.454	218.44
395.678	225.44
395.903	225.44
396.127	225.44
396.352	216.44
396.576	209.44
396.801	203.44
397.025	194.44
397.249	226.44
397.474	222.44
397.698	219.44
397.922	223.44
398.147	235.44
398.371	242.44
398.595	228.44
398.82	255.44
399.044	262.44
399.268	273.44
399.492	330.44
399.717	357.44
399.941	348.44
400.165	314.44
400.389	282.44
400.613	243.44
400.837	257.44
401.062	239.44
401.286	243.44
401.51	247.44
401.734	242.44
401.958	249.44
402.182	250.44
402.406	242.44
402.63	256.44
402.854	270.44
403.078	259.44
403.302	283.44
403.526	283.44
403.75	279.44
403.974	285.44
404.198	285.44
404.422	272.44
404.645	270.44
404.869	285.44
405.093	286.44
405.317	268.44
405.541	292.44
405.765	267.44
405.988	253.44
406.212	256.44
406.436	255.44
406.66	278.44
406.883	267.44
407.107	293.44
407.331	281.44
407.555	287.44
407.778	296.44
408.002	305.44
408.226	278.44
408.449	275.44
408.673	266.44
408.896	267.44
409.12	267.44
409.344	262.44
409.567	284.44
409.791	281.44
410.014	261.44
410.238	274.44
410.461	286.44
410.685	274.44
410.908	254.44
411.132	250.44
411.355	251.44
411.578	266.44
411.802	247.44
412.025	249.44
412.249	261.44
412.472	228.44
412.695	255.44
412.919	248.44
413.142	250.44
413.365	246.44
413.589	231.44
413.812	228.44
414.035	253.44
414.258	245.44
414.482	242.44
414.705	249.44
414.928	248.44
415.151	257.44
415.374	253.44
415.597	241.44
415.821	243.44
416.044	230.44
416.267	235.44
416.49	246.44
416.713	230.44
416.936	247.44
417.159	227.44
417.382	231.44
417.605	251.44
417.828	254.44
418.051	253.44
418.274	237.44
418.497	233.44
418.72	230.44
418.943	246.44
419.166	264.44
419.389	273.44
419.611	282.44
419.834	259.44
420.057	258.44
420.28	241.44
420.503	255.44
420.726	257.44
420.948	240.44
421.171	230.44
421.394	243.44
421.617	260.44
421.839	243.44
422.062	249.44
422.285	229.44
422.507	258.44
422.73	261.44
422.953	239.44
423.175	254.44
423.398	241.44
423.621	246.44
423.843	259.44
424.066	261.44
424.288	255.44
424.511	257.44
424.733	252.44
424.956	241.44
425.178	254.44
425.401	244.44
425.623	253.44
425.846	253.44
426.068	230.44
426.291	242.44
426.513	233.44
426.735	225.44
426.958	212.44
427.18	231.44
427.402	227.44
427.625	230.44
427.847	232.44
428.069	225.44
428.292	213.44
428.514	216.44
428.736	221.44
428.958	196.44
429.181	215.44
429.403	216.44
429.625	199.44
429.847	212.44
430.069	220.44
430.292	234.44
430.514	212.44
430.736	231.44
430.958	221.44
431.18	225.44
431.402	209.44
431.624	217.44
431.846	238.44
432.068	230.44
432.29	222.44
432.512	230.44
432.734	239.44
432.956	225.44
433.178	242.44
433.4	239.44
433.622	234.44
433.844	217.44
434.066	218.44
434.287	211.44
434.509	228.44
434.731	226.44
434.953	253.44
435.175	251.44
435.397	263.44
435.618	242.44
435.84	221.44
436.062	205.44
436.284	198.44
436.505	209.44
436.727	204.44
436.949	208.44
437.17	224.44
437.392	223.44
437.614	203.44
437.835	228.44
438.057	220.44
438.278	211.44
438.5	216.44
438.721	214.44
438.943	209.44
439.165	211.44
439.386	222.44
439.608	230.44
439.829	211.44
440.05	219.44
440.272	224.44
440.493	212.44
440.715	199.44
440.936	226.44
441.158	217.44
441.379	240.44
441.6	245.44
441.822	244.44
442.043	238.44
442.264	223.44
442.486	229.44
442.707	244.44
442.928	237.44
443.149	225.44
443.371	243.44
443.592	234.44
443.813	261.44
444.034	235.44
444.255	251.44
444.476	245.44
444.698	256.44
444.919	301.44
445.14	395.44
445.361	313.44
445.582	255.44
445.803	222.44
446.024	226.44
446.245	217.44
446.466	238.44
446.687	215.44
446.908	219.44
447.129	224.44
447.35	210.44
447.571	214.44
447.792	220.44
448.013	219.44
448.234	209.44
448.455	207.44
448.675	206.44
448.896	206.44
449.117	210.44
449.338	204.44
449.559	209.44
449.779	209.44
450	221.44
450.221	211.44
450.442	201.44
450.662	223.44
450.883	216.44
451.104	219.44
451.324	234.44
451.545	209.44
451.766	203.44
451.986	208.44
452.207	195.44
452.428	207.44
452.648	222.44
452.869	199.44
453.089	207.44
453.31	209.44
453.53	195.44
453.751	216.44
453.971	224.44
454.192	207.44
454.412	197.44
454.633	206.44
454.853	203.44
455.073	197.44
455.294	200.44
455.514	204.44
455.734	204.44
455.955	207.44
456.175	198.44
456.395	194.44
456.616	209.44
456.836	220.44
457.056	205.44
457.276	192.44
457.497	201.44
457.717	197.44
457.937	202.44
458.157	219.44
458.377	204.44
458.598	194.44
458.818	209.44
459.038	217.44
459.258	229.44
459.478	224.44
459.698	230.44
459.918	226.44
460.138	252.44
460.358	234.44
460.578	265.44
460.798	269.44
461.018	265.44
461.238	258.44
461.458	266.44
461.678	244.44
461.898	251.44
462.118	265.44
462.338	283.44
462.558	264.44
462.777	271.44
462.997	323.44
463.217	338.44
463.437	319.44
463.657	275.44
463.876	294.44
464.096	284.44
464.316	292.44
464.536	290.44
464.755	303.44
464.975	260.44
465.195	275.44
465.414	259.44
465.634	234.44
465.854	233.44
466.073	233.44
466.293	211.44
466.512	232.44
466.732	225.44
466.951	219.44
467.171	223.44
467.391	221.44
467.61	209.44
467.829	216.44
468.049	210.44
468.268	215.44
468.488	232.44
468.707	223.44
468.927	192.44
469.146	186.44
469.365	219.44
469.585	217.44
469.804	216.44
470.023	226.44
470.243	221.44
470.462	229.44
470.681	244.44
470.901	226.44
471.12	221.44
471.339	219.44
471.558	208.44
471.777	224.44
471.997	217.44
472.216	225.44
472.435	226.44
472.654	204.44
472.873	196.44
473.092	203.44
473.311	197.44
473.53	215.44
473.749	212.44
473.968	217.44
474.187	217.44
474.406	217.44
474.625	205.44
474.844	204.44
475.063	193.44
475.282	220.44
475.501	207.44
475.72	211.44
475.939	201.44
476.158	221.44
476.377	214.44
476.596	213.44
476.814	210.44
477.033	232.44
477.252	218.44
477.471	230.44
477.69	227.44
477.908	247.44
478.127	231.44
478.346	229.44
478.564	252.44
478.783	241.44
479.002	263.44
479.22	257.44
479.439	244.44
479.658	241.44
479.876	251.44
480.095	264.44
480.313	270.44
480.532	289.44
480.751	256.44
480.969	277.44
481.188	238.44
481.406	233.44
481.624	243.44
481.843	239.44
482.061	232.44
482.28	253.44
482.498	234.44
482.717	231.44
482.935	226.44
483.153	239.44
483.372	235.44
483.59	229.44
483.808	237.44
484.027	241.44
484.245	245.44
484.463	242.44
484.681	269.44
484.9	242.44
485.118	249.44
485.336	250.44
485.554	237.44
485.772	243.44
485.99	243.44
486.209	257.44
486.427	250.44
486.645	255.44
486.863	251.44
487.081	256.44
487.299	249.44
487.517	248.44
487.735	239.44
487.953	257.44
488.171	257.44
488.389	246.44
488.607	243.44
488.825	241.44
489.043	249.44
489.261	238.44
489.479	215.44
489.696	246.44
489.914	249.44
490.132	251.44
490.35	255.44
490.568	232.44
490.786	228.44
491.003	266.44
491.221	260.44
491.439	250.44
491.657	261.44
491.874	237.44
492.092	241.44
492.31	241.44
492.527	249.44
492.745	265.44
492.963	239.44
493.18	250.44
493.398	255.44
493.615	257.44
493.833	245.44
494.05	258.44
494.268	260.44
494.485	278.44
494.703	253.44
494.92	257.44
495.138	253.44
495.355	263.44
495.573	266.44
495.79	249.44
496.008	273.44
496.225	271.44
496.442	244.44
496.66	261.44
496.877	246.44
497.094	267.44
497.312	260.44
497.529	287.44
497.746	285.44
497.963	266.44
498.181	290.44
498.398	311.44
498.615	322.44
498.832	342.44
499.049	352.44
499.267	377.44
499.484	433.44
499.701	457.44
499.918	508.44
500.135	555.44
500.352	642.44
500.569	692.44
500.786	685.44
501.003	632.44
501.22	569.44
501.437	513.44
501.654	439.44
501.871	412.44
502.088	387.44
502.305	333.44
502.522	325.44
502.739	332.44
502.956	301.44
503.172	307.44
503.389	313.44
