Data from 0.5MCu(NO3)2.Standard.Lamp.E10.CV._HRD10591_16-06-29-761.txt Node
Date: Mon Jul 22 16:06:29 EDT 2019
User: cochatt
Spectrometer: HR+D1059
Trigger mode: 1
Integration Time (sec): 1.000000E-1
Scans to average: 1
Electric dark correction enabled: true
Nonlinearity correction enabled: false
Boxcar width: 0
XAxis mode: Wavelengths
Number of Pixels in Spectrum: 2048
>>>>>Begin Spectral Data<<<<<
223.165	-9.69
223.4	-9.69
223.635	-9.69
223.869	-21.69
224.104	-17.69
224.338	-31.69
224.573	-7.69
224.808	-19.69
225.042	-13.69
225.277	-9.69
225.511	-10.69
225.746	3.31
225.98	12.31
226.215	22.31
226.449	22.31
226.683	28.31
226.918	20.31
227.152	33.31
227.387	35.31
227.621	32.31
227.856	39.31
228.09	53.31
228.324	52.31
228.559	42.31
228.793	69.31
229.027	67.31
229.262	60.31
229.496	60.31
229.73	77.31
229.964	74.31
230.199	69.31
230.433	85.31
230.667	83.31
230.901	80.31
231.136	86.31
231.37	86.31
231.604	72.31
231.838	76.31
232.072	77.31
232.306	98.31
232.541	93.31
232.775	94.31
233.009	85.31
233.243	88.31
233.477	78.31
233.711	77.31
233.945	96.31
234.179	100.31
234.413	91.31
234.647	99.31
234.881	75.31
235.115	94.31
235.349	81.31
235.583	86.31
235.817	80.31
236.051	84.31
236.285	83.31
236.519	90.31
236.753	88.31
236.987	86.31
237.221	86.31
237.455	94.31
237.689	97.31
237.922	91.31
238.156	84.31
238.39	91.31
238.624	101.31
238.858	94.31
239.091	80.31
239.325	85.31
239.559	97.31
239.793	98.31
240.027	95.31
240.26	114.31
240.494	102.31
240.728	88.31
240.961	81.31
241.195	86.31
241.429	101.31
241.662	79.31
241.896	99.31
242.13	97.31
242.363	86.31
242.597	105.31
242.83	86.31
243.064	86.31
243.298	105.31
243.531	92.31
243.765	101.31
243.998	100.31
244.232	94.31
244.465	92.31
244.699	97.31
244.932	96.31
245.166	100.31
245.399	96.31
245.633	98.31
245.866	94.31
246.099	112.31
246.333	101.31
246.566	105.31
246.8	100.31
247.033	100.31
247.266	80.31
247.5	97.31
247.733	83.31
247.966	98.31
248.2	101.31
248.433	97.31
248.666	106.31
248.899	109.31
249.133	112.31
249.366	107.31
249.599	94.31
249.832	90.31
250.066	99.31
250.299	99.31
250.532	105.31
250.765	105.31
250.998	107.31
251.231	92.31
251.465	88.31
251.698	103.31
251.931	105.31
252.164	104.31
252.397	91.31
252.63	109.31
252.863	114.31
253.096	109.31
253.329	117.31
253.562	101.31
253.795	112.31
254.028	101.31
254.261	120.31
254.494	112.31
254.727	113.31
254.96	108.31
255.193	114.31
255.426	103.31
255.659	107.31
255.892	114.31
256.124	118.31
256.357	105.31
256.59	109.31
256.823	106.31
257.056	118.31
257.289	121.31
257.521	111.31
257.754	100.31
257.987	112.31
258.22	107.31
258.452	109.31
258.685	117.31
258.918	113.31
259.151	120.31
259.383	132.31
259.616	111.31
259.849	119.31
260.081	119.31
260.314	107.31
260.547	103.31
260.779	115.31
261.012	117.31
261.244	109.31
261.477	124.31
261.71	115.31
261.942	113.31
262.175	126.31
262.407	101.31
262.64	104.31
262.872	119.31
263.105	114.31
263.337	122.31
263.57	123.31
263.802	114.31
264.035	105.31
264.267	124.31
264.499	115.31
264.732	119.31
264.964	106.31
265.197	114.31
265.429	107.31
265.661	124.31
265.894	124.31
266.126	125.31
266.358	122.31
266.591	127.31
266.823	125.31
267.055	125.31
267.287	138.31
267.52	120.31
267.752	128.31
267.984	118.31
268.216	125.31
268.448	130.31
268.681	129.31
268.913	126.31
269.145	124.31
269.377	134.31
269.609	128.31
269.841	134.31
270.073	126.31
270.306	136.31
270.538	122.31
270.77	135.31
271.002	122.31
271.234	126.31
271.466	133.31
271.698	130.31
271.93	131.31
272.162	132.31
272.394	147.31
272.626	126.31
272.858	113.31
273.09	132.31
273.322	136.31
273.553	133.31
273.785	128.31
274.017	128.31
274.249	131.31
274.481	117.31
274.713	125.31
274.945	134.31
275.176	132.31
275.408	141.31
275.64	129.31
275.872	137.31
276.104	142.31
276.335	152.31
276.567	139.31
276.799	129.31
277.031	128.31
277.262	130.31
277.494	129.31
277.726	122.31
277.957	139.31
278.189	133.31
278.421	149.31
278.652	136.31
278.884	133.31
279.115	140.31
279.347	133.31
279.579	122.31
279.81	150.31
280.042	132.31
280.273	149.31
280.505	146.31
280.736	139.31
280.968	128.31
281.199	139.31
281.431	136.31
281.662	152.31
281.894	135.31
282.125	142.31
282.356	136.31
282.588	142.31
282.819	140.31
283.051	148.31
283.282	136.31
283.513	149.31
283.745	152.31
283.976	155.31
284.207	145.31
284.439	140.31
284.67	132.31
284.901	133.31
285.132	144.31
285.364	145.31
285.595	135.31
285.826	145.31
286.057	142.31
286.288	146.31
286.52	160.31
286.751	173.31
286.982	160.31
287.213	152.31
287.444	161.31
287.675	168.31
287.906	149.31
288.138	152.31
288.369	152.31
288.6	149.31
288.831	158.31
289.062	157.31
289.293	158.31
289.524	150.31
289.755	166.31
289.986	163.31
290.217	154.31
290.448	148.31
290.679	155.31
290.91	165.31
291.141	181.31
291.371	163.31
291.602	156.31
291.833	144.31
292.064	164.31
292.295	147.31
292.526	161.31
292.757	151.31
292.987	160.31
293.218	168.31
293.449	167.31
293.68	150.31
293.91	169.31
294.141	160.31
294.372	161.31
294.603	162.31
294.833	164.31
295.064	150.31
295.295	162.31
295.525	171.31
295.756	157.31
295.987	173.31
296.217	169.31
296.448	160.31
296.679	161.31
296.909	157.31
297.14	174.31
297.37	186.31
297.601	170.31
297.831	156.31
298.062	172.31
298.292	186.31
298.523	182.31
298.753	160.31
298.984	173.31
299.214	176.31
299.445	163.31
299.675	179.31
299.905	177.31
300.136	176.31
300.366	160.31
300.597	178.31
300.827	187.31
301.057	160.31
301.288	171.31
301.518	189.31
301.748	167.31
301.979	169.31
302.209	167.31
302.439	182.31
302.669	170.31
302.9	168.31
303.13	161.31
303.36	166.31
303.59	159.31
303.82	178.31
304.051	165.31
304.281	172.31
304.511	175.31
304.741	173.31
304.971	176.31
305.201	169.31
305.431	173.31
305.661	173.31
305.891	180.31
306.121	147.31
306.352	162.31
306.582	177.31
306.812	162.31
307.042	164.31
307.272	156.31
307.502	171.31
307.731	168.31
307.961	163.31
308.191	165.31
308.421	189.31
308.651	188.31
308.881	163.31
309.111	147.31
309.341	170.31
309.571	164.31
309.8	193.31
310.03	172.31
310.26	165.31
310.49	178.31
310.72	168.31
310.949	164.31
311.179	160.31
311.409	156.31
311.639	168.31
311.868	203.31
312.098	177.31
312.328	177.31
312.557	177.31
312.787	176.31
313.017	181.31
313.246	196.31
313.476	193.31
313.706	190.31
313.935	181.31
314.165	182.31
314.394	164.31
314.624	177.31
314.853	194.31
315.083	174.31
315.312	188.31
315.542	172.31
315.771	178.31
316.001	165.31
316.23	178.31
316.46	180.31
316.689	167.31
316.919	174.31
317.148	169.31
317.377	176.31
317.607	169.31
317.836	168.31
318.065	163.31
318.295	185.31
318.524	184.31
318.753	156.31
318.983	173.31
319.212	173.31
319.441	174.31
319.67	186.31
319.9	171.31
320.129	168.31
320.358	187.31
320.587	179.31
320.816	168.31
321.046	184.31
321.275	178.31
321.504	185.31
321.733	167.31
321.962	164.31
322.191	168.31
322.42	184.31
322.649	172.31
322.878	190.31
323.108	184.31
323.337	179.31
323.566	185.31
323.795	180.31
324.024	171.31
324.253	182.31
324.482	176.31
324.71	190.31
324.939	180.31
325.168	191.31
325.397	187.31
325.626	161.31
325.855	184.31
326.084	195.31
326.313	169.31
326.542	199.31
326.77	184.31
326.999	192.31
327.228	188.31
327.457	182.31
327.686	198.31
327.914	195.31
328.143	190.31
328.372	202.31
328.6	207.31
328.829	192.31
329.058	187.31
329.287	169.31
329.515	177.31
329.744	192.31
329.972	182.31
330.201	197.31
330.43	178.31
330.658	188.31
330.887	196.31
331.115	195.31
331.344	201.31
331.572	186.31
331.801	191.31
332.03	201.31
332.258	206.31
332.486	202.31
332.715	209.31
332.943	230.31
333.172	219.31
333.4	225.31
333.629	234.31
333.857	236.31
334.085	228.31
334.314	236.31
334.542	230.31
334.771	232.31
334.999	215.31
335.227	209.31
335.455	213.31
335.684	223.31
335.912	217.31
336.14	199.31
336.369	224.31
336.597	215.31
336.825	227.31
337.053	216.31
337.281	205.31
337.51	214.31
337.738	207.31
337.966	204.31
338.194	205.31
338.422	208.31
338.65	198.31
338.878	195.31
339.106	205.31
339.334	186.31
339.562	180.31
339.79	188.31
340.018	189.31
340.246	182.31
340.474	194.31
340.702	188.31
340.93	191.31
341.158	188.31
341.386	200.31
341.614	210.31
341.842	191.31
342.07	190.31
342.298	198.31
342.526	196.31
342.754	182.31
342.981	186.31
343.209	189.31
343.437	177.31
343.665	209.31
343.893	214.31
344.12	232.31
344.348	220.31
344.576	211.31
344.804	220.31
345.031	194.31
345.259	217.31
345.487	200.31
345.714	178.31
345.942	197.31
346.17	187.31
346.397	197.31
346.625	186.31
346.853	194.31
347.08	174.31
347.308	194.31
347.535	197.31
347.763	202.31
347.99	186.31
348.218	183.31
348.445	191.31
348.673	191.31
348.9	192.31
349.128	181.31
349.355	204.31
349.583	193.31
349.81	189.31
350.037	181.31
350.265	166.31
350.492	186.31
350.72	183.31
350.947	172.31
351.174	184.31
351.402	179.31
351.629	169.31
351.856	191.31
352.083	190.31
352.311	183.31
352.538	176.31
352.765	189.31
352.992	186.31
353.22	181.31
353.447	177.31
353.674	184.31
353.901	187.31
354.128	194.31
354.355	184.31
354.583	182.31
354.81	172.31
355.037	173.31
355.264	192.31
355.491	182.31
355.718	179.31
355.945	192.31
356.172	169.31
356.399	191.31
356.626	177.31
356.853	184.31
357.08	213.31
357.307	186.31
357.534	184.31
357.761	170.31
357.988	189.31
358.215	170.31
358.441	182.31
358.668	180.31
358.895	174.31
359.122	184.31
359.349	184.31
359.576	191.31
359.802	186.31
360.029	185.31
360.256	174.31
360.483	186.31
360.709	160.31
360.936	182.31
361.163	184.31
361.39	180.31
361.616	165.31
361.843	183.31
362.07	179.31
362.296	185.31
362.523	189.31
362.749	179.31
362.976	180.31
363.203	171.31
363.429	193.31
363.656	192.31
363.882	188.31
364.109	184.31
364.335	173.31
364.562	184.31
364.788	174.31
365.015	186.31
365.241	188.31
365.468	177.31
365.694	182.31
365.92	197.31
366.147	190.31
366.373	168.31
366.599	182.31
366.826	189.31
367.052	189.31
367.278	184.31
367.505	178.31
367.731	184.31
367.957	199.31
368.184	192.31
368.41	185.31
368.636	189.31
368.862	196.31
369.089	184.31
369.315	197.31
369.541	174.31
369.767	174.31
369.993	196.31
370.219	186.31
370.445	201.31
370.672	192.31
370.898	192.31
371.124	205.31
371.35	186.31
371.576	179.31
371.802	193.31
372.028	190.31
372.254	196.31
372.48	200.31
372.706	196.31
372.932	209.31
373.158	196.31
373.384	203.31
373.61	183.31
373.835	202.31
374.061	194.31
374.287	181.31
374.513	193.31
374.739	190.31
374.965	223.31
375.191	206.31
375.416	203.31
375.642	202.31
375.868	206.31
376.094	191.31
376.319	192.31
376.545	182.31
376.771	210.31
376.997	220.31
377.222	193.31
377.448	188.31
377.674	180.31
377.899	181.31
378.125	189.31
378.35	180.31
378.576	195.31
378.802	183.31
379.027	179.31
379.253	187.31
379.478	179.31
379.704	178.31
379.929	177.31
380.155	173.31
380.38	202.31
380.606	181.31
380.831	184.31
381.057	206.31
381.282	210.31
381.507	195.31
381.733	186.31
381.958	210.31
382.184	182.31
382.409	197.31
382.634	209.31
382.86	201.31
383.085	199.31
383.31	197.31
383.535	204.31
383.761	209.31
383.986	227.31
384.211	214.31
384.436	208.31
384.662	204.31
384.887	214.31
385.112	234.31
385.337	221.31
385.562	220.31
385.787	228.31
386.013	221.31
386.238	203.31
386.463	218.31
386.688	213.31
386.913	219.31
387.138	212.31
387.363	213.31
387.588	210.31
387.813	217.31
388.038	206.31
388.263	222.31
388.488	226.31
388.713	218.31
388.938	200.31
389.163	201.31
389.387	219.31
389.612	211.31
389.837	215.31
390.062	210.31
390.287	209.31
390.512	193.31
390.736	199.31
390.961	236.31
391.186	232.31
391.411	222.31
391.636	235.31
391.86	235.31
392.085	243.31
392.31	242.31
392.534	225.31
392.759	228.31
392.984	221.31
393.208	232.31
393.433	209.31
393.658	228.31
393.882	228.31
394.107	212.31
394.331	208.31
394.556	207.31
394.78	230.31
395.005	221.31
395.229	228.31
395.454	224.31
395.678	245.31
395.903	235.31
396.127	225.31
396.352	217.31
396.576	210.31
396.801	221.31
397.025	227.31
397.249	218.31
397.474	236.31
397.698	230.31
397.922	222.31
398.147	240.31
398.371	251.31
398.595	248.31
398.82	237.31
399.044	241.31
399.268	280.31
399.492	339.31
399.717	353.31
399.941	353.31
400.165	327.31
400.389	265.31
400.613	256.31
400.837	245.31
401.062	252.31
401.286	250.31
401.51	240.31
401.734	264.31
401.958	257.31
402.182	248.31
402.406	250.31
402.63	270.31
402.854	268.31
403.078	280.31
403.302	281.31
403.526	262.31
403.75	278.31
403.974	302.31
404.198	300.31
404.422	281.31
404.645	293.31
404.869	265.31
405.093	268.31
405.317	290.31
405.541	288.31
405.765	268.31
405.988	268.31
406.212	264.31
406.436	274.31
406.66	264.31
406.883	274.31
407.107	321.31
407.331	318.31
407.555	314.31
407.778	307.31
408.002	296.31
408.226	307.31
408.449	296.31
408.673	279.31
408.896	285.31
409.12	277.31
409.344	270.31
409.567	288.31
409.791	292.31
410.014	279.31
410.238	284.31
410.461	290.31
410.685	274.31
410.908	264.31
411.132	273.31
411.355	253.31
411.578	246.31
411.802	258.31
412.025	263.31
412.249	276.31
412.472	264.31
412.695	237.31
412.919	250.31
413.142	275.31
413.365	257.31
413.589	234.31
413.812	252.31
414.035	247.31
414.258	249.31
414.482	229.31
414.705	267.31
414.928	275.31
415.151	238.31
415.374	260.31
415.597	243.31
415.821	257.31
416.044	243.31
416.267	234.31
416.49	242.31
416.713	251.31
416.936	258.31
417.159	245.31
417.382	243.31
417.605	250.31
417.828	233.31
418.051	266.31
418.274	253.31
418.497	250.31
418.72	253.31
418.943	257.31
419.166	258.31
419.389	275.31
419.611	274.31
419.834	275.31
420.057	235.31
420.28	251.31
420.503	254.31
420.726	263.31
420.948	256.31
421.171	273.31
421.394	258.31
421.617	244.31
421.839	239.31
422.062	251.31
422.285	230.31
422.507	251.31
422.73	264.31
422.953	272.31
423.175	268.31
423.398	258.31
423.621	270.31
423.843	284.31
424.066	248.31
424.288	265.31
424.511	261.31
424.733	243.31
424.956	258.31
425.178	257.31
425.401	241.31
425.623	252.31
425.846	234.31
426.068	252.31
426.291	260.31
426.513	235.31
426.735	256.31
426.958	238.31
427.18	235.31
427.402	248.31
427.625	216.31
427.847	234.31
428.069	216.31
428.292	227.31
428.514	224.31
428.736	212.31
428.958	228.31
429.181	220.31
429.403	228.31
429.625	219.31
429.847	224.31
430.069	204.31
430.292	232.31
430.514	228.31
430.736	225.31
430.958	219.31
431.18	212.31
431.402	220.31
431.624	237.31
431.846	246.31
432.068	227.31
432.29	228.31
432.512	231.31
432.734	232.31
432.956	218.31
433.178	233.31
433.4	227.31
433.622	241.31
433.844	238.31
434.066	232.31
434.287	228.31
434.509	247.31
434.731	233.31
434.953	243.31
435.175	248.31
435.397	242.31
435.618	216.31
435.84	204.31
436.062	247.31
436.284	231.31
436.505	236.31
436.727	234.31
436.949	250.31
437.17	225.31
437.392	225.31
437.614	227.31
437.835	203.31
438.057	236.31
438.278	232.31
438.5	217.31
438.721	238.31
438.943	215.31
439.165	237.31
439.386	232.31
439.608	221.31
439.829	226.31
440.05	235.31
440.272	229.31
440.493	222.31
440.715	242.31
440.936	240.31
441.158	228.31
441.379	244.31
441.6	243.31
441.822	245.31
442.043	253.31
442.264	245.31
442.486	224.31
442.707	250.31
442.928	253.31
443.149	243.31
443.371	253.31
443.592	249.31
443.813	271.31
444.034	247.31
444.255	282.31
444.476	271.31
444.698	291.31
444.919	285.31
445.14	349.31
445.361	312.31
445.582	253.31
445.803	244.31
446.024	234.31
446.245	241.31
446.466	243.31
446.687	222.31
446.908	226.31
447.129	225.31
447.35	229.31
447.571	239.31
447.792	211.31
448.013	227.31
448.234	215.31
448.455	230.31
448.675	222.31
448.896	227.31
449.117	232.31
449.338	222.31
449.559	219.31
449.779	235.31
450	216.31
450.221	205.31
450.442	220.31
450.662	204.31
450.883	200.31
451.104	226.31
451.324	220.31
451.545	231.31
451.766	232.31
451.986	214.31
452.207	214.31
452.428	217.31
452.648	224.31
452.869	214.31
453.089	225.31
453.31	206.31
453.53	205.31
453.751	210.31
453.971	209.31
454.192	217.31
454.412	189.31
454.633	201.31
454.853	195.31
455.073	205.31
455.294	214.31
455.514	219.31
455.734	197.31
455.955	194.31
456.175	208.31
456.395	184.31
456.616	188.31
456.836	203.31
457.056	200.31
457.276	188.31
457.497	198.31
457.717	192.31
457.937	217.31
458.157	216.31
458.377	218.31
458.598	215.31
458.818	206.31
459.038	207.31
459.258	231.31
459.478	240.31
459.698	227.31
459.918	254.31
460.138	253.31
460.358	254.31
460.578	268.31
460.798	257.31
461.018	262.31
461.238	257.31
461.458	253.31
461.678	283.31
461.898	261.31
462.118	249.31
462.338	262.31
462.558	290.31
462.777	297.31
462.997	301.31
463.217	325.31
463.437	359.31
463.657	316.31
463.876	303.31
464.096	307.31
464.316	292.31
464.536	298.31
464.755	276.31
464.975	279.31
465.195	274.31
465.414	240.31
465.634	245.31
465.854	232.31
466.073	228.31
466.293	244.31
466.512	227.31
466.732	223.31
466.951	215.31
467.171	238.31
467.391	206.31
467.61	233.31
467.829	214.31
468.049	213.31
468.268	217.31
468.488	213.31
468.707	215.31
468.927	205.31
469.146	213.31
469.365	222.31
469.585	223.31
469.804	235.31
470.023	227.31
470.243	249.31
470.462	218.31
470.681	244.31
470.901	239.31
471.12	216.31
471.339	232.31
471.558	214.31
471.777	226.31
471.997	214.31
472.216	216.31
472.435	228.31
472.654	206.31
472.873	212.31
473.092	225.31
473.311	210.31
473.53	231.31
473.749	228.31
473.968	223.31
474.187	187.31
474.406	192.31
474.625	210.31
474.844	198.31
475.063	214.31
475.282	202.31
475.501	224.31
475.72	214.31
475.939	215.31
476.158	210.31
476.377	228.31
476.596	229.31
476.814	220.31
477.033	208.31
477.252	233.31
477.471	240.31
477.69	225.31
477.908	233.31
478.127	257.31
478.346	255.31
478.564	258.31
478.783	249.31
479.002	258.31
479.22	264.31
479.439	257.31
479.658	242.31
479.876	273.31
480.095	264.31
480.313	267.31
480.532	266.31
480.751	290.31
480.969	262.31
481.188	253.31
481.406	245.31
481.624	236.31
481.843	220.31
482.061	234.31
482.28	254.31
482.498	233.31
482.717	229.31
482.935	240.31
483.153	256.31
483.372	228.31
483.59	238.31
483.808	247.31
484.027	250.31
484.245	252.31
484.463	243.31
484.681	250.31
484.9	246.31
485.118	245.31
485.336	251.31
485.554	241.31
485.772	250.31
485.99	259.31
486.209	256.31
486.427	250.31
486.645	268.31
486.863	241.31
487.081	266.31
487.299	245.31
487.517	244.31
487.735	259.31
487.953	268.31
488.171	259.31
488.389	252.31
488.607	257.31
488.825	261.31
489.043	271.31
489.261	261.31
489.479	255.31
489.696	240.31
489.914	260.31
490.132	256.31
490.35	253.31
490.568	271.31
490.786	261.31
491.003	256.31
491.221	254.31
491.439	245.31
491.657	260.31
491.874	260.31
492.092	264.31
492.31	248.31
492.527	250.31
492.745	277.31
492.963	247.31
493.18	268.31
493.398	279.31
493.615	268.31
493.833	269.31
494.05	253.31
494.268	265.31
494.485	261.31
494.703	274.31
494.92	280.31
495.138	268.31
495.355	264.31
495.573	260.31
495.79	256.31
496.008	257.31
496.225	276.31
496.442	260.31
496.66	273.31
496.877	268.31
497.094	289.31
497.312	269.31
497.529	275.31
497.746	284.31
497.963	289.31
498.181	286.31
498.398	310.31
498.615	324.31
498.832	339.31
499.049	381.31
499.267	393.31
499.484	420.31
499.701	477.31
499.918	512.31
500.135	578.31
500.352	670.31
500.569	682.31
500.786	717.31
501.003	634.31
501.22	573.31
501.437	501.31
501.654	457.31
501.871	422.31
502.088	376.31
502.305	361.31
502.522	346.31
502.739	351.31
502.956	320.31
503.172	314.31
