Data from 0.5MCu(NO3)2.Standard.Lamp.E10.CV._HRD10591_16-04-11-752.txt Node
Date: Mon Jul 22 16:04:11 EDT 2019
User: cochatt
Spectrometer: HR+D1059
Trigger mode: 1
Integration Time (sec): 1.000000E-1
Scans to average: 1
Electric dark correction enabled: true
Nonlinearity correction enabled: false
Boxcar width: 0
XAxis mode: Wavelengths
Number of Pixels in Spectrum: 2048
>>>>>Begin Spectral Data<<<<<
223.165	-16.44
223.4	-16.44
223.635	-16.44
223.869	-28.44
224.104	-16.44
224.338	-1.44
224.573	-6.44
224.808	-1.44
225.042	-16.44
225.277	-10.44
225.511	-2.44
225.746	4.56
225.98	-2.44
226.215	9.56
226.449	7.56
226.683	22.56
226.918	28.56
227.152	29.56
227.387	32.56
227.621	41.56
227.856	47.56
228.09	36.56
228.324	42.56
228.559	53.56
228.793	60.56
229.027	64.56
229.262	58.56
229.496	77.56
229.73	64.56
229.964	72.56
230.199	78.56
230.433	76.56
230.667	65.56
230.901	74.56
231.136	81.56
231.37	94.56
231.604	81.56
231.838	70.56
232.072	87.56
232.306	89.56
232.541	85.56
232.775	82.56
233.009	78.56
233.243	99.56
233.477	95.56
233.711	97.56
233.945	90.56
234.179	93.56
234.413	74.56
234.647	96.56
234.881	90.56
235.115	91.56
235.349	89.56
235.583	100.56
235.817	79.56
236.051	89.56
236.285	80.56
236.519	89.56
236.753	80.56
236.987	98.56
237.221	90.56
237.455	81.56
237.689	93.56
237.922	95.56
238.156	92.56
238.39	78.56
238.624	79.56
238.858	86.56
239.091	78.56
239.325	83.56
239.559	84.56
239.793	89.56
240.027	81.56
240.26	88.56
240.494	93.56
240.728	85.56
240.961	86.56
241.195	84.56
241.429	105.56
241.662	98.56
241.896	106.56
242.13	108.56
242.363	70.56
242.597	81.56
242.83	85.56
243.064	88.56
243.298	87.56
243.531	97.56
243.765	103.56
243.998	81.56
244.232	107.56
244.465	84.56
244.699	96.56
244.932	83.56
245.166	92.56
245.399	104.56
245.633	108.56
245.866	95.56
246.099	89.56
246.333	112.56
246.566	95.56
246.8	100.56
247.033	100.56
247.266	97.56
247.5	89.56
247.733	100.56
247.966	99.56
248.2	110.56
248.433	112.56
248.666	97.56
248.899	109.56
249.133	95.56
249.366	99.56
249.599	86.56
249.832	97.56
250.066	97.56
250.299	90.56
250.532	100.56
250.765	104.56
250.998	98.56
251.231	103.56
251.465	109.56
251.698	122.56
251.931	106.56
252.164	110.56
252.397	107.56
252.63	124.56
252.863	116.56
253.096	119.56
253.329	112.56
253.562	120.56
253.795	98.56
254.028	101.56
254.261	111.56
254.494	100.56
254.727	123.56
254.96	118.56
255.193	114.56
255.426	114.56
255.659	104.56
255.892	102.56
256.124	115.56
256.357	97.56
256.59	103.56
256.823	108.56
257.056	102.56
257.289	102.56
257.521	104.56
257.754	98.56
257.987	112.56
258.22	100.56
258.452	112.56
258.685	102.56
258.918	112.56
259.151	110.56
259.383	113.56
259.616	121.56
259.849	118.56
260.081	116.56
260.314	108.56
260.547	113.56
260.779	116.56
261.012	111.56
261.244	113.56
261.477	127.56
261.71	124.56
261.942	114.56
262.175	117.56
262.407	122.56
262.64	119.56
262.872	120.56
263.105	126.56
263.337	126.56
263.57	114.56
263.802	133.56
264.035	129.56
264.267	127.56
264.499	121.56
264.732	119.56
264.964	106.56
265.197	134.56
265.429	123.56
265.661	120.56
265.894	122.56
266.126	125.56
266.358	132.56
266.591	131.56
266.823	124.56
267.055	127.56
267.287	148.56
267.52	129.56
267.752	116.56
267.984	120.56
268.216	116.56
268.448	135.56
268.681	138.56
268.913	138.56
269.145	121.56
269.377	130.56
269.609	131.56
269.841	132.56
270.073	124.56
270.306	139.56
270.538	127.56
270.77	144.56
271.002	127.56
271.234	120.56
271.466	133.56
271.698	114.56
271.93	112.56
272.162	130.56
272.394	146.56
272.626	140.56
272.858	141.56
273.09	141.56
273.322	140.56
273.553	131.56
273.785	142.56
274.017	133.56
274.249	127.56
274.481	135.56
274.713	121.56
274.945	135.56
275.176	148.56
275.408	132.56
275.64	134.56
275.872	141.56
276.104	151.56
276.335	165.56
276.567	127.56
276.799	150.56
277.031	149.56
277.262	145.56
277.494	151.56
277.726	133.56
277.957	135.56
278.189	133.56
278.421	144.56
278.652	160.56
278.884	134.56
279.115	148.56
279.347	150.56
279.579	143.56
279.81	147.56
280.042	148.56
280.273	139.56
280.505	165.56
280.736	141.56
280.968	154.56
281.199	157.56
281.431	153.56
281.662	131.56
281.894	142.56
282.125	137.56
282.356	156.56
282.588	160.56
282.819	164.56
283.051	145.56
283.282	144.56
283.513	161.56
283.745	153.56
283.976	156.56
284.207	158.56
284.439	154.56
284.67	159.56
284.901	137.56
285.132	165.56
285.364	158.56
285.595	157.56
285.826	153.56
286.057	148.56
286.288	167.56
286.52	180.56
286.751	150.56
286.982	156.56
287.213	154.56
287.444	156.56
287.675	170.56
287.906	154.56
288.138	164.56
288.369	164.56
288.6	161.56
288.831	169.56
289.062	154.56
289.293	173.56
289.524	168.56
289.755	172.56
289.986	159.56
290.217	159.56
290.448	158.56
290.679	162.56
290.91	168.56
291.141	173.56
291.371	161.56
291.602	169.56
291.833	175.56
292.064	158.56
292.295	163.56
292.526	177.56
292.757	172.56
292.987	162.56
293.218	164.56
293.449	179.56
293.68	168.56
293.91	166.56
294.141	156.56
294.372	177.56
294.603	164.56
294.833	164.56
295.064	187.56
295.295	164.56
295.525	181.56
295.756	177.56
295.987	165.56
296.217	163.56
296.448	162.56
296.679	187.56
296.909	164.56
297.14	184.56
297.37	177.56
297.601	184.56
297.831	170.56
298.062	179.56
298.292	188.56
298.523	197.56
298.753	185.56
298.984	184.56
299.214	168.56
299.445	173.56
299.675	190.56
299.905	173.56
300.136	178.56
300.366	176.56
300.597	178.56
300.827	190.56
301.057	177.56
301.288	190.56
301.518	187.56
301.748	184.56
301.979	179.56
302.209	188.56
302.439	180.56
302.669	168.56
302.9	191.56
303.13	175.56
303.36	185.56
303.59	179.56
303.82	174.56
304.051	202.56
304.281	177.56
304.511	190.56
304.741	193.56
304.971	163.56
305.201	188.56
305.431	184.56
305.661	181.56
305.891	180.56
306.121	174.56
306.352	187.56
306.582	176.56
306.812	181.56
307.042	182.56
307.272	180.56
307.502	188.56
307.731	194.56
307.961	184.56
308.191	164.56
308.421	189.56
308.651	183.56
308.881	176.56
309.111	169.56
309.341	181.56
309.571	169.56
309.8	171.56
310.03	176.56
310.26	180.56
310.49	181.56
310.72	186.56
310.949	187.56
311.179	188.56
311.409	165.56
311.639	188.56
311.868	176.56
312.098	195.56
312.328	165.56
312.557	189.56
312.787	193.56
313.017	198.56
313.246	208.56
313.476	204.56
313.706	199.56
313.935	190.56
314.165	186.56
314.394	197.56
314.624	197.56
314.853	200.56
315.083	194.56
315.312	184.56
315.542	199.56
315.771	188.56
316.001	180.56
316.23	192.56
316.46	181.56
316.689	195.56
316.919	193.56
317.148	198.56
317.377	192.56
317.607	194.56
317.836	184.56
318.065	178.56
318.295	174.56
318.524	185.56
318.753	180.56
318.983	174.56
319.212	188.56
319.441	180.56
319.67	187.56
319.9	165.56
320.129	192.56
320.358	180.56
320.587	173.56
320.816	188.56
321.046	192.56
321.275	213.56
321.504	198.56
321.733	187.56
321.962	176.56
322.191	188.56
322.42	184.56
322.649	184.56
322.878	207.56
323.108	184.56
323.337	193.56
323.566	182.56
323.795	177.56
324.024	201.56
324.253	188.56
324.482	200.56
324.71	193.56
324.939	192.56
325.168	202.56
325.397	199.56
325.626	201.56
325.855	201.56
326.084	198.56
326.313	212.56
326.542	202.56
326.77	205.56
326.999	213.56
327.228	197.56
327.457	200.56
327.686	205.56
327.914	207.56
328.143	208.56
328.372	202.56
328.6	199.56
328.829	197.56
329.058	204.56
329.287	193.56
329.515	183.56
329.744	199.56
329.972	204.56
330.201	201.56
330.43	204.56
330.658	202.56
330.887	212.56
331.115	191.56
331.344	202.56
331.572	212.56
331.801	220.56
332.03	211.56
332.258	209.56
332.486	226.56
332.715	236.56
332.943	247.56
333.172	258.56
333.4	244.56
333.629	268.56
333.857	254.56
334.085	272.56
334.314	248.56
334.542	214.56
334.771	232.56
334.999	228.56
335.227	233.56
335.455	241.56
335.684	243.56
335.912	227.56
336.14	229.56
336.369	225.56
336.597	220.56
336.825	236.56
337.053	233.56
337.281	223.56
337.51	233.56
337.738	220.56
337.966	219.56
338.194	229.56
338.422	199.56
338.65	197.56
338.878	200.56
339.106	222.56
339.334	208.56
339.562	207.56
339.79	200.56
340.018	205.56
340.246	197.56
340.474	204.56
340.702	189.56
340.93	208.56
341.158	213.56
341.386	204.56
341.614	189.56
341.842	212.56
342.07	200.56
342.298	192.56
342.526	213.56
342.754	223.56
342.981	204.56
343.209	216.56
343.437	225.56
343.665	218.56
343.893	231.56
344.12	248.56
344.348	241.56
344.576	237.56
344.804	228.56
345.031	215.56
345.259	216.56
345.487	202.56
345.714	209.56
345.942	218.56
346.17	207.56
346.397	205.56
346.625	206.56
346.853	207.56
347.08	193.56
347.308	193.56
347.535	217.56
347.763	205.56
347.99	219.56
348.218	202.56
348.445	209.56
348.673	209.56
348.9	216.56
349.128	209.56
349.355	208.56
349.583	194.56
349.81	184.56
350.037	202.56
350.265	201.56
350.492	198.56
350.72	205.56
350.947	188.56
351.174	208.56
351.402	202.56
351.629	217.56
351.856	205.56
352.083	192.56
352.311	167.56
352.538	199.56
352.765	200.56
352.992	183.56
353.22	179.56
353.447	177.56
353.674	195.56
353.901	195.56
354.128	186.56
354.355	193.56
354.583	188.56
354.81	201.56
355.037	198.56
355.264	188.56
355.491	192.56
355.718	215.56
355.945	200.56
356.172	211.56
356.399	201.56
356.626	192.56
356.853	203.56
357.08	215.56
357.307	194.56
357.534	194.56
357.761	197.56
357.988	193.56
358.215	193.56
358.441	189.56
358.668	191.56
358.895	200.56
359.122	194.56
359.349	183.56
359.576	173.56
359.802	188.56
360.029	180.56
360.256	202.56
360.483	187.56
360.709	193.56
360.936	191.56
361.163	192.56
361.39	197.56
361.616	189.56
361.843	181.56
362.07	205.56
362.296	199.56
362.523	191.56
362.749	196.56
362.976	175.56
363.203	199.56
363.429	194.56
363.656	189.56
363.882	199.56
364.109	195.56
364.335	195.56
364.562	185.56
364.788	198.56
365.015	185.56
365.241	192.56
365.468	188.56
365.694	195.56
365.92	184.56
366.147	180.56
366.373	199.56
366.599	189.56
366.826	188.56
367.052	191.56
367.278	189.56
367.505	184.56
367.731	202.56
367.957	213.56
368.184	198.56
368.41	205.56
368.636	185.56
368.862	192.56
369.089	192.56
369.315	189.56
369.541	207.56
369.767	196.56
369.993	187.56
370.219	181.56
370.445	204.56
370.672	196.56
370.898	205.56
371.124	204.56
371.35	206.56
371.576	215.56
371.802	193.56
372.028	199.56
372.254	195.56
372.48	202.56
372.706	211.56
372.932	211.56
373.158	217.56
373.384	205.56
373.61	212.56
373.835	208.56
374.061	209.56
374.287	208.56
374.513	217.56
374.739	216.56
374.965	206.56
375.191	236.56
375.416	228.56
375.642	232.56
375.868	229.56
376.094	212.56
376.319	215.56
376.545	212.56
376.771	220.56
376.997	226.56
377.222	207.56
377.448	196.56
377.674	213.56
377.899	217.56
378.125	216.56
378.35	209.56
378.576	196.56
378.802	214.56
379.027	195.56
379.253	202.56
379.478	201.56
379.704	191.56
379.929	197.56
380.155	204.56
380.38	182.56
380.606	200.56
380.831	192.56
381.057	189.56
381.282	209.56
381.507	209.56
381.733	192.56
381.958	203.56
382.184	206.56
382.409	201.56
382.634	199.56
382.86	196.56
383.085	223.56
383.31	228.56
383.535	217.56
383.761	211.56
383.986	220.56
384.211	211.56
384.436	240.56
384.662	232.56
384.887	235.56
385.112	228.56
385.337	235.56
385.562	236.56
385.787	238.56
386.013	232.56
386.238	236.56
386.463	236.56
386.688	247.56
386.913	227.56
387.138	215.56
387.363	220.56
387.588	240.56
387.813	226.56
388.038	256.56
388.263	233.56
388.488	221.56
388.713	228.56
388.938	231.56
389.163	230.56
389.387	230.56
389.612	233.56
389.837	233.56
390.062	219.56
390.287	229.56
390.512	235.56
390.736	223.56
390.961	227.56
391.186	244.56
391.411	239.56
391.636	267.56
391.86	237.56
392.085	247.56
392.31	273.56
392.534	237.56
392.759	232.56
392.984	228.56
393.208	232.56
393.433	245.56
393.658	232.56
393.882	230.56
394.107	225.56
394.331	242.56
394.556	237.56
394.78	237.56
395.005	231.56
395.229	266.56
395.454	254.56
395.678	258.56
395.903	261.56
396.127	243.56
396.352	252.56
396.576	220.56
396.801	249.56
397.025	250.56
397.249	240.56
397.474	246.56
397.698	239.56
397.922	266.56
398.147	265.56
398.371	261.56
398.595	260.56
398.82	265.56
399.044	290.56
399.268	289.56
399.492	348.56
399.717	399.56
399.941	392.56
400.165	348.56
400.389	318.56
400.613	285.56
400.837	279.56
401.062	283.56
401.286	257.56
401.51	264.56
401.734	280.56
401.958	273.56
402.182	279.56
402.406	285.56
402.63	298.56
402.854	281.56
403.078	292.56
403.302	306.56
403.526	321.56
403.75	314.56
403.974	323.56
404.198	316.56
404.422	316.56
404.645	321.56
404.869	294.56
405.093	302.56
405.317	293.56
405.541	286.56
405.765	290.56
405.988	290.56
406.212	296.56
406.436	296.56
406.66	300.56
406.883	315.56
407.107	313.56
407.331	320.56
407.555	346.56
407.778	364.56
408.002	314.56
408.226	320.56
408.449	319.56
408.673	323.56
408.896	309.56
409.12	308.56
409.344	317.56
409.567	304.56
409.791	321.56
410.014	314.56
410.238	308.56
410.461	307.56
410.685	295.56
410.908	308.56
411.132	295.56
411.355	280.56
411.578	270.56
411.802	282.56
412.025	294.56
412.249	291.56
412.472	288.56
412.695	278.56
412.919	260.56
413.142	270.56
413.365	255.56
413.589	256.56
413.812	288.56
414.035	270.56
414.258	280.56
414.482	288.56
414.705	296.56
414.928	275.56
415.151	278.56
415.374	257.56
415.597	286.56
415.821	265.56
416.044	263.56
416.267	262.56
416.49	283.56
416.713	270.56
416.936	274.56
417.159	264.56
417.382	274.56
417.605	278.56
417.828	276.56
418.051	284.56
418.274	262.56
418.497	282.56
418.72	291.56
418.943	284.56
419.166	309.56
419.389	326.56
419.611	308.56
419.834	287.56
420.057	281.56
420.28	276.56
420.503	276.56
420.726	262.56
420.948	256.56
421.171	266.56
421.394	255.56
421.617	272.56
421.839	286.56
422.062	280.56
422.285	284.56
422.507	290.56
422.73	283.56
422.953	294.56
423.175	286.56
423.398	292.56
423.621	280.56
423.843	297.56
424.066	287.56
424.288	302.56
424.511	288.56
424.733	274.56
424.956	268.56
425.178	260.56
425.401	276.56
425.623	255.56
425.846	255.56
426.068	269.56
426.291	260.56
426.513	293.56
426.735	269.56
426.958	253.56
427.18	268.56
427.402	240.56
427.625	246.56
427.847	257.56
428.069	243.56
428.292	256.56
428.514	237.56
428.736	264.56
428.958	251.56
429.181	256.56
429.403	245.56
429.625	238.56
429.847	233.56
430.069	244.56
430.292	262.56
430.514	211.56
430.736	233.56
430.958	252.56
431.18	239.56
431.402	262.56
431.624	242.56
431.846	266.56
432.068	238.56
432.29	260.56
432.512	245.56
432.734	237.56
432.956	238.56
433.178	255.56
433.4	264.56
433.622	260.56
433.844	252.56
434.066	254.56
434.287	252.56
434.509	258.56
434.731	248.56
434.953	273.56
435.175	280.56
435.397	273.56
435.618	271.56
435.84	238.56
436.062	253.56
436.284	254.56
436.505	258.56
436.727	233.56
436.949	238.56
437.17	252.56
437.392	246.56
437.614	230.56
437.835	231.56
438.057	231.56
438.278	238.56
438.5	225.56
438.721	238.56
438.943	242.56
439.165	229.56
439.386	249.56
439.608	246.56
439.829	240.56
440.05	241.56
440.272	258.56
440.493	263.56
440.715	247.56
440.936	242.56
441.158	266.56
441.379	271.56
441.6	282.56
441.822	290.56
442.043	267.56
442.264	267.56
442.486	288.56
442.707	268.56
442.928	268.56
443.149	260.56
443.371	277.56
443.592	274.56
443.813	295.56
444.034	305.56
444.255	286.56
444.476	295.56
444.698	316.56
444.919	308.56
445.14	430.56
445.361	341.56
445.582	270.56
445.803	261.56
446.024	253.56
446.245	266.56
446.466	274.56
446.687	242.56
446.908	260.56
447.129	228.56
447.35	243.56
447.571	260.56
447.792	224.56
448.013	243.56
448.234	253.56
448.455	203.56
448.675	220.56
448.896	239.56
449.117	218.56
449.338	227.56
449.559	242.56
449.779	225.56
450	238.56
450.221	236.56
450.442	228.56
450.662	245.56
450.883	225.56
451.104	254.56
451.324	255.56
451.545	255.56
451.766	238.56
451.986	228.56
452.207	236.56
452.428	226.56
452.648	234.56
452.869	229.56
453.089	240.56
453.31	227.56
453.53	248.56
453.751	231.56
453.971	228.56
454.192	221.56
454.412	204.56
454.633	226.56
454.853	241.56
455.073	211.56
455.294	211.56
455.514	229.56
455.734	221.56
455.955	223.56
456.175	225.56
456.395	217.56
456.616	225.56
456.836	225.56
457.056	218.56
457.276	229.56
457.497	210.56
457.717	202.56
457.937	213.56
458.157	198.56
458.377	214.56
458.598	237.56
458.818	223.56
459.038	219.56
459.258	234.56
459.478	248.56
459.698	252.56
459.918	273.56
460.138	288.56
460.358	292.56
460.578	276.56
460.798	277.56
461.018	290.56
461.238	283.56
461.458	292.56
461.678	281.56
461.898	285.56
462.118	287.56
462.338	296.56
462.558	336.56
462.777	306.56
462.997	334.56
463.217	384.56
463.437	394.56
463.657	360.56
463.876	330.56
464.096	326.56
464.316	326.56
464.536	329.56
464.755	335.56
464.975	313.56
465.195	311.56
465.414	304.56
465.634	263.56
465.854	268.56
466.073	259.56
466.293	249.56
466.512	260.56
466.732	255.56
466.951	242.56
467.171	240.56
467.391	255.56
467.61	248.56
467.829	239.56
468.049	246.56
468.268	232.56
468.488	225.56
468.707	216.56
468.927	236.56
469.146	233.56
469.365	231.56
469.585	216.56
469.804	240.56
470.023	254.56
470.243	250.56
470.462	262.56
470.681	249.56
470.901	272.56
471.12	249.56
471.339	268.56
471.558	239.56
471.777	236.56
471.997	241.56
472.216	238.56
472.435	238.56
472.654	231.56
472.873	209.56
473.092	216.56
473.311	214.56
473.53	256.56
473.749	229.56
473.968	232.56
474.187	213.56
474.406	247.56
474.625	223.56
474.844	228.56
475.063	227.56
475.282	242.56
475.501	228.56
475.72	234.56
475.939	232.56
476.158	240.56
476.377	251.56
476.596	265.56
476.814	254.56
477.033	231.56
477.252	260.56
477.471	269.56
477.69	246.56
477.908	256.56
478.127	278.56
478.346	277.56
478.564	264.56
478.783	264.56
479.002	275.56
479.22	288.56
479.439	274.56
479.658	281.56
479.876	274.56
480.095	284.56
480.313	279.56
480.532	315.56
480.751	297.56
480.969	272.56
481.188	279.56
481.406	290.56
481.624	261.56
481.843	266.56
482.061	267.56
482.28	249.56
482.498	256.56
482.717	269.56
482.935	256.56
483.153	266.56
483.372	270.56
483.59	294.56
483.808	276.56
484.027	272.56
484.245	281.56
484.463	270.56
484.681	278.56
484.9	273.56
485.118	269.56
485.336	289.56
485.554	280.56
485.772	296.56
485.99	273.56
486.209	294.56
486.427	291.56
486.645	273.56
486.863	284.56
487.081	273.56
487.299	270.56
487.517	277.56
487.735	254.56
487.953	303.56
488.171	284.56
488.389	281.56
488.607	290.56
488.825	278.56
489.043	273.56
489.261	286.56
489.479	276.56
489.696	273.56
489.914	279.56
490.132	274.56
490.35	270.56
490.568	277.56
490.786	278.56
491.003	281.56
491.221	293.56
491.439	281.56
491.657	287.56
491.874	294.56
492.092	278.56
492.31	290.56
492.527	297.56
492.745	296.56
492.963	296.56
493.18	298.56
493.398	286.56
493.615	293.56
493.833	296.56
494.05	306.56
494.268	288.56
494.485	288.56
494.703	293.56
494.92	294.56
495.138	280.56
495.355	290.56
495.573	290.56
495.79	285.56
496.008	293.56
496.225	306.56
496.442	310.56
496.66	324.56
496.877	296.56
497.094	306.56
497.312	301.56
497.529	319.56
497.746	300.56
497.963	341.56
498.181	336.56
498.398	369.56
498.615	369.56
498.832	390.56
499.049	394.56
499.267	457.56
499.484	514.56
499.701	526.56
499.918	587.56
500.135	673.56
500.352	772.56
500.569	807.56
500.786	837.56
501.003	755.56
501.22	654.56
501.437	596.56
501.654	517.56
501.871	458.56
502.088	430.56
502.305	407.56
502.522	394.56
502.739	363.56
502.956	368.56
503.172	335.56
503.389	332.56
