Data from 0.5MCu(NO3)2.Standard.Lamp.E10.CV._HRD10591_16-06-00-753.txt Node
Date: Mon Jul 22 16:06:00 EDT 2019
User: cochatt
Spectrometer: HR+D1059
Trigger mode: 1
Integration Time (sec): 1.000000E-1
Scans to average: 1
Electric dark correction enabled: true
Nonlinearity correction enabled: false
Boxcar width: 0
XAxis mode: Wavelengths
Number of Pixels in Spectrum: 2048
>>>>>Begin Spectral Data<<<<<
223.165	-14.25
223.4	-14.25
223.635	-14.25
223.869	-14.25
224.104	-8.25
224.338	-4.25
224.573	-16.25
224.808	-24.25
225.042	-17.25
225.277	-1.25
225.511	7.75
225.746	1.75
225.98	2.75
226.215	-3.25
226.449	10.75
226.683	20.75
226.918	20.75
227.152	38.75
227.387	29.75
227.621	42.75
227.856	41.75
228.09	38.75
228.324	56.75
228.559	57.75
228.793	56.75
229.027	53.75
229.262	60.75
229.496	79.75
229.73	82.75
229.964	85.75
230.199	71.75
230.433	77.75
230.667	70.75
230.901	64.75
231.136	85.75
231.37	81.75
231.604	87.75
231.838	83.75
232.072	87.75
232.306	93.75
232.541	100.75
232.775	77.75
233.009	87.75
233.243	84.75
233.477	97.75
233.711	79.75
233.945	94.75
234.179	81.75
234.413	91.75
234.647	87.75
234.881	99.75
235.115	93.75
235.349	68.75
235.583	80.75
235.817	98.75
236.051	87.75
236.285	76.75
236.519	84.75
236.753	88.75
236.987	83.75
237.221	86.75
237.455	79.75
237.689	84.75
237.922	97.75
238.156	88.75
238.39	79.75
238.624	64.75
238.858	84.75
239.091	75.75
239.325	87.75
239.559	80.75
239.793	84.75
240.027	87.75
240.26	91.75
240.494	90.75
240.728	82.75
240.961	81.75
241.195	76.75
241.429	74.75
241.662	79.75
241.896	92.75
242.13	90.75
242.363	82.75
242.597	102.75
242.83	102.75
243.064	90.75
243.298	85.75
243.531	90.75
243.765	92.75
243.998	90.75
244.232	88.75
244.465	94.75
244.699	91.75
244.932	86.75
245.166	97.75
245.399	95.75
245.633	103.75
245.866	92.75
246.099	81.75
246.333	90.75
246.566	101.75
246.8	102.75
247.033	111.75
247.266	104.75
247.5	90.75
247.733	84.75
247.966	102.75
248.2	96.75
248.433	106.75
248.666	92.75
248.899	100.75
249.133	112.75
249.366	108.75
249.599	112.75
249.832	85.75
250.066	103.75
250.299	99.75
250.532	113.75
250.765	108.75
250.998	96.75
251.231	105.75
251.465	97.75
251.698	96.75
251.931	95.75
252.164	83.75
252.397	93.75
252.63	106.75
252.863	106.75
253.096	98.75
253.329	111.75
253.562	114.75
253.795	100.75
254.028	106.75
254.261	120.75
254.494	113.75
254.727	102.75
254.96	105.75
255.193	107.75
255.426	109.75
255.659	104.75
255.892	91.75
256.124	110.75
256.357	110.75
256.59	111.75
256.823	119.75
257.056	115.75
257.289	124.75
257.521	126.75
257.754	106.75
257.987	106.75
258.22	107.75
258.452	99.75
258.685	110.75
258.918	102.75
259.151	112.75
259.383	116.75
259.616	116.75
259.849	107.75
260.081	113.75
260.314	106.75
260.547	108.75
260.779	113.75
261.012	121.75
261.244	131.75
261.477	129.75
261.71	113.75
261.942	121.75
262.175	117.75
262.407	106.75
262.64	112.75
262.872	120.75
263.105	131.75
263.337	107.75
263.57	120.75
263.802	114.75
264.035	112.75
264.267	106.75
264.499	120.75
264.732	117.75
264.964	112.75
265.197	122.75
265.429	118.75
265.661	111.75
265.894	122.75
266.126	117.75
266.358	123.75
266.591	111.75
266.823	120.75
267.055	132.75
267.287	128.75
267.52	108.75
267.752	122.75
267.984	114.75
268.216	124.75
268.448	122.75
268.681	120.75
268.913	123.75
269.145	126.75
269.377	124.75
269.609	127.75
269.841	111.75
270.073	113.75
270.306	120.75
270.538	118.75
270.77	114.75
271.002	118.75
271.234	121.75
271.466	106.75
271.698	132.75
271.93	125.75
272.162	134.75
272.394	131.75
272.626	110.75
272.858	116.75
273.09	130.75
273.322	132.75
273.553	123.75
273.785	138.75
274.017	133.75
274.249	123.75
274.481	106.75
274.713	115.75
274.945	116.75
275.176	143.75
275.408	146.75
275.64	131.75
275.872	135.75
276.104	136.75
276.335	136.75
276.567	137.75
276.799	127.75
277.031	137.75
277.262	146.75
277.494	126.75
277.726	141.75
277.957	144.75
278.189	137.75
278.421	136.75
278.652	136.75
278.884	129.75
279.115	143.75
279.347	138.75
279.579	136.75
279.81	132.75
280.042	132.75
280.273	159.75
280.505	137.75
280.736	139.75
280.968	130.75
281.199	138.75
281.431	147.75
281.662	163.75
281.894	145.75
282.125	150.75
282.356	152.75
282.588	128.75
282.819	140.75
283.051	132.75
283.282	141.75
283.513	156.75
283.745	148.75
283.976	142.75
284.207	132.75
284.439	142.75
284.67	126.75
284.901	149.75
285.132	146.75
285.364	144.75
285.595	155.75
285.826	144.75
286.057	146.75
286.288	132.75
286.52	139.75
286.751	134.75
286.982	139.75
287.213	151.75
287.444	134.75
287.675	126.75
287.906	159.75
288.138	155.75
288.369	134.75
288.6	141.75
288.831	137.75
289.062	163.75
289.293	140.75
289.524	155.75
289.755	160.75
289.986	147.75
290.217	139.75
290.448	143.75
290.679	158.75
290.91	146.75
291.141	158.75
291.371	141.75
291.602	139.75
291.833	148.75
292.064	156.75
292.295	149.75
292.526	153.75
292.757	156.75
292.987	147.75
293.218	158.75
293.449	156.75
293.68	150.75
293.91	142.75
294.141	145.75
294.372	147.75
294.603	152.75
294.833	152.75
295.064	157.75
295.295	155.75
295.525	158.75
295.756	177.75
295.987	168.75
296.217	174.75
296.448	154.75
296.679	158.75
296.909	160.75
297.14	166.75
297.37	172.75
297.601	154.75
297.831	155.75
298.062	167.75
298.292	157.75
298.523	172.75
298.753	174.75
298.984	154.75
299.214	170.75
299.445	164.75
299.675	154.75
299.905	158.75
300.136	159.75
300.366	160.75
300.597	179.75
300.827	150.75
301.057	178.75
301.288	160.75
301.518	155.75
301.748	175.75
301.979	161.75
302.209	170.75
302.439	182.75
302.669	146.75
302.9	160.75
303.13	166.75
303.36	177.75
303.59	172.75
303.82	160.75
304.051	150.75
304.281	174.75
304.511	174.75
304.741	178.75
304.971	167.75
305.201	164.75
305.431	161.75
305.661	186.75
305.891	152.75
306.121	168.75
306.352	172.75
306.582	161.75
306.812	174.75
307.042	154.75
307.272	164.75
307.502	150.75
307.731	152.75
307.961	162.75
308.191	177.75
308.421	180.75
308.651	177.75
308.881	167.75
309.111	162.75
309.341	164.75
309.571	161.75
309.8	186.75
310.03	171.75
310.26	160.75
310.49	148.75
310.72	163.75
310.949	178.75
311.179	180.75
311.409	151.75
311.639	162.75
311.868	166.75
312.098	182.75
312.328	174.75
312.557	177.75
312.787	176.75
313.017	176.75
313.246	166.75
313.476	190.75
313.706	172.75
313.935	170.75
314.165	169.75
314.394	175.75
314.624	152.75
314.853	186.75
315.083	174.75
315.312	178.75
315.542	168.75
315.771	159.75
316.001	162.75
316.23	187.75
316.46	169.75
316.689	177.75
316.919	172.75
317.148	177.75
317.377	167.75
317.607	158.75
317.836	170.75
318.065	186.75
318.295	165.75
318.524	170.75
318.753	150.75
318.983	160.75
319.212	167.75
319.441	156.75
319.67	180.75
319.9	169.75
320.129	175.75
320.358	174.75
320.587	176.75
320.816	170.75
321.046	177.75
321.275	176.75
321.504	168.75
321.733	182.75
321.962	163.75
322.191	174.75
322.42	184.75
322.649	170.75
322.878	176.75
323.108	171.75
323.337	163.75
323.566	176.75
323.795	178.75
324.024	162.75
324.253	173.75
324.482	186.75
324.71	181.75
324.939	177.75
325.168	175.75
325.397	183.75
325.626	156.75
325.855	199.75
326.084	178.75
326.313	190.75
326.542	187.75
326.77	190.75
326.999	183.75
327.228	180.75
327.457	180.75
327.686	182.75
327.914	185.75
328.143	175.75
328.372	174.75
328.6	166.75
328.829	169.75
329.058	174.75
329.287	186.75
329.515	178.75
329.744	164.75
329.972	167.75
330.201	179.75
330.43	184.75
330.658	187.75
330.887	203.75
331.115	196.75
331.344	188.75
331.572	185.75
331.801	185.75
332.03	210.75
332.258	201.75
332.486	193.75
332.715	209.75
332.943	209.75
333.172	236.75
333.4	223.75
333.629	210.75
333.857	228.75
334.085	215.75
334.314	219.75
334.542	222.75
334.771	209.75
334.999	215.75
335.227	211.75
335.455	210.75
335.684	197.75
335.912	186.75
336.14	190.75
336.369	209.75
336.597	209.75
336.825	210.75
337.053	210.75
337.281	209.75
337.51	208.75
337.738	207.75
337.966	191.75
338.194	188.75
338.422	198.75
338.65	175.75
338.878	192.75
339.106	196.75
339.334	197.75
339.562	177.75
339.79	192.75
340.018	195.75
340.246	188.75
340.474	180.75
340.702	176.75
340.93	195.75
341.158	181.75
341.386	189.75
341.614	188.75
341.842	182.75
342.07	195.75
342.298	178.75
342.526	189.75
342.754	176.75
342.981	187.75
343.209	186.75
343.437	184.75
343.665	192.75
343.893	217.75
344.12	212.75
344.348	241.75
344.576	205.75
344.804	184.75
345.031	183.75
345.259	185.75
345.487	196.75
345.714	195.75
345.942	184.75
346.17	171.75
346.397	190.75
346.625	196.75
346.853	187.75
347.08	171.75
347.308	201.75
347.535	200.75
347.763	164.75
347.99	189.75
348.218	198.75
348.445	178.75
348.673	187.75
348.9	192.75
349.128	179.75
349.355	190.75
349.583	176.75
349.81	178.75
350.037	176.75
350.265	180.75
350.492	191.75
350.72	190.75
350.947	195.75
351.174	162.75
351.402	170.75
351.629	184.75
351.856	180.75
352.083	179.75
352.311	175.75
352.538	180.75
352.765	171.75
352.992	171.75
353.22	163.75
353.447	164.75
353.674	153.75
353.901	183.75
354.128	174.75
354.355	183.75
354.583	182.75
354.81	175.75
355.037	178.75
355.264	176.75
355.491	188.75
355.718	184.75
355.945	171.75
356.172	186.75
356.399	164.75
356.626	172.75
356.853	182.75
357.08	182.75
357.307	175.75
357.534	177.75
357.761	171.75
357.988	176.75
358.215	169.75
358.441	182.75
358.668	180.75
358.895	174.75
359.122	177.75
359.349	172.75
359.576	166.75
359.802	172.75
360.029	172.75
360.256	156.75
360.483	163.75
360.709	179.75
360.936	164.75
361.163	162.75
361.39	195.75
361.616	182.75
361.843	174.75
362.07	176.75
362.296	187.75
362.523	174.75
362.749	183.75
362.976	165.75
363.203	189.75
363.429	170.75
363.656	180.75
363.882	166.75
364.109	191.75
364.335	180.75
364.562	187.75
364.788	161.75
365.015	182.75
365.241	165.75
365.468	172.75
365.694	156.75
365.92	168.75
366.147	160.75
366.373	174.75
366.599	166.75
366.826	161.75
367.052	167.75
367.278	185.75
367.505	172.75
367.731	178.75
367.957	186.75
368.184	166.75
368.41	181.75
368.636	174.75
368.862	191.75
369.089	176.75
369.315	177.75
369.541	176.75
369.767	176.75
369.993	176.75
370.219	177.75
370.445	189.75
370.672	193.75
370.898	176.75
371.124	184.75
371.35	210.75
371.576	182.75
371.802	211.75
372.028	205.75
372.254	186.75
372.48	198.75
372.706	202.75
372.932	191.75
373.158	196.75
373.384	196.75
373.61	184.75
373.835	191.75
374.061	167.75
374.287	183.75
374.513	180.75
374.739	197.75
374.965	193.75
375.191	226.75
375.416	198.75
375.642	215.75
375.868	185.75
376.094	202.75
376.319	183.75
376.545	181.75
376.771	198.75
376.997	185.75
377.222	200.75
377.448	178.75
377.674	192.75
377.899	186.75
378.125	193.75
378.35	185.75
378.576	170.75
378.802	182.75
379.027	185.75
379.253	190.75
379.478	186.75
379.704	182.75
379.929	175.75
380.155	171.75
380.38	194.75
380.606	194.75
380.831	185.75
381.057	191.75
381.282	183.75
381.507	181.75
381.733	179.75
381.958	172.75
382.184	190.75
382.409	191.75
382.634	202.75
382.86	208.75
383.085	193.75
383.31	186.75
383.535	210.75
383.761	200.75
383.986	200.75
384.211	214.75
384.436	192.75
384.662	186.75
384.887	214.75
385.112	212.75
385.337	213.75
385.562	206.75
385.787	182.75
386.013	201.75
386.238	206.75
386.463	220.75
386.688	198.75
386.913	208.75
387.138	196.75
387.363	187.75
387.588	204.75
387.813	202.75
388.038	202.75
388.263	211.75
388.488	203.75
388.713	208.75
388.938	194.75
389.163	193.75
389.387	198.75
389.612	198.75
389.837	207.75
390.062	187.75
390.287	199.75
390.512	200.75
390.736	202.75
390.961	204.75
391.186	212.75
391.411	210.75
391.636	207.75
391.86	224.75
392.085	209.75
392.31	240.75
392.534	228.75
392.759	227.75
392.984	215.75
393.208	202.75
393.433	238.75
393.658	219.75
393.882	218.75
394.107	211.75
394.331	217.75
394.556	208.75
394.78	215.75
395.005	231.75
395.229	212.75
395.454	214.75
395.678	219.75
395.903	220.75
396.127	217.75
396.352	216.75
396.576	223.75
396.801	208.75
397.025	207.75
397.249	212.75
397.474	212.75
397.698	220.75
397.922	227.75
398.147	209.75
398.371	234.75
398.595	231.75
398.82	232.75
399.044	256.75
399.268	294.75
399.492	295.75
399.717	346.75
399.941	334.75
400.165	304.75
400.389	265.75
400.613	246.75
400.837	243.75
401.062	251.75
401.286	229.75
401.51	261.75
401.734	231.75
401.958	254.75
402.182	238.75
402.406	244.75
402.63	257.75
402.854	243.75
403.078	250.75
403.302	284.75
403.526	263.75
403.75	284.75
403.974	275.75
404.198	282.75
404.422	260.75
404.645	287.75
404.869	277.75
405.093	270.75
405.317	279.75
405.541	268.75
405.765	252.75
405.988	266.75
406.212	264.75
406.436	255.75
406.66	268.75
406.883	267.75
407.107	291.75
407.331	306.75
407.555	298.75
407.778	283.75
408.002	278.75
408.226	275.75
408.449	280.75
408.673	272.75
408.896	271.75
409.12	265.75
409.344	256.75
409.567	265.75
409.791	264.75
410.014	276.75
410.238	245.75
410.461	258.75
410.685	262.75
410.908	261.75
411.132	259.75
411.355	244.75
411.578	225.75
411.802	214.75
412.025	238.75
412.249	242.75
412.472	240.75
412.695	240.75
412.919	244.75
413.142	220.75
413.365	250.75
413.589	234.75
413.812	243.75
414.035	246.75
414.258	246.75
414.482	240.75
414.705	256.75
414.928	246.75
415.151	235.75
415.374	236.75
415.597	251.75
415.821	228.75
416.044	233.75
416.267	236.75
416.49	239.75
416.713	248.75
416.936	240.75
417.159	240.75
417.382	241.75
417.605	252.75
417.828	249.75
418.051	227.75
418.274	240.75
418.497	241.75
418.72	239.75
418.943	227.75
419.166	250.75
419.389	254.75
419.611	248.75
419.834	238.75
420.057	230.75
420.28	231.75
420.503	245.75
420.726	239.75
420.948	231.75
421.171	233.75
421.394	242.75
421.617	256.75
421.839	225.75
422.062	250.75
422.285	254.75
422.507	224.75
422.73	226.75
422.953	240.75
423.175	240.75
423.398	263.75
423.621	255.75
423.843	255.75
424.066	261.75
424.288	274.75
424.511	246.75
424.733	240.75
424.956	241.75
425.178	233.75
425.401	222.75
425.623	241.75
425.846	236.75
426.068	224.75
426.291	214.75
426.513	233.75
426.735	217.75
426.958	223.75
427.18	196.75
427.402	215.75
427.625	222.75
427.847	218.75
428.069	223.75
428.292	215.75
428.514	208.75
428.736	229.75
428.958	215.75
429.181	225.75
429.403	224.75
429.625	208.75
429.847	218.75
430.069	203.75
430.292	219.75
430.514	210.75
430.736	214.75
430.958	222.75
431.18	203.75
431.402	214.75
431.624	218.75
431.846	226.75
432.068	220.75
432.29	197.75
432.512	213.75
432.734	233.75
432.956	218.75
433.178	216.75
433.4	229.75
433.622	217.75
433.844	219.75
434.066	229.75
434.287	230.75
434.509	239.75
434.731	238.75
434.953	234.75
435.175	240.75
435.397	229.75
435.618	212.75
435.84	218.75
436.062	219.75
436.284	223.75
436.505	234.75
436.727	232.75
436.949	214.75
437.17	204.75
437.392	217.75
437.614	214.75
437.835	198.75
438.057	215.75
438.278	209.75
438.5	207.75
438.721	226.75
438.943	218.75
439.165	208.75
439.386	215.75
439.608	223.75
439.829	229.75
440.05	226.75
440.272	224.75
440.493	210.75
440.715	226.75
440.936	231.75
441.158	230.75
441.379	217.75
441.6	231.75
441.822	234.75
442.043	250.75
442.264	232.75
442.486	233.75
442.707	224.75
442.928	237.75
443.149	238.75
443.371	234.75
443.592	242.75
443.813	256.75
444.034	242.75
444.255	256.75
444.476	258.75
444.698	268.75
444.919	272.75
445.14	351.75
445.361	273.75
445.582	231.75
445.803	223.75
446.024	228.75
446.245	216.75
446.466	223.75
446.687	228.75
446.908	242.75
447.129	214.75
447.35	209.75
447.571	225.75
447.792	223.75
448.013	203.75
448.234	212.75
448.455	201.75
448.675	198.75
448.896	211.75
449.117	205.75
449.338	192.75
449.559	201.75
449.779	195.75
450	190.75
450.221	212.75
450.442	214.75
450.662	206.75
450.883	204.75
451.104	200.75
451.324	224.75
451.545	212.75
451.766	201.75
451.986	198.75
452.207	222.75
452.428	215.75
452.648	234.75
452.869	206.75
453.089	203.75
453.31	210.75
453.53	200.75
453.751	190.75
453.971	204.75
454.192	213.75
454.412	193.75
454.633	209.75
454.853	187.75
455.073	204.75
455.294	210.75
455.514	197.75
455.734	203.75
455.955	218.75
456.175	198.75
456.395	178.75
456.616	183.75
456.836	182.75
457.056	197.75
457.276	189.75
457.497	187.75
457.717	189.75
457.937	196.75
458.157	205.75
458.377	201.75
458.598	195.75
458.818	202.75
459.038	219.75
459.258	213.75
459.478	196.75
459.698	238.75
459.918	215.75
460.138	228.75
460.358	252.75
460.578	245.75
460.798	259.75
461.018	250.75
461.238	235.75
461.458	262.75
461.678	241.75
461.898	255.75
462.118	254.75
462.338	254.75
462.558	268.75
462.777	279.75
462.997	282.75
463.217	336.75
463.437	327.75
463.657	310.75
463.876	283.75
464.096	293.75
464.316	262.75
464.536	287.75
464.755	287.75
464.975	255.75
465.195	263.75
465.414	262.75
465.634	250.75
465.854	240.75
466.073	227.75
466.293	235.75
466.512	221.75
466.732	218.75
466.951	216.75
467.171	218.75
467.391	224.75
467.61	209.75
467.829	227.75
468.049	215.75
468.268	201.75
468.488	200.75
468.707	222.75
468.927	218.75
469.146	197.75
469.365	204.75
469.585	205.75
469.804	214.75
470.023	241.75
470.243	215.75
470.462	228.75
470.681	221.75
470.901	211.75
471.12	212.75
471.339	216.75
471.558	229.75
471.777	222.75
471.997	208.75
472.216	245.75
472.435	203.75
472.654	198.75
472.873	191.75
473.092	198.75
473.311	210.75
473.53	212.75
473.749	203.75
473.968	224.75
474.187	214.75
474.406	205.75
474.625	202.75
474.844	208.75
475.063	214.75
475.282	225.75
475.501	222.75
475.72	217.75
475.939	198.75
476.158	202.75
476.377	207.75
476.596	206.75
476.814	230.75
477.033	211.75
477.252	208.75
477.471	219.75
477.69	219.75
477.908	227.75
478.127	241.75
478.346	234.75
478.564	227.75
478.783	234.75
479.002	245.75
479.22	264.75
479.439	240.75
479.658	249.75
479.876	252.75
480.095	255.75
480.313	264.75
480.532	266.75
480.751	258.75
480.969	242.75
481.188	253.75
481.406	244.75
481.624	231.75
481.843	226.75
482.061	240.75
482.28	215.75
482.498	218.75
482.717	225.75
482.935	240.75
483.153	229.75
483.372	219.75
483.59	224.75
483.808	249.75
484.027	241.75
484.245	243.75
484.463	220.75
484.681	239.75
484.9	249.75
485.118	256.75
485.336	256.75
485.554	251.75
485.772	263.75
485.99	243.75
486.209	267.75
486.427	252.75
486.645	244.75
486.863	250.75
487.081	250.75
487.299	249.75
487.517	247.75
487.735	257.75
487.953	234.75
488.171	263.75
488.389	249.75
488.607	243.75
488.825	243.75
489.043	239.75
489.261	223.75
489.479	242.75
489.696	246.75
489.914	237.75
490.132	243.75
490.35	235.75
490.568	229.75
490.786	233.75
491.003	249.75
491.221	251.75
491.439	238.75
491.657	217.75
491.874	243.75
492.092	270.75
492.31	278.75
492.527	264.75
492.745	244.75
492.963	249.75
493.18	248.75
493.398	246.75
493.615	242.75
493.833	241.75
494.05	251.75
494.268	266.75
494.485	271.75
494.703	256.75
494.92	262.75
495.138	249.75
495.355	257.75
495.573	248.75
495.79	242.75
496.008	245.75
496.225	253.75
496.442	275.75
496.66	244.75
496.877	265.75
497.094	268.75
497.312	264.75
497.529	291.75
497.746	283.75
497.963	300.75
498.181	285.75
498.398	304.75
498.615	312.75
498.832	339.75
499.049	357.75
499.267	387.75
499.484	406.75
499.701	447.75
499.918	505.75
500.135	578.75
500.352	656.75
500.569	700.75
500.786	668.75
501.003	600.75
501.22	561.75
501.437	511.75
501.654	440.75
501.871	396.75
502.088	369.75
502.305	354.75
502.522	320.75
502.739	317.75
502.956	313.75
503.172	294.75
503.389	290.75
