Data from 0.5MCu(NO3)2.Standard.Lamp.E10.CV._HRD10591_16-04-12-752.txt Node
Date: Mon Jul 22 16:04:12 EDT 2019
User: cochatt
Spectrometer: HR+D1059
Trigger mode: 1
Integration Time (sec): 1.000000E-1
Scans to average: 1
Electric dark correction enabled: true
Nonlinearity correction enabled: false
Boxcar width: 0
XAxis mode: Wavelengths
Number of Pixels in Spectrum: 2048
>>>>>Begin Spectral Data<<<<<
223.165	-9.25
223.4	-9.25
223.635	-9.25
223.869	-9.25
224.104	-28.25
224.338	-6.25
224.573	-19.25
224.808	-13.25
225.042	-17.25
225.277	-9.25
225.511	-8.25
225.746	6.75
225.98	-5.25
226.215	16.75
226.449	35.75
226.683	11.75
226.918	19.75
227.152	34.75
227.387	32.75
227.621	34.75
227.856	57.75
228.09	45.75
228.324	48.75
228.559	59.75
228.793	68.75
229.027	71.75
229.262	78.75
229.496	85.75
229.73	70.75
229.964	80.75
230.199	86.75
230.433	83.75
230.667	93.75
230.901	90.75
231.136	88.75
231.37	91.75
231.604	80.75
231.838	93.75
232.072	86.75
232.306	96.75
232.541	100.75
232.775	94.75
233.009	82.75
233.243	87.75
233.477	75.75
233.711	99.75
233.945	92.75
234.179	88.75
234.413	83.75
234.647	83.75
234.881	94.75
235.115	92.75
235.349	97.75
235.583	96.75
235.817	94.75
236.051	92.75
236.285	95.75
236.519	84.75
236.753	90.75
236.987	91.75
237.221	103.75
237.455	101.75
237.689	104.75
237.922	91.75
238.156	85.75
238.39	89.75
238.624	92.75
238.858	86.75
239.091	99.75
239.325	78.75
239.559	94.75
239.793	107.75
240.027	88.75
240.26	92.75
240.494	89.75
240.728	99.75
240.961	108.75
241.195	96.75
241.429	96.75
241.662	98.75
241.896	102.75
242.13	94.75
242.363	80.75
242.597	87.75
242.83	95.75
243.064	99.75
243.298	101.75
243.531	106.75
243.765	84.75
243.998	97.75
244.232	93.75
244.465	114.75
244.699	91.75
244.932	100.75
245.166	104.75
245.399	96.75
245.633	94.75
245.866	92.75
246.099	102.75
246.333	103.75
246.566	93.75
246.8	106.75
247.033	96.75
247.266	120.75
247.5	108.75
247.733	107.75
247.966	89.75
248.2	97.75
248.433	101.75
248.666	104.75
248.899	101.75
249.133	105.75
249.366	112.75
249.599	98.75
249.832	115.75
250.066	106.75
250.299	112.75
250.532	98.75
250.765	106.75
250.998	114.75
251.231	104.75
251.465	108.75
251.698	109.75
251.931	101.75
252.164	101.75
252.397	96.75
252.63	102.75
252.863	95.75
253.096	111.75
253.329	104.75
253.562	94.75
253.795	115.75
254.028	96.75
254.261	102.75
254.494	107.75
254.727	106.75
254.96	118.75
255.193	107.75
255.426	116.75
255.659	109.75
255.892	116.75
256.124	102.75
256.357	118.75
256.59	126.75
256.823	104.75
257.056	122.75
257.289	111.75
257.521	127.75
257.754	118.75
257.987	115.75
258.22	122.75
258.452	100.75
258.685	114.75
258.918	118.75
259.151	112.75
259.383	114.75
259.616	130.75
259.849	121.75
260.081	101.75
260.314	102.75
260.547	101.75
260.779	109.75
261.012	110.75
261.244	116.75
261.477	126.75
261.71	114.75
261.942	111.75
262.175	106.75
262.407	124.75
262.64	116.75
262.872	128.75
263.105	118.75
263.337	119.75
263.57	124.75
263.802	122.75
264.035	127.75
264.267	114.75
264.499	119.75
264.732	125.75
264.964	136.75
265.197	128.75
265.429	126.75
265.661	127.75
265.894	130.75
266.126	123.75
266.358	129.75
266.591	130.75
266.823	131.75
267.055	129.75
267.287	127.75
267.52	136.75
267.752	122.75
267.984	120.75
268.216	109.75
268.448	130.75
268.681	118.75
268.913	118.75
269.145	129.75
269.377	135.75
269.609	122.75
269.841	137.75
270.073	110.75
270.306	126.75
270.538	132.75
270.77	129.75
271.002	122.75
271.234	135.75
271.466	129.75
271.698	131.75
271.93	134.75
272.162	138.75
272.394	134.75
272.626	123.75
272.858	135.75
273.09	150.75
273.322	140.75
273.553	150.75
273.785	122.75
274.017	122.75
274.249	141.75
274.481	131.75
274.713	138.75
274.945	123.75
275.176	139.75
275.408	133.75
275.64	146.75
275.872	130.75
276.104	151.75
276.335	144.75
276.567	136.75
276.799	136.75
277.031	129.75
277.262	132.75
277.494	139.75
277.726	137.75
277.957	156.75
278.189	131.75
278.421	129.75
278.652	154.75
278.884	140.75
279.115	144.75
279.347	147.75
279.579	147.75
279.81	147.75
280.042	134.75
280.273	137.75
280.505	128.75
280.736	141.75
280.968	148.75
281.199	146.75
281.431	159.75
281.662	163.75
281.894	134.75
282.125	155.75
282.356	141.75
282.588	135.75
282.819	130.75
283.051	144.75
283.282	154.75
283.513	152.75
283.745	133.75
283.976	155.75
284.207	155.75
284.439	157.75
284.67	142.75
284.901	139.75
285.132	151.75
285.364	167.75
285.595	158.75
285.826	157.75
286.057	148.75
286.288	135.75
286.52	154.75
286.751	148.75
286.982	160.75
287.213	163.75
287.444	167.75
287.675	152.75
287.906	167.75
288.138	152.75
288.369	166.75
288.6	146.75
288.831	161.75
289.062	157.75
289.293	166.75
289.524	172.75
289.755	171.75
289.986	163.75
290.217	135.75
290.448	157.75
290.679	172.75
290.91	154.75
291.141	151.75
291.371	159.75
291.602	159.75
291.833	163.75
292.064	154.75
292.295	159.75
292.526	150.75
292.757	167.75
292.987	155.75
293.218	166.75
293.449	162.75
293.68	157.75
293.91	160.75
294.141	169.75
294.372	154.75
294.603	168.75
294.833	174.75
295.064	163.75
295.295	158.75
295.525	172.75
295.756	175.75
295.987	152.75
296.217	169.75
296.448	173.75
296.679	177.75
296.909	180.75
297.14	173.75
297.37	164.75
297.601	182.75
297.831	162.75
298.062	164.75
298.292	172.75
298.523	167.75
298.753	185.75
298.984	184.75
299.214	178.75
299.445	166.75
299.675	176.75
299.905	182.75
300.136	175.75
300.366	171.75
300.597	174.75
300.827	183.75
301.057	172.75
301.288	192.75
301.518	186.75
301.748	169.75
301.979	184.75
302.209	166.75
302.439	183.75
302.669	182.75
302.9	180.75
303.13	181.75
303.36	173.75
303.59	171.75
303.82	169.75
304.051	184.75
304.281	190.75
304.511	164.75
304.741	178.75
304.971	186.75
305.201	175.75
305.431	169.75
305.661	171.75
305.891	184.75
306.121	178.75
306.352	169.75
306.582	174.75
306.812	182.75
307.042	176.75
307.272	176.75
307.502	168.75
307.731	189.75
307.961	167.75
308.191	162.75
308.421	171.75
308.651	174.75
308.881	162.75
309.111	172.75
309.341	155.75
309.571	156.75
309.8	168.75
310.03	178.75
310.26	170.75
310.49	188.75
310.72	178.75
310.949	154.75
311.179	164.75
311.409	163.75
311.639	172.75
311.868	162.75
312.098	167.75
312.328	175.75
312.557	178.75
312.787	171.75
313.017	188.75
313.246	187.75
313.476	175.75
313.706	189.75
313.935	191.75
314.165	173.75
314.394	182.75
314.624	183.75
314.853	189.75
315.083	178.75
315.312	179.75
315.542	186.75
315.771	181.75
316.001	162.75
316.23	178.75
316.46	176.75
316.689	189.75
316.919	168.75
317.148	186.75
317.377	194.75
317.607	175.75
317.836	179.75
318.065	168.75
318.295	172.75
318.524	178.75
318.753	186.75
318.983	174.75
319.212	180.75
319.441	172.75
319.67	185.75
319.9	172.75
320.129	183.75
320.358	188.75
320.587	177.75
320.816	183.75
321.046	172.75
321.275	174.75
321.504	176.75
321.733	173.75
321.962	184.75
322.191	184.75
322.42	174.75
322.649	178.75
322.878	171.75
323.108	188.75
323.337	191.75
323.566	176.75
323.795	182.75
324.024	184.75
324.253	174.75
324.482	184.75
324.71	190.75
324.939	172.75
325.168	184.75
325.397	189.75
325.626	205.75
325.855	202.75
326.084	183.75
326.313	188.75
326.542	201.75
326.77	188.75
326.999	192.75
327.228	187.75
327.457	186.75
327.686	192.75
327.914	190.75
328.143	194.75
328.372	199.75
328.6	201.75
328.829	185.75
329.058	201.75
329.287	189.75
329.515	210.75
329.744	199.75
329.972	180.75
330.201	196.75
330.43	191.75
330.658	192.75
330.887	204.75
331.115	203.75
331.344	200.75
331.572	202.75
331.801	206.75
332.03	208.75
332.258	211.75
332.486	203.75
332.715	212.75
332.943	235.75
333.172	232.75
333.4	235.75
333.629	240.75
333.857	242.75
334.085	244.75
334.314	230.75
334.542	237.75
334.771	225.75
334.999	218.75
335.227	226.75
335.455	231.75
335.684	206.75
335.912	217.75
336.14	221.75
336.369	218.75
336.597	227.75
336.825	231.75
337.053	211.75
337.281	199.75
337.51	206.75
337.738	225.75
337.966	196.75
338.194	187.75
338.422	198.75
338.65	200.75
338.878	196.75
339.106	195.75
339.334	214.75
339.562	210.75
339.79	205.75
340.018	191.75
340.246	199.75
340.474	192.75
340.702	201.75
340.93	196.75
341.158	193.75
341.386	192.75
341.614	184.75
341.842	190.75
342.07	202.75
342.298	208.75
342.526	205.75
342.754	189.75
342.981	189.75
343.209	207.75
343.437	210.75
343.665	214.75
343.893	233.75
344.12	233.75
344.348	235.75
344.576	214.75
344.804	216.75
345.031	199.75
345.259	223.75
345.487	215.75
345.714	198.75
345.942	191.75
346.17	198.75
346.397	192.75
346.625	191.75
346.853	185.75
347.08	189.75
347.308	202.75
347.535	198.75
347.763	187.75
347.99	210.75
348.218	190.75
348.445	195.75
348.673	202.75
348.9	207.75
349.128	200.75
349.355	194.75
349.583	180.75
349.81	196.75
350.037	204.75
350.265	192.75
350.492	196.75
350.72	182.75
350.947	189.75
351.174	193.75
351.402	190.75
351.629	183.75
351.856	198.75
352.083	176.75
352.311	169.75
352.538	175.75
352.765	195.75
352.992	184.75
353.22	189.75
353.447	200.75
353.674	194.75
353.901	186.75
354.128	180.75
354.355	181.75
354.583	179.75
354.81	187.75
355.037	204.75
355.264	199.75
355.491	193.75
355.718	174.75
355.945	194.75
356.172	203.75
356.399	190.75
356.626	175.75
356.853	180.75
357.08	187.75
357.307	180.75
357.534	187.75
357.761	176.75
357.988	189.75
358.215	187.75
358.441	184.75
358.668	178.75
358.895	199.75
359.122	197.75
359.349	186.75
359.576	199.75
359.802	196.75
360.029	184.75
360.256	181.75
360.483	179.75
360.709	191.75
360.936	197.75
361.163	200.75
361.39	205.75
361.616	200.75
361.843	202.75
362.07	193.75
362.296	182.75
362.523	192.75
362.749	194.75
362.976	189.75
363.203	202.75
363.429	175.75
363.656	185.75
363.882	196.75
364.109	204.75
364.335	176.75
364.562	167.75
364.788	178.75
365.015	194.75
365.241	175.75
365.468	186.75
365.694	188.75
365.92	198.75
366.147	181.75
366.373	170.75
366.599	182.75
366.826	182.75
367.052	192.75
367.278	194.75
367.505	182.75
367.731	191.75
367.957	171.75
368.184	177.75
368.41	199.75
368.636	194.75
368.862	182.75
369.089	189.75
369.315	188.75
369.541	173.75
369.767	199.75
369.993	189.75
370.219	188.75
370.445	188.75
370.672	205.75
370.898	203.75
371.124	210.75
371.35	195.75
371.576	194.75
371.802	205.75
372.028	215.75
372.254	202.75
372.48	208.75
372.706	207.75
372.932	205.75
373.158	205.75
373.384	208.75
373.61	203.75
373.835	213.75
374.061	206.75
374.287	192.75
374.513	203.75
374.739	200.75
374.965	209.75
375.191	214.75
375.416	223.75
375.642	197.75
375.868	207.75
376.094	200.75
376.319	207.75
376.545	190.75
376.771	187.75
376.997	184.75
377.222	199.75
377.448	203.75
377.674	196.75
377.899	192.75
378.125	199.75
378.35	185.75
378.576	210.75
378.802	199.75
379.027	192.75
379.253	203.75
379.478	208.75
379.704	200.75
379.929	184.75
380.155	197.75
380.38	189.75
380.606	197.75
380.831	196.75
381.057	192.75
381.282	189.75
381.507	184.75
381.733	188.75
381.958	186.75
382.184	202.75
382.409	190.75
382.634	189.75
382.86	206.75
383.085	207.75
383.31	222.75
383.535	215.75
383.761	234.75
383.986	200.75
384.211	219.75
384.436	219.75
384.662	215.75
384.887	220.75
385.112	220.75
385.337	244.75
385.562	226.75
385.787	221.75
386.013	234.75
386.238	246.75
386.463	226.75
386.688	230.75
386.913	227.75
387.138	216.75
387.363	216.75
387.588	224.75
387.813	216.75
388.038	214.75
388.263	233.75
388.488	206.75
388.713	202.75
388.938	231.75
389.163	230.75
389.387	223.75
389.612	217.75
389.837	211.75
390.062	219.75
390.287	213.75
390.512	214.75
390.736	218.75
390.961	226.75
391.186	222.75
391.411	222.75
391.636	239.75
391.86	237.75
392.085	237.75
392.31	238.75
392.534	246.75
392.759	235.75
392.984	229.75
393.208	217.75
393.433	236.75
393.658	240.75
393.882	230.75
394.107	223.75
394.331	220.75
394.556	223.75
394.78	218.75
395.005	236.75
395.229	230.75
395.454	242.75
395.678	231.75
395.903	235.75
396.127	233.75
396.352	235.75
396.576	215.75
396.801	213.75
397.025	220.75
397.249	231.75
397.474	225.75
397.698	240.75
397.922	239.75
398.147	230.75
398.371	228.75
398.595	221.75
398.82	253.75
399.044	259.75
399.268	302.75
399.492	334.75
399.717	370.75
399.941	380.75
400.165	332.75
400.389	276.75
400.613	276.75
400.837	251.75
401.062	262.75
401.286	238.75
401.51	269.75
401.734	262.75
401.958	268.75
402.182	257.75
402.406	276.75
402.63	274.75
402.854	290.75
403.078	288.75
403.302	260.75
403.526	303.75
403.75	291.75
403.974	310.75
404.198	307.75
404.422	289.75
404.645	283.75
404.869	299.75
405.093	295.75
405.317	278.75
405.541	272.75
405.765	278.75
405.988	264.75
406.212	274.75
406.436	291.75
406.66	287.75
406.883	285.75
407.107	314.75
407.331	308.75
407.555	303.75
407.778	330.75
408.002	318.75
408.226	282.75
408.449	278.75
408.673	277.75
408.896	293.75
409.12	284.75
409.344	281.75
409.567	289.75
409.791	308.75
410.014	310.75
410.238	280.75
410.461	288.75
410.685	275.75
410.908	278.75
411.132	278.75
411.355	268.75
411.578	283.75
411.802	274.75
412.025	284.75
412.249	268.75
412.472	252.75
412.695	268.75
412.919	261.75
413.142	258.75
413.365	259.75
413.589	250.75
413.812	239.75
414.035	267.75
414.258	260.75
414.482	268.75
414.705	261.75
414.928	263.75
415.151	277.75
415.374	257.75
415.597	247.75
415.821	265.75
416.044	250.75
416.267	235.75
416.49	244.75
416.713	260.75
416.936	255.75
417.159	260.75
417.382	262.75
417.605	256.75
417.828	238.75
418.051	253.75
418.274	264.75
418.497	268.75
418.72	261.75
418.943	268.75
419.166	268.75
419.389	278.75
419.611	290.75
419.834	276.75
420.057	269.75
420.28	232.75
420.503	254.75
420.726	247.75
420.948	243.75
421.171	251.75
421.394	263.75
421.617	244.75
421.839	262.75
422.062	279.75
422.285	255.75
422.507	247.75
422.73	260.75
422.953	266.75
423.175	267.75
423.398	270.75
423.621	291.75
423.843	270.75
424.066	276.75
424.288	277.75
424.511	263.75
424.733	262.75
424.956	265.75
425.178	255.75
425.401	256.75
425.623	259.75
425.846	248.75
426.068	238.75
426.291	258.75
426.513	233.75
426.735	247.75
426.958	262.75
427.18	239.75
427.402	238.75
427.625	248.75
427.847	224.75
428.069	244.75
428.292	252.75
428.514	218.75
428.736	219.75
428.958	241.75
429.181	229.75
429.403	243.75
429.625	238.75
429.847	226.75
430.069	225.75
430.292	219.75
430.514	223.75
430.736	234.75
430.958	232.75
431.18	234.75
431.402	233.75
431.624	235.75
431.846	238.75
432.068	242.75
432.29	246.75
432.512	257.75
432.734	225.75
432.956	237.75
433.178	231.75
433.4	240.75
433.622	233.75
433.844	238.75
434.066	230.75
434.287	244.75
434.509	254.75
434.731	254.75
434.953	270.75
435.175	245.75
435.397	262.75
435.618	247.75
435.84	230.75
436.062	226.75
436.284	238.75
436.505	237.75
436.727	254.75
436.949	247.75
437.17	233.75
437.392	244.75
437.614	247.75
437.835	219.75
438.057	221.75
438.278	227.75
438.5	221.75
438.721	222.75
438.943	237.75
439.165	226.75
439.386	232.75
439.608	238.75
439.829	229.75
440.05	234.75
440.272	234.75
440.493	243.75
440.715	245.75
440.936	254.75
441.158	250.75
441.379	248.75
441.6	264.75
441.822	265.75
442.043	266.75
442.264	239.75
442.486	270.75
442.707	250.75
442.928	258.75
443.149	261.75
443.371	239.75
443.592	250.75
443.813	248.75
444.034	250.75
444.255	263.75
444.476	271.75
444.698	300.75
444.919	323.75
445.14	403.75
445.361	320.75
445.582	272.75
445.803	243.75
446.024	258.75
446.245	239.75
446.466	254.75
446.687	217.75
446.908	231.75
447.129	233.75
447.35	224.75
447.571	219.75
447.792	218.75
448.013	212.75
448.234	218.75
448.455	222.75
448.675	223.75
448.896	222.75
449.117	237.75
449.338	224.75
449.559	212.75
449.779	227.75
450	210.75
450.221	220.75
450.442	232.75
450.662	223.75
450.883	211.75
451.104	231.75
451.324	236.75
451.545	221.75
451.766	205.75
451.986	222.75
452.207	227.75
452.428	227.75
452.648	241.75
452.869	214.75
453.089	216.75
453.31	221.75
453.53	208.75
453.751	214.75
453.971	227.75
454.192	208.75
454.412	225.75
454.633	213.75
454.853	213.75
455.073	196.75
455.294	216.75
455.514	222.75
455.734	196.75
455.955	212.75
456.175	199.75
456.395	212.75
456.616	215.75
456.836	206.75
457.056	198.75
457.276	206.75
457.497	224.75
457.717	219.75
457.937	206.75
458.157	197.75
458.377	230.75
458.598	207.75
458.818	219.75
459.038	204.75
459.258	224.75
459.478	236.75
459.698	241.75
459.918	244.75
460.138	253.75
460.358	266.75
460.578	273.75
460.798	282.75
461.018	262.75
461.238	280.75
461.458	268.75
461.678	265.75
461.898	271.75
462.118	273.75
462.338	307.75
462.558	298.75
462.777	291.75
462.997	294.75
463.217	335.75
463.437	347.75
463.657	303.75
463.876	314.75
464.096	306.75
464.316	298.75
464.536	300.75
464.755	301.75
464.975	304.75
465.195	273.75
465.414	275.75
465.634	258.75
465.854	245.75
466.073	245.75
466.293	258.75
466.512	226.75
466.732	230.75
466.951	231.75
467.171	229.75
467.391	235.75
467.61	235.75
467.829	235.75
468.049	226.75
468.268	219.75
468.488	221.75
468.707	225.75
468.927	221.75
469.146	217.75
469.365	237.75
469.585	228.75
469.804	224.75
470.023	243.75
470.243	254.75
470.462	244.75
470.681	250.75
470.901	249.75
471.12	229.75
471.339	239.75
471.558	206.75
471.777	231.75
471.997	211.75
472.216	219.75
472.435	224.75
472.654	234.75
472.873	205.75
473.092	230.75
473.311	223.75
473.53	216.75
473.749	211.75
473.968	214.75
474.187	221.75
474.406	214.75
474.625	210.75
474.844	222.75
475.063	226.75
475.282	206.75
475.501	225.75
475.72	229.75
475.939	230.75
476.158	218.75
476.377	227.75
476.596	229.75
476.814	217.75
477.033	245.75
477.252	217.75
477.471	232.75
477.69	228.75
477.908	255.75
478.127	259.75
478.346	253.75
478.564	256.75
478.783	267.75
479.002	258.75
479.22	276.75
479.439	278.75
479.658	278.75
479.876	276.75
480.095	267.75
480.313	263.75
480.532	287.75
480.751	289.75
480.969	276.75
481.188	250.75
481.406	254.75
481.624	243.75
481.843	253.75
482.061	260.75
482.28	242.75
482.498	248.75
482.717	243.75
482.935	236.75
483.153	250.75
483.372	254.75
483.59	236.75
483.808	252.75
484.027	247.75
484.245	234.75
484.463	252.75
484.681	262.75
484.9	262.75
485.118	259.75
485.336	263.75
485.554	268.75
485.772	272.75
485.99	275.75
486.209	276.75
486.427	269.75
486.645	272.75
486.863	258.75
487.081	268.75
487.299	262.75
487.517	270.75
487.735	263.75
487.953	278.75
488.171	272.75
488.389	267.75
488.607	256.75
488.825	255.75
489.043	271.75
489.261	253.75
489.479	262.75
489.696	250.75
489.914	253.75
490.132	278.75
490.35	258.75
490.568	266.75
490.786	266.75
491.003	255.75
491.221	265.75
491.439	255.75
491.657	275.75
491.874	292.75
492.092	258.75
492.31	282.75
492.527	267.75
492.745	265.75
492.963	274.75
493.18	269.75
493.398	270.75
493.615	268.75
493.833	260.75
494.05	270.75
494.268	254.75
494.485	284.75
494.703	272.75
494.92	267.75
495.138	279.75
495.355	278.75
495.573	272.75
495.79	284.75
496.008	268.75
496.225	280.75
496.442	294.75
496.66	275.75
496.877	290.75
497.094	297.75
497.312	288.75
497.529	290.75
497.746	312.75
497.963	306.75
498.181	321.75
498.398	317.75
498.615	343.75
498.832	358.75
499.049	381.75
499.267	414.75
499.484	461.75
499.701	486.75
499.918	526.75
500.135	606.75
500.352	686.75
500.569	723.75
500.786	720.75
501.003	679.75
501.22	589.75
501.437	526.75
501.654	451.75
501.871	422.75
502.088	392.75
502.305	383.75
502.522	371.75
502.739	342.75
502.956	343.75
503.172	319.75
