Data from 0.5MCu(NO3)2.Standard.Lamp.E10.CV._HRD10591_16-05-34-753.txt Node
Date: Mon Jul 22 16:05:34 EDT 2019
User: cochatt
Spectrometer: HR+D1059
Trigger mode: 1
Integration Time (sec): 1.000000E-1
Scans to average: 1
Electric dark correction enabled: true
Nonlinearity correction enabled: false
Boxcar width: 0
XAxis mode: Wavelengths
Number of Pixels in Spectrum: 2048
>>>>>Begin Spectral Data<<<<<
223.165	-14.81
223.4	-14.81
223.635	-14.81
223.869	-11.81
224.104	-16.81
224.338	-5.81
224.573	-6.81
224.808	-7.81
225.042	-2.81
225.277	0.19
225.511	2.19
225.746	-10.81
225.98	-3.81
226.215	2.19
226.449	19.19
226.683	13.19
226.918	18.19
227.152	26.19
227.387	34.19
227.621	40.19
227.856	48.19
228.09	34.19
228.324	41.19
228.559	55.19
228.793	59.19
229.027	73.19
229.262	77.19
229.496	66.19
229.73	85.19
229.964	83.19
230.199	77.19
230.433	66.19
230.667	77.19
230.901	86.19
231.136	86.19
231.37	98.19
231.604	92.19
231.838	76.19
232.072	89.19
232.306	83.19
232.541	84.19
232.775	87.19
233.009	89.19
233.243	90.19
233.477	79.19
233.711	100.19
233.945	93.19
234.179	98.19
234.413	101.19
234.647	90.19
234.881	99.19
235.115	100.19
235.349	88.19
235.583	96.19
235.817	89.19
236.051	99.19
236.285	84.19
236.519	83.19
236.753	87.19
236.987	101.19
237.221	95.19
237.455	81.19
237.689	92.19
237.922	90.19
238.156	71.19
238.39	73.19
238.624	93.19
238.858	72.19
239.091	88.19
239.325	95.19
239.559	114.19
239.793	99.19
240.027	96.19
240.26	90.19
240.494	88.19
240.728	85.19
240.961	73.19
241.195	75.19
241.429	96.19
241.662	102.19
241.896	97.19
242.13	82.19
242.363	95.19
242.597	105.19
242.83	85.19
243.064	92.19
243.298	92.19
243.531	102.19
243.765	91.19
243.998	115.19
244.232	100.19
244.465	92.19
244.699	78.19
244.932	89.19
245.166	91.19
245.399	103.19
245.633	102.19
245.866	95.19
246.099	85.19
246.333	108.19
246.566	94.19
246.8	105.19
247.033	96.19
247.266	96.19
247.5	87.19
247.733	113.19
247.966	112.19
248.2	107.19
248.433	88.19
248.666	97.19
248.899	89.19
249.133	103.19
249.366	88.19
249.599	106.19
249.832	98.19
250.066	97.19
250.299	114.19
250.532	91.19
250.765	112.19
250.998	99.19
251.231	114.19
251.465	108.19
251.698	115.19
251.931	107.19
252.164	94.19
252.397	101.19
252.63	107.19
252.863	104.19
253.096	116.19
253.329	117.19
253.562	113.19
253.795	106.19
254.028	116.19
254.261	110.19
254.494	95.19
254.727	111.19
254.96	108.19
255.193	102.19
255.426	104.19
255.659	117.19
255.892	106.19
256.124	108.19
256.357	110.19
256.59	113.19
256.823	105.19
257.056	108.19
257.289	115.19
257.521	122.19
257.754	121.19
257.987	125.19
258.22	121.19
258.452	122.19
258.685	107.19
258.918	124.19
259.151	114.19
259.383	123.19
259.616	136.19
259.849	106.19
260.081	94.19
260.314	114.19
260.547	121.19
260.779	117.19
261.012	114.19
261.244	123.19
261.477	115.19
261.71	111.19
261.942	116.19
262.175	137.19
262.407	120.19
262.64	119.19
262.872	121.19
263.105	122.19
263.337	123.19
263.57	132.19
263.802	129.19
264.035	124.19
264.267	126.19
264.499	125.19
264.732	131.19
264.964	148.19
265.197	116.19
265.429	129.19
265.661	125.19
265.894	132.19
266.126	129.19
266.358	134.19
266.591	124.19
266.823	116.19
267.055	117.19
267.287	128.19
267.52	143.19
267.752	127.19
267.984	139.19
268.216	124.19
268.448	122.19
268.681	124.19
268.913	127.19
269.145	123.19
269.377	141.19
269.609	139.19
269.841	141.19
270.073	122.19
270.306	131.19
270.538	135.19
270.77	138.19
271.002	122.19
271.234	127.19
271.466	137.19
271.698	131.19
271.93	125.19
272.162	123.19
272.394	131.19
272.626	120.19
272.858	140.19
273.09	150.19
273.322	146.19
273.553	125.19
273.785	135.19
274.017	112.19
274.249	150.19
274.481	155.19
274.713	133.19
274.945	127.19
275.176	129.19
275.408	135.19
275.64	140.19
275.872	147.19
276.104	147.19
276.335	136.19
276.567	146.19
276.799	137.19
277.031	135.19
277.262	136.19
277.494	148.19
277.726	129.19
277.957	128.19
278.189	124.19
278.421	139.19
278.652	154.19
278.884	140.19
279.115	146.19
279.347	149.19
279.579	138.19
279.81	131.19
280.042	155.19
280.273	141.19
280.505	143.19
280.736	153.19
280.968	155.19
281.199	144.19
281.431	150.19
281.662	142.19
281.894	162.19
282.125	144.19
282.356	150.19
282.588	151.19
282.819	136.19
283.051	138.19
283.282	146.19
283.513	131.19
283.745	153.19
283.976	153.19
284.207	155.19
284.439	149.19
284.67	158.19
284.901	153.19
285.132	161.19
285.364	148.19
285.595	173.19
285.826	160.19
286.057	149.19
286.288	154.19
286.52	166.19
286.751	156.19
286.982	159.19
287.213	155.19
287.444	152.19
287.675	174.19
287.906	171.19
288.138	144.19
288.369	161.19
288.6	161.19
288.831	145.19
289.062	173.19
289.293	172.19
289.524	157.19
289.755	171.19
289.986	151.19
290.217	164.19
290.448	150.19
290.679	149.19
290.91	166.19
291.141	162.19
291.371	158.19
291.602	156.19
291.833	158.19
292.064	164.19
292.295	185.19
292.526	166.19
292.757	166.19
292.987	172.19
293.218	149.19
293.449	163.19
293.68	155.19
293.91	162.19
294.141	167.19
294.372	148.19
294.603	163.19
294.833	143.19
295.064	146.19
295.295	155.19
295.525	160.19
295.756	173.19
295.987	175.19
296.217	163.19
296.448	186.19
296.679	175.19
296.909	154.19
297.14	163.19
297.37	187.19
297.601	170.19
297.831	172.19
298.062	176.19
298.292	182.19
298.523	187.19
298.753	166.19
298.984	165.19
299.214	178.19
299.445	185.19
299.675	157.19
299.905	165.19
300.136	170.19
300.366	181.19
300.597	173.19
300.827	197.19
301.057	184.19
301.288	191.19
301.518	193.19
301.748	172.19
301.979	175.19
302.209	179.19
302.439	181.19
302.669	170.19
302.9	185.19
303.13	163.19
303.36	166.19
303.59	175.19
303.82	175.19
304.051	177.19
304.281	183.19
304.511	191.19
304.741	175.19
304.971	164.19
305.201	187.19
305.431	177.19
305.661	198.19
305.891	193.19
306.121	168.19
306.352	190.19
306.582	171.19
306.812	169.19
307.042	169.19
307.272	164.19
307.502	171.19
307.731	194.19
307.961	178.19
308.191	159.19
308.421	170.19
308.651	166.19
308.881	190.19
309.111	169.19
309.341	169.19
309.571	153.19
309.8	182.19
310.03	178.19
310.26	166.19
310.49	170.19
310.72	179.19
310.949	172.19
311.179	179.19
311.409	177.19
311.639	195.19
311.868	177.19
312.098	188.19
312.328	171.19
312.557	176.19
312.787	184.19
313.017	184.19
313.246	207.19
313.476	195.19
313.706	181.19
313.935	172.19
314.165	201.19
314.394	176.19
314.624	177.19
314.853	190.19
315.083	187.19
315.312	158.19
315.542	193.19
315.771	176.19
316.001	177.19
316.23	184.19
316.46	176.19
316.689	189.19
316.919	179.19
317.148	175.19
317.377	172.19
317.607	183.19
317.836	187.19
318.065	189.19
318.295	188.19
318.524	170.19
318.753	179.19
318.983	185.19
319.212	172.19
319.441	166.19
319.67	191.19
319.9	179.19
320.129	169.19
320.358	170.19
320.587	178.19
320.816	199.19
321.046	171.19
321.275	170.19
321.504	169.19
321.733	187.19
321.962	175.19
322.191	193.19
322.42	183.19
322.649	187.19
322.878	187.19
323.108	195.19
323.337	180.19
323.566	189.19
323.795	198.19
324.024	192.19
324.253	175.19
324.482	178.19
324.71	178.19
324.939	196.19
325.168	196.19
325.397	185.19
325.626	197.19
325.855	193.19
326.084	193.19
326.313	184.19
326.542	198.19
326.77	203.19
326.999	194.19
327.228	192.19
327.457	183.19
327.686	209.19
327.914	194.19
328.143	188.19
328.372	189.19
328.6	189.19
328.829	188.19
329.058	191.19
329.287	199.19
329.515	211.19
329.744	197.19
329.972	191.19
330.201	187.19
330.43	218.19
330.658	189.19
330.887	197.19
331.115	199.19
331.344	200.19
331.572	215.19
331.801	200.19
332.03	197.19
332.258	205.19
332.486	211.19
332.715	217.19
332.943	225.19
333.172	224.19
333.4	239.19
333.629	245.19
333.857	241.19
334.085	230.19
334.314	219.19
334.542	231.19
334.771	218.19
334.999	225.19
335.227	221.19
335.455	227.19
335.684	217.19
335.912	239.19
336.14	218.19
336.369	226.19
336.597	234.19
336.825	201.19
337.053	220.19
337.281	214.19
337.51	218.19
337.738	209.19
337.966	217.19
338.194	204.19
338.422	213.19
338.65	214.19
338.878	206.19
339.106	205.19
339.334	200.19
339.562	202.19
339.79	183.19
340.018	197.19
340.246	192.19
340.474	189.19
340.702	199.19
340.93	194.19
341.158	196.19
341.386	190.19
341.614	185.19
341.842	215.19
342.07	179.19
342.298	215.19
342.526	191.19
342.754	200.19
342.981	211.19
343.209	193.19
343.437	203.19
343.665	221.19
343.893	224.19
344.12	244.19
344.348	221.19
344.576	220.19
344.804	199.19
345.031	196.19
345.259	199.19
345.487	211.19
345.714	205.19
345.942	172.19
346.17	195.19
346.397	211.19
346.625	198.19
346.853	198.19
347.08	203.19
347.308	192.19
347.535	185.19
347.763	200.19
347.99	203.19
348.218	187.19
348.445	186.19
348.673	193.19
348.9	180.19
349.128	201.19
349.355	195.19
349.583	204.19
349.81	194.19
350.037	173.19
350.265	188.19
350.492	186.19
350.72	188.19
350.947	184.19
351.174	189.19
351.402	185.19
351.629	180.19
351.856	182.19
352.083	199.19
352.311	192.19
352.538	196.19
352.765	187.19
352.992	179.19
353.22	200.19
353.447	180.19
353.674	181.19
353.901	208.19
354.128	190.19
354.355	180.19
354.583	191.19
354.81	197.19
355.037	175.19
355.264	194.19
355.491	193.19
355.718	189.19
355.945	178.19
356.172	187.19
356.399	188.19
356.626	199.19
356.853	205.19
357.08	179.19
357.307	187.19
357.534	187.19
357.761	177.19
357.988	190.19
358.215	202.19
358.441	187.19
358.668	188.19
358.895	203.19
359.122	184.19
359.349	195.19
359.576	193.19
359.802	199.19
360.029	188.19
360.256	175.19
360.483	180.19
360.709	187.19
360.936	191.19
361.163	199.19
361.39	196.19
361.616	194.19
361.843	177.19
362.07	187.19
362.296	195.19
362.523	202.19
362.749	203.19
362.976	197.19
363.203	193.19
363.429	183.19
363.656	170.19
363.882	164.19
364.109	197.19
364.335	179.19
364.562	180.19
364.788	203.19
365.015	189.19
365.241	182.19
365.468	179.19
365.694	183.19
365.92	196.19
366.147	194.19
366.373	189.19
366.599	167.19
366.826	196.19
367.052	195.19
367.278	186.19
367.505	176.19
367.731	175.19
367.957	189.19
368.184	176.19
368.41	179.19
368.636	183.19
368.862	201.19
369.089	199.19
369.315	192.19
369.541	191.19
369.767	189.19
369.993	188.19
370.219	191.19
370.445	198.19
370.672	202.19
370.898	197.19
371.124	188.19
371.35	193.19
371.576	210.19
371.802	193.19
372.028	203.19
372.254	210.19
372.48	191.19
372.706	202.19
372.932	217.19
373.158	189.19
373.384	195.19
373.61	195.19
373.835	205.19
374.061	185.19
374.287	183.19
374.513	210.19
374.739	207.19
374.965	198.19
375.191	198.19
375.416	227.19
375.642	207.19
375.868	210.19
376.094	195.19
376.319	211.19
376.545	203.19
376.771	190.19
376.997	209.19
377.222	196.19
377.448	205.19
377.674	203.19
377.899	184.19
378.125	198.19
378.35	205.19
378.576	191.19
378.802	187.19
379.027	189.19
379.253	199.19
379.478	209.19
379.704	197.19
379.929	193.19
380.155	202.19
380.38	183.19
380.606	195.19
380.831	212.19
381.057	207.19
381.282	200.19
381.507	193.19
381.733	200.19
381.958	196.19
382.184	192.19
382.409	204.19
382.634	199.19
382.86	219.19
383.085	187.19
383.31	191.19
383.535	195.19
383.761	222.19
383.986	232.19
384.211	216.19
384.436	217.19
384.662	237.19
384.887	224.19
385.112	225.19
385.337	229.19
385.562	230.19
385.787	233.19
386.013	225.19
386.238	237.19
386.463	223.19
386.688	224.19
386.913	218.19
387.138	220.19
387.363	219.19
387.588	234.19
387.813	217.19
388.038	225.19
388.263	213.19
388.488	232.19
388.713	228.19
388.938	239.19
389.163	221.19
389.387	218.19
389.612	216.19
389.837	202.19
390.062	227.19
390.287	237.19
390.512	210.19
390.736	210.19
390.961	231.19
391.186	233.19
391.411	228.19
391.636	239.19
391.86	247.19
392.085	265.19
392.31	250.19
392.534	259.19
392.759	233.19
392.984	216.19
393.208	243.19
393.433	241.19
393.658	247.19
393.882	248.19
394.107	238.19
394.331	240.19
394.556	234.19
394.78	233.19
395.005	224.19
395.229	255.19
395.454	232.19
395.678	232.19
395.903	245.19
396.127	247.19
396.352	232.19
396.576	227.19
396.801	242.19
397.025	218.19
397.249	231.19
397.474	233.19
397.698	240.19
397.922	224.19
398.147	226.19
398.371	247.19
398.595	261.19
398.82	246.19
399.044	279.19
399.268	300.19
399.492	336.19
399.717	386.19
399.941	381.19
400.165	303.19
400.389	315.19
400.613	283.19
400.837	249.19
401.062	282.19
401.286	260.19
401.51	260.19
401.734	255.19
401.958	272.19
402.182	263.19
402.406	261.19
402.63	281.19
402.854	269.19
403.078	300.19
403.302	279.19
403.526	291.19
403.75	292.19
403.974	324.19
404.198	307.19
404.422	305.19
404.645	307.19
404.869	285.19
405.093	282.19
405.317	291.19
405.541	267.19
405.765	287.19
405.988	284.19
406.212	283.19
406.436	276.19
406.66	278.19
406.883	273.19
407.107	307.19
407.331	320.19
407.555	348.19
407.778	339.19
408.002	315.19
408.226	311.19
408.449	296.19
408.673	297.19
408.896	287.19
409.12	297.19
409.344	281.19
409.567	293.19
409.791	292.19
410.014	281.19
410.238	290.19
410.461	288.19
410.685	293.19
410.908	285.19
411.132	263.19
411.355	266.19
411.578	286.19
411.802	270.19
412.025	274.19
412.249	284.19
412.472	292.19
412.695	267.19
412.919	257.19
413.142	247.19
413.365	267.19
413.589	257.19
413.812	253.19
414.035	263.19
414.258	266.19
414.482	270.19
414.705	268.19
414.928	271.19
415.151	260.19
415.374	265.19
415.597	273.19
415.821	251.19
416.044	262.19
416.267	259.19
416.49	255.19
416.713	257.19
416.936	241.19
417.159	262.19
417.382	252.19
417.605	253.19
417.828	262.19
418.051	273.19
418.274	282.19
418.497	257.19
418.72	261.19
418.943	273.19
419.166	275.19
419.389	309.19
419.611	283.19
419.834	279.19
420.057	275.19
420.28	237.19
420.503	252.19
420.726	264.19
420.948	249.19
421.171	263.19
421.394	262.19
421.617	242.19
421.839	272.19
422.062	274.19
422.285	263.19
422.507	260.19
422.73	262.19
422.953	263.19
423.175	272.19
423.398	275.19
423.621	277.19
423.843	261.19
424.066	284.19
424.288	284.19
424.511	271.19
424.733	283.19
424.956	269.19
425.178	264.19
425.401	268.19
425.623	264.19
425.846	251.19
426.068	245.19
426.291	232.19
426.513	243.19
426.735	251.19
426.958	250.19
427.18	260.19
427.402	234.19
427.625	232.19
427.847	245.19
428.069	247.19
428.292	231.19
428.514	226.19
428.736	225.19
428.958	231.19
429.181	238.19
429.403	227.19
429.625	236.19
429.847	253.19
430.069	232.19
430.292	243.19
430.514	241.19
430.736	231.19
430.958	231.19
431.18	225.19
431.402	241.19
431.624	235.19
431.846	240.19
432.068	259.19
432.29	235.19
432.512	224.19
432.734	251.19
432.956	246.19
433.178	246.19
433.4	243.19
433.622	226.19
433.844	235.19
434.066	233.19
434.287	227.19
434.509	241.19
434.731	243.19
434.953	252.19
435.175	268.19
435.397	263.19
435.618	249.19
435.84	242.19
436.062	243.19
436.284	237.19
436.505	241.19
436.727	251.19
436.949	240.19
437.17	234.19
437.392	246.19
437.614	240.19
437.835	221.19
438.057	236.19
438.278	233.19
438.5	219.19
438.721	235.19
438.943	225.19
439.165	232.19
439.386	232.19
439.608	235.19
439.829	245.19
440.05	249.19
440.272	245.19
440.493	236.19
440.715	251.19
440.936	258.19
441.158	246.19
441.379	264.19
441.6	274.19
441.822	267.19
442.043	279.19
442.264	268.19
442.486	241.19
442.707	259.19
442.928	239.19
443.149	241.19
443.371	265.19
443.592	243.19
443.813	253.19
444.034	272.19
444.255	273.19
444.476	267.19
444.698	305.19
444.919	305.19
445.14	412.19
445.361	336.19
445.582	271.19
445.803	246.19
446.024	242.19
446.245	259.19
446.466	251.19
446.687	253.19
446.908	249.19
447.129	249.19
447.35	224.19
447.571	250.19
447.792	228.19
448.013	223.19
448.234	228.19
448.455	227.19
448.675	229.19
448.896	220.19
449.117	223.19
449.338	230.19
449.559	235.19
449.779	224.19
450	221.19
450.221	226.19
450.442	222.19
450.662	227.19
450.883	224.19
451.104	222.19
451.324	236.19
451.545	230.19
451.766	223.19
451.986	234.19
452.207	236.19
452.428	224.19
452.648	216.19
452.869	226.19
453.089	210.19
453.31	238.19
453.53	213.19
453.751	216.19
453.971	227.19
454.192	218.19
454.412	197.19
454.633	221.19
454.853	199.19
455.073	209.19
455.294	200.19
455.514	212.19
455.734	203.19
455.955	207.19
456.175	209.19
456.395	203.19
456.616	213.19
456.836	214.19
457.056	220.19
457.276	217.19
457.497	225.19
457.717	208.19
457.937	221.19
458.157	217.19
458.377	214.19
458.598	208.19
458.818	215.19
459.038	221.19
459.258	231.19
459.478	239.19
459.698	253.19
459.918	261.19
460.138	260.19
460.358	273.19
460.578	267.19
460.798	270.19
461.018	290.19
461.238	253.19
461.458	271.19
461.678	262.19
461.898	275.19
462.118	293.19
462.338	293.19
462.558	292.19
462.777	294.19
462.997	321.19
463.217	359.19
463.437	360.19
463.657	317.19
463.876	307.19
464.096	315.19
464.316	323.19
464.536	308.19
464.755	305.19
464.975	305.19
465.195	296.19
465.414	276.19
465.634	272.19
465.854	250.19
466.073	240.19
466.293	231.19
466.512	229.19
466.732	226.19
466.951	245.19
467.171	227.19
467.391	242.19
467.61	225.19
467.829	227.19
468.049	225.19
468.268	228.19
468.488	220.19
468.707	228.19
468.927	217.19
469.146	223.19
469.365	225.19
469.585	232.19
469.804	227.19
470.023	244.19
470.243	242.19
470.462	252.19
470.681	256.19
470.901	252.19
471.12	248.19
471.339	243.19
471.558	236.19
471.777	210.19
471.997	230.19
472.216	214.19
472.435	214.19
472.654	233.19
472.873	236.19
473.092	212.19
473.311	227.19
473.53	233.19
473.749	218.19
473.968	217.19
474.187	206.19
474.406	220.19
474.625	225.19
474.844	235.19
475.063	224.19
475.282	219.19
475.501	219.19
475.72	225.19
475.939	227.19
476.158	226.19
476.377	232.19
476.596	225.19
476.814	236.19
477.033	234.19
477.252	249.19
477.471	234.19
477.69	242.19
477.908	251.19
478.127	266.19
478.346	265.19
478.564	260.19
478.783	267.19
479.002	266.19
479.22	267.19
479.439	268.19
479.658	265.19
479.876	271.19
480.095	272.19
480.313	284.19
480.532	288.19
480.751	270.19
480.969	282.19
481.188	261.19
481.406	246.19
481.624	265.19
481.843	247.19
482.061	252.19
482.28	234.19
482.498	259.19
482.717	266.19
482.935	255.19
483.153	273.19
483.372	257.19
483.59	259.19
483.808	246.19
484.027	259.19
484.245	261.19
484.463	255.19
484.681	260.19
484.9	240.19
485.118	261.19
485.336	277.19
485.554	259.19
485.772	277.19
485.99	278.19
486.209	279.19
486.427	264.19
486.645	277.19
486.863	294.19
487.081	284.19
487.299	259.19
487.517	259.19
487.735	255.19
487.953	263.19
488.171	260.19
488.389	256.19
488.607	265.19
488.825	248.19
489.043	246.19
489.261	257.19
489.479	255.19
489.696	262.19
489.914	262.19
490.132	247.19
490.35	276.19
490.568	282.19
490.786	272.19
491.003	264.19
491.221	277.19
491.439	259.19
491.657	273.19
491.874	263.19
492.092	267.19
492.31	271.19
492.527	275.19
492.745	271.19
492.963	292.19
493.18	279.19
493.398	294.19
493.615	280.19
493.833	267.19
494.05	271.19
494.268	263.19
494.485	279.19
494.703	269.19
494.92	288.19
495.138	266.19
495.355	261.19
495.573	280.19
495.79	253.19
496.008	295.19
496.225	270.19
496.442	280.19
496.66	292.19
496.877	287.19
497.094	293.19
497.312	278.19
497.529	286.19
497.746	300.19
497.963	309.19
498.181	315.19
498.398	336.19
498.615	339.19
498.832	359.19
499.049	376.19
499.267	429.19
499.484	440.19
499.701	509.19
499.918	546.19
500.135	625.19
500.352	721.19
500.569	766.19
500.786	746.19
501.003	665.19
501.22	636.19
501.437	550.19
501.654	497.19
501.871	448.19
502.088	429.19
502.305	380.19
502.522	388.19
502.739	360.19
502.956	344.19
503.172	317.19
