Data from 0.5MCu(NO3)2.Standard.Lamp.E10.CV._HRD10591_16-05-41-753.txt Node
Date: Mon Jul 22 16:05:41 EDT 2019
User: cochatt
Spectrometer: HR+D1059
Trigger mode: 1
Integration Time (sec): 1.000000E-1
Scans to average: 1
Electric dark correction enabled: true
Nonlinearity correction enabled: false
Boxcar width: 0
XAxis mode: Wavelengths
Number of Pixels in Spectrum: 2048
>>>>>Begin Spectral Data<<<<<
223.165	-20.94
223.4	-20.94
223.635	-20.94
223.869	-15.94
224.104	-15.94
224.338	-5.94
224.573	-19.94
224.808	-20.94
225.042	-4.94
225.277	-0.94
225.511	-16.94
225.746	4.06
225.98	10.06
226.215	24.06
226.449	20.06
226.683	17.06
226.918	20.06
227.152	27.06
227.387	24.06
227.621	38.06
227.856	43.06
228.09	46.06
228.324	49.06
228.559	47.06
228.793	70.06
229.027	67.06
229.262	73.06
229.496	63.06
229.73	70.06
229.964	81.06
230.199	79.06
230.433	77.06
230.667	78.06
230.901	91.06
231.136	86.06
231.37	83.06
231.604	84.06
231.838	93.06
232.072	101.06
232.306	87.06
232.541	85.06
232.775	92.06
233.009	95.06
233.243	96.06
233.477	88.06
233.711	95.06
233.945	99.06
234.179	91.06
234.413	99.06
234.647	90.06
234.881	86.06
235.115	83.06
235.349	76.06
235.583	75.06
235.817	86.06
236.051	96.06
236.285	89.06
236.519	93.06
236.753	95.06
236.987	84.06
237.221	80.06
237.455	91.06
237.689	78.06
237.922	81.06
238.156	81.06
238.39	91.06
238.624	87.06
238.858	87.06
239.091	90.06
239.325	91.06
239.559	92.06
239.793	86.06
240.027	86.06
240.26	92.06
240.494	80.06
240.728	92.06
240.961	89.06
241.195	84.06
241.429	81.06
241.662	100.06
241.896	99.06
242.13	91.06
242.363	81.06
242.597	76.06
242.83	90.06
243.064	94.06
243.298	92.06
243.531	82.06
243.765	98.06
243.998	98.06
244.232	82.06
244.465	95.06
244.699	91.06
244.932	94.06
245.166	89.06
245.399	88.06
245.633	104.06
245.866	94.06
246.099	89.06
246.333	103.06
246.566	102.06
246.8	86.06
247.033	99.06
247.266	114.06
247.5	103.06
247.733	109.06
247.966	93.06
248.2	91.06
248.433	101.06
248.666	102.06
248.899	101.06
249.133	90.06
249.366	103.06
249.599	93.06
249.832	98.06
250.066	102.06
250.299	88.06
250.532	99.06
250.765	113.06
250.998	106.06
251.231	100.06
251.465	99.06
251.698	88.06
251.931	118.06
252.164	103.06
252.397	115.06
252.63	115.06
252.863	118.06
253.096	106.06
253.329	107.06
253.562	109.06
253.795	110.06
254.028	98.06
254.261	120.06
254.494	112.06
254.727	102.06
254.96	106.06
255.193	110.06
255.426	114.06
255.659	115.06
255.892	102.06
256.124	124.06
256.357	132.06
256.59	115.06
256.823	111.06
257.056	112.06
257.289	116.06
257.521	103.06
257.754	115.06
257.987	112.06
258.22	103.06
258.452	122.06
258.685	116.06
258.918	113.06
259.151	127.06
259.383	120.06
259.616	114.06
259.849	119.06
260.081	117.06
260.314	106.06
260.547	108.06
260.779	127.06
261.012	110.06
261.244	119.06
261.477	108.06
261.71	116.06
261.942	106.06
262.175	123.06
262.407	118.06
262.64	114.06
262.872	116.06
263.105	118.06
263.337	128.06
263.57	130.06
263.802	117.06
264.035	112.06
264.267	125.06
264.499	126.06
264.732	119.06
264.964	126.06
265.197	119.06
265.429	120.06
265.661	128.06
265.894	126.06
266.126	135.06
266.358	119.06
266.591	124.06
266.823	121.06
267.055	119.06
267.287	117.06
267.52	135.06
267.752	116.06
267.984	124.06
268.216	131.06
268.448	127.06
268.681	122.06
268.913	125.06
269.145	128.06
269.377	144.06
269.609	130.06
269.841	118.06
270.073	135.06
270.306	115.06
270.538	127.06
270.77	129.06
271.002	127.06
271.234	131.06
271.466	134.06
271.698	126.06
271.93	122.06
272.162	122.06
272.394	127.06
272.626	139.06
272.858	128.06
273.09	132.06
273.322	129.06
273.553	130.06
273.785	127.06
274.017	126.06
274.249	139.06
274.481	124.06
274.713	125.06
274.945	138.06
275.176	130.06
275.408	137.06
275.64	144.06
275.872	123.06
276.104	145.06
276.335	140.06
276.567	141.06
276.799	132.06
277.031	131.06
277.262	144.06
277.494	138.06
277.726	144.06
277.957	132.06
278.189	132.06
278.421	130.06
278.652	154.06
278.884	122.06
279.115	146.06
279.347	158.06
279.579	150.06
279.81	123.06
280.042	147.06
280.273	141.06
280.505	138.06
280.736	137.06
280.968	140.06
281.199	151.06
281.431	144.06
281.662	146.06
281.894	154.06
282.125	134.06
282.356	151.06
282.588	128.06
282.819	142.06
283.051	145.06
283.282	133.06
283.513	144.06
283.745	152.06
283.976	153.06
284.207	146.06
284.439	162.06
284.67	160.06
284.901	143.06
285.132	130.06
285.364	155.06
285.595	150.06
285.826	154.06
286.057	154.06
286.288	153.06
286.52	167.06
286.751	166.06
286.982	154.06
287.213	150.06
287.444	147.06
287.675	158.06
287.906	143.06
288.138	159.06
288.369	151.06
288.6	145.06
288.831	158.06
289.062	142.06
289.293	158.06
289.524	135.06
289.755	156.06
289.986	156.06
290.217	154.06
290.448	152.06
290.679	166.06
290.91	172.06
291.141	146.06
291.371	157.06
291.602	165.06
291.833	157.06
292.064	146.06
292.295	178.06
292.526	172.06
292.757	154.06
292.987	159.06
293.218	158.06
293.449	158.06
293.68	168.06
293.91	171.06
294.141	176.06
294.372	166.06
294.603	163.06
294.833	158.06
295.064	161.06
295.295	169.06
295.525	181.06
295.756	168.06
295.987	174.06
296.217	182.06
296.448	167.06
296.679	179.06
296.909	169.06
297.14	161.06
297.37	183.06
297.601	178.06
297.831	168.06
298.062	169.06
298.292	184.06
298.523	182.06
298.753	178.06
298.984	154.06
299.214	188.06
299.445	168.06
299.675	168.06
299.905	175.06
300.136	179.06
300.366	178.06
300.597	163.06
300.827	174.06
301.057	177.06
301.288	202.06
301.518	191.06
301.748	169.06
301.979	184.06
302.209	183.06
302.439	178.06
302.669	173.06
302.9	189.06
303.13	181.06
303.36	186.06
303.59	159.06
303.82	179.06
304.051	177.06
304.281	183.06
304.511	181.06
304.741	182.06
304.971	173.06
305.201	174.06
305.431	188.06
305.661	180.06
305.891	181.06
306.121	180.06
306.352	160.06
306.582	179.06
306.812	168.06
307.042	189.06
307.272	187.06
307.502	164.06
307.731	160.06
307.961	177.06
308.191	166.06
308.421	164.06
308.651	182.06
308.881	190.06
309.111	171.06
309.341	158.06
309.571	170.06
309.8	164.06
310.03	159.06
310.26	181.06
310.49	170.06
310.72	180.06
310.949	170.06
311.179	181.06
311.409	185.06
311.639	193.06
311.868	178.06
312.098	175.06
312.328	180.06
312.557	190.06
312.787	182.06
313.017	191.06
313.246	176.06
313.476	186.06
313.706	185.06
313.935	188.06
314.165	183.06
314.394	186.06
314.624	171.06
314.853	181.06
315.083	191.06
315.312	180.06
315.542	178.06
315.771	173.06
316.001	171.06
316.23	184.06
316.46	186.06
316.689	186.06
316.919	171.06
317.148	184.06
317.377	186.06
317.607	181.06
317.836	174.06
318.065	154.06
318.295	176.06
318.524	198.06
318.753	182.06
318.983	169.06
319.212	192.06
319.441	181.06
319.67	187.06
319.9	161.06
320.129	177.06
320.358	172.06
320.587	178.06
320.816	179.06
321.046	181.06
321.275	176.06
321.504	176.06
321.733	185.06
321.962	171.06
322.191	171.06
322.42	194.06
322.649	181.06
322.878	194.06
323.108	198.06
323.337	175.06
323.566	184.06
323.795	147.06
324.024	192.06
324.253	192.06
324.482	170.06
324.71	174.06
324.939	180.06
325.168	182.06
325.397	188.06
325.626	184.06
325.855	194.06
326.084	188.06
326.313	211.06
326.542	200.06
326.77	203.06
326.999	200.06
327.228	186.06
327.457	182.06
327.686	206.06
327.914	181.06
328.143	183.06
328.372	190.06
328.6	203.06
328.829	195.06
329.058	180.06
329.287	169.06
329.515	179.06
329.744	190.06
329.972	191.06
330.201	186.06
330.43	182.06
330.658	182.06
330.887	175.06
331.115	196.06
331.344	204.06
331.572	189.06
331.801	212.06
332.03	200.06
332.258	210.06
332.486	231.06
332.715	215.06
332.943	228.06
333.172	236.06
333.4	240.06
333.629	256.06
333.857	223.06
334.085	238.06
334.314	247.06
334.542	224.06
334.771	220.06
334.999	228.06
335.227	220.06
335.455	221.06
335.684	213.06
335.912	230.06
336.14	220.06
336.369	224.06
336.597	224.06
336.825	212.06
337.053	209.06
337.281	208.06
337.51	193.06
337.738	202.06
337.966	197.06
338.194	190.06
338.422	203.06
338.65	215.06
338.878	200.06
339.106	197.06
339.334	213.06
339.562	198.06
339.79	194.06
340.018	192.06
340.246	194.06
340.474	195.06
340.702	192.06
340.93	205.06
341.158	184.06
341.386	186.06
341.614	189.06
341.842	199.06
342.07	201.06
342.298	185.06
342.526	172.06
342.754	195.06
342.981	194.06
343.209	187.06
343.437	203.06
343.665	224.06
343.893	238.06
344.12	222.06
344.348	224.06
344.576	219.06
344.804	209.06
345.031	206.06
345.259	210.06
345.487	202.06
345.714	199.06
345.942	197.06
346.17	199.06
346.397	194.06
346.625	184.06
346.853	189.06
347.08	202.06
347.308	194.06
347.535	197.06
347.763	218.06
347.99	193.06
348.218	192.06
348.445	206.06
348.673	199.06
348.9	212.06
349.128	182.06
349.355	189.06
349.583	199.06
349.81	190.06
350.037	188.06
350.265	187.06
350.492	192.06
350.72	182.06
350.947	184.06
351.174	187.06
351.402	185.06
351.629	195.06
351.856	178.06
352.083	183.06
352.311	178.06
352.538	199.06
352.765	180.06
352.992	195.06
353.22	181.06
353.447	188.06
353.674	197.06
353.901	194.06
354.128	188.06
354.355	198.06
354.583	180.06
354.81	178.06
355.037	194.06
355.264	187.06
355.491	179.06
355.718	217.06
355.945	198.06
356.172	189.06
356.399	198.06
356.626	175.06
356.853	199.06
357.08	195.06
357.307	195.06
357.534	195.06
357.761	180.06
357.988	179.06
358.215	172.06
358.441	194.06
358.668	176.06
358.895	204.06
359.122	195.06
359.349	195.06
359.576	171.06
359.802	193.06
360.029	168.06
360.256	176.06
360.483	176.06
360.709	178.06
360.936	196.06
361.163	166.06
361.39	176.06
361.616	186.06
361.843	185.06
362.07	192.06
362.296	184.06
362.523	182.06
362.749	193.06
362.976	185.06
363.203	201.06
363.429	183.06
363.656	185.06
363.882	185.06
364.109	185.06
364.335	193.06
364.562	178.06
364.788	186.06
365.015	189.06
365.241	182.06
365.468	179.06
365.694	191.06
365.92	187.06
366.147	189.06
366.373	180.06
366.599	168.06
366.826	162.06
367.052	178.06
367.278	196.06
367.505	192.06
367.731	183.06
367.957	193.06
368.184	183.06
368.41	201.06
368.636	187.06
368.862	175.06
369.089	188.06
369.315	183.06
369.541	202.06
369.767	200.06
369.993	192.06
370.219	191.06
370.445	199.06
370.672	194.06
370.898	193.06
371.124	176.06
371.35	195.06
371.576	193.06
371.802	197.06
372.028	203.06
372.254	185.06
372.48	195.06
372.706	191.06
372.932	209.06
373.158	183.06
373.384	200.06
373.61	202.06
373.835	196.06
374.061	192.06
374.287	207.06
374.513	204.06
374.739	204.06
374.965	240.06
375.191	235.06
375.416	218.06
375.642	216.06
375.868	216.06
376.094	198.06
376.319	188.06
376.545	183.06
376.771	204.06
376.997	204.06
377.222	196.06
377.448	196.06
377.674	190.06
377.899	198.06
378.125	203.06
378.35	202.06
378.576	190.06
378.802	195.06
379.027	186.06
379.253	187.06
379.478	193.06
379.704	203.06
379.929	200.06
380.155	193.06
380.38	201.06
380.606	189.06
380.831	198.06
381.057	196.06
381.282	193.06
381.507	206.06
381.733	188.06
381.958	200.06
382.184	187.06
382.409	198.06
382.634	200.06
382.86	197.06
383.085	227.06
383.31	219.06
383.535	196.06
383.761	200.06
383.986	232.06
384.211	218.06
384.436	212.06
384.662	215.06
384.887	234.06
385.112	217.06
385.337	240.06
385.562	212.06
385.787	218.06
386.013	230.06
386.238	206.06
386.463	226.06
386.688	219.06
386.913	227.06
387.138	233.06
387.363	220.06
387.588	231.06
387.813	238.06
388.038	210.06
388.263	223.06
388.488	216.06
388.713	226.06
388.938	215.06
389.163	224.06
389.387	207.06
389.612	208.06
389.837	229.06
390.062	222.06
390.287	228.06
390.512	214.06
390.736	212.06
390.961	218.06
391.186	214.06
391.411	239.06
391.636	219.06
391.86	221.06
392.085	238.06
392.31	248.06
392.534	252.06
392.759	234.06
392.984	240.06
393.208	228.06
393.433	224.06
393.658	233.06
393.882	224.06
394.107	231.06
394.331	230.06
394.556	239.06
394.78	234.06
395.005	234.06
395.229	222.06
395.454	249.06
395.678	238.06
395.903	240.06
396.127	222.06
396.352	224.06
396.576	223.06
396.801	234.06
397.025	240.06
397.249	241.06
397.474	259.06
397.698	246.06
397.922	230.06
398.147	227.06
398.371	249.06
398.595	244.06
398.82	260.06
399.044	267.06
399.268	283.06
399.492	345.06
399.717	384.06
399.941	378.06
400.165	323.06
400.389	282.06
400.613	275.06
400.837	262.06
401.062	256.06
401.286	262.06
401.51	267.06
401.734	263.06
401.958	271.06
402.182	265.06
402.406	263.06
402.63	272.06
402.854	276.06
403.078	279.06
403.302	292.06
403.526	290.06
403.75	313.06
403.974	299.06
404.198	302.06
404.422	316.06
404.645	295.06
404.869	296.06
405.093	294.06
405.317	267.06
405.541	275.06
405.765	268.06
405.988	288.06
406.212	277.06
406.436	274.06
406.66	289.06
406.883	283.06
407.107	295.06
407.331	298.06
407.555	323.06
407.778	312.06
408.002	327.06
408.226	314.06
408.449	299.06
408.673	297.06
408.896	275.06
409.12	286.06
409.344	302.06
409.567	278.06
409.791	291.06
410.014	300.06
410.238	272.06
410.461	284.06
410.685	304.06
410.908	266.06
411.132	260.06
411.355	261.06
411.578	256.06
411.802	253.06
412.025	278.06
412.249	272.06
412.472	270.06
412.695	279.06
412.919	276.06
413.142	251.06
413.365	259.06
413.589	241.06
413.812	252.06
414.035	251.06
414.258	237.06
414.482	233.06
414.705	262.06
414.928	264.06
415.151	277.06
415.374	258.06
415.597	242.06
415.821	263.06
416.044	257.06
416.267	254.06
416.49	259.06
416.713	269.06
416.936	267.06
417.159	241.06
417.382	252.06
417.605	255.06
417.828	257.06
418.051	262.06
418.274	267.06
418.497	261.06
418.72	265.06
418.943	272.06
419.166	280.06
419.389	278.06
419.611	289.06
419.834	292.06
420.057	260.06
420.28	271.06
420.503	262.06
420.726	243.06
420.948	253.06
421.171	258.06
421.394	265.06
421.617	249.06
421.839	270.06
422.062	248.06
422.285	254.06
422.507	269.06
422.73	268.06
422.953	278.06
423.175	275.06
423.398	284.06
423.621	264.06
423.843	276.06
424.066	268.06
424.288	280.06
424.511	267.06
424.733	281.06
424.956	276.06
425.178	267.06
425.401	251.06
425.623	247.06
425.846	252.06
426.068	234.06
426.291	259.06
426.513	227.06
426.735	255.06
426.958	242.06
427.18	250.06
427.402	243.06
427.625	236.06
427.847	232.06
428.069	218.06
428.292	234.06
428.514	241.06
428.736	231.06
428.958	233.06
429.181	229.06
429.403	228.06
429.625	216.06
429.847	223.06
430.069	215.06
430.292	233.06
430.514	238.06
430.736	246.06
430.958	236.06
431.18	214.06
431.402	237.06
431.624	242.06
431.846	230.06
432.068	233.06
432.29	258.06
432.512	256.06
432.734	231.06
432.956	223.06
433.178	244.06
433.4	235.06
433.622	234.06
433.844	245.06
434.066	235.06
434.287	243.06
434.509	249.06
434.731	250.06
434.953	252.06
435.175	260.06
435.397	244.06
435.618	240.06
435.84	234.06
436.062	243.06
436.284	253.06
436.505	235.06
436.727	242.06
436.949	230.06
437.17	239.06
437.392	222.06
437.614	244.06
437.835	232.06
438.057	228.06
438.278	208.06
438.5	219.06
438.721	203.06
438.943	222.06
439.165	217.06
439.386	250.06
439.608	219.06
439.829	222.06
440.05	222.06
440.272	223.06
440.493	227.06
440.715	230.06
440.936	247.06
441.158	254.06
441.379	268.06
441.6	266.06
441.822	259.06
442.043	251.06
442.264	253.06
442.486	254.06
442.707	241.06
442.928	279.06
443.149	260.06
443.371	259.06
443.592	265.06
443.813	252.06
444.034	263.06
444.255	256.06
444.476	278.06
444.698	295.06
444.919	287.06
445.14	412.06
445.361	313.06
445.582	274.06
445.803	266.06
446.024	233.06
446.245	238.06
446.466	246.06
446.687	242.06
446.908	236.06
447.129	228.06
447.35	231.06
447.571	209.06
447.792	220.06
448.013	231.06
448.234	218.06
448.455	233.06
448.675	226.06
448.896	218.06
449.117	202.06
449.338	229.06
449.559	211.06
449.779	234.06
450	230.06
450.221	216.06
450.442	234.06
450.662	225.06
450.883	258.06
451.104	231.06
451.324	241.06
451.545	225.06
451.766	239.06
451.986	216.06
452.207	238.06
452.428	220.06
452.648	222.06
452.869	206.06
453.089	224.06
453.31	222.06
453.53	229.06
453.751	224.06
453.971	226.06
454.192	208.06
454.412	210.06
454.633	219.06
454.853	212.06
455.073	204.06
455.294	210.06
455.514	203.06
455.734	201.06
455.955	201.06
456.175	197.06
456.395	206.06
456.616	224.06
456.836	221.06
457.056	223.06
457.276	205.06
457.497	219.06
457.717	204.06
457.937	207.06
458.157	201.06
458.377	209.06
458.598	227.06
458.818	217.06
459.038	214.06
459.258	227.06
459.478	242.06
459.698	224.06
459.918	243.06
460.138	259.06
460.358	274.06
460.578	284.06
460.798	281.06
461.018	267.06
461.238	281.06
461.458	265.06
461.678	258.06
461.898	276.06
462.118	272.06
462.338	287.06
462.558	295.06
462.777	306.06
462.997	314.06
463.217	344.06
463.437	366.06
463.657	323.06
463.876	311.06
464.096	312.06
464.316	307.06
464.536	315.06
464.755	301.06
464.975	283.06
465.195	292.06
465.414	264.06
465.634	260.06
465.854	246.06
466.073	264.06
466.293	235.06
466.512	234.06
466.732	235.06
466.951	236.06
467.171	228.06
467.391	248.06
467.61	238.06
467.829	242.06
468.049	230.06
468.268	213.06
468.488	235.06
468.707	210.06
468.927	231.06
469.146	220.06
469.365	225.06
469.585	222.06
469.804	231.06
470.023	228.06
470.243	235.06
470.462	239.06
470.681	234.06
470.901	250.06
471.12	253.06
471.339	247.06
471.558	231.06
471.777	226.06
471.997	218.06
472.216	238.06
472.435	246.06
472.654	230.06
472.873	210.06
473.092	209.06
473.311	218.06
473.53	220.06
473.749	224.06
473.968	222.06
474.187	221.06
474.406	201.06
474.625	241.06
474.844	214.06
475.063	224.06
475.282	210.06
475.501	213.06
475.72	230.06
475.939	233.06
476.158	230.06
476.377	244.06
476.596	229.06
476.814	213.06
477.033	246.06
477.252	235.06
477.471	234.06
477.69	240.06
477.908	262.06
478.127	243.06
478.346	245.06
478.564	260.06
478.783	273.06
479.002	272.06
479.22	269.06
479.439	254.06
479.658	273.06
479.876	276.06
480.095	269.06
480.313	281.06
480.532	284.06
480.751	305.06
480.969	293.06
481.188	278.06
481.406	265.06
481.624	263.06
481.843	260.06
482.061	258.06
482.28	252.06
482.498	248.06
482.717	241.06
482.935	253.06
483.153	236.06
483.372	267.06
483.59	278.06
483.808	260.06
484.027	244.06
484.245	236.06
484.463	238.06
484.681	250.06
484.9	262.06
485.118	282.06
485.336	267.06
485.554	266.06
485.772	274.06
485.99	284.06
486.209	290.06
486.427	271.06
486.645	275.06
486.863	275.06
487.081	262.06
487.299	266.06
487.517	258.06
487.735	265.06
487.953	262.06
488.171	265.06
488.389	275.06
488.607	256.06
488.825	247.06
489.043	250.06
489.261	271.06
489.479	251.06
489.696	276.06
489.914	261.06
490.132	256.06
490.35	253.06
490.568	277.06
490.786	269.06
491.003	283.06
491.221	250.06
491.439	273.06
491.657	257.06
491.874	268.06
492.092	262.06
492.31	273.06
492.527	282.06
492.745	272.06
492.963	278.06
493.18	282.06
493.398	273.06
493.615	276.06
493.833	264.06
494.05	278.06
494.268	279.06
494.485	271.06
494.703	261.06
494.92	271.06
495.138	279.06
495.355	268.06
495.573	266.06
495.79	265.06
496.008	264.06
496.225	280.06
496.442	281.06
496.66	287.06
496.877	294.06
497.094	297.06
497.312	302.06
497.529	311.06
497.746	290.06
497.963	294.06
498.181	310.06
498.398	319.06
498.615	334.06
498.832	367.06
499.049	387.06
499.267	415.06
499.484	461.06
499.701	502.06
499.918	530.06
500.135	615.06
500.352	729.06
500.569	772.06
500.786	747.06
501.003	698.06
501.22	642.06
501.437	552.06
501.654	490.06
501.871	451.06
502.088	398.06
502.305	398.06
502.522	369.06
502.739	363.06
502.956	332.06
503.172	304.06
503.389	317.06
