Data from 0.5MCu(NO3)2.Standard.Lamp.E10.CV._HRD10591_16-04-14-753.txt Node
Date: Mon Jul 22 16:04:14 EDT 2019
User: cochatt
Spectrometer: HR+D1059
Trigger mode: 1
Integration Time (sec): 1.000000E-1
Scans to average: 1
Electric dark correction enabled: true
Nonlinearity correction enabled: false
Boxcar width: 0
XAxis mode: Wavelengths
Number of Pixels in Spectrum: 2048
>>>>>Begin Spectral Data<<<<<
223.165	-9.88
223.4	-9.88
223.635	-9.88
223.869	-16.88
224.104	-25.88
224.338	-18.88
224.573	-25.88
224.808	-21.88
225.042	-1.88
225.277	5.12
225.511	-0.88
225.746	8.12
225.98	9.12
226.215	17.12
226.449	14.12
226.683	14.12
226.918	29.12
227.152	25.12
227.387	39.12
227.621	44.12
227.856	55.12
228.09	47.12
228.324	49.12
228.559	51.12
228.793	56.12
229.027	60.12
229.262	64.12
229.496	69.12
229.73	77.12
229.964	81.12
230.199	76.12
230.433	76.12
230.667	78.12
230.901	99.12
231.136	83.12
231.37	93.12
231.604	90.12
231.838	97.12
232.072	92.12
232.306	96.12
232.541	92.12
232.775	94.12
233.009	91.12
233.243	90.12
233.477	82.12
233.711	96.12
233.945	96.12
234.179	90.12
234.413	92.12
234.647	102.12
234.881	88.12
235.115	88.12
235.349	92.12
235.583	96.12
235.817	85.12
236.051	89.12
236.285	83.12
236.519	83.12
236.753	83.12
236.987	103.12
237.221	87.12
237.455	106.12
237.689	83.12
237.922	85.12
238.156	97.12
238.39	97.12
238.624	82.12
238.858	92.12
239.091	98.12
239.325	82.12
239.559	90.12
239.793	92.12
240.027	96.12
240.26	95.12
240.494	111.12
240.728	103.12
240.961	101.12
241.195	91.12
241.429	97.12
241.662	93.12
241.896	100.12
242.13	96.12
242.363	96.12
242.597	120.12
242.83	111.12
243.064	96.12
243.298	93.12
243.531	91.12
243.765	101.12
243.998	95.12
244.232	104.12
244.465	97.12
244.699	115.12
244.932	111.12
245.166	103.12
245.399	101.12
245.633	108.12
245.866	97.12
246.099	101.12
246.333	103.12
246.566	107.12
246.8	121.12
247.033	114.12
247.266	101.12
247.5	108.12
247.733	121.12
247.966	109.12
248.2	126.12
248.433	115.12
248.666	105.12
248.899	116.12
249.133	111.12
249.366	119.12
249.599	113.12
249.832	102.12
250.066	103.12
250.299	116.12
250.532	114.12
250.765	117.12
250.998	114.12
251.231	97.12
251.465	111.12
251.698	103.12
251.931	87.12
252.164	132.12
252.397	131.12
252.63	118.12
252.863	121.12
253.096	112.12
253.329	100.12
253.562	121.12
253.795	117.12
254.028	115.12
254.261	123.12
254.494	125.12
254.727	119.12
254.96	117.12
255.193	113.12
255.426	123.12
255.659	116.12
255.892	113.12
256.124	122.12
256.357	136.12
256.59	127.12
256.823	121.12
257.056	130.12
257.289	131.12
257.521	127.12
257.754	118.12
257.987	127.12
258.22	121.12
258.452	127.12
258.685	117.12
258.918	108.12
259.151	129.12
259.383	126.12
259.616	125.12
259.849	119.12
260.081	121.12
260.314	121.12
260.547	119.12
260.779	122.12
261.012	141.12
261.244	126.12
261.477	129.12
261.71	117.12
261.942	159.12
262.175	136.12
262.407	123.12
262.64	139.12
262.872	136.12
263.105	142.12
263.337	135.12
263.57	125.12
263.802	143.12
264.035	133.12
264.267	131.12
264.499	141.12
264.732	140.12
264.964	148.12
265.197	151.12
265.429	131.12
265.661	138.12
265.894	145.12
266.126	130.12
266.358	138.12
266.591	137.12
266.823	145.12
267.055	129.12
267.287	138.12
267.52	129.12
267.752	131.12
267.984	148.12
268.216	135.12
268.448	133.12
268.681	149.12
268.913	133.12
269.145	147.12
269.377	148.12
269.609	144.12
269.841	140.12
270.073	123.12
270.306	144.12
270.538	159.12
270.77	144.12
271.002	135.12
271.234	148.12
271.466	145.12
271.698	161.12
271.93	141.12
272.162	155.12
272.394	143.12
272.626	149.12
272.858	139.12
273.09	145.12
273.322	157.12
273.553	153.12
273.785	152.12
274.017	147.12
274.249	134.12
274.481	142.12
274.713	130.12
274.945	165.12
275.176	144.12
275.408	137.12
275.64	154.12
275.872	143.12
276.104	151.12
276.335	150.12
276.567	144.12
276.799	149.12
277.031	159.12
277.262	154.12
277.494	160.12
277.726	165.12
277.957	153.12
278.189	154.12
278.421	159.12
278.652	158.12
278.884	144.12
279.115	175.12
279.347	157.12
279.579	159.12
279.81	164.12
280.042	152.12
280.273	167.12
280.505	176.12
280.736	159.12
280.968	179.12
281.199	147.12
281.431	181.12
281.662	177.12
281.894	163.12
282.125	175.12
282.356	173.12
282.588	167.12
282.819	153.12
283.051	183.12
283.282	168.12
283.513	159.12
283.745	177.12
283.976	192.12
284.207	167.12
284.439	175.12
284.67	173.12
284.901	169.12
285.132	169.12
285.364	186.12
285.595	185.12
285.826	185.12
286.057	186.12
286.288	172.12
286.52	167.12
286.751	176.12
286.982	186.12
287.213	169.12
287.444	184.12
287.675	161.12
287.906	164.12
288.138	172.12
288.369	179.12
288.6	182.12
288.831	179.12
289.062	182.12
289.293	197.12
289.524	175.12
289.755	180.12
289.986	197.12
290.217	183.12
290.448	171.12
290.679	175.12
290.91	195.12
291.141	195.12
291.371	184.12
291.602	194.12
291.833	184.12
292.064	196.12
292.295	190.12
292.526	188.12
292.757	195.12
292.987	197.12
293.218	192.12
293.449	198.12
293.68	182.12
293.91	200.12
294.141	213.12
294.372	188.12
294.603	179.12
294.833	191.12
295.064	188.12
295.295	199.12
295.525	191.12
295.756	194.12
295.987	190.12
296.217	191.12
296.448	202.12
296.679	188.12
296.909	183.12
297.14	195.12
297.37	207.12
297.601	196.12
297.831	209.12
298.062	205.12
298.292	203.12
298.523	215.12
298.753	191.12
298.984	179.12
299.214	203.12
299.445	202.12
299.675	196.12
299.905	209.12
300.136	208.12
300.366	186.12
300.597	213.12
300.827	212.12
301.057	203.12
301.288	202.12
301.518	219.12
301.748	218.12
301.979	224.12
302.209	212.12
302.439	213.12
302.669	199.12
302.9	216.12
303.13	200.12
303.36	217.12
303.59	201.12
303.82	213.12
304.051	211.12
304.281	206.12
304.511	205.12
304.741	215.12
304.971	204.12
305.201	193.12
305.431	204.12
305.661	209.12
305.891	195.12
306.121	205.12
306.352	207.12
306.582	201.12
306.812	202.12
307.042	219.12
307.272	192.12
307.502	199.12
307.731	214.12
307.961	207.12
308.191	200.12
308.421	193.12
308.651	202.12
308.881	211.12
309.111	200.12
309.341	199.12
309.571	212.12
309.8	213.12
310.03	196.12
310.26	186.12
310.49	194.12
310.72	210.12
310.949	214.12
311.179	207.12
311.409	207.12
311.639	191.12
311.868	208.12
312.098	211.12
312.328	212.12
312.557	202.12
312.787	204.12
313.017	203.12
313.246	215.12
313.476	211.12
313.706	215.12
313.935	212.12
314.165	217.12
314.394	208.12
314.624	220.12
314.853	212.12
315.083	215.12
315.312	217.12
315.542	207.12
315.771	218.12
316.001	212.12
316.23	215.12
316.46	216.12
316.689	218.12
316.919	211.12
317.148	207.12
317.377	215.12
317.607	187.12
317.836	202.12
318.065	200.12
318.295	200.12
318.524	232.12
318.753	218.12
318.983	204.12
319.212	212.12
319.441	209.12
319.67	212.12
319.9	204.12
320.129	226.12
320.358	227.12
320.587	204.12
320.816	210.12
321.046	205.12
321.275	207.12
321.504	202.12
321.733	217.12
321.962	208.12
322.191	197.12
322.42	209.12
322.649	206.12
322.878	229.12
323.108	217.12
323.337	223.12
323.566	215.12
323.795	214.12
324.024	208.12
324.253	230.12
324.482	201.12
324.71	216.12
324.939	224.12
325.168	239.12
325.397	209.12
325.626	228.12
325.855	222.12
326.084	242.12
326.313	222.12
326.542	219.12
326.77	228.12
326.999	217.12
327.228	206.12
327.457	232.12
327.686	215.12
327.914	233.12
328.143	233.12
328.372	234.12
328.6	226.12
328.829	227.12
329.058	224.12
329.287	217.12
329.515	203.12
329.744	235.12
329.972	261.12
330.201	219.12
330.43	231.12
330.658	224.12
330.887	231.12
331.115	234.12
331.344	228.12
331.572	235.12
331.801	250.12
332.03	259.12
332.258	259.12
332.486	255.12
332.715	269.12
332.943	275.12
333.172	269.12
333.4	291.12
333.629	300.12
333.857	292.12
334.085	286.12
334.314	286.12
334.542	275.12
334.771	261.12
334.999	281.12
335.227	283.12
335.455	283.12
335.684	278.12
335.912	258.12
336.14	268.12
336.369	257.12
336.597	260.12
336.825	266.12
337.053	248.12
337.281	259.12
337.51	247.12
337.738	257.12
337.966	239.12
338.194	242.12
338.422	256.12
338.65	240.12
338.878	239.12
339.106	219.12
339.334	233.12
339.562	252.12
339.79	236.12
340.018	232.12
340.246	215.12
340.474	253.12
340.702	235.12
340.93	243.12
341.158	239.12
341.386	227.12
341.614	235.12
341.842	220.12
342.07	233.12
342.298	235.12
342.526	227.12
342.754	240.12
342.981	230.12
343.209	241.12
343.437	252.12
343.665	258.12
343.893	275.12
344.12	293.12
344.348	273.12
344.576	244.12
344.804	259.12
345.031	241.12
345.259	259.12
345.487	237.12
345.714	241.12
345.942	227.12
346.17	226.12
346.397	230.12
346.625	235.12
346.853	215.12
347.08	217.12
347.308	224.12
347.535	221.12
347.763	245.12
347.99	224.12
348.218	222.12
348.445	232.12
348.673	221.12
348.9	214.12
349.128	256.12
349.355	234.12
349.583	232.12
349.81	231.12
350.037	221.12
350.265	230.12
350.492	213.12
350.72	209.12
350.947	215.12
351.174	223.12
351.402	216.12
351.629	219.12
351.856	218.12
352.083	211.12
352.311	221.12
352.538	212.12
352.765	219.12
352.992	230.12
353.22	213.12
353.447	220.12
353.674	216.12
353.901	229.12
354.128	223.12
354.355	216.12
354.583	222.12
354.81	208.12
355.037	208.12
355.264	221.12
355.491	219.12
355.718	225.12
355.945	227.12
356.172	222.12
356.399	214.12
356.626	204.12
356.853	222.12
357.08	225.12
357.307	212.12
357.534	220.12
357.761	200.12
357.988	218.12
358.215	216.12
358.441	225.12
358.668	226.12
358.895	218.12
359.122	227.12
359.349	212.12
359.576	218.12
359.802	216.12
360.029	202.12
360.256	230.12
360.483	213.12
360.709	206.12
360.936	236.12
361.163	225.12
361.39	229.12
361.616	218.12
361.843	215.12
362.07	205.12
362.296	210.12
362.523	209.12
362.749	227.12
362.976	221.12
363.203	221.12
363.429	217.12
363.656	200.12
363.882	204.12
364.109	217.12
364.335	211.12
364.562	211.12
364.788	217.12
365.015	215.12
365.241	219.12
365.468	207.12
365.694	205.12
365.92	214.12
366.147	198.12
366.373	205.12
366.599	216.12
366.826	209.12
367.052	217.12
367.278	224.12
367.505	221.12
367.731	219.12
367.957	210.12
368.184	226.12
368.41	209.12
368.636	213.12
368.862	222.12
369.089	225.12
369.315	229.12
369.541	231.12
369.767	233.12
369.993	219.12
370.219	228.12
370.445	212.12
370.672	225.12
370.898	226.12
371.124	227.12
371.35	245.12
371.576	219.12
371.802	223.12
372.028	235.12
372.254	229.12
372.48	255.12
372.706	236.12
372.932	251.12
373.158	248.12
373.384	243.12
373.61	237.12
373.835	232.12
374.061	224.12
374.287	244.12
374.513	252.12
374.739	245.12
374.965	224.12
375.191	268.12
375.416	268.12
375.642	251.12
375.868	227.12
376.094	241.12
376.319	245.12
376.545	229.12
376.771	240.12
376.997	232.12
377.222	253.12
377.448	238.12
377.674	226.12
377.899	213.12
378.125	227.12
378.35	230.12
378.576	229.12
378.802	229.12
379.027	243.12
379.253	234.12
379.478	221.12
379.704	221.12
379.929	235.12
380.155	225.12
380.38	226.12
380.606	216.12
380.831	222.12
381.057	223.12
381.282	231.12
381.507	236.12
381.733	237.12
381.958	223.12
382.184	231.12
382.409	242.12
382.634	225.12
382.86	228.12
383.085	243.12
383.31	255.12
383.535	243.12
383.761	252.12
383.986	247.12
384.211	262.12
384.436	273.12
384.662	275.12
384.887	278.12
385.112	249.12
385.337	269.12
385.562	254.12
385.787	280.12
386.013	280.12
386.238	264.12
386.463	269.12
386.688	275.12
386.913	265.12
387.138	256.12
387.363	243.12
387.588	266.12
387.813	264.12
388.038	269.12
388.263	272.12
388.488	268.12
388.713	257.12
388.938	259.12
389.163	265.12
389.387	248.12
389.612	247.12
389.837	270.12
390.062	239.12
390.287	254.12
390.512	263.12
390.736	252.12
390.961	265.12
391.186	251.12
391.411	273.12
391.636	283.12
391.86	296.12
392.085	284.12
392.31	294.12
392.534	282.12
392.759	287.12
392.984	281.12
393.208	275.12
393.433	282.12
393.658	260.12
393.882	243.12
394.107	279.12
394.331	280.12
394.556	277.12
394.78	290.12
395.005	276.12
395.229	274.12
395.454	297.12
395.678	282.12
395.903	291.12
396.127	293.12
396.352	263.12
396.576	279.12
396.801	266.12
397.025	264.12
397.249	281.12
397.474	283.12
397.698	275.12
397.922	283.12
398.147	280.12
398.371	294.12
398.595	282.12
398.82	307.12
399.044	312.12
399.268	347.12
399.492	392.12
399.717	459.12
399.941	457.12
400.165	413.12
400.389	364.12
400.613	326.12
400.837	326.12
401.062	308.12
401.286	327.12
401.51	316.12
401.734	315.12
401.958	299.12
402.182	308.12
402.406	301.12
402.63	325.12
402.854	330.12
403.078	336.12
403.302	334.12
403.526	377.12
403.75	351.12
403.974	341.12
404.198	362.12
404.422	372.12
404.645	365.12
404.869	357.12
405.093	356.12
405.317	338.12
405.541	347.12
405.765	340.12
405.988	309.12
406.212	330.12
406.436	327.12
406.66	355.12
406.883	363.12
407.107	365.12
407.331	381.12
407.555	385.12
407.778	395.12
408.002	394.12
408.226	356.12
408.449	356.12
408.673	341.12
408.896	342.12
409.12	343.12
409.344	344.12
409.567	340.12
409.791	364.12
410.014	346.12
410.238	348.12
410.461	331.12
410.685	337.12
410.908	353.12
411.132	334.12
411.355	321.12
411.578	319.12
411.802	314.12
412.025	319.12
412.249	311.12
412.472	330.12
412.695	323.12
412.919	316.12
413.142	305.12
413.365	322.12
413.589	321.12
413.812	308.12
414.035	315.12
414.258	305.12
414.482	290.12
414.705	299.12
414.928	307.12
415.151	310.12
415.374	305.12
415.597	310.12
415.821	315.12
416.044	309.12
416.267	284.12
416.49	290.12
416.713	307.12
416.936	322.12
417.159	305.12
417.382	279.12
417.605	308.12
417.828	295.12
418.051	307.12
418.274	314.12
418.497	304.12
418.72	318.12
418.943	320.12
419.166	332.12
419.389	343.12
419.611	332.12
419.834	338.12
420.057	331.12
420.28	300.12
420.503	289.12
420.726	310.12
420.948	306.12
421.171	307.12
421.394	308.12
421.617	314.12
421.839	309.12
422.062	296.12
422.285	307.12
422.507	322.12
422.73	314.12
422.953	328.12
423.175	343.12
423.398	333.12
423.621	325.12
423.843	325.12
424.066	336.12
424.288	332.12
424.511	347.12
424.733	335.12
424.956	328.12
425.178	315.12
425.401	305.12
425.623	303.12
425.846	310.12
426.068	316.12
426.291	283.12
426.513	301.12
426.735	309.12
426.958	303.12
427.18	320.12
427.402	305.12
427.625	286.12
427.847	263.12
428.069	277.12
428.292	279.12
428.514	273.12
428.736	289.12
428.958	275.12
429.181	277.12
429.403	286.12
429.625	258.12
429.847	273.12
430.069	273.12
430.292	264.12
430.514	275.12
430.736	273.12
430.958	258.12
431.18	261.12
431.402	271.12
431.624	270.12
431.846	278.12
432.068	289.12
432.29	282.12
432.512	281.12
432.734	283.12
432.956	286.12
433.178	275.12
433.4	282.12
433.622	284.12
433.844	303.12
434.066	301.12
434.287	281.12
434.509	301.12
434.731	296.12
434.953	316.12
435.175	327.12
435.397	311.12
435.618	298.12
435.84	277.12
436.062	285.12
436.284	276.12
436.505	274.12
436.727	294.12
436.949	284.12
437.17	266.12
437.392	279.12
437.614	275.12
437.835	249.12
438.057	280.12
438.278	280.12
438.5	268.12
438.721	263.12
438.943	279.12
439.165	268.12
439.386	275.12
439.608	279.12
439.829	291.12
440.05	275.12
440.272	287.12
440.493	280.12
440.715	273.12
440.936	296.12
441.158	305.12
441.379	317.12
441.6	315.12
441.822	306.12
442.043	313.12
442.264	306.12
442.486	298.12
442.707	317.12
442.928	310.12
443.149	314.12
443.371	311.12
443.592	306.12
443.813	299.12
444.034	308.12
444.255	307.12
444.476	327.12
444.698	357.12
444.919	377.12
445.14	467.12
445.361	387.12
445.582	325.12
445.803	290.12
446.024	288.12
446.245	280.12
446.466	274.12
446.687	280.12
446.908	287.12
447.129	279.12
447.35	273.12
447.571	260.12
447.792	275.12
448.013	248.12
448.234	261.12
448.455	247.12
448.675	273.12
448.896	251.12
449.117	257.12
449.338	249.12
449.559	259.12
449.779	249.12
450	259.12
450.221	261.12
450.442	261.12
450.662	269.12
450.883	267.12
451.104	260.12
451.324	280.12
451.545	292.12
451.766	258.12
451.986	261.12
452.207	258.12
452.428	263.12
452.648	259.12
452.869	264.12
453.089	274.12
453.31	247.12
453.53	247.12
453.751	267.12
453.971	267.12
454.192	261.12
454.412	241.12
454.633	252.12
454.853	261.12
455.073	251.12
455.294	260.12
455.514	247.12
455.734	243.12
455.955	234.12
456.175	259.12
456.395	236.12
456.616	246.12
456.836	257.12
457.056	242.12
457.276	243.12
457.497	244.12
457.717	247.12
457.937	235.12
458.157	239.12
458.377	243.12
458.598	250.12
458.818	279.12
459.038	262.12
459.258	272.12
459.478	291.12
459.698	284.12
459.918	305.12
460.138	293.12
460.358	316.12
460.578	313.12
460.798	350.12
461.018	347.12
461.238	327.12
461.458	346.12
461.678	329.12
461.898	325.12
462.118	327.12
462.338	340.12
462.558	345.12
462.777	359.12
462.997	371.12
463.217	427.12
463.437	419.12
463.657	392.12
463.876	380.12
464.096	374.12
464.316	372.12
464.536	369.12
464.755	377.12
464.975	344.12
465.195	337.12
465.414	347.12
465.634	297.12
465.854	288.12
466.073	291.12
466.293	276.12
466.512	288.12
466.732	266.12
466.951	281.12
467.171	277.12
467.391	273.12
467.61	296.12
467.829	289.12
468.049	270.12
468.268	270.12
468.488	257.12
468.707	255.12
468.927	273.12
469.146	273.12
469.365	277.12
469.585	266.12
469.804	289.12
470.023	271.12
470.243	274.12
470.462	291.12
470.681	283.12
470.901	292.12
471.12	288.12
471.339	281.12
471.558	276.12
471.777	268.12
471.997	261.12
472.216	260.12
472.435	276.12
472.654	270.12
472.873	258.12
473.092	280.12
473.311	259.12
473.53	263.12
473.749	272.12
473.968	263.12
474.187	278.12
474.406	273.12
474.625	258.12
474.844	268.12
475.063	275.12
475.282	260.12
475.501	252.12
475.72	282.12
475.939	274.12
476.158	254.12
476.377	289.12
476.596	280.12
476.814	276.12
477.033	271.12
477.252	287.12
477.471	296.12
477.69	300.12
477.908	282.12
478.127	301.12
478.346	300.12
478.564	302.12
478.783	316.12
479.002	316.12
479.22	325.12
479.439	314.12
479.658	328.12
479.876	319.12
480.095	303.12
480.313	314.12
480.532	356.12
480.751	345.12
480.969	334.12
481.188	305.12
481.406	317.12
481.624	295.12
481.843	313.12
482.061	301.12
482.28	309.12
482.498	292.12
482.717	275.12
482.935	284.12
483.153	299.12
483.372	315.12
483.59	293.12
483.808	293.12
484.027	305.12
484.245	293.12
484.463	297.12
484.681	319.12
484.9	312.12
485.118	305.12
485.336	318.12
485.554	298.12
485.772	328.12
485.99	327.12
486.209	352.12
486.427	311.12
486.645	333.12
486.863	316.12
487.081	315.12
487.299	304.12
487.517	322.12
487.735	308.12
487.953	301.12
488.171	319.12
488.389	320.12
488.607	323.12
488.825	307.12
489.043	314.12
489.261	305.12
489.479	307.12
489.696	309.12
489.914	326.12
490.132	311.12
490.35	324.12
490.568	326.12
490.786	301.12
491.003	312.12
491.221	309.12
491.439	301.12
491.657	336.12
491.874	331.12
492.092	315.12
492.31	308.12
492.527	313.12
492.745	335.12
492.963	332.12
493.18	331.12
493.398	313.12
493.615	338.12
493.833	330.12
494.05	306.12
494.268	325.12
494.485	327.12
494.703	326.12
494.92	319.12
495.138	331.12
495.355	331.12
495.573	323.12
495.79	320.12
496.008	327.12
496.225	353.12
496.442	325.12
496.66	332.12
496.877	337.12
497.094	333.12
497.312	342.12
497.529	352.12
497.746	353.12
497.963	377.12
498.181	397.12
498.398	400.12
498.615	417.12
498.832	451.12
499.049	481.12
499.267	521.12
499.484	551.12
499.701	615.12
499.918	676.12
500.135	769.12
500.352	901.12
500.569	928.12
500.786	940.12
501.003	877.12
501.22	760.12
501.437	674.12
501.654	597.12
501.871	519.12
502.088	507.12
502.305	464.12
502.522	431.12
502.739	428.12
502.956	407.12
