Data from 0.5MCu(NO3)2.Standard.Lamp.E10.CV._HRD10591_16-05-12-753.txt Node
Date: Mon Jul 22 16:05:12 EDT 2019
User: cochatt
Spectrometer: HR+D1059
Trigger mode: 1
Integration Time (sec): 1.000000E-1
Scans to average: 1
Electric dark correction enabled: true
Nonlinearity correction enabled: false
Boxcar width: 0
XAxis mode: Wavelengths
Number of Pixels in Spectrum: 2048
>>>>>Begin Spectral Data<<<<<
223.165	-18.25
223.4	-18.25
223.635	-18.25
223.869	-3.25
224.104	-18.25
224.338	-13.25
224.573	-12.25
224.808	-18.25
225.042	-17.25
225.277	-15.25
225.511	3.75
225.746	2.75
225.98	14.75
226.215	16.75
226.449	4.75
226.683	9.75
226.918	31.75
227.152	31.75
227.387	39.75
227.621	40.75
227.856	39.75
228.09	31.75
228.324	40.75
228.559	36.75
228.793	64.75
229.027	68.75
229.262	56.75
229.496	60.75
229.73	81.75
229.964	82.75
230.199	72.75
230.433	76.75
230.667	82.75
230.901	70.75
231.136	89.75
231.37	100.75
231.604	85.75
231.838	91.75
232.072	99.75
232.306	79.75
232.541	83.75
232.775	69.75
233.009	98.75
233.243	89.75
233.477	78.75
233.711	73.75
233.945	86.75
234.179	87.75
234.413	92.75
234.647	77.75
234.881	83.75
235.115	89.75
235.349	85.75
235.583	100.75
235.817	89.75
236.051	97.75
236.285	91.75
236.519	89.75
236.753	80.75
236.987	81.75
237.221	87.75
237.455	84.75
237.689	94.75
237.922	89.75
238.156	71.75
238.39	101.75
238.624	81.75
238.858	85.75
239.091	78.75
239.325	88.75
239.559	114.75
239.793	87.75
240.027	103.75
240.26	91.75
240.494	100.75
240.728	85.75
240.961	96.75
241.195	87.75
241.429	96.75
241.662	92.75
241.896	88.75
242.13	101.75
242.363	101.75
242.597	101.75
242.83	111.75
243.064	100.75
243.298	93.75
243.531	90.75
243.765	110.75
243.998	103.75
244.232	103.75
244.465	103.75
244.699	105.75
244.932	89.75
245.166	103.75
245.399	110.75
245.633	105.75
245.866	107.75
246.099	112.75
246.333	115.75
246.566	103.75
246.8	106.75
247.033	99.75
247.266	112.75
247.5	113.75
247.733	115.75
247.966	93.75
248.2	115.75
248.433	103.75
248.666	106.75
248.899	99.75
249.133	120.75
249.366	123.75
249.599	122.75
249.832	113.75
250.066	111.75
250.299	110.75
250.532	106.75
250.765	101.75
250.998	108.75
251.231	111.75
251.465	119.75
251.698	111.75
251.931	115.75
252.164	114.75
252.397	113.75
252.63	122.75
252.863	111.75
253.096	126.75
253.329	115.75
253.562	122.75
253.795	110.75
254.028	115.75
254.261	126.75
254.494	118.75
254.727	105.75
254.96	119.75
255.193	124.75
255.426	119.75
255.659	110.75
255.892	119.75
256.124	119.75
256.357	113.75
256.59	127.75
256.823	115.75
257.056	113.75
257.289	125.75
257.521	112.75
257.754	136.75
257.987	104.75
258.22	116.75
258.452	121.75
258.685	148.75
258.918	129.75
259.151	131.75
259.383	127.75
259.616	126.75
259.849	122.75
260.081	121.75
260.314	123.75
260.547	128.75
260.779	129.75
261.012	134.75
261.244	119.75
261.477	134.75
261.71	133.75
261.942	128.75
262.175	133.75
262.407	129.75
262.64	113.75
262.872	125.75
263.105	126.75
263.337	135.75
263.57	134.75
263.802	129.75
264.035	141.75
264.267	137.75
264.499	136.75
264.732	133.75
264.964	140.75
265.197	139.75
265.429	136.75
265.661	143.75
265.894	127.75
266.126	150.75
266.358	151.75
266.591	161.75
266.823	136.75
267.055	152.75
267.287	146.75
267.52	144.75
267.752	145.75
267.984	140.75
268.216	148.75
268.448	154.75
268.681	139.75
268.913	145.75
269.145	134.75
269.377	141.75
269.609	153.75
269.841	146.75
270.073	127.75
270.306	145.75
270.538	140.75
270.77	156.75
271.002	136.75
271.234	145.75
271.466	139.75
271.698	165.75
271.93	154.75
272.162	150.75
272.394	151.75
272.626	160.75
272.858	145.75
273.09	144.75
273.322	154.75
273.553	143.75
273.785	158.75
274.017	150.75
274.249	149.75
274.481	154.75
274.713	163.75
274.945	149.75
275.176	155.75
275.408	171.75
275.64	157.75
275.872	150.75
276.104	165.75
276.335	167.75
276.567	149.75
276.799	154.75
277.031	166.75
277.262	168.75
277.494	157.75
277.726	161.75
277.957	147.75
278.189	162.75
278.421	168.75
278.652	166.75
278.884	169.75
279.115	170.75
279.347	165.75
279.579	168.75
279.81	189.75
280.042	166.75
280.273	175.75
280.505	174.75
280.736	176.75
280.968	165.75
281.199	160.75
281.431	166.75
281.662	170.75
281.894	155.75
282.125	178.75
282.356	166.75
282.588	173.75
282.819	168.75
283.051	180.75
283.282	176.75
283.513	181.75
283.745	176.75
283.976	170.75
284.207	189.75
284.439	185.75
284.67	186.75
284.901	191.75
285.132	169.75
285.364	156.75
285.595	175.75
285.826	194.75
286.057	177.75
286.288	177.75
286.52	195.75
286.751	173.75
286.982	197.75
287.213	174.75
287.444	173.75
287.675	173.75
287.906	187.75
288.138	197.75
288.369	186.75
288.6	198.75
288.831	189.75
289.062	178.75
289.293	187.75
289.524	187.75
289.755	198.75
289.986	177.75
290.217	193.75
290.448	203.75
290.679	189.75
290.91	199.75
291.141	179.75
291.371	193.75
291.602	183.75
291.833	173.75
292.064	201.75
292.295	191.75
292.526	205.75
292.757	178.75
292.987	173.75
293.218	199.75
293.449	206.75
293.68	186.75
293.91	195.75
294.141	184.75
294.372	180.75
294.603	203.75
294.833	210.75
295.064	199.75
295.295	203.75
295.525	201.75
295.756	187.75
295.987	213.75
296.217	191.75
296.448	205.75
296.679	201.75
296.909	198.75
297.14	200.75
297.37	185.75
297.601	217.75
297.831	211.75
298.062	186.75
298.292	206.75
298.523	210.75
298.753	212.75
298.984	203.75
299.214	227.75
299.445	210.75
299.675	212.75
299.905	200.75
300.136	210.75
300.366	198.75
300.597	186.75
300.827	214.75
301.057	229.75
301.288	225.75
301.518	219.75
301.748	215.75
301.979	233.75
302.209	205.75
302.439	225.75
302.669	223.75
302.9	223.75
303.13	215.75
303.36	223.75
303.59	219.75
303.82	215.75
304.051	211.75
304.281	208.75
304.511	228.75
304.741	215.75
304.971	215.75
305.201	213.75
305.431	207.75
305.661	212.75
305.891	220.75
306.121	214.75
306.352	200.75
306.582	227.75
306.812	218.75
307.042	222.75
307.272	201.75
307.502	201.75
307.731	207.75
307.961	211.75
308.191	221.75
308.421	200.75
308.651	231.75
308.881	224.75
309.111	200.75
309.341	210.75
309.571	213.75
309.8	228.75
310.03	213.75
310.26	198.75
310.49	209.75
310.72	218.75
310.949	219.75
311.179	213.75
311.409	211.75
311.639	230.75
311.868	221.75
312.098	230.75
312.328	221.75
312.557	213.75
312.787	219.75
313.017	217.75
313.246	231.75
313.476	222.75
313.706	230.75
313.935	219.75
314.165	228.75
314.394	229.75
314.624	215.75
314.853	222.75
315.083	232.75
315.312	214.75
315.542	212.75
315.771	222.75
316.001	232.75
316.23	240.75
316.46	199.75
316.689	213.75
316.919	207.75
317.148	202.75
317.377	238.75
317.607	218.75
317.836	218.75
318.065	220.75
318.295	214.75
318.524	231.75
318.753	213.75
318.983	215.75
319.212	207.75
319.441	209.75
319.67	234.75
319.9	219.75
320.129	218.75
320.358	219.75
320.587	228.75
320.816	223.75
321.046	216.75
321.275	223.75
321.504	216.75
321.733	218.75
321.962	235.75
322.191	220.75
322.42	217.75
322.649	228.75
322.878	219.75
323.108	207.75
323.337	232.75
323.566	225.75
323.795	227.75
324.024	231.75
324.253	224.75
324.482	235.75
324.71	231.75
324.939	238.75
325.168	231.75
325.397	226.75
325.626	239.75
325.855	227.75
326.084	225.75
326.313	243.75
326.542	242.75
326.77	230.75
326.999	229.75
327.228	247.75
327.457	227.75
327.686	229.75
327.914	243.75
328.143	241.75
328.372	224.75
328.6	244.75
328.829	246.75
329.058	239.75
329.287	231.75
329.515	231.75
329.744	222.75
329.972	238.75
330.201	213.75
330.43	222.75
330.658	226.75
330.887	234.75
331.115	234.75
331.344	237.75
331.572	254.75
331.801	269.75
332.03	259.75
332.258	267.75
332.486	272.75
332.715	275.75
332.943	257.75
333.172	275.75
333.4	290.75
333.629	319.75
333.857	307.75
334.085	301.75
334.314	292.75
334.542	296.75
334.771	286.75
334.999	273.75
335.227	293.75
335.455	275.75
335.684	293.75
335.912	288.75
336.14	282.75
336.369	276.75
336.597	269.75
336.825	281.75
337.053	283.75
337.281	279.75
337.51	273.75
337.738	265.75
337.966	263.75
338.194	259.75
338.422	253.75
338.65	264.75
338.878	261.75
339.106	247.75
339.334	261.75
339.562	253.75
339.79	258.75
340.018	238.75
340.246	255.75
340.474	242.75
340.702	242.75
340.93	234.75
341.158	250.75
341.386	255.75
341.614	237.75
341.842	231.75
342.07	218.75
342.298	256.75
342.526	238.75
342.754	234.75
342.981	249.75
343.209	255.75
343.437	241.75
343.665	259.75
343.893	285.75
344.12	289.75
344.348	278.75
344.576	271.75
344.804	261.75
345.031	259.75
345.259	259.75
345.487	237.75
345.714	246.75
345.942	243.75
346.17	237.75
346.397	234.75
346.625	237.75
346.853	225.75
347.08	236.75
347.308	233.75
347.535	278.75
347.763	257.75
347.99	226.75
348.218	264.75
348.445	229.75
348.673	245.75
348.9	239.75
349.128	222.75
349.355	221.75
349.583	234.75
349.81	246.75
350.037	238.75
350.265	229.75
350.492	229.75
350.72	228.75
350.947	241.75
351.174	231.75
351.402	216.75
351.629	227.75
351.856	224.75
352.083	235.75
352.311	225.75
352.538	229.75
352.765	223.75
352.992	225.75
353.22	238.75
353.447	211.75
353.674	212.75
353.901	227.75
354.128	238.75
354.355	243.75
354.583	226.75
354.81	219.75
355.037	230.75
355.264	242.75
355.491	227.75
355.718	221.75
355.945	226.75
356.172	222.75
356.399	224.75
356.626	238.75
356.853	234.75
357.08	215.75
357.307	217.75
357.534	226.75
357.761	233.75
357.988	235.75
358.215	240.75
358.441	233.75
358.668	218.75
358.895	220.75
359.122	237.75
359.349	230.75
359.576	220.75
359.802	232.75
360.029	213.75
360.256	221.75
360.483	232.75
360.709	221.75
360.936	224.75
361.163	222.75
361.39	215.75
361.616	196.75
361.843	219.75
362.07	229.75
362.296	230.75
362.523	239.75
362.749	230.75
362.976	216.75
363.203	231.75
363.429	234.75
363.656	216.75
363.882	212.75
364.109	211.75
364.335	218.75
364.562	223.75
364.788	219.75
365.015	239.75
365.241	231.75
365.468	238.75
365.694	238.75
365.92	234.75
366.147	241.75
366.373	222.75
366.599	250.75
366.826	227.75
367.052	228.75
367.278	224.75
367.505	229.75
367.731	222.75
367.957	224.75
368.184	235.75
368.41	237.75
368.636	237.75
368.862	239.75
369.089	234.75
369.315	234.75
369.541	224.75
369.767	241.75
369.993	233.75
370.219	222.75
370.445	240.75
370.672	226.75
370.898	245.75
371.124	234.75
371.35	240.75
371.576	241.75
371.802	245.75
372.028	243.75
372.254	235.75
372.48	255.75
372.706	243.75
372.932	244.75
373.158	252.75
373.384	248.75
373.61	259.75
373.835	244.75
374.061	229.75
374.287	237.75
374.513	235.75
374.739	260.75
374.965	269.75
375.191	269.75
375.416	249.75
375.642	276.75
375.868	243.75
376.094	255.75
376.319	254.75
376.545	248.75
376.771	254.75
376.997	241.75
377.222	240.75
377.448	239.75
377.674	257.75
377.899	258.75
378.125	226.75
378.35	251.75
378.576	244.75
378.802	244.75
379.027	242.75
379.253	224.75
379.478	222.75
379.704	235.75
379.929	231.75
380.155	237.75
380.38	237.75
380.606	237.75
380.831	226.75
381.057	237.75
381.282	227.75
381.507	239.75
381.733	248.75
381.958	241.75
382.184	250.75
382.409	258.75
382.634	263.75
382.86	259.75
383.085	253.75
383.31	257.75
383.535	249.75
383.761	260.75
383.986	266.75
384.211	278.75
384.436	255.75
384.662	274.75
384.887	275.75
385.112	277.75
385.337	293.75
385.562	275.75
385.787	279.75
386.013	289.75
386.238	267.75
386.463	278.75
386.688	270.75
386.913	270.75
387.138	271.75
387.363	264.75
387.588	273.75
387.813	285.75
388.038	283.75
388.263	290.75
388.488	288.75
388.713	266.75
388.938	264.75
389.163	256.75
389.387	271.75
389.612	265.75
389.837	245.75
390.062	261.75
390.287	277.75
390.512	256.75
390.736	273.75
390.961	275.75
391.186	286.75
391.411	302.75
391.636	278.75
391.86	291.75
392.085	307.75
392.31	304.75
392.534	280.75
392.759	291.75
392.984	291.75
393.208	272.75
393.433	291.75
393.658	275.75
393.882	290.75
394.107	293.75
394.331	285.75
394.556	291.75
394.78	290.75
395.005	290.75
395.229	287.75
395.454	305.75
395.678	307.75
395.903	315.75
396.127	298.75
396.352	269.75
396.576	266.75
396.801	283.75
397.025	284.75
397.249	314.75
397.474	275.75
397.698	294.75
397.922	301.75
398.147	289.75
398.371	278.75
398.595	304.75
398.82	313.75
399.044	322.75
399.268	374.75
399.492	433.75
399.717	470.75
399.941	482.75
400.165	437.75
400.389	369.75
400.613	339.75
400.837	328.75
401.062	344.75
401.286	310.75
401.51	323.75
401.734	307.75
401.958	323.75
402.182	348.75
402.406	330.75
402.63	323.75
402.854	346.75
403.078	343.75
403.302	376.75
403.526	395.75
403.75	381.75
403.974	373.75
404.198	368.75
404.422	404.75
404.645	386.75
404.869	372.75
405.093	362.75
405.317	353.75
405.541	371.75
405.765	353.75
405.988	367.75
406.212	353.75
406.436	335.75
406.66	374.75
406.883	362.75
407.107	389.75
407.331	411.75
407.555	422.75
407.778	397.75
408.002	410.75
408.226	385.75
408.449	385.75
408.673	387.75
408.896	386.75
409.12	361.75
409.344	359.75
409.567	359.75
409.791	374.75
410.014	365.75
410.238	340.75
410.461	349.75
410.685	367.75
410.908	357.75
411.132	353.75
411.355	328.75
411.578	345.75
411.802	342.75
412.025	361.75
412.249	330.75
412.472	340.75
412.695	328.75
412.919	323.75
413.142	310.75
413.365	324.75
413.589	342.75
413.812	322.75
414.035	323.75
414.258	312.75
414.482	325.75
414.705	316.75
414.928	333.75
415.151	325.75
415.374	328.75
415.597	326.75
415.821	317.75
416.044	312.75
416.267	315.75
416.49	318.75
416.713	319.75
416.936	309.75
417.159	317.75
417.382	308.75
417.605	341.75
417.828	314.75
418.051	327.75
418.274	339.75
418.497	317.75
418.72	333.75
418.943	338.75
419.166	346.75
419.389	362.75
419.611	351.75
419.834	341.75
420.057	352.75
420.28	328.75
420.503	323.75
420.726	323.75
420.948	314.75
421.171	326.75
421.394	303.75
421.617	304.75
421.839	329.75
422.062	332.75
422.285	329.75
422.507	345.75
422.73	342.75
422.953	319.75
423.175	335.75
423.398	346.75
423.621	321.75
423.843	332.75
424.066	345.75
424.288	342.75
424.511	321.75
424.733	329.75
424.956	318.75
425.178	319.75
425.401	328.75
425.623	321.75
425.846	291.75
426.068	306.75
426.291	319.75
426.513	294.75
426.735	289.75
426.958	306.75
427.18	311.75
427.402	306.75
427.625	297.75
427.847	278.75
428.069	284.75
428.292	305.75
428.514	302.75
428.736	289.75
428.958	291.75
429.181	286.75
429.403	283.75
429.625	271.75
429.847	278.75
430.069	282.75
430.292	289.75
430.514	309.75
430.736	290.75
430.958	283.75
431.18	275.75
431.402	294.75
431.624	283.75
431.846	292.75
432.068	287.75
432.29	291.75
432.512	286.75
432.734	279.75
432.956	300.75
433.178	295.75
433.4	298.75
433.622	290.75
433.844	288.75
434.066	305.75
434.287	294.75
434.509	298.75
434.731	313.75
434.953	324.75
435.175	341.75
435.397	323.75
435.618	316.75
435.84	302.75
436.062	306.75
436.284	273.75
436.505	289.75
436.727	297.75
436.949	288.75
437.17	288.75
437.392	278.75
437.614	268.75
437.835	301.75
438.057	264.75
438.278	269.75
438.5	257.75
438.721	261.75
438.943	257.75
439.165	274.75
439.386	279.75
439.608	286.75
439.829	277.75
440.05	294.75
440.272	287.75
440.493	286.75
440.715	305.75
440.936	285.75
441.158	297.75
441.379	311.75
441.6	327.75
441.822	326.75
442.043	341.75
442.264	327.75
442.486	322.75
442.707	328.75
442.928	305.75
443.149	315.75
443.371	323.75
443.592	312.75
443.813	319.75
444.034	335.75
444.255	333.75
444.476	354.75
444.698	357.75
444.919	376.75
445.14	497.75
445.361	401.75
445.582	330.75
445.803	312.75
446.024	319.75
446.245	317.75
446.466	282.75
446.687	291.75
446.908	294.75
447.129	270.75
447.35	264.75
447.571	286.75
447.792	294.75
448.013	282.75
448.234	268.75
448.455	289.75
448.675	266.75
448.896	278.75
449.117	256.75
449.338	275.75
449.559	277.75
449.779	285.75
450	261.75
450.221	255.75
450.442	261.75
450.662	273.75
450.883	264.75
451.104	283.75
451.324	252.75
451.545	273.75
451.766	278.75
451.986	273.75
452.207	261.75
452.428	286.75
452.648	284.75
452.869	284.75
453.089	278.75
453.31	290.75
453.53	265.75
453.751	256.75
453.971	266.75
454.192	275.75
454.412	273.75
454.633	257.75
454.853	254.75
455.073	262.75
455.294	260.75
455.514	242.75
455.734	262.75
455.955	248.75
456.175	254.75
456.395	251.75
456.616	265.75
456.836	263.75
457.056	257.75
457.276	263.75
457.497	258.75
457.717	272.75
457.937	256.75
458.157	275.75
458.377	266.75
458.598	266.75
458.818	263.75
459.038	278.75
459.258	291.75
459.478	283.75
459.698	293.75
459.918	325.75
460.138	311.75
460.358	332.75
460.578	325.75
460.798	342.75
461.018	342.75
461.238	341.75
461.458	342.75
461.678	342.75
461.898	358.75
462.118	338.75
462.338	351.75
462.558	341.75
462.777	364.75
462.997	406.75
463.217	437.75
463.437	472.75
463.657	409.75
463.876	362.75
464.096	389.75
464.316	368.75
464.536	382.75
464.755	388.75
464.975	356.75
465.195	349.75
465.414	337.75
465.634	298.75
465.854	328.75
466.073	307.75
466.293	293.75
466.512	275.75
466.732	270.75
466.951	277.75
467.171	265.75
467.391	287.75
467.61	301.75
467.829	286.75
468.049	275.75
468.268	279.75
468.488	283.75
468.707	255.75
468.927	281.75
469.146	259.75
469.365	277.75
469.585	287.75
469.804	285.75
470.023	304.75
470.243	298.75
470.462	287.75
470.681	295.75
470.901	302.75
471.12	288.75
471.339	289.75
471.558	279.75
471.777	301.75
471.997	290.75
472.216	265.75
472.435	265.75
472.654	269.75
472.873	267.75
473.092	273.75
473.311	269.75
473.53	261.75
473.749	271.75
473.968	263.75
474.187	274.75
474.406	274.75
474.625	268.75
474.844	283.75
475.063	276.75
475.282	282.75
475.501	269.75
475.72	274.75
475.939	277.75
476.158	279.75
476.377	294.75
476.596	288.75
476.814	282.75
477.033	283.75
477.252	285.75
477.471	307.75
477.69	281.75
477.908	294.75
478.127	314.75
478.346	319.75
478.564	333.75
478.783	331.75
479.002	339.75
479.22	333.75
479.439	310.75
479.658	335.75
479.876	327.75
480.095	317.75
480.313	343.75
480.532	359.75
480.751	376.75
480.969	348.75
481.188	326.75
481.406	318.75
481.624	314.75
481.843	311.75
482.061	303.75
482.28	301.75
482.498	311.75
482.717	298.75
482.935	305.75
483.153	323.75
483.372	294.75
483.59	314.75
483.808	318.75
484.027	331.75
484.245	331.75
484.463	291.75
484.681	331.75
484.9	312.75
485.118	328.75
485.336	321.75
485.554	331.75
485.772	342.75
485.99	327.75
486.209	316.75
486.427	336.75
486.645	325.75
486.863	337.75
487.081	336.75
487.299	334.75
487.517	334.75
487.735	337.75
487.953	315.75
488.171	333.75
488.389	320.75
488.607	314.75
488.825	332.75
489.043	310.75
489.261	324.75
489.479	306.75
489.696	333.75
489.914	347.75
490.132	333.75
490.35	340.75
490.568	318.75
490.786	322.75
491.003	346.75
491.221	336.75
491.439	317.75
491.657	330.75
491.874	330.75
492.092	327.75
492.31	342.75
492.527	327.75
492.745	328.75
492.963	346.75
493.18	341.75
493.398	335.75
493.615	350.75
493.833	347.75
494.05	346.75
494.268	359.75
494.485	341.75
494.703	335.75
494.92	352.75
495.138	336.75
495.355	329.75
495.573	342.75
495.79	344.75
496.008	342.75
496.225	345.75
496.442	349.75
496.66	372.75
496.877	346.75
497.094	351.75
497.312	373.75
497.529	375.75
497.746	368.75
497.963	402.75
498.181	404.75
498.398	417.75
498.615	429.75
498.832	453.75
499.049	486.75
499.267	517.75
499.484	560.75
499.701	628.75
499.918	706.75
500.135	807.75
500.352	915.75
500.569	991.75
500.786	977.75
501.003	900.75
501.22	798.75
501.437	681.75
501.654	604.75
501.871	553.75
502.088	518.75
502.305	496.75
502.522	458.75
502.739	449.75
502.956	433.75
