Data from 0.5MCu(NO3)2.Standard.Lamp.E10.CV._HRD10591_16-04-18-753.txt Node
Date: Mon Jul 22 16:04:18 EDT 2019
User: cochatt
Spectrometer: HR+D1059
Trigger mode: 1
Integration Time (sec): 1.000000E-1
Scans to average: 1
Electric dark correction enabled: true
Nonlinearity correction enabled: false
Boxcar width: 0
XAxis mode: Wavelengths
Number of Pixels in Spectrum: 2048
>>>>>Begin Spectral Data<<<<<
223.165	-16.5
223.4	-16.5
223.635	-16.5
223.869	1.5
224.104	-35.5
224.338	-22.5
224.573	-20.5
224.808	-15.5
225.042	-8.5
225.277	3.5
225.511	3.5
225.746	6.5
225.98	1.5
226.215	5.5
226.449	19.5
226.683	18.5
226.918	23.5
227.152	35.5
227.387	29.5
227.621	44.5
227.856	36.5
228.09	43.5
228.324	49.5
228.559	59.5
228.793	66.5
229.027	67.5
229.262	90.5
229.496	64.5
229.73	71.5
229.964	81.5
230.199	80.5
230.433	80.5
230.667	89.5
230.901	98.5
231.136	96.5
231.37	86.5
231.604	89.5
231.838	91.5
232.072	95.5
232.306	99.5
232.541	91.5
232.775	82.5
233.009	89.5
233.243	93.5
233.477	95.5
233.711	84.5
233.945	87.5
234.179	81.5
234.413	96.5
234.647	92.5
234.881	98.5
235.115	80.5
235.349	87.5
235.583	99.5
235.817	84.5
236.051	96.5
236.285	88.5
236.519	93.5
236.753	72.5
236.987	83.5
237.221	96.5
237.455	99.5
237.689	90.5
237.922	87.5
238.156	85.5
238.39	98.5
238.624	95.5
238.858	83.5
239.091	104.5
239.325	90.5
239.559	96.5
239.793	108.5
240.027	80.5
240.26	97.5
240.494	91.5
240.728	87.5
240.961	84.5
241.195	95.5
241.429	104.5
241.662	86.5
241.896	93.5
242.13	102.5
242.363	102.5
242.597	97.5
242.83	101.5
243.064	122.5
243.298	93.5
243.531	82.5
243.765	95.5
243.998	99.5
244.232	114.5
244.465	98.5
244.699	103.5
244.932	123.5
245.166	103.5
245.399	90.5
245.633	79.5
245.866	93.5
246.099	102.5
246.333	101.5
246.566	115.5
246.8	89.5
247.033	97.5
247.266	98.5
247.5	108.5
247.733	104.5
247.966	102.5
248.2	110.5
248.433	106.5
248.666	104.5
248.899	108.5
249.133	105.5
249.366	101.5
249.599	111.5
249.832	117.5
250.066	129.5
250.299	113.5
250.532	108.5
250.765	100.5
250.998	114.5
251.231	115.5
251.465	137.5
251.698	116.5
251.931	105.5
252.164	122.5
252.397	116.5
252.63	119.5
252.863	115.5
253.096	117.5
253.329	109.5
253.562	122.5
253.795	118.5
254.028	124.5
254.261	116.5
254.494	107.5
254.727	120.5
254.96	114.5
255.193	105.5
255.426	106.5
255.659	115.5
255.892	127.5
256.124	119.5
256.357	121.5
256.59	121.5
256.823	101.5
257.056	118.5
257.289	117.5
257.521	120.5
257.754	115.5
257.987	135.5
258.22	127.5
258.452	124.5
258.685	131.5
258.918	119.5
259.151	123.5
259.383	132.5
259.616	125.5
259.849	112.5
260.081	123.5
260.314	120.5
260.547	124.5
260.779	129.5
261.012	129.5
261.244	130.5
261.477	122.5
261.71	121.5
261.942	123.5
262.175	123.5
262.407	135.5
262.64	123.5
262.872	140.5
263.105	123.5
263.337	148.5
263.57	126.5
263.802	125.5
264.035	127.5
264.267	131.5
264.499	140.5
264.732	133.5
264.964	130.5
265.197	131.5
265.429	140.5
265.661	135.5
265.894	122.5
266.126	143.5
266.358	131.5
266.591	129.5
266.823	141.5
267.055	142.5
267.287	130.5
267.52	138.5
267.752	144.5
267.984	149.5
268.216	128.5
268.448	149.5
268.681	151.5
268.913	143.5
269.145	140.5
269.377	133.5
269.609	141.5
269.841	139.5
270.073	141.5
270.306	154.5
270.538	135.5
270.77	141.5
271.002	154.5
271.234	149.5
271.466	146.5
271.698	148.5
271.93	148.5
272.162	138.5
272.394	162.5
272.626	148.5
272.858	155.5
273.09	154.5
273.322	163.5
273.553	156.5
273.785	143.5
274.017	144.5
274.249	147.5
274.481	151.5
274.713	134.5
274.945	140.5
275.176	145.5
275.408	149.5
275.64	154.5
275.872	142.5
276.104	136.5
276.335	154.5
276.567	145.5
276.799	157.5
277.031	139.5
277.262	147.5
277.494	160.5
277.726	160.5
277.957	148.5
278.189	151.5
278.421	165.5
278.652	152.5
278.884	152.5
279.115	150.5
279.347	157.5
279.579	165.5
279.81	165.5
280.042	149.5
280.273	162.5
280.505	161.5
280.736	159.5
280.968	172.5
281.199	170.5
281.431	173.5
281.662	159.5
281.894	172.5
282.125	166.5
282.356	184.5
282.588	171.5
282.819	179.5
283.051	167.5
283.282	170.5
283.513	182.5
283.745	162.5
283.976	169.5
284.207	177.5
284.439	171.5
284.67	170.5
284.901	194.5
285.132	166.5
285.364	169.5
285.595	167.5
285.826	166.5
286.057	164.5
286.288	169.5
286.52	181.5
286.751	181.5
286.982	173.5
287.213	172.5
287.444	184.5
287.675	175.5
287.906	182.5
288.138	174.5
288.369	160.5
288.6	182.5
288.831	170.5
289.062	185.5
289.293	185.5
289.524	185.5
289.755	159.5
289.986	171.5
290.217	179.5
290.448	180.5
290.679	178.5
290.91	204.5
291.141	194.5
291.371	183.5
291.602	191.5
291.833	183.5
292.064	193.5
292.295	185.5
292.526	192.5
292.757	182.5
292.987	172.5
293.218	188.5
293.449	183.5
293.68	164.5
293.91	177.5
294.141	187.5
294.372	174.5
294.603	179.5
294.833	191.5
295.064	171.5
295.295	191.5
295.525	191.5
295.756	187.5
295.987	204.5
296.217	194.5
296.448	190.5
296.679	211.5
296.909	195.5
297.14	187.5
297.37	190.5
297.601	198.5
297.831	204.5
298.062	204.5
298.292	205.5
298.523	220.5
298.753	218.5
298.984	192.5
299.214	201.5
299.445	205.5
299.675	212.5
299.905	195.5
300.136	206.5
300.366	193.5
300.597	208.5
300.827	200.5
301.057	198.5
301.288	224.5
301.518	213.5
301.748	202.5
301.979	199.5
302.209	213.5
302.439	200.5
302.669	203.5
302.9	196.5
303.13	201.5
303.36	201.5
303.59	196.5
303.82	209.5
304.051	204.5
304.281	196.5
304.511	214.5
304.741	213.5
304.971	199.5
305.201	208.5
305.431	193.5
305.661	198.5
305.891	204.5
306.121	204.5
306.352	202.5
306.582	201.5
306.812	187.5
307.042	194.5
307.272	202.5
307.502	202.5
307.731	208.5
307.961	203.5
308.191	197.5
308.421	188.5
308.651	209.5
308.881	196.5
309.111	197.5
309.341	189.5
309.571	197.5
309.8	188.5
310.03	216.5
310.26	205.5
310.49	209.5
310.72	201.5
310.949	200.5
311.179	200.5
311.409	207.5
311.639	203.5
311.868	194.5
312.098	202.5
312.328	213.5
312.557	212.5
312.787	217.5
313.017	210.5
313.246	205.5
313.476	201.5
313.706	198.5
313.935	212.5
314.165	211.5
314.394	216.5
314.624	213.5
314.853	206.5
315.083	212.5
315.312	197.5
315.542	205.5
315.771	209.5
316.001	195.5
316.23	203.5
316.46	208.5
316.689	207.5
316.919	205.5
317.148	200.5
317.377	215.5
317.607	187.5
317.836	204.5
318.065	199.5
318.295	201.5
318.524	225.5
318.753	202.5
318.983	211.5
319.212	191.5
319.441	214.5
319.67	201.5
319.9	211.5
320.129	203.5
320.358	190.5
320.587	212.5
320.816	199.5
321.046	212.5
321.275	209.5
321.504	212.5
321.733	217.5
321.962	212.5
322.191	206.5
322.42	196.5
322.649	211.5
322.878	213.5
323.108	213.5
323.337	212.5
323.566	204.5
323.795	213.5
324.024	213.5
324.253	217.5
324.482	214.5
324.71	204.5
324.939	203.5
325.168	205.5
325.397	218.5
325.626	207.5
325.855	224.5
326.084	231.5
326.313	218.5
326.542	233.5
326.77	220.5
326.999	223.5
327.228	236.5
327.457	229.5
327.686	225.5
327.914	219.5
328.143	215.5
328.372	221.5
328.6	232.5
328.829	246.5
329.058	222.5
329.287	220.5
329.515	238.5
329.744	218.5
329.972	239.5
330.201	227.5
330.43	233.5
330.658	234.5
330.887	219.5
331.115	240.5
331.344	235.5
331.572	235.5
331.801	229.5
332.03	230.5
332.258	242.5
332.486	245.5
332.715	244.5
332.943	263.5
333.172	267.5
333.4	280.5
333.629	281.5
333.857	292.5
334.085	288.5
334.314	289.5
334.542	285.5
334.771	255.5
334.999	251.5
335.227	247.5
335.455	253.5
335.684	269.5
335.912	271.5
336.14	251.5
336.369	247.5
336.597	266.5
336.825	258.5
337.053	267.5
337.281	268.5
337.51	259.5
337.738	249.5
337.966	237.5
338.194	239.5
338.422	239.5
338.65	229.5
338.878	232.5
339.106	244.5
339.334	230.5
339.562	239.5
339.79	223.5
340.018	227.5
340.246	230.5
340.474	227.5
340.702	210.5
340.93	239.5
341.158	221.5
341.386	226.5
341.614	215.5
341.842	235.5
342.07	225.5
342.298	211.5
342.526	224.5
342.754	220.5
342.981	236.5
343.209	227.5
343.437	226.5
343.665	249.5
343.893	255.5
344.12	267.5
344.348	269.5
344.576	243.5
344.804	241.5
345.031	246.5
345.259	240.5
345.487	243.5
345.714	231.5
345.942	229.5
346.17	225.5
346.397	223.5
346.625	216.5
346.853	221.5
347.08	222.5
347.308	241.5
347.535	217.5
347.763	235.5
347.99	225.5
348.218	235.5
348.445	228.5
348.673	247.5
348.9	231.5
349.128	220.5
349.355	209.5
349.583	232.5
349.81	216.5
350.037	221.5
350.265	224.5
350.492	213.5
350.72	218.5
350.947	217.5
351.174	226.5
351.402	220.5
351.629	224.5
351.856	208.5
352.083	227.5
352.311	212.5
352.538	208.5
352.765	222.5
352.992	213.5
353.22	223.5
353.447	220.5
353.674	221.5
353.901	211.5
354.128	204.5
354.355	207.5
354.583	211.5
354.81	212.5
355.037	228.5
355.264	216.5
355.491	218.5
355.718	216.5
355.945	218.5
356.172	214.5
356.399	217.5
356.626	212.5
356.853	224.5
357.08	226.5
357.307	196.5
357.534	208.5
357.761	219.5
357.988	226.5
358.215	207.5
358.441	212.5
358.668	230.5
358.895	222.5
359.122	219.5
359.349	183.5
359.576	206.5
359.802	202.5
360.029	215.5
360.256	205.5
360.483	229.5
360.709	208.5
360.936	235.5
361.163	216.5
361.39	224.5
361.616	226.5
361.843	220.5
362.07	229.5
362.296	207.5
362.523	212.5
362.749	211.5
362.976	201.5
363.203	223.5
363.429	212.5
363.656	229.5
363.882	199.5
364.109	224.5
364.335	205.5
364.562	231.5
364.788	203.5
365.015	208.5
365.241	203.5
365.468	221.5
365.694	213.5
365.92	218.5
366.147	196.5
366.373	201.5
366.599	216.5
366.826	217.5
367.052	202.5
367.278	207.5
367.505	209.5
367.731	210.5
367.957	213.5
368.184	216.5
368.41	223.5
368.636	217.5
368.862	213.5
369.089	225.5
369.315	222.5
369.541	214.5
369.767	205.5
369.993	226.5
370.219	231.5
370.445	219.5
370.672	229.5
370.898	220.5
371.124	218.5
371.35	242.5
371.576	229.5
371.802	224.5
372.028	235.5
372.254	217.5
372.48	204.5
372.706	233.5
372.932	241.5
373.158	227.5
373.384	219.5
373.61	218.5
373.835	229.5
374.061	219.5
374.287	228.5
374.513	237.5
374.739	239.5
374.965	261.5
375.191	250.5
375.416	239.5
375.642	241.5
375.868	235.5
376.094	227.5
376.319	226.5
376.545	234.5
376.771	222.5
376.997	213.5
377.222	247.5
377.448	232.5
377.674	218.5
377.899	238.5
378.125	219.5
378.35	204.5
378.576	242.5
378.802	227.5
379.027	224.5
379.253	236.5
379.478	208.5
379.704	225.5
379.929	234.5
380.155	218.5
380.38	224.5
380.606	219.5
380.831	243.5
381.057	216.5
381.282	237.5
381.507	213.5
381.733	226.5
381.958	227.5
382.184	229.5
382.409	226.5
382.634	223.5
382.86	230.5
383.085	243.5
383.31	254.5
383.535	248.5
383.761	232.5
383.986	244.5
384.211	241.5
384.436	253.5
384.662	259.5
384.887	277.5
385.112	263.5
385.337	269.5
385.562	274.5
385.787	275.5
386.013	261.5
386.238	264.5
386.463	269.5
386.688	248.5
386.913	253.5
387.138	247.5
387.363	244.5
387.588	246.5
387.813	250.5
388.038	225.5
388.263	257.5
388.488	265.5
388.713	265.5
388.938	256.5
389.163	241.5
389.387	231.5
389.612	249.5
389.837	242.5
390.062	249.5
390.287	246.5
390.512	236.5
390.736	258.5
390.961	252.5
391.186	263.5
391.411	265.5
391.636	276.5
391.86	273.5
392.085	277.5
392.31	269.5
392.534	283.5
392.759	269.5
392.984	255.5
393.208	279.5
393.433	258.5
393.658	248.5
393.882	267.5
394.107	269.5
394.331	276.5
394.556	271.5
394.78	273.5
395.005	274.5
395.229	283.5
395.454	258.5
395.678	282.5
395.903	276.5
396.127	275.5
396.352	288.5
396.576	268.5
396.801	266.5
397.025	257.5
397.249	270.5
397.474	255.5
397.698	279.5
397.922	284.5
398.147	253.5
398.371	278.5
398.595	293.5
398.82	304.5
399.044	322.5
399.268	352.5
399.492	383.5
399.717	449.5
399.941	419.5
400.165	375.5
400.389	340.5
400.613	319.5
400.837	319.5
401.062	292.5
401.286	303.5
401.51	300.5
401.734	312.5
401.958	293.5
402.182	301.5
402.406	312.5
402.63	313.5
402.854	319.5
403.078	320.5
403.302	343.5
403.526	324.5
403.75	327.5
403.974	325.5
404.198	357.5
404.422	349.5
404.645	355.5
404.869	350.5
405.093	335.5
405.317	321.5
405.541	330.5
405.765	332.5
405.988	320.5
406.212	323.5
406.436	324.5
406.66	339.5
406.883	332.5
407.107	357.5
407.331	392.5
407.555	385.5
407.778	380.5
408.002	363.5
408.226	359.5
408.449	347.5
408.673	350.5
408.896	330.5
409.12	327.5
409.344	346.5
409.567	343.5
409.791	340.5
410.014	331.5
410.238	330.5
410.461	320.5
410.685	336.5
410.908	329.5
411.132	310.5
411.355	306.5
411.578	303.5
411.802	309.5
412.025	316.5
412.249	316.5
412.472	305.5
412.695	302.5
412.919	317.5
413.142	283.5
413.365	294.5
413.589	284.5
413.812	267.5
414.035	285.5
414.258	315.5
414.482	287.5
414.705	297.5
414.928	296.5
415.151	287.5
415.374	311.5
415.597	288.5
415.821	284.5
416.044	277.5
416.267	298.5
416.49	291.5
416.713	292.5
416.936	293.5
417.159	290.5
417.382	278.5
417.605	317.5
417.828	295.5
418.051	290.5
418.274	299.5
418.497	290.5
418.72	307.5
418.943	307.5
419.166	325.5
419.389	327.5
419.611	311.5
419.834	319.5
420.057	304.5
420.28	317.5
420.503	296.5
420.726	285.5
420.948	269.5
421.171	285.5
421.394	287.5
421.617	296.5
421.839	301.5
422.062	298.5
422.285	296.5
422.507	307.5
422.73	309.5
422.953	304.5
423.175	291.5
423.398	307.5
423.621	305.5
423.843	345.5
424.066	324.5
424.288	301.5
424.511	316.5
424.733	318.5
424.956	321.5
425.178	300.5
425.401	289.5
425.623	298.5
425.846	287.5
426.068	309.5
426.291	273.5
426.513	284.5
426.735	277.5
426.958	296.5
427.18	279.5
427.402	271.5
427.625	265.5
427.847	266.5
428.069	278.5
428.292	271.5
428.514	279.5
428.736	265.5
428.958	261.5
429.181	279.5
429.403	282.5
429.625	261.5
429.847	275.5
430.069	260.5
430.292	263.5
430.514	274.5
430.736	250.5
430.958	258.5
431.18	264.5
431.402	264.5
431.624	263.5
431.846	268.5
432.068	289.5
432.29	284.5
432.512	297.5
432.734	271.5
432.956	266.5
433.178	285.5
433.4	257.5
433.622	256.5
433.844	267.5
434.066	284.5
434.287	263.5
434.509	261.5
434.731	287.5
434.953	316.5
435.175	293.5
435.397	298.5
435.618	295.5
435.84	271.5
436.062	283.5
436.284	275.5
436.505	261.5
436.727	252.5
436.949	269.5
437.17	245.5
437.392	251.5
437.614	256.5
437.835	257.5
438.057	263.5
438.278	252.5
438.5	255.5
438.721	275.5
438.943	263.5
439.165	260.5
439.386	259.5
439.608	279.5
439.829	265.5
440.05	267.5
440.272	260.5
440.493	267.5
440.715	275.5
440.936	276.5
441.158	259.5
441.379	299.5
441.6	284.5
441.822	307.5
442.043	295.5
442.264	282.5
442.486	279.5
442.707	296.5
442.928	312.5
443.149	305.5
443.371	300.5
443.592	281.5
443.813	301.5
444.034	315.5
444.255	296.5
444.476	327.5
444.698	336.5
444.919	332.5
445.14	434.5
445.361	385.5
445.582	312.5
445.803	271.5
446.024	279.5
446.245	280.5
446.466	270.5
446.687	275.5
446.908	262.5
447.129	259.5
447.35	252.5
447.571	256.5
447.792	242.5
448.013	259.5
448.234	266.5
448.455	249.5
448.675	239.5
448.896	244.5
449.117	239.5
449.338	242.5
449.559	242.5
449.779	240.5
450	254.5
450.221	243.5
450.442	242.5
450.662	246.5
450.883	249.5
451.104	257.5
451.324	260.5
451.545	264.5
451.766	268.5
451.986	257.5
452.207	247.5
452.428	253.5
452.648	240.5
452.869	242.5
453.089	259.5
453.31	242.5
453.53	234.5
453.751	247.5
453.971	242.5
454.192	241.5
454.412	248.5
454.633	235.5
454.853	235.5
455.073	222.5
455.294	229.5
455.514	240.5
455.734	235.5
455.955	233.5
456.175	247.5
456.395	237.5
456.616	233.5
456.836	218.5
457.056	241.5
457.276	243.5
457.497	221.5
457.717	243.5
457.937	235.5
458.157	242.5
458.377	234.5
458.598	242.5
458.818	240.5
459.038	245.5
459.258	259.5
459.478	292.5
459.698	256.5
459.918	286.5
460.138	291.5
460.358	308.5
460.578	313.5
460.798	303.5
461.018	312.5
461.238	315.5
461.458	306.5
461.678	322.5
461.898	307.5
462.118	319.5
462.338	332.5
462.558	339.5
462.777	336.5
462.997	347.5
463.217	390.5
463.437	404.5
463.657	387.5
463.876	339.5
464.096	354.5
464.316	360.5
464.536	352.5
464.755	357.5
464.975	327.5
465.195	316.5
465.414	314.5
465.634	288.5
465.854	285.5
466.073	283.5
466.293	258.5
466.512	267.5
466.732	287.5
466.951	278.5
467.171	255.5
467.391	265.5
467.61	256.5
467.829	263.5
468.049	252.5
468.268	251.5
468.488	241.5
468.707	257.5
468.927	259.5
469.146	252.5
469.365	263.5
469.585	251.5
469.804	282.5
470.023	267.5
470.243	262.5
470.462	269.5
470.681	255.5
470.901	284.5
471.12	259.5
471.339	267.5
471.558	260.5
471.777	274.5
471.997	262.5
472.216	251.5
472.435	258.5
472.654	251.5
472.873	245.5
473.092	262.5
473.311	261.5
473.53	251.5
473.749	248.5
473.968	255.5
474.187	244.5
474.406	239.5
474.625	257.5
474.844	252.5
475.063	244.5
475.282	255.5
475.501	257.5
475.72	245.5
475.939	256.5
476.158	256.5
476.377	248.5
476.596	272.5
476.814	276.5
477.033	271.5
477.252	281.5
477.471	268.5
477.69	274.5
477.908	290.5
478.127	280.5
478.346	295.5
478.564	296.5
478.783	285.5
479.002	308.5
479.22	288.5
479.439	303.5
479.658	290.5
479.876	292.5
480.095	297.5
480.313	312.5
480.532	322.5
480.751	325.5
480.969	316.5
481.188	315.5
481.406	308.5
481.624	293.5
481.843	295.5
482.061	279.5
482.28	274.5
482.498	284.5
482.717	267.5
482.935	283.5
483.153	292.5
483.372	300.5
483.59	295.5
483.808	284.5
484.027	286.5
484.245	281.5
484.463	279.5
484.681	296.5
484.9	297.5
485.118	307.5
485.336	309.5
485.554	309.5
485.772	300.5
485.99	295.5
486.209	319.5
486.427	315.5
486.645	308.5
486.863	304.5
487.081	306.5
487.299	313.5
487.517	288.5
487.735	289.5
487.953	304.5
488.171	314.5
488.389	326.5
488.607	302.5
488.825	309.5
489.043	313.5
489.261	299.5
489.479	289.5
489.696	307.5
489.914	301.5
490.132	311.5
490.35	309.5
490.568	318.5
490.786	313.5
491.003	303.5
491.221	308.5
491.439	306.5
491.657	294.5
491.874	311.5
492.092	300.5
492.31	306.5
492.527	307.5
492.745	303.5
492.963	320.5
493.18	321.5
493.398	300.5
493.615	305.5
493.833	313.5
494.05	304.5
494.268	316.5
494.485	333.5
494.703	324.5
494.92	333.5
495.138	310.5
495.355	300.5
495.573	305.5
495.79	317.5
496.008	321.5
496.225	309.5
496.442	323.5
496.66	329.5
496.877	312.5
497.094	329.5
497.312	342.5
497.529	313.5
497.746	340.5
497.963	363.5
498.181	371.5
498.398	373.5
498.615	408.5
498.832	398.5
499.049	447.5
499.267	461.5
499.484	488.5
499.701	567.5
499.918	643.5
500.135	717.5
500.352	842.5
500.569	881.5
500.786	851.5
501.003	799.5
501.22	725.5
501.437	608.5
501.654	536.5
501.871	475.5
502.088	471.5
502.305	437.5
502.522	422.5
502.739	424.5
502.956	378.5
503.172	389.5
503.389	358.5
503.606	341.5
503.823	327.5
504.04	347.5
504.256	349.5
504.473	361.5
504.69	391.5
504.907	368.5
505.123	330.5
505.34	324.5
505.557	308.5
505.773	300.5
505.99	323.5
506.207	315.5
506.423	291.5
506.64	293.5
506.856	291.5
507.073	268.5
507.289	296.5
507.506	291.5
507.722	293.5
507.939	264.5
508.155	259.5
508.372	277.5
508.588	279.5
508.805	269.5
509.021	269.5
509.238	272.5
509.454	278.5
509.67	265.5
509.887	292.5
510.103	276.5
510.319	296.5
510.536	268.5
510.752	267.5
510.968	283.5
511.184	277.5
511.401	275.5
511.617	258.5
511.833	262.5
512.049	261.5
512.265	262.5
512.481	271.5
512.698	279.5
512.914	273.5
513.13	272.5
513.346	274.5
513.562	280.5
513.778	279.5
513.994	281.5
514.21	280.5
514.426	278.5
514.642	263.5
514.858	282.5
515.074	268.5
515.29	275.5
515.506	287.5
515.721	287.5
515.937	297.5
516.153	291.5
516.369	306.5
516.585	303.5
516.801	323.5
517.016	316.5
517.232	333.5
517.448	337.5
517.664	365.5
517.879	360.5
518.095	364.5
518.311	352.5
518.527	343.5
518.742	324.5
518.958	311.5
519.173	309.5
519.389	304.5
519.605	308.5
519.82	291.5
520.036	289.5
520.251	283.5
520.467	276.5
520.682	282.5
520.898	263.5
521.113	267.5
