Data from 0.5MCu(NO3)2.Standard.Lamp.E10.CV._HRD10591_16-04-59-753.txt Node
Date: Mon Jul 22 16:04:59 EDT 2019
User: cochatt
Spectrometer: HR+D1059
Trigger mode: 1
Integration Time (sec): 1.000000E-1
Scans to average: 1
Electric dark correction enabled: true
Nonlinearity correction enabled: false
Boxcar width: 0
XAxis mode: Wavelengths
Number of Pixels in Spectrum: 2048
>>>>>Begin Spectral Data<<<<<
223.165	-5
223.4	-5
223.635	-5
223.869	-17
224.104	-9
224.338	-12
224.573	-19
224.808	-21
225.042	-13
225.277	-21
225.511	-1
225.746	2
225.98	7
226.215	14
226.449	19
226.683	5
226.918	35
227.152	36
227.387	27
227.621	36
227.856	32
228.09	59
228.324	52
228.559	41
228.793	69
229.027	67
229.262	74
229.496	72
229.73	84
229.964	81
230.199	77
230.433	80
230.667	95
230.901	86
231.136	89
231.37	88
231.604	96
231.838	93
232.072	90
232.306	81
232.541	87
232.775	92
233.009	92
233.243	83
233.477	94
233.711	103
233.945	80
234.179	83
234.413	87
234.647	106
234.881	81
235.115	80
235.349	104
235.583	91
235.817	100
236.051	88
236.285	84
236.519	103
236.753	91
236.987	94
237.221	94
237.455	101
237.689	95
237.922	87
238.156	88
238.39	95
238.624	83
238.858	90
239.091	84
239.325	98
239.559	93
239.793	97
240.027	90
240.26	107
240.494	103
240.728	90
240.961	100
241.195	99
241.429	97
241.662	106
241.896	94
242.13	104
242.363	112
242.597	89
242.83	107
243.064	111
243.298	104
243.531	105
243.765	98
243.998	89
244.232	94
244.465	114
244.699	115
244.932	99
245.166	115
245.399	97
245.633	95
245.866	106
246.099	107
246.333	103
246.566	117
246.8	103
247.033	113
247.266	95
247.5	96
247.733	109
247.966	100
248.2	107
248.433	119
248.666	100
248.899	117
249.133	121
249.366	125
249.599	106
249.832	105
250.066	120
250.299	111
250.532	109
250.765	111
250.998	110
251.231	107
251.465	111
251.698	113
251.931	116
252.164	114
252.397	120
252.63	112
252.863	122
253.096	106
253.329	126
253.562	114
253.795	111
254.028	116
254.261	116
254.494	107
254.727	115
254.96	121
255.193	121
255.426	130
255.659	127
255.892	130
256.124	118
256.357	118
256.59	131
256.823	128
257.056	114
257.289	123
257.521	121
257.754	113
257.987	136
258.22	127
258.452	130
258.685	124
258.918	110
259.151	117
259.383	130
259.616	137
259.849	136
260.081	130
260.314	121
260.547	119
260.779	122
261.012	133
261.244	126
261.477	138
261.71	123
261.942	132
262.175	137
262.407	134
262.64	126
262.872	121
263.105	147
263.337	124
263.57	142
263.802	123
264.035	131
264.267	148
264.499	133
264.732	147
264.964	140
265.197	138
265.429	146
265.661	141
265.894	138
266.126	140
266.358	146
266.591	134
266.823	134
267.055	129
267.287	140
267.52	121
267.752	143
267.984	143
268.216	131
268.448	133
268.681	144
268.913	143
269.145	144
269.377	147
269.609	142
269.841	137
270.073	152
270.306	143
270.538	151
270.77	144
271.002	150
271.234	137
271.466	153
271.698	150
271.93	150
272.162	141
272.394	147
272.626	133
272.858	139
273.09	147
273.322	135
273.553	148
273.785	164
274.017	154
274.249	148
274.481	136
274.713	155
274.945	138
275.176	154
275.408	137
275.64	158
275.872	151
276.104	142
276.335	138
276.567	152
276.799	159
277.031	155
277.262	177
277.494	159
277.726	156
277.957	187
278.189	165
278.421	157
278.652	161
278.884	156
279.115	152
279.347	155
279.579	135
279.81	154
280.042	156
280.273	160
280.505	167
280.736	166
280.968	152
281.199	171
281.431	171
281.662	160
281.894	168
282.125	175
282.356	175
282.588	168
282.819	165
283.051	161
283.282	161
283.513	173
283.745	176
283.976	161
284.207	159
284.439	172
284.67	164
284.901	168
285.132	168
285.364	172
285.595	172
285.826	178
286.057	179
286.288	175
286.52	176
286.751	184
286.982	181
287.213	179
287.444	178
287.675	177
287.906	183
288.138	179
288.369	199
288.6	192
288.831	179
289.062	171
289.293	170
289.524	170
289.755	183
289.986	177
290.217	182
290.448	183
290.679	170
290.91	193
291.141	187
291.371	190
291.602	205
291.833	181
292.064	188
292.295	172
292.526	193
292.757	189
292.987	188
293.218	179
293.449	196
293.68	179
293.91	183
294.141	182
294.372	183
294.603	191
294.833	203
295.064	193
295.295	201
295.525	199
295.756	197
295.987	189
296.217	204
296.448	211
296.679	199
296.909	189
297.14	193
297.37	177
297.601	202
297.831	205
298.062	192
298.292	201
298.523	197
298.753	214
298.984	218
299.214	204
299.445	185
299.675	203
299.905	207
300.136	188
300.366	212
300.597	208
300.827	200
301.057	201
301.288	217
301.518	204
301.748	215
301.979	197
302.209	211
302.439	196
302.669	192
302.9	229
303.13	198
303.36	208
303.59	200
303.82	212
304.051	202
304.281	189
304.511	219
304.741	218
304.971	204
305.201	206
305.431	200
305.661	211
305.891	203
306.121	214
306.352	203
306.582	194
306.812	215
307.042	189
307.272	198
307.502	202
307.731	182
307.961	199
308.191	202
308.421	204
308.651	218
308.881	194
309.111	209
309.341	193
309.571	219
309.8	199
310.03	208
310.26	185
310.49	209
310.72	211
310.949	219
311.179	185
311.409	210
311.639	193
311.868	201
312.098	217
312.328	208
312.557	195
312.787	202
313.017	210
313.246	216
313.476	198
313.706	205
313.935	203
314.165	236
314.394	217
314.624	203
314.853	229
315.083	216
315.312	208
315.542	200
315.771	215
316.001	187
316.23	227
316.46	217
316.689	209
316.919	204
317.148	230
317.377	227
317.607	203
317.836	210
318.065	213
318.295	219
318.524	223
318.753	218
318.983	213
319.212	195
319.441	198
319.67	213
319.9	189
320.129	206
320.358	214
320.587	213
320.816	208
321.046	204
321.275	218
321.504	206
321.733	215
321.962	214
322.191	212
322.42	216
322.649	221
322.878	200
323.108	222
323.337	215
323.566	225
323.795	225
324.024	222
324.253	214
324.482	197
324.71	201
324.939	226
325.168	229
325.397	229
325.626	224
325.855	216
326.084	229
326.313	243
326.542	240
326.77	246
326.999	226
327.228	223
327.457	217
327.686	241
327.914	217
328.143	234
328.372	220
328.6	221
328.829	220
329.058	223
329.287	210
329.515	236
329.744	227
329.972	220
330.201	229
330.43	219
330.658	225
330.887	223
331.115	227
331.344	216
331.572	264
331.801	240
332.03	244
332.258	259
332.486	235
332.715	241
332.943	267
333.172	261
333.4	277
333.629	296
333.857	283
334.085	291
334.314	283
334.542	277
334.771	260
334.999	277
335.227	276
335.455	272
335.684	268
335.912	248
336.14	259
336.369	250
336.597	263
336.825	261
337.053	249
337.281	248
337.51	255
337.738	255
337.966	229
338.194	229
338.422	233
338.65	227
338.878	248
339.106	243
339.334	242
339.562	225
339.79	235
340.018	234
340.246	211
340.474	243
340.702	228
340.93	232
341.158	233
341.386	233
341.614	229
341.842	243
342.07	222
342.298	224
342.526	226
342.754	226
342.981	227
343.209	231
343.437	257
343.665	275
343.893	291
344.12	288
344.348	267
344.576	254
344.804	241
345.031	250
345.259	242
345.487	217
345.714	232
345.942	236
346.17	227
346.397	234
346.625	226
346.853	228
347.08	224
347.308	238
347.535	237
347.763	215
347.99	231
348.218	237
348.445	233
348.673	232
348.9	231
349.128	218
349.355	232
349.583	232
349.81	225
350.037	207
350.265	227
350.492	221
350.72	229
350.947	205
351.174	212
351.402	224
351.629	219
351.856	219
352.083	199
352.311	203
352.538	205
352.765	196
352.992	220
353.22	221
353.447	222
353.674	222
353.901	228
354.128	233
354.355	209
354.583	244
354.81	223
355.037	231
355.264	226
355.491	229
355.718	223
355.945	221
356.172	223
356.399	203
356.626	239
356.853	214
357.08	228
357.307	222
357.534	217
357.761	215
357.988	224
358.215	227
358.441	228
358.668	210
358.895	214
359.122	209
359.349	215
359.576	231
359.802	227
360.029	224
360.256	218
360.483	209
360.709	235
360.936	232
361.163	232
361.39	221
361.616	222
361.843	203
362.07	217
362.296	220
362.523	226
362.749	225
362.976	223
363.203	222
363.429	211
363.656	212
363.882	205
364.109	219
364.335	225
364.562	213
364.788	210
365.015	194
365.241	229
365.468	224
365.694	207
365.92	220
366.147	217
366.373	199
366.599	200
366.826	216
367.052	208
367.278	214
367.505	222
367.731	207
367.957	212
368.184	231
368.41	224
368.636	225
368.862	224
369.089	231
369.315	235
369.541	216
369.767	232
369.993	226
370.219	234
370.445	222
370.672	215
370.898	219
371.124	244
371.35	221
371.576	234
371.802	215
372.028	233
372.254	221
372.48	223
372.706	235
372.932	235
373.158	227
373.384	225
373.61	219
373.835	248
374.061	239
374.287	228
374.513	243
374.739	242
374.965	272
375.191	244
375.416	257
375.642	230
375.868	247
376.094	232
376.319	229
376.545	255
376.771	242
376.997	236
377.222	248
377.448	231
377.674	223
377.899	223
378.125	240
378.35	236
378.576	210
378.802	221
379.027	224
379.253	224
379.478	247
379.704	242
379.929	229
380.155	219
380.38	221
380.606	235
380.831	212
381.057	220
381.282	225
381.507	228
381.733	227
381.958	231
382.184	235
382.409	253
382.634	241
382.86	223
383.085	257
383.31	259
383.535	260
383.761	265
383.986	249
384.211	258
384.436	244
384.662	269
384.887	277
385.112	243
385.337	276
385.562	258
385.787	268
386.013	266
386.238	259
386.463	265
386.688	265
386.913	270
387.138	284
387.363	265
387.588	266
387.813	270
388.038	258
388.263	265
388.488	261
388.713	245
388.938	264
389.163	253
389.387	251
389.612	254
389.837	253
390.062	255
390.287	269
390.512	256
390.736	268
390.961	256
391.186	269
391.411	268
391.636	285
391.86	291
392.085	298
392.31	285
392.534	289
392.759	256
392.984	273
393.208	266
393.433	269
393.658	276
393.882	277
394.107	271
394.331	287
394.556	281
394.78	276
395.005	281
395.229	288
395.454	282
395.678	271
395.903	288
396.127	276
396.352	269
396.576	261
396.801	275
397.025	253
397.249	273
397.474	289
397.698	282
397.922	288
398.147	283
398.371	287
398.595	290
398.82	297
399.044	333
399.268	357
399.492	412
399.717	442
399.941	449
400.165	393
400.389	364
400.613	328
400.837	321
401.062	321
401.286	320
401.51	296
401.734	299
401.958	335
402.182	329
402.406	308
402.63	308
402.854	328
403.078	328
403.302	343
403.526	340
403.75	343
403.974	374
404.198	349
404.422	360
404.645	370
404.869	369
405.093	331
405.317	344
405.541	355
405.765	350
405.988	326
406.212	329
406.436	333
406.66	338
406.883	355
407.107	355
407.331	391
407.555	395
407.778	395
408.002	376
408.226	377
408.449	342
408.673	360
408.896	337
409.12	353
409.344	349
409.567	360
409.791	354
410.014	362
410.238	340
410.461	345
410.685	351
410.908	333
411.132	340
411.355	314
411.578	320
411.802	324
412.025	321
412.249	324
412.472	321
412.695	317
412.919	307
413.142	291
413.365	304
413.589	297
413.812	305
414.035	329
414.258	313
414.482	297
414.705	323
414.928	319
415.151	301
415.374	304
415.597	315
415.821	298
416.044	305
416.267	314
416.49	309
416.713	299
416.936	285
417.159	297
417.382	313
417.605	319
417.828	305
418.051	300
418.274	304
418.497	323
418.72	316
418.943	319
419.166	347
419.389	341
419.611	353
419.834	338
420.057	321
420.28	310
420.503	307
420.726	314
420.948	293
421.171	301
421.394	291
421.617	311
421.839	303
422.062	288
422.285	291
422.507	309
422.73	307
422.953	340
423.175	321
423.398	328
423.621	332
423.843	321
424.066	330
424.288	325
424.511	314
424.733	317
424.956	312
425.178	312
425.401	319
425.623	311
425.846	284
426.068	288
426.291	272
426.513	307
426.735	304
426.958	297
427.18	299
427.402	303
427.625	284
427.847	283
428.069	297
428.292	280
428.514	278
428.736	292
428.958	281
429.181	283
429.403	283
429.625	260
429.847	265
430.069	278
430.292	284
430.514	276
430.736	260
430.958	260
431.18	267
431.402	261
431.624	266
431.846	287
432.068	275
432.29	272
432.512	268
432.734	284
432.956	283
433.178	283
433.4	285
433.622	279
433.844	298
434.066	277
434.287	278
434.509	295
434.731	306
434.953	318
435.175	312
435.397	316
435.618	294
435.84	283
436.062	276
436.284	270
436.505	279
436.727	277
436.949	302
437.17	280
437.392	282
437.614	278
437.835	275
438.057	273
438.278	257
438.5	266
438.721	261
438.943	274
439.165	273
439.386	282
439.608	275
439.829	262
440.05	278
440.272	268
440.493	270
440.715	284
440.936	273
441.158	287
441.379	279
441.6	299
441.822	342
442.043	319
442.264	292
442.486	281
442.707	306
442.928	328
443.149	295
443.371	313
443.592	299
443.813	319
444.034	315
444.255	332
444.476	329
444.698	348
444.919	373
445.14	465
445.361	385
445.582	320
445.803	290
446.024	277
446.245	279
446.466	295
446.687	275
446.908	275
447.129	281
447.35	289
447.571	262
447.792	271
448.013	267
448.234	273
448.455	273
448.675	274
448.896	267
449.117	243
449.338	244
449.559	267
449.779	262
450	261
450.221	255
450.442	257
450.662	263
450.883	261
451.104	281
451.324	281
451.545	274
451.766	269
451.986	259
452.207	268
452.428	289
452.648	261
452.869	261
453.089	264
453.31	249
453.53	249
453.751	239
453.971	239
454.192	256
454.412	250
454.633	246
454.853	260
455.073	261
455.294	252
455.514	239
455.734	231
455.955	254
456.175	237
456.395	232
456.616	251
456.836	233
457.056	261
457.276	228
457.497	244
457.717	267
457.937	241
458.157	241
458.377	253
458.598	244
458.818	243
459.038	263
459.258	285
459.478	282
459.698	287
459.918	297
460.138	312
460.358	315
460.578	332
460.798	336
461.018	329
461.238	340
461.458	311
461.678	298
461.898	326
462.118	314
462.338	356
462.558	351
462.777	352
462.997	363
463.217	412
463.437	441
463.657	376
463.876	387
464.096	371
464.316	372
464.536	384
464.755	354
464.975	332
465.195	339
465.414	323
465.634	296
465.854	291
466.073	292
466.293	291
466.512	266
466.732	255
466.951	274
467.171	268
467.391	258
467.61	261
467.829	270
468.049	266
468.268	259
468.488	253
468.707	254
468.927	260
469.146	264
469.365	248
469.585	258
469.804	266
470.023	282
470.243	284
470.462	289
470.681	309
470.901	278
471.12	281
471.339	258
471.558	263
471.777	266
471.997	267
472.216	278
472.435	259
472.654	279
472.873	255
473.092	256
473.311	269
473.53	269
473.749	256
473.968	264
474.187	253
474.406	247
474.625	250
474.844	269
475.063	272
475.282	257
475.501	267
475.72	265
475.939	271
476.158	264
476.377	243
476.596	267
476.814	261
477.033	281
477.252	268
477.471	308
477.69	289
477.908	293
478.127	317
478.346	309
478.564	314
478.783	303
479.002	307
479.22	298
479.439	305
479.658	296
479.876	306
480.095	335
480.313	332
480.532	343
480.751	355
480.969	312
481.188	304
481.406	318
481.624	292
481.843	289
482.061	291
482.28	298
482.498	304
482.717	300
482.935	303
483.153	292
483.372	290
483.59	294
483.808	284
484.027	298
484.245	291
484.463	314
484.681	292
484.9	309
485.118	300
485.336	315
485.554	318
485.772	332
485.99	316
486.209	321
486.427	339
486.645	309
486.863	317
487.081	309
487.299	306
487.517	322
487.735	322
487.953	319
488.171	336
488.389	312
488.607	304
488.825	323
489.043	309
489.261	315
489.479	294
489.696	314
489.914	315
490.132	305
490.35	305
490.568	321
490.786	331
491.003	320
491.221	315
491.439	324
491.657	300
491.874	310
492.092	321
492.31	317
492.527	326
492.745	313
492.963	328
493.18	315
493.398	316
493.615	330
493.833	316
494.05	323
494.268	318
494.485	331
494.703	331
494.92	331
495.138	324
495.355	331
495.573	329
495.79	325
496.008	339
496.225	315
496.442	325
496.66	340
496.877	333
497.094	345
497.312	343
497.529	355
497.746	348
497.963	359
498.181	385
498.398	384
498.615	412
498.832	425
499.049	473
499.267	515
499.484	571
499.701	593
499.918	671
500.135	771
500.352	846
500.569	937
500.786	914
501.003	849
501.22	733
501.437	676
501.654	597
501.871	537
502.088	456
502.305	472
502.522	449
502.739	428
502.956	412
503.172	416
503.389	373
503.606	376
503.823	363
504.04	385
504.256	369
504.473	395
504.69	408
504.907	380
505.123	347
505.34	336
505.557	336
505.773	328
505.99	323
506.207	309
506.423	293
506.64	295
506.856	276
507.073	303
507.289	307
507.506	306
507.722	291
507.939	278
508.155	296
508.372	295
508.588	294
508.805	275
509.021	278
509.238	264
509.454	266
509.67	287
509.887	278
510.103	276
510.319	277
510.536	273
510.752	268
510.968	279
511.184	257
511.401	285
511.617	275
511.833	255
512.049	279
512.265	280
512.481	279
512.698	276
512.914	287
513.13	293
513.346	255
513.562	288
513.778	279
513.994	259
514.21	275
514.426	285
514.642	281
514.858	292
515.074	284
515.29	281
515.506	308
515.721	317
515.937	308
516.153	295
516.369	297
516.585	324
516.801	313
517.016	339
517.232	334
517.448	364
517.664	369
517.879	399
518.095	397
518.311	368
518.527	348
518.742	355
518.958	337
519.173	323
519.389	293
519.605	308
519.82	289
520.036	298
520.251	293
520.467	279
520.682	293
520.898	287
521.113	295
521.329	281
521.544	274
521.76	268
521.975	273
522.19	271
522.406	265
522.621	269
522.836	266
523.052	253
523.267	256
523.482	270
523.698	291
523.913	265
524.128	280
524.343	278
524.559	255
524.774	269
524.989	267
525.204	285
525.419	267
525.634	257
525.849	249
526.064	256
526.28	267
526.495	250
526.71	244
526.925	240
527.14	262
527.355	269
527.57	264
527.785	268
527.999	258
528.214	271
528.429	262
528.644	276
528.859	244
529.074	259
529.289	266
529.503	257
529.718	282
529.933	275
530.148	283
530.363	283
530.577	273
530.792	260
531.007	259
531.221	263
531.436	267
531.651	274
531.865	275
532.08	277
532.295	267
532.509	243
532.724	274
532.938	265
533.153	257
533.367	265
533.582	265
533.796	264
534.011	260
534.225	263
534.44	256
534.654	252
534.868	262
535.083	245
535.297	269
535.511	259
535.726	267
535.94	279
536.154	267
536.369	268
536.583	252
536.797	228
537.011	241
537.225	236
537.44	244
537.654	258
537.868	257
538.082	248
538.296	255
538.51	244
538.724	244
538.938	245
539.153	258
539.367	259
539.581	233
539.795	251
540.009	267
540.222	242
540.436	235
540.65	243
540.864	240
541.078	251
541.292	239
541.506	250
541.72	250
541.934	252
542.147	247
542.361	255
542.575	250
542.789	263
543.002	236
543.216	241
543.43	220
543.644	236
543.857	244
544.071	252
544.285	265
544.498	233
544.712	248
544.925	243
545.139	257
545.352	259
545.566	251
545.779	251
545.993	242
546.206	227
546.42	270
546.633	244
546.847	259
547.06	247
547.274	246
547.487	257
547.7	267
547.914	252
548.127	262
548.34	242
548.554	252
548.767	258
548.98	259
549.193	244
549.407	248
549.62	252
549.833	274
550.046	253
550.259	247
550.473	233
550.686	257
550.899	251
551.112	246
551.325	245
551.538	259
551.751	238
551.964	241
552.177	248
552.39	239
552.603	260
552.816	257
553.029	259
553.242	264
553.455	273
553.667	265
553.88	274
554.093	257
554.306	269
554.519	277
554.732	247
554.944	263
555.157	247
555.37	250
555.583	244
555.795	221
556.008	224
556.221	217
556.433	260
556.646	237
556.859	229
557.071	234
557.284	222
557.496	224
557.709	220
557.921	230
558.134	227
558.346	235
558.559	221
558.771	222
558.984	230
559.196	223
559.409	215
559.621	228
559.833	239
560.046	235
560.258	232
560.47	220
560.683	225
560.895	229
561.107	211
561.32	213
561.532	209
561.744	224
561.956	234
562.168	232
562.381	242
562.593	226
562.805	217
563.017	223
563.229	214
563.441	219
563.653	217
563.865	215
564.077	226
564.289	231
564.501	224
564.713	237
564.925	247
