Data from 0.5MCu(NO3)2.Standard.Lamp.E10.CV._HRD10591_16-06-48-754.txt Node
Date: Mon Jul 22 16:06:48 EDT 2019
User: cochatt
Spectrometer: HR+D1059
Trigger mode: 1
Integration Time (sec): 1.000000E-1
Scans to average: 1
Electric dark correction enabled: true
Nonlinearity correction enabled: false
Boxcar width: 0
XAxis mode: Wavelengths
Number of Pixels in Spectrum: 2048
>>>>>Begin Spectral Data<<<<<
223.165	-20.25
223.4	-20.25
223.635	-20.25
223.869	-20.25
224.104	-24.25
224.338	-18.25
224.573	-23.25
224.808	-11.25
225.042	-7.25
225.277	-0.25
225.511	-5.25
225.746	10.75
225.98	-4.25
226.215	20.75
226.449	15.75
226.683	29.75
226.918	27.75
227.152	29.75
227.387	50.75
227.621	29.75
227.856	54.75
228.09	44.75
228.324	55.75
228.559	51.75
228.793	61.75
229.027	56.75
229.262	68.75
229.496	86.75
229.73	86.75
229.964	82.75
230.199	75.75
230.433	93.75
230.667	86.75
230.901	89.75
231.136	92.75
231.37	87.75
231.604	91.75
231.838	103.75
232.072	91.75
232.306	74.75
232.541	90.75
232.775	88.75
233.009	84.75
233.243	93.75
233.477	91.75
233.711	109.75
233.945	94.75
234.179	70.75
234.413	93.75
234.647	92.75
234.881	88.75
235.115	100.75
235.349	88.75
235.583	94.75
235.817	87.75
236.051	87.75
236.285	82.75
236.519	93.75
236.753	92.75
236.987	98.75
237.221	86.75
237.455	101.75
237.689	81.75
237.922	85.75
238.156	92.75
238.39	92.75
238.624	82.75
238.858	96.75
239.091	95.75
239.325	82.75
239.559	83.75
239.793	95.75
240.027	84.75
240.26	90.75
240.494	83.75
240.728	102.75
240.961	80.75
241.195	81.75
241.429	103.75
241.662	98.75
241.896	93.75
242.13	98.75
242.363	90.75
242.597	96.75
242.83	88.75
243.064	81.75
243.298	85.75
243.531	75.75
243.765	107.75
243.998	90.75
244.232	90.75
244.465	104.75
244.699	103.75
244.932	93.75
245.166	113.75
245.399	98.75
245.633	116.75
245.866	98.75
246.099	97.75
246.333	97.75
246.566	105.75
246.8	100.75
247.033	99.75
247.266	115.75
247.5	99.75
247.733	95.75
247.966	101.75
248.2	94.75
248.433	97.75
248.666	110.75
248.899	109.75
249.133	96.75
249.366	118.75
249.599	114.75
249.832	104.75
250.066	108.75
250.299	117.75
250.532	124.75
250.765	95.75
250.998	117.75
251.231	98.75
251.465	103.75
251.698	95.75
251.931	108.75
252.164	104.75
252.397	111.75
252.63	100.75
252.863	105.75
253.096	112.75
253.329	105.75
253.562	111.75
253.795	108.75
254.028	107.75
254.261	119.75
254.494	116.75
254.727	96.75
254.96	112.75
255.193	110.75
255.426	105.75
255.659	103.75
255.892	110.75
256.124	110.75
256.357	110.75
256.59	112.75
256.823	110.75
257.056	111.75
257.289	117.75
257.521	124.75
257.754	109.75
257.987	108.75
258.22	106.75
258.452	107.75
258.685	118.75
258.918	111.75
259.151	108.75
259.383	126.75
259.616	117.75
259.849	120.75
260.081	115.75
260.314	118.75
260.547	119.75
260.779	124.75
261.012	106.75
261.244	116.75
261.477	116.75
261.71	126.75
261.942	117.75
262.175	111.75
262.407	111.75
262.64	120.75
262.872	137.75
263.105	110.75
263.337	123.75
263.57	107.75
263.802	114.75
264.035	111.75
264.267	112.75
264.499	116.75
264.732	130.75
264.964	124.75
265.197	127.75
265.429	112.75
265.661	132.75
265.894	124.75
266.126	122.75
266.358	120.75
266.591	123.75
266.823	118.75
267.055	120.75
267.287	128.75
267.52	113.75
267.752	132.75
267.984	126.75
268.216	126.75
268.448	130.75
268.681	129.75
268.913	132.75
269.145	130.75
269.377	120.75
269.609	128.75
269.841	143.75
270.073	133.75
270.306	132.75
270.538	126.75
270.77	123.75
271.002	126.75
271.234	127.75
271.466	132.75
271.698	139.75
271.93	119.75
272.162	123.75
272.394	119.75
272.626	127.75
272.858	123.75
273.09	138.75
273.322	120.75
273.553	127.75
273.785	127.75
274.017	139.75
274.249	137.75
274.481	122.75
274.713	124.75
274.945	142.75
275.176	135.75
275.408	134.75
275.64	142.75
275.872	116.75
276.104	121.75
276.335	135.75
276.567	125.75
276.799	134.75
277.031	147.75
277.262	134.75
277.494	133.75
277.726	138.75
277.957	127.75
278.189	142.75
278.421	137.75
278.652	126.75
278.884	126.75
279.115	146.75
279.347	124.75
279.579	140.75
279.81	128.75
280.042	133.75
280.273	129.75
280.505	126.75
280.736	143.75
280.968	135.75
281.199	166.75
281.431	139.75
281.662	151.75
281.894	129.75
282.125	156.75
282.356	149.75
282.588	140.75
282.819	138.75
283.051	145.75
283.282	135.75
283.513	143.75
283.745	163.75
283.976	160.75
284.207	134.75
284.439	152.75
284.67	152.75
284.901	161.75
285.132	145.75
285.364	159.75
285.595	153.75
285.826	126.75
286.057	153.75
286.288	139.75
286.52	150.75
286.751	152.75
286.982	155.75
287.213	155.75
287.444	149.75
287.675	164.75
287.906	166.75
288.138	127.75
288.369	148.75
288.6	153.75
288.831	136.75
289.062	159.75
289.293	151.75
289.524	148.75
289.755	151.75
289.986	154.75
290.217	165.75
290.448	154.75
290.679	150.75
290.91	157.75
291.141	142.75
291.371	159.75
291.602	158.75
291.833	142.75
292.064	162.75
292.295	166.75
292.526	150.75
292.757	160.75
292.987	145.75
293.218	167.75
293.449	171.75
293.68	160.75
293.91	167.75
294.141	145.75
294.372	154.75
294.603	164.75
294.833	171.75
295.064	182.75
295.295	165.75
295.525	150.75
295.756	154.75
295.987	162.75
296.217	154.75
296.448	166.75
296.679	164.75
296.909	159.75
297.14	153.75
297.37	172.75
297.601	162.75
297.831	169.75
298.062	155.75
298.292	170.75
298.523	179.75
298.753	165.75
298.984	153.75
299.214	159.75
299.445	168.75
299.675	158.75
299.905	178.75
300.136	162.75
300.366	196.75
300.597	180.75
300.827	171.75
301.057	168.75
301.288	168.75
301.518	175.75
301.748	162.75
301.979	153.75
302.209	165.75
302.439	171.75
302.669	173.75
302.9	176.75
303.13	163.75
303.36	170.75
303.59	154.75
303.82	150.75
304.051	168.75
304.281	158.75
304.511	166.75
304.741	153.75
304.971	165.75
305.201	154.75
305.431	174.75
305.661	154.75
305.891	176.75
306.121	173.75
306.352	170.75
306.582	173.75
306.812	158.75
307.042	152.75
307.272	165.75
307.502	166.75
307.731	162.75
307.961	154.75
308.191	164.75
308.421	161.75
308.651	179.75
308.881	176.75
309.111	173.75
309.341	144.75
309.571	152.75
309.8	157.75
310.03	152.75
310.26	182.75
310.49	168.75
310.72	163.75
310.949	167.75
311.179	164.75
311.409	180.75
311.639	166.75
311.868	164.75
312.098	168.75
312.328	166.75
312.557	175.75
312.787	171.75
313.017	178.75
313.246	175.75
313.476	181.75
313.706	183.75
313.935	178.75
314.165	163.75
314.394	174.75
314.624	159.75
314.853	156.75
315.083	178.75
315.312	181.75
315.542	171.75
315.771	188.75
316.001	179.75
316.23	172.75
316.46	168.75
316.689	184.75
316.919	180.75
317.148	181.75
317.377	175.75
317.607	175.75
317.836	175.75
318.065	158.75
318.295	169.75
318.524	168.75
318.753	167.75
318.983	178.75
319.212	152.75
319.441	171.75
319.67	166.75
319.9	168.75
320.129	170.75
320.358	180.75
320.587	172.75
320.816	175.75
321.046	176.75
321.275	162.75
321.504	180.75
321.733	172.75
321.962	172.75
322.191	168.75
322.42	166.75
322.649	168.75
322.878	179.75
323.108	166.75
323.337	172.75
323.566	161.75
323.795	168.75
324.024	182.75
324.253	195.75
324.482	174.75
324.71	183.75
324.939	190.75
325.168	174.75
325.397	186.75
325.626	186.75
325.855	166.75
326.084	188.75
326.313	186.75
326.542	178.75
326.77	190.75
326.999	182.75
327.228	176.75
327.457	181.75
327.686	189.75
327.914	175.75
328.143	186.75
328.372	182.75
328.6	189.75
328.829	176.75
329.058	189.75
329.287	175.75
329.515	184.75
329.744	198.75
329.972	188.75
330.201	173.75
330.43	186.75
330.658	174.75
330.887	181.75
331.115	191.75
331.344	179.75
331.572	180.75
331.801	189.75
332.03	208.75
332.258	205.75
332.486	213.75
332.715	214.75
332.943	221.75
333.172	227.75
333.4	223.75
333.629	209.75
333.857	239.75
334.085	209.75
334.314	219.75
334.542	219.75
334.771	235.75
334.999	196.75
335.227	209.75
335.455	218.75
335.684	223.75
335.912	205.75
336.14	208.75
336.369	208.75
336.597	208.75
336.825	199.75
337.053	211.75
337.281	207.75
337.51	196.75
337.738	207.75
337.966	193.75
338.194	199.75
338.422	180.75
338.65	206.75
338.878	180.75
339.106	180.75
339.334	197.75
339.562	182.75
339.79	177.75
340.018	185.75
340.246	197.75
340.474	194.75
340.702	192.75
340.93	192.75
341.158	199.75
341.386	171.75
341.614	186.75
341.842	195.75
342.07	188.75
342.298	194.75
342.526	196.75
342.754	190.75
342.981	198.75
343.209	191.75
343.437	196.75
343.665	198.75
343.893	223.75
344.12	235.75
344.348	197.75
344.576	210.75
344.804	188.75
345.031	195.75
345.259	194.75
345.487	184.75
345.714	179.75
345.942	189.75
346.17	183.75
346.397	180.75
346.625	181.75
346.853	188.75
347.08	186.75
347.308	202.75
347.535	202.75
347.763	185.75
347.99	177.75
348.218	184.75
348.445	186.75
348.673	196.75
348.9	182.75
349.128	169.75
349.355	197.75
349.583	175.75
349.81	173.75
350.037	174.75
350.265	193.75
350.492	192.75
350.72	180.75
350.947	179.75
351.174	190.75
351.402	178.75
351.629	171.75
351.856	181.75
352.083	171.75
352.311	178.75
352.538	173.75
352.765	175.75
352.992	168.75
353.22	182.75
353.447	179.75
353.674	183.75
353.901	180.75
354.128	170.75
354.355	177.75
354.583	184.75
354.81	180.75
355.037	186.75
355.264	193.75
355.491	184.75
355.718	179.75
355.945	168.75
356.172	178.75
356.399	176.75
356.626	174.75
356.853	188.75
357.08	182.75
357.307	184.75
357.534	160.75
357.761	188.75
357.988	191.75
358.215	174.75
358.441	182.75
358.668	184.75
358.895	171.75
359.122	174.75
359.349	172.75
359.576	174.75
359.802	194.75
360.029	193.75
360.256	185.75
360.483	174.75
360.709	185.75
360.936	188.75
361.163	189.75
361.39	189.75
361.616	168.75
361.843	186.75
362.07	182.75
362.296	169.75
362.523	176.75
362.749	176.75
362.976	188.75
363.203	170.75
363.429	182.75
363.656	178.75
363.882	171.75
364.109	188.75
364.335	178.75
364.562	166.75
364.788	180.75
365.015	192.75
365.241	178.75
365.468	184.75
365.694	178.75
365.92	163.75
366.147	152.75
366.373	158.75
366.599	181.75
366.826	170.75
367.052	179.75
367.278	169.75
367.505	179.75
367.731	173.75
367.957	173.75
368.184	167.75
368.41	175.75
368.636	168.75
368.862	189.75
369.089	160.75
369.315	189.75
369.541	180.75
369.767	194.75
369.993	182.75
370.219	162.75
370.445	184.75
370.672	191.75
370.898	185.75
371.124	195.75
371.35	182.75
371.576	185.75
371.802	191.75
372.028	189.75
372.254	186.75
372.48	176.75
372.706	189.75
372.932	196.75
373.158	198.75
373.384	185.75
373.61	191.75
373.835	203.75
374.061	185.75
374.287	191.75
374.513	187.75
374.739	179.75
374.965	204.75
375.191	204.75
375.416	196.75
375.642	215.75
375.868	176.75
376.094	188.75
376.319	193.75
376.545	201.75
376.771	186.75
376.997	194.75
377.222	172.75
377.448	190.75
377.674	198.75
377.899	195.75
378.125	168.75
378.35	183.75
378.576	185.75
378.802	175.75
379.027	175.75
379.253	175.75
379.478	182.75
379.704	181.75
379.929	190.75
380.155	177.75
380.38	187.75
380.606	183.75
380.831	180.75
381.057	188.75
381.282	189.75
381.507	186.75
381.733	182.75
381.958	199.75
382.184	165.75
382.409	187.75
382.634	192.75
382.86	191.75
383.085	202.75
383.31	201.75
383.535	204.75
383.761	198.75
383.986	208.75
384.211	215.75
384.436	208.75
384.662	222.75
384.887	205.75
385.112	208.75
385.337	206.75
385.562	220.75
385.787	200.75
386.013	205.75
386.238	207.75
386.463	216.75
386.688	206.75
386.913	214.75
387.138	210.75
387.363	231.75
387.588	204.75
387.813	211.75
388.038	222.75
388.263	212.75
388.488	209.75
388.713	201.75
388.938	204.75
389.163	207.75
389.387	208.75
389.612	190.75
389.837	197.75
390.062	201.75
390.287	206.75
390.512	200.75
390.736	207.75
390.961	198.75
391.186	214.75
391.411	208.75
391.636	209.75
391.86	217.75
392.085	227.75
392.31	238.75
392.534	227.75
392.759	219.75
392.984	226.75
393.208	225.75
393.433	214.75
393.658	214.75
393.882	221.75
394.107	222.75
394.331	216.75
394.556	212.75
394.78	219.75
395.005	221.75
395.229	216.75
395.454	213.75
395.678	228.75
395.903	232.75
396.127	219.75
396.352	215.75
396.576	198.75
396.801	202.75
397.025	209.75
397.249	216.75
397.474	227.75
397.698	216.75
397.922	223.75
398.147	221.75
398.371	244.75
398.595	238.75
398.82	233.75
399.044	276.75
399.268	273.75
399.492	328.75
399.717	357.75
399.941	324.75
400.165	304.75
400.389	280.75
400.613	252.75
400.837	235.75
401.062	238.75
401.286	248.75
401.51	228.75
401.734	230.75
401.958	236.75
402.182	240.75
402.406	253.75
402.63	255.75
402.854	276.75
403.078	268.75
403.302	265.75
403.526	291.75
403.75	275.75
403.974	271.75
404.198	276.75
404.422	275.75
404.645	289.75
404.869	279.75
405.093	273.75
405.317	265.75
405.541	265.75
405.765	255.75
405.988	253.75
406.212	264.75
406.436	266.75
406.66	261.75
406.883	256.75
407.107	289.75
407.331	273.75
407.555	294.75
407.778	325.75
408.002	288.75
408.226	276.75
408.449	281.75
408.673	282.75
408.896	267.75
409.12	263.75
409.344	268.75
409.567	260.75
409.791	269.75
410.014	276.75
410.238	292.75
410.461	263.75
410.685	260.75
410.908	278.75
411.132	255.75
411.355	230.75
411.578	259.75
411.802	259.75
412.025	260.75
412.249	281.75
412.472	260.75
412.695	238.75
412.919	255.75
413.142	242.75
413.365	254.75
413.589	248.75
413.812	239.75
414.035	218.75
414.258	258.75
414.482	268.75
414.705	244.75
414.928	248.75
415.151	238.75
415.374	247.75
415.597	232.75
415.821	248.75
416.044	224.75
416.267	246.75
416.49	224.75
416.713	240.75
416.936	255.75
417.159	240.75
417.382	232.75
417.605	233.75
417.828	228.75
418.051	227.75
418.274	257.75
418.497	253.75
418.72	243.75
418.943	252.75
419.166	251.75
419.389	272.75
419.611	262.75
419.834	268.75
420.057	253.75
420.28	250.75
420.503	227.75
420.726	237.75
420.948	242.75
421.171	244.75
421.394	247.75
421.617	245.75
421.839	239.75
422.062	252.75
422.285	217.75
422.507	246.75
422.73	249.75
422.953	252.75
423.175	256.75
423.398	271.75
423.621	266.75
423.843	253.75
424.066	253.75
424.288	255.75
424.511	241.75
424.733	249.75
424.956	240.75
425.178	256.75
425.401	226.75
425.623	231.75
425.846	234.75
426.068	211.75
426.291	233.75
426.513	223.75
426.735	242.75
426.958	242.75
427.18	214.75
427.402	226.75
427.625	221.75
427.847	209.75
428.069	225.75
428.292	219.75
428.514	218.75
428.736	213.75
428.958	217.75
429.181	220.75
429.403	208.75
429.625	212.75
429.847	213.75
430.069	214.75
430.292	231.75
430.514	228.75
430.736	222.75
430.958	223.75
431.18	206.75
431.402	208.75
431.624	228.75
431.846	216.75
432.068	215.75
432.29	252.75
432.512	214.75
432.734	230.75
432.956	234.75
433.178	228.75
433.4	219.75
433.622	222.75
433.844	229.75
434.066	210.75
434.287	224.75
434.509	229.75
434.731	233.75
434.953	271.75
435.175	235.75
435.397	226.75
435.618	230.75
435.84	233.75
436.062	223.75
436.284	226.75
436.505	214.75
436.727	215.75
436.949	244.75
437.17	224.75
437.392	220.75
437.614	193.75
437.835	228.75
438.057	202.75
438.278	200.75
438.5	204.75
438.721	221.75
438.943	207.75
439.165	219.75
439.386	207.75
439.608	207.75
439.829	237.75
440.05	224.75
440.272	217.75
440.493	222.75
440.715	212.75
440.936	238.75
441.158	234.75
441.379	232.75
441.6	232.75
441.822	249.75
442.043	236.75
442.264	226.75
442.486	251.75
442.707	229.75
442.928	218.75
443.149	256.75
443.371	230.75
443.592	229.75
443.813	230.75
444.034	255.75
444.255	249.75
444.476	258.75
444.698	267.75
444.919	289.75
445.14	356.75
445.361	317.75
445.582	230.75
445.803	226.75
446.024	224.75
446.245	224.75
446.466	223.75
446.687	222.75
446.908	217.75
447.129	213.75
447.35	228.75
447.571	217.75
447.792	219.75
448.013	205.75
448.234	215.75
448.455	206.75
448.675	212.75
448.896	213.75
449.117	219.75
449.338	210.75
449.559	198.75
449.779	204.75
450	204.75
450.221	194.75
450.442	206.75
450.662	195.75
450.883	220.75
451.104	211.75
451.324	210.75
451.545	201.75
451.766	223.75
451.986	222.75
452.207	211.75
452.428	198.75
452.648	220.75
452.869	200.75
453.089	201.75
453.31	208.75
453.53	219.75
453.751	208.75
453.971	203.75
454.192	215.75
454.412	204.75
454.633	214.75
454.853	214.75
455.073	204.75
455.294	203.75
455.514	201.75
455.734	196.75
455.955	199.75
456.175	192.75
456.395	214.75
456.616	191.75
456.836	197.75
457.056	181.75
457.276	199.75
457.497	207.75
457.717	210.75
457.937	198.75
458.157	214.75
458.377	199.75
458.598	196.75
458.818	205.75
459.038	196.75
459.258	222.75
459.478	223.75
459.698	218.75
459.918	222.75
460.138	239.75
460.358	260.75
460.578	263.75
460.798	248.75
461.018	252.75
461.238	246.75
461.458	237.75
461.678	246.75
461.898	246.75
462.118	258.75
462.338	285.75
462.558	262.75
462.777	267.75
462.997	298.75
463.217	324.75
463.437	309.75
463.657	289.75
463.876	301.75
464.096	282.75
464.316	262.75
464.536	280.75
464.755	277.75
464.975	277.75
465.195	264.75
465.414	247.75
465.634	237.75
465.854	230.75
466.073	242.75
466.293	234.75
466.512	218.75
466.732	218.75
466.951	229.75
467.171	238.75
467.391	220.75
467.61	203.75
467.829	225.75
468.049	232.75
468.268	218.75
468.488	204.75
468.707	206.75
468.927	222.75
469.146	213.75
469.365	204.75
469.585	227.75
469.804	230.75
470.023	215.75
470.243	233.75
470.462	229.75
470.681	235.75
470.901	224.75
471.12	217.75
471.339	228.75
471.558	214.75
471.777	223.75
471.997	203.75
472.216	212.75
472.435	212.75
472.654	208.75
472.873	200.75
473.092	204.75
473.311	200.75
473.53	192.75
473.749	207.75
473.968	219.75
474.187	207.75
474.406	200.75
474.625	206.75
474.844	204.75
475.063	195.75
475.282	197.75
475.501	202.75
475.72	216.75
475.939	201.75
476.158	219.75
476.377	206.75
476.596	215.75
476.814	213.75
477.033	212.75
477.252	222.75
477.471	214.75
477.69	221.75
477.908	224.75
478.127	233.75
478.346	238.75
478.564	244.75
478.783	245.75
479.002	233.75
479.22	253.75
479.439	237.75
479.658	234.75
479.876	248.75
480.095	256.75
480.313	271.75
480.532	262.75
480.751	267.75
480.969	258.75
481.188	251.75
481.406	260.75
481.624	255.75
481.843	221.75
482.061	213.75
482.28	218.75
482.498	248.75
482.717	242.75
482.935	214.75
483.153	235.75
483.372	231.75
483.59	239.75
483.808	226.75
484.027	227.75
484.245	237.75
484.463	236.75
484.681	243.75
484.9	237.75
485.118	254.75
485.336	238.75
485.554	260.75
485.772	262.75
485.99	255.75
486.209	254.75
486.427	240.75
486.645	264.75
486.863	260.75
487.081	238.75
487.299	256.75
487.517	257.75
487.735	264.75
487.953	244.75
488.171	237.75
488.389	240.75
488.607	244.75
488.825	233.75
489.043	244.75
489.261	244.75
489.479	227.75
489.696	255.75
489.914	234.75
490.132	236.75
490.35	257.75
490.568	262.75
490.786	243.75
491.003	254.75
491.221	264.75
491.439	255.75
491.657	253.75
491.874	261.75
492.092	250.75
492.31	254.75
492.527	252.75
492.745	263.75
492.963	244.75
493.18	257.75
493.398	271.75
493.615	275.75
493.833	246.75
494.05	269.75
494.268	252.75
494.485	258.75
494.703	249.75
494.92	257.75
495.138	255.75
495.355	246.75
495.573	258.75
495.79	242.75
496.008	256.75
496.225	246.75
496.442	266.75
496.66	276.75
496.877	282.75
497.094	279.75
497.312	282.75
497.529	282.75
497.746	291.75
497.963	291.75
498.181	283.75
498.398	301.75
498.615	317.75
498.832	330.75
499.049	354.75
499.267	371.75
499.484	423.75
499.701	450.75
499.918	472.75
500.135	564.75
500.352	658.75
500.569	696.75
500.786	666.75
501.003	618.75
501.22	555.75
501.437	501.75
501.654	452.75
501.871	415.75
502.088	378.75
502.305	357.75
502.522	336.75
502.739	328.75
502.956	320.75
503.172	295.75
