Data from 0.5MCu(NO3)2.Standard.Lamp.E10.CV._HRD10591_16-04-39-753.txt Node
Date: Mon Jul 22 16:04:39 EDT 2019
User: cochatt
Spectrometer: HR+D1059
Trigger mode: 1
Integration Time (sec): 1.000000E-1
Scans to average: 1
Electric dark correction enabled: true
Nonlinearity correction enabled: false
Boxcar width: 0
XAxis mode: Wavelengths
Number of Pixels in Spectrum: 2048
>>>>>Begin Spectral Data<<<<<
223.165	3.75
223.4	3.75
223.635	3.75
223.869	-11.25
224.104	-12.25
224.338	-19.25
224.573	-24.25
224.808	-18.25
225.042	-8.25
225.277	-12.25
225.511	-16.25
225.746	12.75
225.98	9.75
226.215	8.75
226.449	1.75
226.683	20.75
226.918	34.75
227.152	29.75
227.387	29.75
227.621	38.75
227.856	45.75
228.09	48.75
228.324	52.75
228.559	53.75
228.793	59.75
229.027	62.75
229.262	58.75
229.496	77.75
229.73	73.75
229.964	71.75
230.199	81.75
230.433	82.75
230.667	69.75
230.901	88.75
231.136	82.75
231.37	84.75
231.604	87.75
231.838	70.75
232.072	99.75
232.306	88.75
232.541	91.75
232.775	88.75
233.009	101.75
233.243	94.75
233.477	85.75
233.711	90.75
233.945	86.75
234.179	86.75
234.413	90.75
234.647	86.75
234.881	75.75
235.115	90.75
235.349	90.75
235.583	75.75
235.817	85.75
236.051	83.75
236.285	85.75
236.519	80.75
236.753	76.75
236.987	73.75
237.221	95.75
237.455	81.75
237.689	70.75
237.922	84.75
238.156	82.75
238.39	91.75
238.624	100.75
238.858	72.75
239.091	81.75
239.325	87.75
239.559	77.75
239.793	83.75
240.027	99.75
240.26	89.75
240.494	81.75
240.728	100.75
240.961	85.75
241.195	75.75
241.429	91.75
241.662	79.75
241.896	98.75
242.13	91.75
242.363	89.75
242.597	92.75
242.83	80.75
243.064	90.75
243.298	90.75
243.531	92.75
243.765	85.75
243.998	104.75
244.232	109.75
244.465	93.75
244.699	86.75
244.932	88.75
245.166	102.75
245.399	94.75
245.633	94.75
245.866	100.75
246.099	85.75
246.333	91.75
246.566	90.75
246.8	77.75
247.033	102.75
247.266	91.75
247.5	94.75
247.733	99.75
247.966	109.75
248.2	91.75
248.433	101.75
248.666	107.75
248.899	92.75
249.133	94.75
249.366	109.75
249.599	107.75
249.832	112.75
250.066	102.75
250.299	102.75
250.532	112.75
250.765	102.75
250.998	91.75
251.231	97.75
251.465	118.75
251.698	110.75
251.931	110.75
252.164	114.75
252.397	107.75
252.63	101.75
252.863	114.75
253.096	109.75
253.329	111.75
253.562	114.75
253.795	121.75
254.028	109.75
254.261	100.75
254.494	110.75
254.727	99.75
254.96	119.75
255.193	108.75
255.426	105.75
255.659	109.75
255.892	111.75
256.124	110.75
256.357	103.75
256.59	109.75
256.823	112.75
257.056	103.75
257.289	117.75
257.521	117.75
257.754	101.75
257.987	113.75
258.22	122.75
258.452	110.75
258.685	131.75
258.918	117.75
259.151	114.75
259.383	120.75
259.616	112.75
259.849	111.75
260.081	113.75
260.314	104.75
260.547	106.75
260.779	123.75
261.012	109.75
261.244	121.75
261.477	135.75
261.71	117.75
261.942	111.75
262.175	135.75
262.407	107.75
262.64	121.75
262.872	114.75
263.105	111.75
263.337	114.75
263.57	112.75
263.802	118.75
264.035	115.75
264.267	115.75
264.499	120.75
264.732	126.75
264.964	104.75
265.197	125.75
265.429	120.75
265.661	123.75
265.894	114.75
266.126	114.75
266.358	123.75
266.591	122.75
266.823	121.75
267.055	130.75
267.287	128.75
267.52	126.75
267.752	125.75
267.984	130.75
268.216	121.75
268.448	125.75
268.681	117.75
268.913	127.75
269.145	123.75
269.377	138.75
269.609	130.75
269.841	118.75
270.073	123.75
270.306	123.75
270.538	120.75
270.77	127.75
271.002	112.75
271.234	120.75
271.466	148.75
271.698	129.75
271.93	122.75
272.162	128.75
272.394	128.75
272.626	134.75
272.858	131.75
273.09	118.75
273.322	137.75
273.553	141.75
273.785	137.75
274.017	140.75
274.249	127.75
274.481	125.75
274.713	132.75
274.945	135.75
275.176	134.75
275.408	158.75
275.64	134.75
275.872	134.75
276.104	138.75
276.335	124.75
276.567	145.75
276.799	120.75
277.031	135.75
277.262	136.75
277.494	134.75
277.726	138.75
277.957	135.75
278.189	126.75
278.421	141.75
278.652	131.75
278.884	143.75
279.115	122.75
279.347	150.75
279.579	138.75
279.81	147.75
280.042	156.75
280.273	138.75
280.505	148.75
280.736	137.75
280.968	146.75
281.199	138.75
281.431	143.75
281.662	153.75
281.894	142.75
282.125	155.75
282.356	137.75
282.588	150.75
282.819	138.75
283.051	134.75
283.282	142.75
283.513	152.75
283.745	157.75
283.976	162.75
284.207	144.75
284.439	149.75
284.67	142.75
284.901	155.75
285.132	154.75
285.364	139.75
285.595	162.75
285.826	148.75
286.057	168.75
286.288	158.75
286.52	146.75
286.751	139.75
286.982	142.75
287.213	170.75
287.444	162.75
287.675	176.75
287.906	169.75
288.138	145.75
288.369	147.75
288.6	146.75
288.831	146.75
289.062	174.75
289.293	165.75
289.524	161.75
289.755	148.75
289.986	156.75
290.217	143.75
290.448	151.75
290.679	140.75
290.91	157.75
291.141	162.75
291.371	160.75
291.602	164.75
291.833	162.75
292.064	169.75
292.295	153.75
292.526	156.75
292.757	166.75
292.987	148.75
293.218	167.75
293.449	174.75
293.68	154.75
293.91	163.75
294.141	156.75
294.372	169.75
294.603	162.75
294.833	160.75
295.064	157.75
295.295	155.75
295.525	166.75
295.756	175.75
295.987	165.75
296.217	162.75
296.448	165.75
296.679	158.75
296.909	174.75
297.14	175.75
297.37	171.75
297.601	177.75
297.831	151.75
298.062	168.75
298.292	177.75
298.523	180.75
298.753	175.75
298.984	174.75
299.214	156.75
299.445	179.75
299.675	162.75
299.905	160.75
300.136	179.75
300.366	168.75
300.597	159.75
300.827	180.75
301.057	171.75
301.288	180.75
301.518	173.75
301.748	187.75
301.979	165.75
302.209	174.75
302.439	180.75
302.669	183.75
302.9	182.75
303.13	179.75
303.36	164.75
303.59	173.75
303.82	173.75
304.051	188.75
304.281	177.75
304.511	181.75
304.741	173.75
304.971	179.75
305.201	176.75
305.431	169.75
305.661	167.75
305.891	180.75
306.121	166.75
306.352	189.75
306.582	168.75
306.812	173.75
307.042	172.75
307.272	183.75
307.502	170.75
307.731	182.75
307.961	181.75
308.191	183.75
308.421	169.75
308.651	170.75
308.881	160.75
309.111	169.75
309.341	171.75
309.571	186.75
309.8	162.75
310.03	161.75
310.26	165.75
310.49	182.75
310.72	174.75
310.949	175.75
311.179	173.75
311.409	171.75
311.639	157.75
311.868	177.75
312.098	174.75
312.328	202.75
312.557	182.75
312.787	180.75
313.017	167.75
313.246	181.75
313.476	179.75
313.706	189.75
313.935	189.75
314.165	190.75
314.394	178.75
314.624	190.75
314.853	183.75
315.083	191.75
315.312	186.75
315.542	193.75
315.771	195.75
316.001	173.75
316.23	182.75
316.46	197.75
316.689	176.75
316.919	189.75
317.148	175.75
317.377	171.75
317.607	175.75
317.836	185.75
318.065	179.75
318.295	184.75
318.524	159.75
318.753	189.75
318.983	190.75
319.212	171.75
319.441	184.75
319.67	181.75
319.9	178.75
320.129	169.75
320.358	161.75
320.587	179.75
320.816	185.75
321.046	185.75
321.275	186.75
321.504	186.75
321.733	193.75
321.962	168.75
322.191	168.75
322.42	186.75
322.649	190.75
322.878	170.75
323.108	195.75
323.337	182.75
323.566	177.75
323.795	181.75
324.024	166.75
324.253	170.75
324.482	172.75
324.71	193.75
324.939	195.75
325.168	203.75
325.397	191.75
325.626	188.75
325.855	175.75
326.084	190.75
326.313	210.75
326.542	211.75
326.77	197.75
326.999	177.75
327.228	209.75
327.457	186.75
327.686	196.75
327.914	193.75
328.143	187.75
328.372	190.75
328.6	188.75
328.829	190.75
329.058	191.75
329.287	198.75
329.515	189.75
329.744	169.75
329.972	193.75
330.201	206.75
330.43	187.75
330.658	192.75
330.887	201.75
331.115	188.75
331.344	197.75
331.572	219.75
331.801	182.75
332.03	190.75
332.258	211.75
332.486	208.75
332.715	189.75
332.943	224.75
333.172	238.75
333.4	225.75
333.629	255.75
333.857	261.75
334.085	233.75
334.314	233.75
334.542	234.75
334.771	239.75
334.999	219.75
335.227	214.75
335.455	212.75
335.684	220.75
335.912	224.75
336.14	203.75
336.369	226.75
336.597	218.75
336.825	211.75
337.053	209.75
337.281	208.75
337.51	224.75
337.738	223.75
337.966	194.75
338.194	202.75
338.422	200.75
338.65	205.75
338.878	203.75
339.106	195.75
339.334	216.75
339.562	202.75
339.79	192.75
340.018	199.75
340.246	196.75
340.474	181.75
340.702	201.75
340.93	181.75
341.158	207.75
341.386	192.75
341.614	187.75
341.842	185.75
342.07	204.75
342.298	194.75
342.526	185.75
342.754	183.75
342.981	202.75
343.209	209.75
343.437	229.75
343.665	219.75
343.893	220.75
344.12	243.75
344.348	218.75
344.576	216.75
344.804	192.75
345.031	196.75
345.259	196.75
345.487	209.75
345.714	200.75
345.942	195.75
346.17	195.75
346.397	199.75
346.625	202.75
346.853	189.75
347.08	194.75
347.308	197.75
347.535	197.75
347.763	206.75
347.99	200.75
348.218	202.75
348.445	180.75
348.673	180.75
348.9	206.75
349.128	182.75
349.355	202.75
349.583	180.75
349.81	206.75
350.037	177.75
350.265	189.75
350.492	184.75
350.72	190.75
350.947	193.75
351.174	180.75
351.402	175.75
351.629	185.75
351.856	193.75
352.083	195.75
352.311	180.75
352.538	208.75
352.765	196.75
352.992	190.75
353.22	191.75
353.447	178.75
353.674	171.75
353.901	181.75
354.128	187.75
354.355	174.75
354.583	191.75
354.81	187.75
355.037	183.75
355.264	181.75
355.491	182.75
355.718	179.75
355.945	170.75
356.172	187.75
356.399	178.75
356.626	182.75
356.853	185.75
357.08	194.75
357.307	194.75
357.534	192.75
357.761	176.75
357.988	189.75
358.215	182.75
358.441	186.75
358.668	177.75
358.895	185.75
359.122	195.75
359.349	183.75
359.576	186.75
359.802	190.75
360.029	193.75
360.256	184.75
360.483	181.75
360.709	182.75
360.936	198.75
361.163	175.75
361.39	188.75
361.616	181.75
361.843	173.75
362.07	179.75
362.296	190.75
362.523	183.75
362.749	168.75
362.976	174.75
363.203	199.75
363.429	181.75
363.656	181.75
363.882	194.75
364.109	192.75
364.335	186.75
364.562	195.75
364.788	190.75
365.015	202.75
365.241	179.75
365.468	174.75
365.694	195.75
365.92	190.75
366.147	193.75
366.373	197.75
366.599	201.75
366.826	187.75
367.052	190.75
367.278	175.75
367.505	194.75
367.731	183.75
367.957	183.75
368.184	182.75
368.41	178.75
368.636	170.75
368.862	189.75
369.089	195.75
369.315	186.75
369.541	187.75
369.767	190.75
369.993	216.75
370.219	202.75
370.445	175.75
370.672	193.75
370.898	181.75
371.124	199.75
371.35	200.75
371.576	199.75
371.802	196.75
372.028	202.75
372.254	198.75
372.48	208.75
372.706	177.75
372.932	191.75
373.158	191.75
373.384	201.75
373.61	194.75
373.835	208.75
374.061	212.75
374.287	210.75
374.513	203.75
374.739	218.75
374.965	200.75
375.191	229.75
375.416	206.75
375.642	199.75
375.868	205.75
376.094	207.75
376.319	189.75
376.545	192.75
376.771	207.75
376.997	204.75
377.222	190.75
377.448	201.75
377.674	206.75
377.899	188.75
378.125	210.75
378.35	209.75
378.576	199.75
378.802	200.75
379.027	194.75
379.253	187.75
379.478	200.75
379.704	189.75
379.929	185.75
380.155	196.75
380.38	191.75
380.606	193.75
380.831	201.75
381.057	215.75
381.282	194.75
381.507	193.75
381.733	199.75
381.958	185.75
382.184	186.75
382.409	197.75
382.634	196.75
382.86	191.75
383.085	203.75
383.31	198.75
383.535	204.75
383.761	203.75
383.986	205.75
384.211	215.75
384.436	227.75
384.662	207.75
384.887	224.75
385.112	214.75
385.337	237.75
385.562	238.75
385.787	224.75
386.013	232.75
386.238	213.75
386.463	216.75
386.688	218.75
386.913	198.75
387.138	239.75
387.363	217.75
387.588	214.75
387.813	218.75
388.038	229.75
388.263	224.75
388.488	216.75
388.713	195.75
388.938	211.75
389.163	207.75
389.387	207.75
389.612	208.75
389.837	216.75
390.062	209.75
390.287	220.75
390.512	230.75
390.736	215.75
390.961	218.75
391.186	230.75
391.411	236.75
391.636	237.75
391.86	228.75
392.085	223.75
392.31	233.75
392.534	234.75
392.759	209.75
392.984	242.75
393.208	237.75
393.433	250.75
393.658	215.75
393.882	242.75
394.107	238.75
394.331	238.75
394.556	224.75
394.78	237.75
395.005	245.75
395.229	226.75
395.454	230.75
395.678	234.75
395.903	243.75
396.127	224.75
396.352	230.75
396.576	235.75
396.801	240.75
397.025	234.75
397.249	230.75
397.474	247.75
397.698	233.75
397.922	229.75
398.147	229.75
398.371	226.75
398.595	238.75
398.82	257.75
399.044	272.75
399.268	290.75
399.492	328.75
399.717	376.75
399.941	369.75
400.165	328.75
400.389	285.75
400.613	274.75
400.837	263.75
401.062	257.75
401.286	246.75
401.51	236.75
401.734	257.75
401.958	263.75
402.182	278.75
402.406	266.75
402.63	266.75
402.854	275.75
403.078	278.75
403.302	281.75
403.526	283.75
403.75	280.75
403.974	291.75
404.198	316.75
404.422	294.75
404.645	295.75
404.869	296.75
405.093	265.75
405.317	277.75
405.541	273.75
405.765	274.75
405.988	283.75
406.212	281.75
406.436	290.75
406.66	288.75
406.883	273.75
407.107	298.75
407.331	314.75
407.555	310.75
407.778	311.75
408.002	320.75
408.226	301.75
408.449	303.75
408.673	287.75
408.896	271.75
409.12	290.75
409.344	271.75
409.567	289.75
409.791	293.75
410.014	282.75
410.238	297.75
410.461	279.75
410.685	273.75
410.908	289.75
411.132	282.75
411.355	269.75
411.578	257.75
411.802	268.75
412.025	271.75
412.249	266.75
412.472	249.75
412.695	246.75
412.919	254.75
413.142	263.75
413.365	257.75
413.589	289.75
413.812	256.75
414.035	255.75
414.258	259.75
414.482	263.75
414.705	272.75
414.928	257.75
415.151	277.75
415.374	253.75
415.597	245.75
415.821	254.75
416.044	239.75
416.267	278.75
416.49	234.75
416.713	249.75
416.936	279.75
417.159	267.75
417.382	251.75
417.605	257.75
417.828	266.75
418.051	266.75
418.274	247.75
418.497	241.75
418.72	249.75
418.943	252.75
419.166	262.75
419.389	282.75
419.611	266.75
419.834	275.75
420.057	248.75
420.28	242.75
420.503	245.75
420.726	255.75
420.948	253.75
421.171	260.75
421.394	257.75
421.617	255.75
421.839	261.75
422.062	279.75
422.285	250.75
422.507	245.75
422.73	263.75
422.953	282.75
423.175	251.75
423.398	282.75
423.621	262.75
423.843	261.75
424.066	276.75
424.288	268.75
424.511	262.75
424.733	290.75
424.956	259.75
425.178	284.75
425.401	265.75
425.623	246.75
425.846	234.75
426.068	245.75
426.291	245.75
426.513	224.75
426.735	244.75
426.958	237.75
427.18	226.75
427.402	218.75
427.625	242.75
427.847	239.75
428.069	232.75
428.292	241.75
428.514	226.75
428.736	210.75
428.958	234.75
429.181	209.75
429.403	214.75
429.625	232.75
429.847	222.75
430.069	226.75
430.292	223.75
430.514	225.75
430.736	234.75
430.958	221.75
431.18	208.75
431.402	233.75
431.624	221.75
431.846	237.75
432.068	245.75
432.29	243.75
432.512	219.75
432.734	233.75
432.956	248.75
433.178	241.75
433.4	244.75
433.622	227.75
433.844	253.75
434.066	245.75
434.287	230.75
434.509	230.75
434.731	243.75
434.953	253.75
435.175	273.75
435.397	279.75
435.618	241.75
435.84	251.75
436.062	242.75
436.284	228.75
436.505	239.75
436.727	254.75
436.949	255.75
437.17	224.75
437.392	233.75
437.614	230.75
437.835	230.75
438.057	230.75
438.278	232.75
438.5	218.75
438.721	226.75
438.943	231.75
439.165	234.75
439.386	231.75
439.608	219.75
439.829	227.75
440.05	226.75
440.272	226.75
440.493	253.75
440.715	249.75
440.936	241.75
441.158	233.75
441.379	241.75
441.6	266.75
441.822	281.75
442.043	264.75
442.264	253.75
442.486	266.75
442.707	257.75
442.928	246.75
443.149	244.75
443.371	251.75
443.592	251.75
443.813	256.75
444.034	253.75
444.255	249.75
444.476	262.75
444.698	294.75
444.919	301.75
445.14	414.75
445.361	316.75
445.582	273.75
445.803	257.75
446.024	239.75
446.245	244.75
446.466	221.75
446.687	230.75
446.908	247.75
447.129	230.75
447.35	231.75
447.571	231.75
447.792	218.75
448.013	239.75
448.234	212.75
448.455	237.75
448.675	222.75
448.896	231.75
449.117	217.75
449.338	216.75
449.559	202.75
449.779	224.75
450	205.75
450.221	211.75
450.442	201.75
450.662	223.75
450.883	240.75
451.104	227.75
451.324	215.75
451.545	230.75
451.766	211.75
451.986	221.75
452.207	213.75
452.428	224.75
452.648	234.75
452.869	203.75
453.089	201.75
453.31	241.75
453.53	212.75
453.751	209.75
453.971	214.75
454.192	233.75
454.412	219.75
454.633	220.75
454.853	214.75
455.073	215.75
455.294	205.75
455.514	200.75
455.734	210.75
455.955	212.75
456.175	203.75
456.395	198.75
456.616	210.75
456.836	216.75
457.056	207.75
457.276	193.75
457.497	207.75
457.717	218.75
457.937	216.75
458.157	218.75
458.377	217.75
458.598	207.75
458.818	216.75
459.038	235.75
459.258	235.75
459.478	232.75
459.698	241.75
459.918	241.75
460.138	257.75
460.358	263.75
460.578	264.75
460.798	266.75
461.018	274.75
461.238	275.75
461.458	265.75
461.678	278.75
461.898	279.75
462.118	258.75
462.338	279.75
462.558	293.75
462.777	292.75
462.997	322.75
463.217	345.75
463.437	360.75
463.657	307.75
463.876	315.75
464.096	319.75
464.316	315.75
464.536	301.75
464.755	310.75
464.975	295.75
465.195	267.75
465.414	265.75
465.634	254.75
465.854	255.75
466.073	246.75
466.293	244.75
466.512	229.75
466.732	224.75
466.951	226.75
467.171	241.75
467.391	226.75
467.61	253.75
467.829	230.75
468.049	228.75
468.268	228.75
468.488	228.75
468.707	202.75
468.927	212.75
469.146	222.75
469.365	221.75
469.585	234.75
469.804	229.75
470.023	249.75
470.243	225.75
470.462	231.75
470.681	217.75
470.901	232.75
471.12	229.75
471.339	243.75
471.558	237.75
471.777	229.75
471.997	215.75
472.216	227.75
472.435	218.75
472.654	216.75
472.873	236.75
473.092	209.75
473.311	219.75
473.53	229.75
473.749	222.75
473.968	226.75
474.187	217.75
474.406	212.75
474.625	214.75
474.844	213.75
475.063	217.75
475.282	222.75
475.501	207.75
475.72	222.75
475.939	239.75
476.158	207.75
476.377	227.75
476.596	247.75
476.814	233.75
477.033	213.75
477.252	223.75
477.471	232.75
477.69	265.75
477.908	245.75
478.127	244.75
478.346	258.75
478.564	254.75
478.783	253.75
479.002	259.75
479.22	262.75
479.439	260.75
479.658	254.75
479.876	251.75
480.095	253.75
480.313	253.75
480.532	294.75
480.751	280.75
480.969	286.75
481.188	263.75
481.406	270.75
481.624	263.75
481.843	230.75
482.061	250.75
482.28	234.75
482.498	256.75
482.717	255.75
482.935	246.75
483.153	260.75
483.372	239.75
483.59	248.75
483.808	253.75
484.027	259.75
484.245	246.75
484.463	263.75
484.681	260.75
484.9	233.75
485.118	273.75
485.336	252.75
485.554	259.75
485.772	259.75
485.99	270.75
486.209	281.75
486.427	277.75
486.645	276.75
486.863	272.75
487.081	270.75
487.299	258.75
487.517	268.75
487.735	246.75
487.953	268.75
488.171	262.75
488.389	261.75
488.607	250.75
488.825	271.75
489.043	259.75
489.261	263.75
489.479	265.75
489.696	261.75
489.914	249.75
490.132	275.75
490.35	260.75
490.568	255.75
490.786	268.75
491.003	257.75
491.221	270.75
491.439	268.75
491.657	261.75
491.874	280.75
492.092	281.75
492.31	273.75
492.527	270.75
492.745	264.75
492.963	249.75
493.18	266.75
493.398	269.75
493.615	264.75
493.833	266.75
494.05	262.75
494.268	280.75
494.485	287.75
494.703	286.75
494.92	281.75
495.138	257.75
495.355	278.75
495.573	286.75
495.79	275.75
496.008	270.75
496.225	272.75
496.442	275.75
496.66	310.75
496.877	291.75
497.094	289.75
497.312	290.75
497.529	291.75
497.746	312.75
497.963	315.75
498.181	326.75
498.398	339.75
498.615	340.75
498.832	351.75
499.049	394.75
499.267	418.75
499.484	456.75
499.701	508.75
499.918	527.75
500.135	594.75
500.352	707.75
500.569	723.75
500.786	735.75
501.003	673.75
501.22	615.75
501.437	542.75
501.654	483.75
501.871	433.75
502.088	406.75
502.305	373.75
502.522	377.75
502.739	357.75
502.956	353.75
503.172	331.75
503.389	299.75
