Data from 0.5MCu(NO3)2.Standard.Lamp.E10.CV._HRD10591_16-04-53-753.txt Node
Date: Mon Jul 22 16:04:53 EDT 2019
User: cochatt
Spectrometer: HR+D1059
Trigger mode: 1
Integration Time (sec): 1.000000E-1
Scans to average: 1
Electric dark correction enabled: true
Nonlinearity correction enabled: false
Boxcar width: 0
XAxis mode: Wavelengths
Number of Pixels in Spectrum: 2048
>>>>>Begin Spectral Data<<<<<
223.165	-4.06
223.4	-4.06
223.635	-4.06
223.869	-9.06
224.104	-19.06
224.338	-17.06
224.573	-7.06
224.808	-26.06
225.042	-4.06
225.277	-7.06
225.511	-7.06
225.746	-0.06
225.98	3.94
226.215	-3.06
226.449	23.94
226.683	27.94
226.918	23.94
227.152	23.94
227.387	30.94
227.621	49.94
227.856	42.94
228.09	39.94
228.324	49.94
228.559	54.94
228.793	53.94
229.027	73.94
229.262	66.94
229.496	86.94
229.73	81.94
229.964	64.94
230.199	84.94
230.433	73.94
230.667	95.94
230.901	85.94
231.136	87.94
231.37	99.94
231.604	102.94
231.838	87.94
232.072	90.94
232.306	90.94
232.541	85.94
232.775	91.94
233.009	82.94
233.243	89.94
233.477	92.94
233.711	87.94
233.945	89.94
234.179	73.94
234.413	93.94
234.647	88.94
234.881	99.94
235.115	104.94
235.349	87.94
235.583	95.94
235.817	100.94
236.051	75.94
236.285	79.94
236.519	91.94
236.753	104.94
236.987	95.94
237.221	98.94
237.455	75.94
237.689	86.94
237.922	92.94
238.156	103.94
238.39	89.94
238.624	95.94
238.858	101.94
239.091	83.94
239.325	75.94
239.559	100.94
239.793	97.94
240.027	95.94
240.26	90.94
240.494	103.94
240.728	93.94
240.961	98.94
241.195	99.94
241.429	94.94
241.662	93.94
241.896	102.94
242.13	112.94
242.363	106.94
242.597	102.94
242.83	96.94
243.064	102.94
243.298	99.94
243.531	126.94
243.765	118.94
243.998	114.94
244.232	111.94
244.465	116.94
244.699	90.94
244.932	110.94
245.166	103.94
245.399	119.94
245.633	100.94
245.866	106.94
246.099	117.94
246.333	108.94
246.566	114.94
246.8	106.94
247.033	106.94
247.266	113.94
247.5	94.94
247.733	101.94
247.966	106.94
248.2	122.94
248.433	130.94
248.666	110.94
248.899	100.94
249.133	111.94
249.366	114.94
249.599	105.94
249.832	120.94
250.066	121.94
250.299	120.94
250.532	116.94
250.765	121.94
250.998	124.94
251.231	114.94
251.465	120.94
251.698	114.94
251.931	118.94
252.164	117.94
252.397	130.94
252.63	120.94
252.863	119.94
253.096	112.94
253.329	119.94
253.562	124.94
253.795	129.94
254.028	144.94
254.261	135.94
254.494	120.94
254.727	135.94
254.96	128.94
255.193	129.94
255.426	126.94
255.659	118.94
255.892	111.94
256.124	134.94
256.357	117.94
256.59	129.94
256.823	130.94
257.056	115.94
257.289	143.94
257.521	120.94
257.754	117.94
257.987	131.94
258.22	137.94
258.452	128.94
258.685	133.94
258.918	128.94
259.151	130.94
259.383	125.94
259.616	135.94
259.849	152.94
260.081	134.94
260.314	135.94
260.547	130.94
260.779	126.94
261.012	136.94
261.244	140.94
261.477	132.94
261.71	143.94
261.942	131.94
262.175	127.94
262.407	128.94
262.64	148.94
262.872	125.94
263.105	134.94
263.337	147.94
263.57	140.94
263.802	138.94
264.035	145.94
264.267	129.94
264.499	145.94
264.732	138.94
264.964	123.94
265.197	138.94
265.429	146.94
265.661	151.94
265.894	139.94
266.126	150.94
266.358	130.94
266.591	159.94
266.823	140.94
267.055	164.94
267.287	148.94
267.52	156.94
267.752	146.94
267.984	133.94
268.216	144.94
268.448	150.94
268.681	151.94
268.913	155.94
269.145	156.94
269.377	164.94
269.609	150.94
269.841	160.94
270.073	162.94
270.306	168.94
270.538	146.94
270.77	153.94
271.002	146.94
271.234	150.94
271.466	153.94
271.698	161.94
271.93	146.94
272.162	153.94
272.394	157.94
272.626	161.94
272.858	159.94
273.09	150.94
273.322	177.94
273.553	162.94
273.785	170.94
274.017	159.94
274.249	177.94
274.481	183.94
274.713	169.94
274.945	172.94
275.176	163.94
275.408	163.94
275.64	185.94
275.872	167.94
276.104	174.94
276.335	162.94
276.567	174.94
276.799	154.94
277.031	164.94
277.262	157.94
277.494	176.94
277.726	172.94
277.957	166.94
278.189	173.94
278.421	180.94
278.652	165.94
278.884	163.94
279.115	169.94
279.347	182.94
279.579	160.94
279.81	178.94
280.042	174.94
280.273	159.94
280.505	182.94
280.736	182.94
280.968	171.94
281.199	190.94
281.431	168.94
281.662	166.94
281.894	188.94
282.125	200.94
282.356	177.94
282.588	182.94
282.819	184.94
283.051	188.94
283.282	188.94
283.513	175.94
283.745	172.94
283.976	190.94
284.207	192.94
284.439	172.94
284.67	182.94
284.901	186.94
285.132	178.94
285.364	178.94
285.595	196.94
285.826	187.94
286.057	191.94
286.288	188.94
286.52	205.94
286.751	189.94
286.982	182.94
287.213	188.94
287.444	203.94
287.675	213.94
287.906	211.94
288.138	198.94
288.369	186.94
288.6	196.94
288.831	205.94
289.062	200.94
289.293	204.94
289.524	193.94
289.755	201.94
289.986	199.94
290.217	203.94
290.448	210.94
290.679	210.94
290.91	206.94
291.141	212.94
291.371	212.94
291.602	204.94
291.833	216.94
292.064	195.94
292.295	204.94
292.526	199.94
292.757	196.94
292.987	216.94
293.218	185.94
293.449	206.94
293.68	186.94
293.91	194.94
294.141	184.94
294.372	188.94
294.603	208.94
294.833	204.94
295.064	197.94
295.295	211.94
295.525	209.94
295.756	207.94
295.987	202.94
296.217	216.94
296.448	193.94
296.679	184.94
296.909	213.94
297.14	227.94
297.37	228.94
297.601	209.94
297.831	215.94
298.062	216.94
298.292	225.94
298.523	228.94
298.753	231.94
298.984	206.94
299.214	212.94
299.445	235.94
299.675	222.94
299.905	223.94
300.136	217.94
300.366	221.94
300.597	218.94
300.827	214.94
301.057	224.94
301.288	228.94
301.518	227.94
301.748	253.94
301.979	223.94
302.209	219.94
302.439	222.94
302.669	236.94
302.9	224.94
303.13	225.94
303.36	245.94
303.59	232.94
303.82	235.94
304.051	229.94
304.281	226.94
304.511	235.94
304.741	235.94
304.971	223.94
305.201	215.94
305.431	235.94
305.661	231.94
305.891	222.94
306.121	223.94
306.352	205.94
306.582	213.94
306.812	220.94
307.042	231.94
307.272	229.94
307.502	222.94
307.731	223.94
307.961	211.94
308.191	217.94
308.421	222.94
308.651	203.94
308.881	210.94
309.111	231.94
309.341	221.94
309.571	222.94
309.8	218.94
310.03	235.94
310.26	222.94
310.49	224.94
310.72	224.94
310.949	216.94
311.179	237.94
311.409	206.94
311.639	227.94
311.868	227.94
312.098	228.94
312.328	228.94
312.557	234.94
312.787	227.94
313.017	232.94
313.246	249.94
313.476	243.94
313.706	233.94
313.935	230.94
314.165	250.94
314.394	229.94
314.624	223.94
314.853	227.94
315.083	235.94
315.312	224.94
315.542	229.94
315.771	232.94
316.001	228.94
316.23	238.94
316.46	227.94
316.689	223.94
316.919	239.94
317.148	223.94
317.377	239.94
317.607	224.94
317.836	224.94
318.065	227.94
318.295	228.94
318.524	221.94
318.753	232.94
318.983	235.94
319.212	213.94
319.441	227.94
319.67	214.94
319.9	222.94
320.129	226.94
320.358	231.94
320.587	235.94
320.816	201.94
321.046	217.94
321.275	231.94
321.504	228.94
321.733	227.94
321.962	235.94
322.191	221.94
322.42	232.94
322.649	213.94
322.878	231.94
323.108	225.94
323.337	240.94
323.566	239.94
323.795	245.94
324.024	232.94
324.253	225.94
324.482	239.94
324.71	232.94
324.939	240.94
325.168	233.94
325.397	223.94
325.626	228.94
325.855	241.94
326.084	240.94
326.313	241.94
326.542	231.94
326.77	252.94
326.999	268.94
327.228	234.94
327.457	217.94
327.686	238.94
327.914	254.94
328.143	248.94
328.372	240.94
328.6	248.94
328.829	246.94
329.058	238.94
329.287	265.94
329.515	251.94
329.744	255.94
329.972	256.94
330.201	249.94
330.43	216.94
330.658	265.94
330.887	252.94
331.115	265.94
331.344	249.94
331.572	252.94
331.801	270.94
332.03	275.94
332.258	277.94
332.486	261.94
332.715	290.94
332.943	322.94
333.172	320.94
333.4	321.94
333.629	330.94
333.857	312.94
334.085	331.94
334.314	318.94
334.542	325.94
334.771	292.94
334.999	298.94
335.227	299.94
335.455	287.94
335.684	299.94
335.912	291.94
336.14	287.94
336.369	296.94
336.597	289.94
336.825	303.94
337.053	299.94
337.281	296.94
337.51	289.94
337.738	298.94
337.966	270.94
338.194	267.94
338.422	272.94
338.65	281.94
338.878	266.94
339.106	276.94
339.334	275.94
339.562	259.94
339.79	278.94
340.018	259.94
340.246	266.94
340.474	262.94
340.702	272.94
340.93	254.94
341.158	263.94
341.386	260.94
341.614	278.94
341.842	272.94
342.07	240.94
342.298	256.94
342.526	259.94
342.754	244.94
342.981	248.94
343.209	268.94
343.437	279.94
343.665	287.94
343.893	308.94
344.12	307.94
344.348	298.94
344.576	276.94
344.804	267.94
345.031	247.94
345.259	266.94
345.487	254.94
345.714	272.94
345.942	268.94
346.17	258.94
346.397	247.94
346.625	249.94
346.853	235.94
347.08	259.94
347.308	268.94
347.535	258.94
347.763	239.94
347.99	244.94
348.218	243.94
348.445	236.94
348.673	241.94
348.9	238.94
349.128	243.94
349.355	264.94
349.583	244.94
349.81	246.94
350.037	233.94
350.265	247.94
350.492	244.94
350.72	255.94
350.947	225.94
351.174	234.94
351.402	243.94
351.629	247.94
351.856	248.94
352.083	228.94
352.311	254.94
352.538	229.94
352.765	238.94
352.992	233.94
353.22	239.94
353.447	223.94
353.674	244.94
353.901	234.94
354.128	248.94
354.355	230.94
354.583	259.94
354.81	247.94
355.037	253.94
355.264	238.94
355.491	254.94
355.718	265.94
355.945	232.94
356.172	246.94
356.399	256.94
356.626	243.94
356.853	232.94
357.08	250.94
357.307	240.94
357.534	245.94
357.761	238.94
357.988	233.94
358.215	247.94
358.441	242.94
358.668	254.94
358.895	246.94
359.122	247.94
359.349	256.94
359.576	262.94
359.802	252.94
360.029	242.94
360.256	224.94
360.483	251.94
360.709	254.94
360.936	239.94
361.163	247.94
361.39	227.94
361.616	242.94
361.843	236.94
362.07	234.94
362.296	268.94
362.523	241.94
362.749	230.94
362.976	241.94
363.203	238.94
363.429	258.94
363.656	240.94
363.882	235.94
364.109	247.94
364.335	246.94
364.562	244.94
364.788	246.94
365.015	234.94
365.241	239.94
365.468	247.94
365.694	245.94
365.92	242.94
366.147	232.94
366.373	241.94
366.599	232.94
366.826	230.94
367.052	237.94
367.278	241.94
367.505	242.94
367.731	229.94
367.957	227.94
368.184	244.94
368.41	241.94
368.636	238.94
368.862	244.94
369.089	243.94
369.315	254.94
369.541	251.94
369.767	246.94
369.993	238.94
370.219	233.94
370.445	258.94
370.672	251.94
370.898	245.94
371.124	250.94
371.35	249.94
371.576	264.94
371.802	244.94
372.028	247.94
372.254	258.94
372.48	262.94
372.706	274.94
372.932	265.94
373.158	284.94
373.384	266.94
373.61	260.94
373.835	263.94
374.061	251.94
374.287	261.94
374.513	265.94
374.739	275.94
374.965	274.94
375.191	279.94
375.416	274.94
375.642	291.94
375.868	279.94
376.094	275.94
376.319	255.94
376.545	263.94
376.771	234.94
376.997	259.94
377.222	266.94
377.448	270.94
377.674	273.94
377.899	278.94
378.125	266.94
378.35	241.94
378.576	249.94
378.802	267.94
379.027	242.94
379.253	240.94
379.478	246.94
379.704	256.94
379.929	248.94
380.155	232.94
380.38	242.94
380.606	253.94
380.831	271.94
381.057	252.94
381.282	225.94
381.507	249.94
381.733	265.94
381.958	265.94
382.184	266.94
382.409	282.94
382.634	261.94
382.86	259.94
383.085	248.94
383.31	256.94
383.535	279.94
383.761	313.94
383.986	284.94
384.211	273.94
384.436	281.94
384.662	304.94
384.887	296.94
385.112	279.94
385.337	306.94
385.562	302.94
385.787	291.94
386.013	303.94
386.238	302.94
386.463	307.94
386.688	286.94
386.913	281.94
387.138	288.94
387.363	296.94
387.588	276.94
387.813	289.94
388.038	298.94
388.263	298.94
388.488	288.94
388.713	290.94
388.938	291.94
389.163	271.94
389.387	291.94
389.612	313.94
389.837	286.94
390.062	292.94
390.287	311.94
390.512	290.94
390.736	276.94
390.961	293.94
391.186	310.94
391.411	312.94
391.636	301.94
391.86	324.94
392.085	339.94
392.31	315.94
392.534	304.94
392.759	318.94
392.984	318.94
393.208	323.94
393.433	307.94
393.658	304.94
393.882	300.94
394.107	312.94
394.331	318.94
394.556	312.94
394.78	324.94
395.005	318.94
395.229	302.94
395.454	306.94
395.678	337.94
395.903	315.94
396.127	325.94
396.352	310.94
396.576	287.94
396.801	283.94
397.025	292.94
397.249	311.94
397.474	306.94
397.698	295.94
397.922	321.94
398.147	314.94
398.371	305.94
398.595	326.94
398.82	329.94
399.044	364.94
399.268	374.94
399.492	449.94
399.717	528.94
399.941	490.94
400.165	470.94
400.389	393.94
400.613	355.94
400.837	346.94
401.062	361.94
401.286	337.94
401.51	337.94
401.734	328.94
401.958	339.94
402.182	371.94
402.406	357.94
402.63	360.94
402.854	374.94
403.078	370.94
403.302	377.94
403.526	381.94
403.75	400.94
403.974	421.94
404.198	426.94
404.422	395.94
404.645	390.94
404.869	382.94
405.093	401.94
405.317	367.94
405.541	372.94
405.765	393.94
405.988	364.94
406.212	372.94
406.436	374.94
406.66	370.94
406.883	379.94
407.107	386.94
407.331	434.94
407.555	418.94
407.778	443.94
408.002	438.94
408.226	413.94
408.449	402.94
408.673	389.94
408.896	372.94
409.12	386.94
409.344	417.94
409.567	389.94
409.791	397.94
410.014	393.94
410.238	386.94
410.461	385.94
410.685	386.94
410.908	373.94
411.132	386.94
411.355	364.94
411.578	361.94
411.802	362.94
412.025	360.94
412.249	362.94
412.472	363.94
412.695	344.94
412.919	316.94
413.142	341.94
413.365	350.94
413.589	353.94
413.812	339.94
414.035	347.94
414.258	351.94
414.482	345.94
414.705	344.94
414.928	342.94
415.151	362.94
415.374	330.94
415.597	336.94
415.821	323.94
416.044	348.94
416.267	335.94
416.49	306.94
416.713	345.94
416.936	343.94
417.159	338.94
417.382	345.94
417.605	359.94
417.828	333.94
418.051	361.94
418.274	345.94
418.497	328.94
418.72	328.94
418.943	370.94
419.166	362.94
419.389	382.94
419.611	386.94
419.834	340.94
420.057	354.94
420.28	345.94
420.503	329.94
420.726	335.94
420.948	348.94
421.171	353.94
421.394	329.94
421.617	345.94
421.839	361.94
422.062	366.94
422.285	353.94
422.507	350.94
422.73	360.94
422.953	352.94
423.175	336.94
423.398	350.94
423.621	372.94
423.843	341.94
424.066	382.94
424.288	358.94
424.511	384.94
424.733	357.94
424.956	336.94
425.178	336.94
425.401	345.94
425.623	329.94
425.846	333.94
426.068	341.94
426.291	317.94
426.513	337.94
426.735	319.94
426.958	307.94
427.18	306.94
427.402	306.94
427.625	323.94
427.847	306.94
428.069	316.94
428.292	300.94
428.514	294.94
428.736	312.94
428.958	302.94
429.181	321.94
429.403	296.94
429.625	306.94
429.847	310.94
430.069	299.94
430.292	291.94
430.514	302.94
430.736	308.94
430.958	298.94
431.18	309.94
431.402	319.94
431.624	296.94
431.846	308.94
432.068	323.94
432.29	323.94
432.512	319.94
432.734	314.94
432.956	318.94
433.178	315.94
433.4	290.94
433.622	306.94
433.844	318.94
434.066	329.94
434.287	306.94
434.509	323.94
434.731	342.94
434.953	350.94
435.175	347.94
435.397	334.94
435.618	334.94
435.84	324.94
436.062	311.94
436.284	314.94
436.505	317.94
436.727	309.94
436.949	309.94
437.17	315.94
437.392	310.94
437.614	305.94
437.835	299.94
438.057	283.94
438.278	290.94
438.5	300.94
438.721	297.94
438.943	291.94
439.165	292.94
439.386	288.94
439.608	306.94
439.829	292.94
440.05	313.94
440.272	318.94
440.493	295.94
440.715	322.94
440.936	308.94
441.158	335.94
441.379	341.94
441.6	349.94
441.822	370.94
442.043	358.94
442.264	337.94
442.486	322.94
442.707	322.94
442.928	357.94
443.149	342.94
443.371	351.94
443.592	339.94
443.813	341.94
444.034	338.94
444.255	354.94
444.476	361.94
444.698	404.94
444.919	402.94
445.14	526.94
445.361	414.94
445.582	347.94
445.803	330.94
446.024	331.94
446.245	337.94
446.466	291.94
446.687	317.94
446.908	306.94
447.129	314.94
447.35	299.94
447.571	298.94
447.792	292.94
448.013	292.94
448.234	277.94
448.455	284.94
448.675	302.94
448.896	271.94
449.117	276.94
449.338	285.94
449.559	304.94
449.779	285.94
450	282.94
450.221	278.94
450.442	287.94
450.662	276.94
450.883	287.94
451.104	276.94
451.324	294.94
451.545	296.94
451.766	289.94
451.986	290.94
452.207	290.94
452.428	279.94
452.648	275.94
452.869	268.94
453.089	290.94
453.31	288.94
453.53	280.94
453.751	282.94
453.971	272.94
454.192	284.94
454.412	267.94
454.633	289.94
454.853	272.94
455.073	280.94
455.294	274.94
455.514	286.94
455.734	274.94
455.955	266.94
456.175	265.94
456.395	242.94
456.616	274.94
456.836	264.94
457.056	270.94
457.276	260.94
457.497	268.94
457.717	258.94
457.937	277.94
458.157	296.94
458.377	276.94
458.598	290.94
458.818	289.94
459.038	311.94
459.258	281.94
459.478	326.94
459.698	325.94
459.918	320.94
460.138	327.94
460.358	346.94
460.578	352.94
460.798	366.94
461.018	350.94
461.238	356.94
461.458	370.94
461.678	354.94
461.898	352.94
462.118	347.94
462.338	359.94
462.558	388.94
462.777	398.94
462.997	446.94
463.217	465.94
463.437	473.94
463.657	445.94
463.876	422.94
464.096	431.94
464.316	434.94
464.536	419.94
464.755	404.94
464.975	371.94
465.195	377.94
465.414	372.94
465.634	320.94
465.854	331.94
466.073	318.94
466.293	314.94
466.512	302.94
466.732	304.94
466.951	291.94
467.171	305.94
467.391	320.94
467.61	312.94
467.829	298.94
468.049	304.94
468.268	280.94
468.488	292.94
468.707	277.94
468.927	274.94
469.146	290.94
469.365	303.94
469.585	298.94
469.804	312.94
470.023	319.94
470.243	309.94
470.462	304.94
470.681	324.94
470.901	326.94
471.12	308.94
471.339	298.94
471.558	293.94
471.777	290.94
471.997	295.94
472.216	282.94
472.435	307.94
472.654	293.94
472.873	287.94
473.092	278.94
473.311	283.94
473.53	303.94
473.749	276.94
473.968	299.94
474.187	276.94
474.406	284.94
474.625	298.94
474.844	282.94
475.063	295.94
475.282	288.94
475.501	286.94
475.72	305.94
475.939	300.94
476.158	292.94
476.377	304.94
476.596	296.94
476.814	308.94
477.033	299.94
477.252	312.94
477.471	319.94
477.69	327.94
477.908	341.94
478.127	337.94
478.346	358.94
478.564	346.94
478.783	351.94
479.002	344.94
479.22	360.94
479.439	369.94
479.658	346.94
479.876	336.94
480.095	357.94
480.313	355.94
480.532	387.94
480.751	394.94
480.969	363.94
481.188	345.94
481.406	357.94
481.624	342.94
481.843	336.94
482.061	323.94
482.28	323.94
482.498	319.94
482.717	325.94
482.935	310.94
483.153	338.94
483.372	324.94
483.59	318.94
483.808	335.94
484.027	334.94
484.245	326.94
484.463	338.94
484.681	352.94
484.9	350.94
485.118	355.94
485.336	346.94
485.554	375.94
485.772	347.94
485.99	343.94
486.209	368.94
486.427	346.94
486.645	372.94
486.863	368.94
487.081	355.94
487.299	361.94
487.517	370.94
487.735	352.94
487.953	349.94
488.171	339.94
488.389	347.94
488.607	350.94
488.825	340.94
489.043	354.94
489.261	359.94
489.479	328.94
489.696	343.94
489.914	349.94
490.132	348.94
490.35	346.94
490.568	356.94
490.786	343.94
491.003	363.94
491.221	346.94
491.439	355.94
491.657	350.94
491.874	354.94
492.092	353.94
492.31	360.94
492.527	359.94
492.745	352.94
492.963	326.94
493.18	335.94
493.398	366.94
493.615	374.94
493.833	365.94
494.05	363.94
494.268	361.94
494.485	376.94
494.703	369.94
494.92	374.94
495.138	358.94
495.355	350.94
495.573	351.94
495.79	353.94
496.008	372.94
496.225	372.94
496.442	375.94
496.66	369.94
496.877	363.94
497.094	384.94
497.312	397.94
497.529	389.94
497.746	409.94
497.963	409.94
498.181	442.94
498.398	457.94
498.615	485.94
498.832	504.94
499.049	516.94
499.267	547.94
499.484	629.94
499.701	696.94
499.918	764.94
500.135	867.94
500.352	977.94
500.569	1089.94
500.786	1082.94
501.003	958.94
501.22	867.94
501.437	754.94
501.654	677.94
501.871	594.94
502.088	542.94
502.305	529.94
502.522	500.94
502.739	490.94
502.956	494.94
