Data from 0.5MCu(NO3)2.Standard.Lamp.E10.CV._HRD10591_16-04-15-752.txt Node
Date: Mon Jul 22 16:04:15 EDT 2019
User: cochatt
Spectrometer: HR+D1059
Trigger mode: 1
Integration Time (sec): 1.000000E-1
Scans to average: 1
Electric dark correction enabled: true
Nonlinearity correction enabled: false
Boxcar width: 0
XAxis mode: Wavelengths
Number of Pixels in Spectrum: 2048
>>>>>Begin Spectral Data<<<<<
223.165	-6.56
223.4	-6.56
223.635	-6.56
223.869	-20.56
224.104	-28.56
224.338	-15.56
224.573	-12.56
224.808	-24.56
225.042	-10.56
225.277	2.44
225.511	-9.56
225.746	10.44
225.98	2.44
226.215	9.44
226.449	23.44
226.683	20.44
226.918	21.44
227.152	38.44
227.387	26.44
227.621	55.44
227.856	49.44
228.09	51.44
228.324	51.44
228.559	46.44
228.793	62.44
229.027	78.44
229.262	78.44
229.496	85.44
229.73	87.44
229.964	91.44
230.199	85.44
230.433	89.44
230.667	88.44
230.901	79.44
231.136	92.44
231.37	96.44
231.604	78.44
231.838	111.44
232.072	87.44
232.306	101.44
232.541	77.44
232.775	103.44
233.009	88.44
233.243	96.44
233.477	95.44
233.711	101.44
233.945	84.44
234.179	100.44
234.413	87.44
234.647	91.44
234.881	98.44
235.115	92.44
235.349	108.44
235.583	95.44
235.817	89.44
236.051	103.44
236.285	80.44
236.519	89.44
236.753	95.44
236.987	98.44
237.221	87.44
237.455	97.44
237.689	98.44
237.922	101.44
238.156	89.44
238.39	99.44
238.624	88.44
238.858	104.44
239.091	87.44
239.325	91.44
239.559	88.44
239.793	84.44
240.027	81.44
240.26	88.44
240.494	90.44
240.728	91.44
240.961	90.44
241.195	86.44
241.429	90.44
241.662	90.44
241.896	100.44
242.13	109.44
242.363	91.44
242.597	97.44
242.83	99.44
243.064	101.44
243.298	102.44
243.531	102.44
243.765	96.44
243.998	104.44
244.232	94.44
244.465	102.44
244.699	92.44
244.932	97.44
245.166	106.44
245.399	109.44
245.633	118.44
245.866	115.44
246.099	111.44
246.333	113.44
246.566	98.44
246.8	85.44
247.033	116.44
247.266	108.44
247.5	109.44
247.733	102.44
247.966	111.44
248.2	103.44
248.433	107.44
248.666	115.44
248.899	97.44
249.133	116.44
249.366	116.44
249.599	119.44
249.832	123.44
250.066	110.44
250.299	106.44
250.532	109.44
250.765	100.44
250.998	90.44
251.231	111.44
251.465	125.44
251.698	101.44
251.931	118.44
252.164	114.44
252.397	117.44
252.63	125.44
252.863	102.44
253.096	106.44
253.329	120.44
253.562	119.44
253.795	120.44
254.028	119.44
254.261	126.44
254.494	110.44
254.727	113.44
254.96	119.44
255.193	122.44
255.426	119.44
255.659	121.44
255.892	117.44
256.124	116.44
256.357	117.44
256.59	110.44
256.823	125.44
257.056	111.44
257.289	124.44
257.521	121.44
257.754	118.44
257.987	121.44
258.22	129.44
258.452	121.44
258.685	111.44
258.918	144.44
259.151	121.44
259.383	117.44
259.616	103.44
259.849	114.44
260.081	129.44
260.314	139.44
260.547	126.44
260.779	133.44
261.012	124.44
261.244	128.44
261.477	107.44
261.71	133.44
261.942	125.44
262.175	126.44
262.407	122.44
262.64	135.44
262.872	118.44
263.105	137.44
263.337	122.44
263.57	125.44
263.802	134.44
264.035	137.44
264.267	141.44
264.499	136.44
264.732	126.44
264.964	131.44
265.197	135.44
265.429	117.44
265.661	134.44
265.894	133.44
266.126	139.44
266.358	135.44
266.591	125.44
266.823	152.44
267.055	125.44
267.287	129.44
267.52	131.44
267.752	120.44
267.984	140.44
268.216	142.44
268.448	139.44
268.681	139.44
268.913	134.44
269.145	132.44
269.377	146.44
269.609	137.44
269.841	141.44
270.073	131.44
270.306	153.44
270.538	133.44
270.77	137.44
271.002	146.44
271.234	159.44
271.466	144.44
271.698	138.44
271.93	133.44
272.162	126.44
272.394	139.44
272.626	144.44
272.858	152.44
273.09	155.44
273.322	137.44
273.553	146.44
273.785	143.44
274.017	159.44
274.249	147.44
274.481	129.44
274.713	153.44
274.945	151.44
275.176	142.44
275.408	164.44
275.64	144.44
275.872	149.44
276.104	135.44
276.335	138.44
276.567	129.44
276.799	145.44
277.031	142.44
277.262	145.44
277.494	142.44
277.726	129.44
277.957	146.44
278.189	150.44
278.421	143.44
278.652	149.44
278.884	156.44
279.115	147.44
279.347	149.44
279.579	160.44
279.81	155.44
280.042	145.44
280.273	166.44
280.505	153.44
280.736	162.44
280.968	167.44
281.199	152.44
281.431	155.44
281.662	158.44
281.894	166.44
282.125	169.44
282.356	155.44
282.588	165.44
282.819	173.44
283.051	177.44
283.282	149.44
283.513	159.44
283.745	155.44
283.976	163.44
284.207	161.44
284.439	152.44
284.67	157.44
284.901	155.44
285.132	159.44
285.364	162.44
285.595	164.44
285.826	167.44
286.057	166.44
286.288	162.44
286.52	161.44
286.751	173.44
286.982	155.44
287.213	154.44
287.444	172.44
287.675	179.44
287.906	187.44
288.138	183.44
288.369	179.44
288.6	177.44
288.831	175.44
289.062	155.44
289.293	169.44
289.524	172.44
289.755	177.44
289.986	171.44
290.217	160.44
290.448	179.44
290.679	177.44
290.91	166.44
291.141	163.44
291.371	168.44
291.602	170.44
291.833	181.44
292.064	168.44
292.295	169.44
292.526	184.44
292.757	170.44
292.987	188.44
293.218	174.44
293.449	177.44
293.68	177.44
293.91	175.44
294.141	187.44
294.372	155.44
294.603	178.44
294.833	170.44
295.064	171.44
295.295	180.44
295.525	189.44
295.756	177.44
295.987	172.44
296.217	179.44
296.448	186.44
296.679	188.44
296.909	177.44
297.14	173.44
297.37	179.44
297.601	193.44
297.831	179.44
298.062	178.44
298.292	180.44
298.523	197.44
298.753	204.44
298.984	191.44
299.214	182.44
299.445	179.44
299.675	175.44
299.905	193.44
300.136	184.44
300.366	197.44
300.597	185.44
300.827	206.44
301.057	195.44
301.288	206.44
301.518	203.44
301.748	201.44
301.979	199.44
302.209	209.44
302.439	190.44
302.669	181.44
302.9	198.44
303.13	200.44
303.36	203.44
303.59	182.44
303.82	196.44
304.051	196.44
304.281	207.44
304.511	187.44
304.741	197.44
304.971	197.44
305.201	189.44
305.431	201.44
305.661	198.44
305.891	188.44
306.121	181.44
306.352	185.44
306.582	188.44
306.812	163.44
307.042	191.44
307.272	199.44
307.502	194.44
307.731	189.44
307.961	183.44
308.191	197.44
308.421	182.44
308.651	174.44
308.881	185.44
309.111	193.44
309.341	193.44
309.571	183.44
309.8	200.44
310.03	198.44
310.26	185.44
310.49	191.44
310.72	193.44
310.949	186.44
311.179	200.44
311.409	195.44
311.639	179.44
311.868	193.44
312.098	217.44
312.328	206.44
312.557	210.44
312.787	200.44
313.017	178.44
313.246	210.44
313.476	199.44
313.706	205.44
313.935	187.44
314.165	224.44
314.394	201.44
314.624	197.44
314.853	203.44
315.083	195.44
315.312	198.44
315.542	187.44
315.771	190.44
316.001	204.44
316.23	183.44
316.46	196.44
316.689	211.44
316.919	207.44
317.148	189.44
317.377	191.44
317.607	204.44
317.836	186.44
318.065	198.44
318.295	198.44
318.524	189.44
318.753	201.44
318.983	193.44
319.212	215.44
319.441	170.44
319.67	215.44
319.9	187.44
320.129	202.44
320.358	182.44
320.587	187.44
320.816	192.44
321.046	208.44
321.275	201.44
321.504	206.44
321.733	196.44
321.962	207.44
322.191	206.44
322.42	210.44
322.649	206.44
322.878	193.44
323.108	186.44
323.337	205.44
323.566	194.44
323.795	226.44
324.024	207.44
324.253	217.44
324.482	206.44
324.71	188.44
324.939	204.44
325.168	199.44
325.397	201.44
325.626	204.44
325.855	210.44
326.084	205.44
326.313	203.44
326.542	214.44
326.77	223.44
326.999	215.44
327.228	202.44
327.457	207.44
327.686	197.44
327.914	202.44
328.143	210.44
328.372	207.44
328.6	218.44
328.829	212.44
329.058	193.44
329.287	212.44
329.515	221.44
329.744	219.44
329.972	205.44
330.201	211.44
330.43	199.44
330.658	215.44
330.887	215.44
331.115	211.44
331.344	235.44
331.572	219.44
331.801	228.44
332.03	225.44
332.258	236.44
332.486	237.44
332.715	238.44
332.943	259.44
333.172	247.44
333.4	252.44
333.629	258.44
333.857	267.44
334.085	252.44
334.314	269.44
334.542	243.44
334.771	262.44
334.999	259.44
335.227	238.44
335.455	257.44
335.684	249.44
335.912	244.44
336.14	245.44
336.369	246.44
336.597	250.44
336.825	243.44
337.053	235.44
337.281	209.44
337.51	215.44
337.738	252.44
337.966	232.44
338.194	226.44
338.422	221.44
338.65	219.44
338.878	205.44
339.106	212.44
339.334	223.44
339.562	228.44
339.79	225.44
340.018	214.44
340.246	215.44
340.474	236.44
340.702	221.44
340.93	234.44
341.158	212.44
341.386	217.44
341.614	220.44
341.842	212.44
342.07	209.44
342.298	234.44
342.526	223.44
342.754	214.44
342.981	233.44
343.209	219.44
343.437	224.44
343.665	248.44
343.893	260.44
344.12	275.44
344.348	250.44
344.576	215.44
344.804	232.44
345.031	209.44
345.259	192.44
345.487	198.44
345.714	212.44
345.942	225.44
346.17	212.44
346.397	215.44
346.625	218.44
346.853	211.44
347.08	196.44
347.308	206.44
347.535	202.44
347.763	196.44
347.99	220.44
348.218	219.44
348.445	217.44
348.673	210.44
348.9	215.44
349.128	213.44
349.355	207.44
349.583	212.44
349.81	213.44
350.037	207.44
350.265	212.44
350.492	192.44
350.72	216.44
350.947	205.44
351.174	215.44
351.402	205.44
351.629	197.44
351.856	193.44
352.083	193.44
352.311	188.44
352.538	202.44
352.765	209.44
352.992	201.44
353.22	211.44
353.447	208.44
353.674	204.44
353.901	184.44
354.128	217.44
354.355	199.44
354.583	198.44
354.81	208.44
355.037	211.44
355.264	198.44
355.491	206.44
355.718	194.44
355.945	208.44
356.172	204.44
356.399	207.44
356.626	201.44
356.853	206.44
357.08	200.44
357.307	210.44
357.534	197.44
357.761	212.44
357.988	213.44
358.215	213.44
358.441	212.44
358.668	184.44
358.895	202.44
359.122	193.44
359.349	206.44
359.576	205.44
359.802	216.44
360.029	211.44
360.256	211.44
360.483	201.44
360.709	178.44
360.936	202.44
361.163	202.44
361.39	199.44
361.616	196.44
361.843	194.44
362.07	214.44
362.296	201.44
362.523	195.44
362.749	207.44
362.976	192.44
363.203	209.44
363.429	204.44
363.656	219.44
363.882	211.44
364.109	221.44
364.335	197.44
364.562	206.44
364.788	197.44
365.015	188.44
365.241	194.44
365.468	226.44
365.694	211.44
365.92	184.44
366.147	178.44
366.373	196.44
366.599	206.44
366.826	198.44
367.052	195.44
367.278	206.44
367.505	191.44
367.731	211.44
367.957	197.44
368.184	199.44
368.41	188.44
368.636	193.44
368.862	201.44
369.089	212.44
369.315	205.44
369.541	207.44
369.767	195.44
369.993	215.44
370.219	202.44
370.445	206.44
370.672	213.44
370.898	195.44
371.124	213.44
371.35	213.44
371.576	205.44
371.802	202.44
372.028	225.44
372.254	213.44
372.48	207.44
372.706	226.44
372.932	203.44
373.158	212.44
373.384	210.44
373.61	223.44
373.835	213.44
374.061	212.44
374.287	212.44
374.513	227.44
374.739	236.44
374.965	234.44
375.191	248.44
375.416	238.44
375.642	238.44
375.868	229.44
376.094	207.44
376.319	207.44
376.545	221.44
376.771	213.44
376.997	214.44
377.222	201.44
377.448	227.44
377.674	206.44
377.899	235.44
378.125	201.44
378.35	200.44
378.576	210.44
378.802	205.44
379.027	207.44
379.253	214.44
379.478	211.44
379.704	212.44
379.929	200.44
380.155	211.44
380.38	205.44
380.606	205.44
380.831	208.44
381.057	207.44
381.282	219.44
381.507	223.44
381.733	197.44
381.958	212.44
382.184	208.44
382.409	223.44
382.634	221.44
382.86	201.44
383.085	213.44
383.31	226.44
383.535	207.44
383.761	222.44
383.986	235.44
384.211	249.44
384.436	227.44
384.662	238.44
384.887	243.44
385.112	241.44
385.337	238.44
385.562	259.44
385.787	255.44
386.013	254.44
386.238	230.44
386.463	243.44
386.688	252.44
386.913	241.44
387.138	223.44
387.363	237.44
387.588	252.44
387.813	233.44
388.038	226.44
388.263	249.44
388.488	246.44
388.713	241.44
388.938	252.44
389.163	229.44
389.387	229.44
389.612	236.44
389.837	238.44
390.062	246.44
390.287	238.44
390.512	222.44
390.736	226.44
390.961	241.44
391.186	243.44
391.411	246.44
391.636	261.44
391.86	259.44
392.085	263.44
392.31	257.44
392.534	247.44
392.759	245.44
392.984	264.44
393.208	244.44
393.433	242.44
393.658	254.44
393.882	239.44
394.107	254.44
394.331	243.44
394.556	258.44
394.78	245.44
395.005	253.44
395.229	278.44
395.454	261.44
395.678	271.44
395.903	257.44
396.127	250.44
396.352	247.44
396.576	244.44
396.801	233.44
397.025	254.44
397.249	244.44
397.474	267.44
397.698	246.44
397.922	249.44
398.147	262.44
398.371	269.44
398.595	270.44
398.82	267.44
399.044	289.44
399.268	319.44
399.492	362.44
399.717	431.44
399.941	411.44
400.165	354.44
400.389	339.44
400.613	296.44
400.837	308.44
401.062	272.44
401.286	279.44
401.51	268.44
401.734	276.44
401.958	279.44
402.182	290.44
402.406	299.44
402.63	305.44
402.854	295.44
403.078	321.44
403.302	326.44
403.526	327.44
403.75	335.44
403.974	331.44
404.198	327.44
404.422	337.44
404.645	326.44
404.869	298.44
405.093	300.44
405.317	308.44
405.541	297.44
405.765	323.44
405.988	296.44
406.212	310.44
406.436	291.44
406.66	289.44
406.883	318.44
407.107	347.44
407.331	349.44
407.555	348.44
407.778	364.44
408.002	342.44
408.226	331.44
408.449	342.44
408.673	323.44
408.896	322.44
409.12	318.44
409.344	302.44
409.567	318.44
409.791	337.44
410.014	321.44
410.238	331.44
410.461	326.44
410.685	323.44
410.908	310.44
411.132	296.44
411.355	296.44
411.578	282.44
411.802	294.44
412.025	296.44
412.249	313.44
412.472	302.44
412.695	305.44
412.919	289.44
413.142	282.44
413.365	295.44
413.589	293.44
413.812	283.44
414.035	277.44
414.258	268.44
414.482	277.44
414.705	295.44
414.928	298.44
415.151	292.44
415.374	275.44
415.597	290.44
415.821	276.44
416.044	277.44
416.267	270.44
416.49	274.44
416.713	269.44
416.936	292.44
417.159	272.44
417.382	281.44
417.605	277.44
417.828	286.44
418.051	292.44
418.274	289.44
418.497	273.44
418.72	294.44
418.943	286.44
419.166	299.44
419.389	314.44
419.611	300.44
419.834	300.44
420.057	301.44
420.28	284.44
420.503	275.44
420.726	283.44
420.948	282.44
421.171	286.44
421.394	272.44
421.617	286.44
421.839	285.44
422.062	295.44
422.285	279.44
422.507	292.44
422.73	298.44
422.953	276.44
423.175	286.44
423.398	289.44
423.621	296.44
423.843	301.44
424.066	314.44
424.288	281.44
424.511	294.44
424.733	290.44
424.956	314.44
425.178	280.44
425.401	276.44
425.623	276.44
425.846	262.44
426.068	290.44
426.291	275.44
426.513	271.44
426.735	280.44
426.958	257.44
427.18	251.44
427.402	278.44
427.625	268.44
427.847	241.44
428.069	253.44
428.292	249.44
428.514	254.44
428.736	251.44
428.958	262.44
429.181	249.44
429.403	257.44
429.625	259.44
429.847	250.44
430.069	257.44
430.292	247.44
430.514	249.44
430.736	248.44
430.958	256.44
431.18	257.44
431.402	260.44
431.624	249.44
431.846	275.44
432.068	259.44
432.29	263.44
432.512	249.44
432.734	253.44
432.956	257.44
433.178	236.44
433.4	259.44
433.622	257.44
433.844	253.44
434.066	261.44
434.287	254.44
434.509	269.44
434.731	278.44
434.953	278.44
435.175	291.44
435.397	284.44
435.618	265.44
435.84	270.44
436.062	270.44
436.284	266.44
436.505	269.44
436.727	259.44
436.949	262.44
437.17	242.44
437.392	272.44
437.614	262.44
437.835	234.44
438.057	261.44
438.278	247.44
438.5	242.44
438.721	259.44
438.943	263.44
439.165	234.44
439.386	237.44
439.608	260.44
439.829	261.44
440.05	254.44
440.272	262.44
440.493	243.44
440.715	275.44
440.936	268.44
441.158	263.44
441.379	250.44
441.6	291.44
441.822	292.44
442.043	299.44
442.264	293.44
442.486	253.44
442.707	271.44
442.928	275.44
443.149	270.44
443.371	283.44
443.592	260.44
443.813	284.44
444.034	297.44
444.255	287.44
444.476	291.44
444.698	302.44
444.919	316.44
445.14	421.44
445.361	331.44
445.582	296.44
445.803	274.44
446.024	263.44
446.245	265.44
446.466	261.44
446.687	245.44
446.908	267.44
447.129	237.44
447.35	247.44
447.571	257.44
447.792	258.44
448.013	259.44
448.234	250.44
448.455	252.44
448.675	241.44
448.896	235.44
449.117	237.44
449.338	239.44
449.559	240.44
449.779	223.44
450	240.44
450.221	230.44
450.442	230.44
450.662	243.44
450.883	244.44
451.104	248.44
451.324	249.44
451.545	246.44
451.766	255.44
451.986	253.44
452.207	242.44
452.428	223.44
452.648	241.44
452.869	257.44
453.089	239.44
453.31	237.44
453.53	242.44
453.751	252.44
453.971	230.44
454.192	230.44
454.412	220.44
454.633	226.44
454.853	230.44
455.073	248.44
455.294	229.44
455.514	210.44
455.734	230.44
455.955	218.44
456.175	234.44
456.395	221.44
456.616	223.44
456.836	214.44
457.056	240.44
457.276	222.44
457.497	218.44
457.717	232.44
457.937	221.44
458.157	223.44
458.377	231.44
458.598	223.44
458.818	242.44
459.038	235.44
459.258	250.44
459.478	252.44
459.698	257.44
459.918	277.44
460.138	265.44
460.358	307.44
460.578	320.44
460.798	306.44
461.018	297.44
461.238	297.44
461.458	299.44
461.678	297.44
461.898	283.44
462.118	293.44
462.338	331.44
462.558	318.44
462.777	344.44
462.997	353.44
463.217	405.44
463.437	394.44
463.657	347.44
463.876	339.44
464.096	333.44
464.316	337.44
464.536	327.44
464.755	335.44
464.975	340.44
465.195	294.44
465.414	289.44
465.634	289.44
465.854	268.44
466.073	269.44
466.293	251.44
466.512	265.44
466.732	263.44
466.951	245.44
467.171	254.44
467.391	252.44
467.61	261.44
467.829	245.44
468.049	262.44
468.268	234.44
468.488	234.44
468.707	233.44
468.927	245.44
469.146	250.44
469.365	241.44
469.585	239.44
469.804	259.44
470.023	245.44
470.243	268.44
470.462	270.44
470.681	263.44
470.901	274.44
471.12	274.44
471.339	238.44
471.558	255.44
471.777	258.44
471.997	244.44
472.216	249.44
472.435	221.44
472.654	241.44
472.873	238.44
473.092	241.44
473.311	234.44
473.53	233.44
473.749	222.44
473.968	230.44
474.187	237.44
474.406	238.44
474.625	246.44
474.844	233.44
475.063	238.44
475.282	238.44
475.501	250.44
475.72	245.44
475.939	231.44
476.158	234.44
476.377	241.44
476.596	248.44
476.814	272.44
477.033	249.44
477.252	241.44
477.471	261.44
477.69	268.44
477.908	265.44
478.127	291.44
478.346	281.44
478.564	280.44
478.783	287.44
479.002	289.44
479.22	290.44
479.439	290.44
479.658	299.44
479.876	283.44
480.095	281.44
480.313	317.44
480.532	311.44
480.751	306.44
480.969	295.44
481.188	281.44
481.406	273.44
481.624	268.44
481.843	287.44
482.061	268.44
482.28	280.44
482.498	278.44
482.717	248.44
482.935	250.44
483.153	277.44
483.372	271.44
483.59	266.44
483.808	272.44
484.027	255.44
484.245	293.44
484.463	284.44
484.681	293.44
484.9	277.44
485.118	281.44
485.336	280.44
485.554	284.44
485.772	296.44
485.99	301.44
486.209	292.44
486.427	286.44
486.645	283.44
486.863	298.44
487.081	306.44
487.299	285.44
487.517	281.44
487.735	274.44
487.953	306.44
488.171	267.44
488.389	294.44
488.607	292.44
488.825	282.44
489.043	286.44
489.261	278.44
489.479	278.44
489.696	281.44
489.914	293.44
490.132	296.44
490.35	285.44
490.568	282.44
490.786	298.44
491.003	288.44
491.221	295.44
491.439	305.44
491.657	307.44
491.874	281.44
492.092	311.44
492.31	293.44
492.527	302.44
492.745	288.44
492.963	293.44
493.18	291.44
493.398	292.44
493.615	302.44
493.833	310.44
494.05	284.44
494.268	309.44
494.485	305.44
494.703	296.44
494.92	306.44
495.138	291.44
495.355	311.44
495.573	297.44
495.79	299.44
496.008	306.44
496.225	293.44
496.442	316.44
496.66	318.44
496.877	321.44
497.094	294.44
497.312	320.44
497.529	307.44
497.746	325.44
497.963	340.44
498.181	342.44
498.398	357.44
498.615	381.44
498.832	412.44
499.049	432.44
499.267	454.44
499.484	473.44
499.701	545.44
499.918	601.44
500.135	691.44
500.352	789.44
500.569	827.44
500.786	841.44
501.003	770.44
501.22	683.44
501.437	595.44
501.654	526.44
501.871	470.44
502.088	439.44
502.305	429.44
502.522	406.44
502.739	378.44
502.956	371.44
