Data from 0.5MCu(NO3)2.Standard.Lamp.E10.CV._HRD10591_16-05-26-753.txt Node
Date: Mon Jul 22 16:05:26 EDT 2019
User: cochatt
Spectrometer: HR+D1059
Trigger mode: 1
Integration Time (sec): 1.000000E-1
Scans to average: 1
Electric dark correction enabled: true
Nonlinearity correction enabled: false
Boxcar width: 0
XAxis mode: Wavelengths
Number of Pixels in Spectrum: 2048
>>>>>Begin Spectral Data<<<<<
223.165	-12.25
223.4	-12.25
223.635	-12.25
223.869	-20.25
224.104	-30.25
224.338	-20.25
224.573	-1.25
224.808	-19.25
225.042	-0.25
225.277	-1.25
225.511	9.75
225.746	3.75
225.98	6.75
226.215	11.75
226.449	5.75
226.683	14.75
226.918	29.75
227.152	22.75
227.387	22.75
227.621	37.75
227.856	43.75
228.09	46.75
228.324	46.75
228.559	67.75
228.793	54.75
229.027	62.75
229.262	67.75
229.496	77.75
229.73	84.75
229.964	98.75
230.199	81.75
230.433	95.75
230.667	88.75
230.901	102.75
231.136	89.75
231.37	74.75
231.604	89.75
231.838	99.75
232.072	90.75
232.306	96.75
232.541	97.75
232.775	94.75
233.009	89.75
233.243	90.75
233.477	90.75
233.711	104.75
233.945	89.75
234.179	93.75
234.413	97.75
234.647	99.75
234.881	91.75
235.115	97.75
235.349	92.75
235.583	87.75
235.817	91.75
236.051	95.75
236.285	81.75
236.519	105.75
236.753	97.75
236.987	86.75
237.221	99.75
237.455	90.75
237.689	102.75
237.922	84.75
238.156	99.75
238.39	82.75
238.624	101.75
238.858	91.75
239.091	88.75
239.325	95.75
239.559	99.75
239.793	90.75
240.027	107.75
240.26	99.75
240.494	99.75
240.728	87.75
240.961	98.75
241.195	113.75
241.429	102.75
241.662	107.75
241.896	97.75
242.13	84.75
242.363	97.75
242.597	99.75
242.83	102.75
243.064	98.75
243.298	105.75
243.531	92.75
243.765	100.75
243.998	107.75
244.232	113.75
244.465	102.75
244.699	103.75
244.932	99.75
245.166	106.75
245.399	100.75
245.633	114.75
245.866	101.75
246.099	88.75
246.333	111.75
246.566	99.75
246.8	113.75
247.033	94.75
247.266	91.75
247.5	104.75
247.733	97.75
247.966	99.75
248.2	116.75
248.433	100.75
248.666	96.75
248.899	110.75
249.133	100.75
249.366	110.75
249.599	111.75
249.832	109.75
250.066	103.75
250.299	105.75
250.532	112.75
250.765	107.75
250.998	109.75
251.231	121.75
251.465	99.75
251.698	106.75
251.931	116.75
252.164	110.75
252.397	111.75
252.63	111.75
252.863	121.75
253.096	108.75
253.329	110.75
253.562	115.75
253.795	115.75
254.028	123.75
254.261	117.75
254.494	129.75
254.727	106.75
254.96	104.75
255.193	130.75
255.426	96.75
255.659	116.75
255.892	117.75
256.124	115.75
256.357	118.75
256.59	131.75
256.823	113.75
257.056	124.75
257.289	115.75
257.521	119.75
257.754	123.75
257.987	128.75
258.22	133.75
258.452	121.75
258.685	121.75
258.918	123.75
259.151	113.75
259.383	110.75
259.616	119.75
259.849	123.75
260.081	137.75
260.314	115.75
260.547	124.75
260.779	126.75
261.012	117.75
261.244	125.75
261.477	117.75
261.71	135.75
261.942	127.75
262.175	127.75
262.407	123.75
262.64	117.75
262.872	129.75
263.105	120.75
263.337	131.75
263.57	128.75
263.802	125.75
264.035	131.75
264.267	138.75
264.499	116.75
264.732	128.75
264.964	126.75
265.197	130.75
265.429	132.75
265.661	138.75
265.894	131.75
266.126	128.75
266.358	150.75
266.591	131.75
266.823	127.75
267.055	130.75
267.287	135.75
267.52	135.75
267.752	143.75
267.984	130.75
268.216	127.75
268.448	138.75
268.681	139.75
268.913	141.75
269.145	145.75
269.377	129.75
269.609	129.75
269.841	125.75
270.073	143.75
270.306	141.75
270.538	129.75
270.77	137.75
271.002	131.75
271.234	142.75
271.466	149.75
271.698	142.75
271.93	147.75
272.162	141.75
272.394	146.75
272.626	148.75
272.858	134.75
273.09	130.75
273.322	139.75
273.553	129.75
273.785	135.75
274.017	138.75
274.249	129.75
274.481	142.75
274.713	126.75
274.945	136.75
275.176	142.75
275.408	150.75
275.64	141.75
275.872	143.75
276.104	138.75
276.335	139.75
276.567	159.75
276.799	138.75
277.031	141.75
277.262	153.75
277.494	147.75
277.726	157.75
277.957	153.75
278.189	146.75
278.421	158.75
278.652	144.75
278.884	163.75
279.115	153.75
279.347	149.75
279.579	155.75
279.81	174.75
280.042	140.75
280.273	161.75
280.505	155.75
280.736	161.75
280.968	165.75
281.199	155.75
281.431	144.75
281.662	147.75
281.894	172.75
282.125	145.75
282.356	151.75
282.588	164.75
282.819	156.75
283.051	157.75
283.282	171.75
283.513	159.75
283.745	162.75
283.976	175.75
284.207	162.75
284.439	163.75
284.67	163.75
284.901	153.75
285.132	162.75
285.364	166.75
285.595	150.75
285.826	149.75
286.057	165.75
286.288	153.75
286.52	177.75
286.751	168.75
286.982	161.75
287.213	171.75
287.444	146.75
287.675	171.75
287.906	157.75
288.138	167.75
288.369	173.75
288.6	178.75
288.831	164.75
289.062	173.75
289.293	166.75
289.524	169.75
289.755	177.75
289.986	161.75
290.217	169.75
290.448	168.75
290.679	163.75
290.91	174.75
291.141	175.75
291.371	182.75
291.602	175.75
291.833	174.75
292.064	197.75
292.295	179.75
292.526	173.75
292.757	177.75
292.987	174.75
293.218	171.75
293.449	168.75
293.68	173.75
293.91	167.75
294.141	166.75
294.372	194.75
294.603	170.75
294.833	163.75
295.064	181.75
295.295	168.75
295.525	181.75
295.756	159.75
295.987	183.75
296.217	183.75
296.448	193.75
296.679	197.75
296.909	190.75
297.14	190.75
297.37	196.75
297.601	193.75
297.831	169.75
298.062	199.75
298.292	193.75
298.523	193.75
298.753	194.75
298.984	173.75
299.214	179.75
299.445	197.75
299.675	194.75
299.905	198.75
300.136	189.75
300.366	189.75
300.597	199.75
300.827	187.75
301.057	200.75
301.288	196.75
301.518	204.75
301.748	201.75
301.979	201.75
302.209	194.75
302.439	200.75
302.669	202.75
302.9	203.75
303.13	191.75
303.36	188.75
303.59	184.75
303.82	197.75
304.051	181.75
304.281	176.75
304.511	179.75
304.741	184.75
304.971	195.75
305.201	200.75
305.431	189.75
305.661	198.75
305.891	196.75
306.121	185.75
306.352	185.75
306.582	193.75
306.812	187.75
307.042	187.75
307.272	198.75
307.502	199.75
307.731	190.75
307.961	195.75
308.191	182.75
308.421	188.75
308.651	181.75
308.881	180.75
309.111	198.75
309.341	177.75
309.571	191.75
309.8	169.75
310.03	177.75
310.26	174.75
310.49	193.75
310.72	183.75
310.949	196.75
311.179	199.75
311.409	186.75
311.639	180.75
311.868	192.75
312.098	179.75
312.328	194.75
312.557	182.75
312.787	191.75
313.017	196.75
313.246	202.75
313.476	200.75
313.706	183.75
313.935	194.75
314.165	196.75
314.394	212.75
314.624	203.75
314.853	199.75
315.083	205.75
315.312	194.75
315.542	217.75
315.771	187.75
316.001	193.75
316.23	199.75
316.46	194.75
316.689	191.75
316.919	201.75
317.148	203.75
317.377	192.75
317.607	198.75
317.836	191.75
318.065	187.75
318.295	182.75
318.524	202.75
318.753	193.75
318.983	186.75
319.212	204.75
319.441	186.75
319.67	201.75
319.9	184.75
320.129	190.75
320.358	195.75
320.587	205.75
320.816	185.75
321.046	193.75
321.275	200.75
321.504	195.75
321.733	192.75
321.962	212.75
322.191	198.75
322.42	209.75
322.649	207.75
322.878	199.75
323.108	206.75
323.337	218.75
323.566	196.75
323.795	195.75
324.024	196.75
324.253	211.75
324.482	214.75
324.71	211.75
324.939	200.75
325.168	192.75
325.397	207.75
325.626	200.75
325.855	196.75
326.084	217.75
326.313	212.75
326.542	207.75
326.77	213.75
326.999	212.75
327.228	214.75
327.457	196.75
327.686	189.75
327.914	209.75
328.143	208.75
328.372	200.75
328.6	213.75
328.829	201.75
329.058	202.75
329.287	205.75
329.515	205.75
329.744	206.75
329.972	212.75
330.201	206.75
330.43	217.75
330.658	213.75
330.887	223.75
331.115	197.75
331.344	214.75
331.572	214.75
331.801	225.75
332.03	228.75
332.258	228.75
332.486	222.75
332.715	249.75
332.943	241.75
333.172	259.75
333.4	261.75
333.629	276.75
333.857	272.75
334.085	269.75
334.314	273.75
334.542	263.75
334.771	241.75
334.999	222.75
335.227	252.75
335.455	232.75
335.684	246.75
335.912	230.75
336.14	246.75
336.369	242.75
336.597	247.75
336.825	235.75
337.053	230.75
337.281	220.75
337.51	225.75
337.738	238.75
337.966	224.75
338.194	228.75
338.422	199.75
338.65	221.75
338.878	225.75
339.106	217.75
339.334	216.75
339.562	217.75
339.79	222.75
340.018	226.75
340.246	213.75
340.474	222.75
340.702	219.75
340.93	199.75
341.158	220.75
341.386	212.75
341.614	204.75
341.842	212.75
342.07	207.75
342.298	214.75
342.526	221.75
342.754	213.75
342.981	209.75
343.209	205.75
343.437	215.75
343.665	239.75
343.893	235.75
344.12	257.75
344.348	261.75
344.576	241.75
344.804	210.75
345.031	220.75
345.259	197.75
345.487	205.75
345.714	220.75
345.942	213.75
346.17	214.75
346.397	211.75
346.625	217.75
346.853	206.75
347.08	205.75
347.308	210.75
347.535	217.75
347.763	220.75
347.99	225.75
348.218	214.75
348.445	220.75
348.673	205.75
348.9	229.75
349.128	215.75
349.355	199.75
349.583	203.75
349.81	207.75
350.037	204.75
350.265	187.75
350.492	207.75
350.72	199.75
350.947	213.75
351.174	202.75
351.402	201.75
351.629	215.75
351.856	215.75
352.083	215.75
352.311	207.75
352.538	199.75
352.765	208.75
352.992	197.75
353.22	194.75
353.447	198.75
353.674	198.75
353.901	206.75
354.128	215.75
354.355	187.75
354.583	205.75
354.81	209.75
355.037	207.75
355.264	211.75
355.491	204.75
355.718	186.75
355.945	197.75
356.172	196.75
356.399	205.75
356.626	207.75
356.853	189.75
357.08	199.75
357.307	201.75
357.534	187.75
357.761	210.75
357.988	214.75
358.215	201.75
358.441	192.75
358.668	196.75
358.895	196.75
359.122	209.75
359.349	203.75
359.576	187.75
359.802	198.75
360.029	214.75
360.256	190.75
360.483	205.75
360.709	200.75
360.936	219.75
361.163	216.75
361.39	208.75
361.616	204.75
361.843	197.75
362.07	200.75
362.296	190.75
362.523	196.75
362.749	208.75
362.976	201.75
363.203	199.75
363.429	206.75
363.656	206.75
363.882	203.75
364.109	201.75
364.335	202.75
364.562	191.75
364.788	196.75
365.015	204.75
365.241	202.75
365.468	204.75
365.694	191.75
365.92	202.75
366.147	174.75
366.373	202.75
366.599	183.75
366.826	199.75
367.052	215.75
367.278	209.75
367.505	210.75
367.731	193.75
367.957	222.75
368.184	200.75
368.41	219.75
368.636	214.75
368.862	218.75
369.089	211.75
369.315	201.75
369.541	215.75
369.767	199.75
369.993	213.75
370.219	200.75
370.445	204.75
370.672	217.75
370.898	211.75
371.124	225.75
371.35	216.75
371.576	213.75
371.802	197.75
372.028	212.75
372.254	217.75
372.48	213.75
372.706	213.75
372.932	203.75
373.158	227.75
373.384	197.75
373.61	214.75
373.835	206.75
374.061	214.75
374.287	221.75
374.513	228.75
374.739	210.75
374.965	226.75
375.191	248.75
375.416	237.75
375.642	237.75
375.868	228.75
376.094	229.75
376.319	213.75
376.545	206.75
376.771	204.75
376.997	208.75
377.222	209.75
377.448	197.75
377.674	203.75
377.899	206.75
378.125	218.75
378.35	185.75
378.576	211.75
378.802	211.75
379.027	204.75
379.253	207.75
379.478	207.75
379.704	207.75
379.929	194.75
380.155	214.75
380.38	220.75
380.606	211.75
380.831	209.75
381.057	212.75
381.282	206.75
381.507	181.75
381.733	219.75
381.958	211.75
382.184	222.75
382.409	205.75
382.634	220.75
382.86	228.75
383.085	219.75
383.31	228.75
383.535	214.75
383.761	242.75
383.986	221.75
384.211	229.75
384.436	236.75
384.662	234.75
384.887	236.75
385.112	250.75
385.337	254.75
385.562	235.75
385.787	232.75
386.013	258.75
386.238	241.75
386.463	253.75
386.688	249.75
386.913	238.75
387.138	248.75
387.363	237.75
387.588	231.75
387.813	231.75
388.038	245.75
388.263	223.75
388.488	229.75
388.713	253.75
388.938	221.75
389.163	229.75
389.387	250.75
389.612	233.75
389.837	231.75
390.062	230.75
390.287	237.75
390.512	233.75
390.736	244.75
390.961	229.75
391.186	262.75
391.411	253.75
391.636	259.75
391.86	265.75
392.085	277.75
392.31	258.75
392.534	255.75
392.759	269.75
392.984	258.75
393.208	255.75
393.433	255.75
393.658	243.75
393.882	257.75
394.107	250.75
394.331	266.75
394.556	250.75
394.78	250.75
395.005	250.75
395.229	243.75
395.454	262.75
395.678	278.75
395.903	261.75
396.127	258.75
396.352	244.75
396.576	274.75
396.801	244.75
397.025	245.75
397.249	256.75
397.474	232.75
397.698	267.75
397.922	259.75
398.147	251.75
398.371	275.75
398.595	267.75
398.82	296.75
399.044	298.75
399.268	315.75
399.492	380.75
399.717	447.75
399.941	417.75
400.165	355.75
400.389	333.75
400.613	317.75
400.837	305.75
401.062	291.75
401.286	280.75
401.51	296.75
401.734	279.75
401.958	271.75
402.182	278.75
402.406	283.75
402.63	311.75
402.854	320.75
403.078	316.75
403.302	323.75
403.526	317.75
403.75	337.75
403.974	322.75
404.198	341.75
404.422	339.75
404.645	329.75
404.869	321.75
405.093	318.75
405.317	309.75
405.541	308.75
405.765	307.75
405.988	308.75
406.212	300.75
406.436	315.75
406.66	301.75
406.883	320.75
407.107	330.75
407.331	343.75
407.555	371.75
407.778	342.75
408.002	335.75
408.226	338.75
408.449	319.75
408.673	311.75
408.896	329.75
409.12	305.75
409.344	322.75
409.567	328.75
409.791	308.75
410.014	310.75
410.238	318.75
410.461	319.75
410.685	314.75
410.908	302.75
411.132	297.75
411.355	295.75
411.578	293.75
411.802	294.75
412.025	284.75
412.249	283.75
412.472	278.75
412.695	281.75
412.919	282.75
413.142	271.75
413.365	262.75
413.589	270.75
413.812	274.75
414.035	271.75
414.258	272.75
414.482	296.75
414.705	292.75
414.928	292.75
415.151	300.75
415.374	296.75
415.597	274.75
415.821	283.75
416.044	272.75
416.267	291.75
416.49	287.75
416.713	254.75
416.936	288.75
417.159	294.75
417.382	279.75
417.605	288.75
417.828	281.75
418.051	288.75
418.274	271.75
418.497	276.75
418.72	298.75
418.943	301.75
419.166	294.75
419.389	296.75
419.611	314.75
419.834	305.75
420.057	317.75
420.28	294.75
420.503	277.75
420.726	281.75
420.948	272.75
421.171	285.75
421.394	265.75
421.617	272.75
421.839	291.75
422.062	290.75
422.285	279.75
422.507	287.75
422.73	295.75
422.953	280.75
423.175	299.75
423.398	305.75
423.621	297.75
423.843	298.75
424.066	314.75
424.288	281.75
424.511	281.75
424.733	298.75
424.956	282.75
425.178	279.75
425.401	277.75
425.623	272.75
425.846	285.75
426.068	270.75
426.291	264.75
426.513	275.75
426.735	269.75
426.958	258.75
427.18	261.75
427.402	266.75
427.625	241.75
427.847	261.75
428.069	250.75
428.292	269.75
428.514	246.75
428.736	231.75
428.958	233.75
429.181	263.75
429.403	233.75
429.625	233.75
429.847	254.75
430.069	236.75
430.292	254.75
430.514	259.75
430.736	253.75
430.958	262.75
431.18	257.75
431.402	269.75
431.624	254.75
431.846	249.75
432.068	259.75
432.29	255.75
432.512	251.75
432.734	254.75
432.956	253.75
433.178	257.75
433.4	245.75
433.622	277.75
433.844	274.75
434.066	252.75
434.287	272.75
434.509	270.75
434.731	266.75
434.953	274.75
435.175	286.75
435.397	275.75
435.618	254.75
435.84	248.75
436.062	248.75
436.284	259.75
436.505	247.75
436.727	233.75
436.949	270.75
437.17	264.75
437.392	260.75
437.614	248.75
437.835	263.75
438.057	234.75
438.278	238.75
438.5	249.75
438.721	245.75
438.943	248.75
439.165	247.75
439.386	227.75
439.608	237.75
439.829	257.75
440.05	253.75
440.272	239.75
440.493	259.75
440.715	260.75
440.936	246.75
441.158	275.75
441.379	292.75
441.6	288.75
441.822	287.75
442.043	301.75
442.264	275.75
442.486	278.75
442.707	283.75
442.928	276.75
443.149	278.75
443.371	289.75
443.592	290.75
443.813	297.75
444.034	269.75
444.255	298.75
444.476	295.75
444.698	335.75
444.919	323.75
445.14	435.75
445.361	362.75
445.582	289.75
445.803	278.75
446.024	277.75
446.245	263.75
446.466	259.75
446.687	276.75
446.908	266.75
447.129	255.75
447.35	260.75
447.571	236.75
447.792	249.75
448.013	249.75
448.234	254.75
448.455	241.75
448.675	256.75
448.896	231.75
449.117	238.75
449.338	220.75
449.559	226.75
449.779	242.75
450	228.75
450.221	223.75
450.442	241.75
450.662	244.75
450.883	248.75
451.104	257.75
451.324	256.75
451.545	251.75
451.766	252.75
451.986	224.75
452.207	247.75
452.428	241.75
452.648	236.75
452.869	220.75
453.089	255.75
453.31	242.75
453.53	241.75
453.751	238.75
453.971	224.75
454.192	234.75
454.412	232.75
454.633	238.75
454.853	226.75
455.073	230.75
455.294	223.75
455.514	257.75
455.734	228.75
455.955	212.75
456.175	230.75
456.395	230.75
456.616	231.75
456.836	235.75
457.056	223.75
457.276	216.75
457.497	210.75
457.717	227.75
457.937	235.75
458.157	225.75
458.377	234.75
458.598	222.75
458.818	235.75
459.038	260.75
459.258	265.75
459.478	260.75
459.698	258.75
459.918	282.75
460.138	290.75
460.358	298.75
460.578	294.75
460.798	294.75
461.018	300.75
461.238	283.75
461.458	291.75
461.678	292.75
461.898	279.75
462.118	321.75
462.338	311.75
462.558	319.75
462.777	319.75
462.997	339.75
463.217	402.75
463.437	392.75
463.657	343.75
463.876	341.75
464.096	331.75
464.316	349.75
464.536	339.75
464.755	354.75
464.975	309.75
465.195	309.75
465.414	283.75
465.634	300.75
465.854	268.75
466.073	272.75
466.293	258.75
466.512	276.75
466.732	245.75
466.951	258.75
467.171	235.75
467.391	261.75
467.61	249.75
467.829	259.75
468.049	244.75
468.268	257.75
468.488	242.75
468.707	221.75
468.927	228.75
469.146	220.75
469.365	238.75
469.585	235.75
469.804	267.75
470.023	273.75
470.243	259.75
470.462	276.75
470.681	238.75
470.901	269.75
471.12	244.75
471.339	259.75
471.558	255.75
471.777	247.75
471.997	249.75
472.216	257.75
472.435	232.75
472.654	211.75
472.873	244.75
473.092	227.75
473.311	240.75
473.53	243.75
473.749	259.75
473.968	248.75
474.187	227.75
474.406	238.75
474.625	222.75
474.844	233.75
475.063	236.75
475.282	236.75
475.501	250.75
475.72	236.75
475.939	259.75
476.158	247.75
476.377	260.75
476.596	248.75
476.814	247.75
477.033	275.75
477.252	245.75
477.471	257.75
477.69	245.75
477.908	261.75
478.127	268.75
478.346	268.75
478.564	272.75
478.783	278.75
479.002	292.75
479.22	282.75
479.439	288.75
479.658	289.75
479.876	276.75
480.095	275.75
480.313	297.75
480.532	317.75
480.751	309.75
480.969	305.75
481.188	286.75
481.406	287.75
481.624	277.75
481.843	282.75
482.061	257.75
482.28	270.75
482.498	257.75
482.717	266.75
482.935	270.75
483.153	276.75
483.372	298.75
483.59	262.75
483.808	285.75
484.027	275.75
484.245	294.75
484.463	297.75
484.681	285.75
484.9	279.75
485.118	284.75
485.336	290.75
485.554	309.75
485.772	282.75
485.99	289.75
486.209	306.75
486.427	302.75
486.645	295.75
486.863	281.75
487.081	296.75
487.299	285.75
487.517	289.75
487.735	287.75
487.953	283.75
488.171	278.75
488.389	287.75
488.607	291.75
488.825	305.75
489.043	285.75
489.261	278.75
489.479	278.75
489.696	278.75
489.914	277.75
490.132	278.75
490.35	294.75
490.568	285.75
490.786	278.75
491.003	295.75
491.221	280.75
491.439	301.75
491.657	270.75
491.874	278.75
492.092	284.75
492.31	310.75
492.527	315.75
492.745	294.75
492.963	301.75
493.18	292.75
493.398	294.75
493.615	305.75
493.833	297.75
494.05	285.75
494.268	299.75
494.485	301.75
494.703	286.75
494.92	301.75
495.138	306.75
495.355	292.75
495.573	281.75
495.79	297.75
496.008	284.75
496.225	305.75
496.442	307.75
496.66	322.75
496.877	320.75
497.094	324.75
497.312	299.75
497.529	327.75
497.746	339.75
497.963	340.75
498.181	347.75
498.398	366.75
498.615	381.75
498.832	413.75
499.049	407.75
499.267	453.75
499.484	485.75
499.701	546.75
499.918	603.75
500.135	692.75
500.352	787.75
500.569	816.75
500.786	819.75
501.003	759.75
501.22	666.75
501.437	595.75
501.654	517.75
501.871	468.75
502.088	434.75
502.305	420.75
502.522	411.75
502.739	411.75
502.956	369.75
503.172	353.75
