Data from 0.5MCu(NO3)2.Standard.Lamp.E10.CV._HRD10591_16-06-02-753.txt Node
Date: Mon Jul 22 16:06:02 EDT 2019
User: cochatt
Spectrometer: HR+D1059
Trigger mode: 1
Integration Time (sec): 1.000000E-1
Scans to average: 1
Electric dark correction enabled: true
Nonlinearity correction enabled: false
Boxcar width: 0
XAxis mode: Wavelengths
Number of Pixels in Spectrum: 2048
>>>>>Begin Spectral Data<<<<<
223.165	-11.81
223.4	-11.81
223.635	-11.81
223.869	-4.81
224.104	-7.81
224.338	-9.81
224.573	-9.81
224.808	-12.81
225.042	-4.81
225.277	-4.81
225.511	-9.81
225.746	3.19
225.98	-4.81
226.215	1.19
226.449	5.19
226.683	16.19
226.918	21.19
227.152	34.19
227.387	33.19
227.621	41.19
227.856	42.19
228.09	56.19
228.324	42.19
228.559	53.19
228.793	58.19
229.027	57.19
229.262	63.19
229.496	59.19
229.73	71.19
229.964	75.19
230.199	72.19
230.433	77.19
230.667	90.19
230.901	90.19
231.136	87.19
231.37	71.19
231.604	87.19
231.838	95.19
232.072	88.19
232.306	102.19
232.541	90.19
232.775	87.19
233.009	84.19
233.243	87.19
233.477	81.19
233.711	91.19
233.945	86.19
234.179	109.19
234.413	89.19
234.647	79.19
234.881	92.19
235.115	84.19
235.349	88.19
235.583	89.19
235.817	81.19
236.051	89.19
236.285	84.19
236.519	82.19
236.753	87.19
236.987	87.19
237.221	92.19
237.455	74.19
237.689	90.19
237.922	93.19
238.156	90.19
238.39	81.19
238.624	101.19
238.858	71.19
239.091	81.19
239.325	86.19
239.559	82.19
239.793	96.19
240.027	87.19
240.26	81.19
240.494	84.19
240.728	83.19
240.961	91.19
241.195	96.19
241.429	91.19
241.662	94.19
241.896	82.19
242.13	95.19
242.363	103.19
242.597	114.19
242.83	94.19
243.064	96.19
243.298	97.19
243.531	100.19
243.765	99.19
243.998	101.19
244.232	99.19
244.465	86.19
244.699	120.19
244.932	94.19
245.166	92.19
245.399	106.19
245.633	86.19
245.866	92.19
246.099	104.19
246.333	104.19
246.566	93.19
246.8	100.19
247.033	98.19
247.266	84.19
247.5	107.19
247.733	103.19
247.966	91.19
248.2	104.19
248.433	91.19
248.666	82.19
248.899	106.19
249.133	108.19
249.366	116.19
249.599	95.19
249.832	94.19
250.066	109.19
250.299	95.19
250.532	112.19
250.765	104.19
250.998	105.19
251.231	109.19
251.465	96.19
251.698	105.19
251.931	103.19
252.164	100.19
252.397	107.19
252.63	108.19
252.863	109.19
253.096	106.19
253.329	89.19
253.562	105.19
253.795	100.19
254.028	106.19
254.261	96.19
254.494	116.19
254.727	104.19
254.96	119.19
255.193	110.19
255.426	98.19
255.659	101.19
255.892	102.19
256.124	91.19
256.357	116.19
256.59	95.19
256.823	121.19
257.056	117.19
257.289	118.19
257.521	103.19
257.754	113.19
257.987	111.19
258.22	131.19
258.452	116.19
258.685	111.19
258.918	102.19
259.151	119.19
259.383	118.19
259.616	106.19
259.849	96.19
260.081	121.19
260.314	131.19
260.547	108.19
260.779	115.19
261.012	123.19
261.244	122.19
261.477	123.19
261.71	110.19
261.942	105.19
262.175	127.19
262.407	118.19
262.64	120.19
262.872	128.19
263.105	116.19
263.337	114.19
263.57	121.19
263.802	123.19
264.035	119.19
264.267	127.19
264.499	128.19
264.732	113.19
264.964	112.19
265.197	136.19
265.429	123.19
265.661	125.19
265.894	122.19
266.126	131.19
266.358	118.19
266.591	116.19
266.823	118.19
267.055	111.19
267.287	129.19
267.52	148.19
267.752	148.19
267.984	132.19
268.216	126.19
268.448	125.19
268.681	133.19
268.913	135.19
269.145	130.19
269.377	128.19
269.609	136.19
269.841	132.19
270.073	119.19
270.306	129.19
270.538	118.19
270.77	123.19
271.002	123.19
271.234	119.19
271.466	134.19
271.698	144.19
271.93	127.19
272.162	139.19
272.394	120.19
272.626	131.19
272.858	130.19
273.09	123.19
273.322	148.19
273.553	143.19
273.785	150.19
274.017	131.19
274.249	127.19
274.481	123.19
274.713	131.19
274.945	137.19
275.176	124.19
275.408	132.19
275.64	138.19
275.872	138.19
276.104	123.19
276.335	133.19
276.567	123.19
276.799	134.19
277.031	139.19
277.262	151.19
277.494	147.19
277.726	145.19
277.957	133.19
278.189	136.19
278.421	141.19
278.652	139.19
278.884	122.19
279.115	147.19
279.347	144.19
279.579	147.19
279.81	140.19
280.042	131.19
280.273	138.19
280.505	143.19
280.736	146.19
280.968	152.19
281.199	152.19
281.431	144.19
281.662	153.19
281.894	151.19
282.125	138.19
282.356	137.19
282.588	151.19
282.819	136.19
283.051	128.19
283.282	136.19
283.513	146.19
283.745	147.19
283.976	144.19
284.207	127.19
284.439	139.19
284.67	138.19
284.901	157.19
285.132	169.19
285.364	143.19
285.595	151.19
285.826	155.19
286.057	155.19
286.288	146.19
286.52	152.19
286.751	148.19
286.982	154.19
287.213	166.19
287.444	166.19
287.675	168.19
287.906	153.19
288.138	178.19
288.369	153.19
288.6	151.19
288.831	149.19
289.062	164.19
289.293	159.19
289.524	137.19
289.755	160.19
289.986	145.19
290.217	153.19
290.448	164.19
290.679	171.19
290.91	158.19
291.141	155.19
291.371	155.19
291.602	161.19
291.833	156.19
292.064	155.19
292.295	151.19
292.526	156.19
292.757	157.19
292.987	171.19
293.218	164.19
293.449	162.19
293.68	161.19
293.91	150.19
294.141	165.19
294.372	172.19
294.603	170.19
294.833	161.19
295.064	137.19
295.295	182.19
295.525	144.19
295.756	141.19
295.987	171.19
296.217	161.19
296.448	181.19
296.679	170.19
296.909	164.19
297.14	187.19
297.37	168.19
297.601	161.19
297.831	168.19
298.062	173.19
298.292	174.19
298.523	177.19
298.753	167.19
298.984	194.19
299.214	183.19
299.445	162.19
299.675	160.19
299.905	173.19
300.136	155.19
300.366	175.19
300.597	168.19
300.827	168.19
301.057	168.19
301.288	181.19
301.518	157.19
301.748	181.19
301.979	175.19
302.209	172.19
302.439	170.19
302.669	168.19
302.9	169.19
303.13	165.19
303.36	179.19
303.59	153.19
303.82	159.19
304.051	193.19
304.281	176.19
304.511	182.19
304.741	176.19
304.971	171.19
305.201	179.19
305.431	191.19
305.661	185.19
305.891	178.19
306.121	172.19
306.352	165.19
306.582	177.19
306.812	163.19
307.042	170.19
307.272	167.19
307.502	172.19
307.731	177.19
307.961	161.19
308.191	179.19
308.421	168.19
308.651	179.19
308.881	165.19
309.111	175.19
309.341	175.19
309.571	202.19
309.8	180.19
310.03	171.19
310.26	173.19
310.49	166.19
310.72	159.19
310.949	158.19
311.179	153.19
311.409	168.19
311.639	170.19
311.868	177.19
312.098	187.19
312.328	181.19
312.557	178.19
312.787	180.19
313.017	175.19
313.246	159.19
313.476	180.19
313.706	176.19
313.935	186.19
314.165	186.19
314.394	188.19
314.624	176.19
314.853	190.19
315.083	177.19
315.312	198.19
315.542	198.19
315.771	178.19
316.001	174.19
316.23	172.19
316.46	185.19
316.689	179.19
316.919	176.19
317.148	170.19
317.377	164.19
317.607	179.19
317.836	183.19
318.065	195.19
318.295	201.19
318.524	173.19
318.753	162.19
318.983	176.19
319.212	162.19
319.441	189.19
319.67	189.19
319.9	184.19
320.129	177.19
320.358	180.19
320.587	183.19
320.816	172.19
321.046	183.19
321.275	170.19
321.504	177.19
321.733	181.19
321.962	188.19
322.191	182.19
322.42	183.19
322.649	184.19
322.878	184.19
323.108	172.19
323.337	193.19
323.566	181.19
323.795	181.19
324.024	180.19
324.253	175.19
324.482	175.19
324.71	181.19
324.939	186.19
325.168	191.19
325.397	187.19
325.626	197.19
325.855	177.19
326.084	187.19
326.313	199.19
326.542	195.19
326.77	184.19
326.999	179.19
327.228	187.19
327.457	183.19
327.686	187.19
327.914	183.19
328.143	176.19
328.372	181.19
328.6	199.19
328.829	199.19
329.058	213.19
329.287	207.19
329.515	180.19
329.744	195.19
329.972	184.19
330.201	201.19
330.43	188.19
330.658	184.19
330.887	191.19
331.115	202.19
331.344	190.19
331.572	197.19
331.801	194.19
332.03	193.19
332.258	198.19
332.486	213.19
332.715	220.19
332.943	216.19
333.172	228.19
333.4	243.19
333.629	243.19
333.857	247.19
334.085	223.19
334.314	241.19
334.542	225.19
334.771	236.19
334.999	211.19
335.227	203.19
335.455	211.19
335.684	199.19
335.912	221.19
336.14	225.19
336.369	204.19
336.597	216.19
336.825	212.19
337.053	225.19
337.281	226.19
337.51	203.19
337.738	225.19
337.966	192.19
338.194	203.19
338.422	205.19
338.65	204.19
338.878	204.19
339.106	198.19
339.334	215.19
339.562	204.19
339.79	195.19
340.018	194.19
340.246	175.19
340.474	198.19
340.702	198.19
340.93	211.19
341.158	202.19
341.386	198.19
341.614	192.19
341.842	190.19
342.07	199.19
342.298	197.19
342.526	193.19
342.754	207.19
342.981	198.19
343.209	194.19
343.437	194.19
343.665	209.19
343.893	219.19
344.12	249.19
344.348	230.19
344.576	223.19
344.804	193.19
345.031	206.19
345.259	200.19
345.487	212.19
345.714	203.19
345.942	188.19
346.17	194.19
346.397	196.19
346.625	201.19
346.853	189.19
347.08	185.19
347.308	192.19
347.535	201.19
347.763	201.19
347.99	198.19
348.218	194.19
348.445	190.19
348.673	203.19
348.9	195.19
349.128	204.19
349.355	180.19
349.583	190.19
349.81	181.19
350.037	181.19
350.265	181.19
350.492	187.19
350.72	179.19
350.947	186.19
351.174	193.19
351.402	187.19
351.629	181.19
351.856	199.19
352.083	179.19
352.311	191.19
352.538	186.19
352.765	184.19
352.992	189.19
353.22	179.19
353.447	191.19
353.674	187.19
353.901	175.19
354.128	170.19
354.355	171.19
354.583	189.19
354.81	190.19
355.037	179.19
355.264	183.19
355.491	184.19
355.718	180.19
355.945	201.19
356.172	183.19
356.399	189.19
356.626	202.19
356.853	209.19
357.08	184.19
357.307	179.19
357.534	171.19
357.761	181.19
357.988	197.19
358.215	187.19
358.441	185.19
358.668	192.19
358.895	191.19
359.122	195.19
359.349	202.19
359.576	192.19
359.802	194.19
360.029	182.19
360.256	177.19
360.483	187.19
360.709	193.19
360.936	188.19
361.163	188.19
361.39	193.19
361.616	184.19
361.843	172.19
362.07	178.19
362.296	179.19
362.523	169.19
362.749	193.19
362.976	193.19
363.203	189.19
363.429	186.19
363.656	204.19
363.882	179.19
364.109	185.19
364.335	169.19
364.562	169.19
364.788	199.19
365.015	184.19
365.241	193.19
365.468	196.19
365.694	186.19
365.92	177.19
366.147	177.19
366.373	169.19
366.599	178.19
366.826	179.19
367.052	194.19
367.278	184.19
367.505	183.19
367.731	177.19
367.957	193.19
368.184	175.19
368.41	176.19
368.636	196.19
368.862	180.19
369.089	188.19
369.315	171.19
369.541	206.19
369.767	186.19
369.993	186.19
370.219	203.19
370.445	199.19
370.672	180.19
370.898	174.19
371.124	191.19
371.35	205.19
371.576	194.19
371.802	186.19
372.028	187.19
372.254	192.19
372.48	202.19
372.706	191.19
372.932	200.19
373.158	193.19
373.384	200.19
373.61	179.19
373.835	191.19
374.061	190.19
374.287	197.19
374.513	187.19
374.739	210.19
374.965	212.19
375.191	220.19
375.416	211.19
375.642	207.19
375.868	213.19
376.094	209.19
376.319	195.19
376.545	211.19
376.771	204.19
376.997	199.19
377.222	208.19
377.448	196.19
377.674	198.19
377.899	198.19
378.125	175.19
378.35	189.19
378.576	211.19
378.802	177.19
379.027	188.19
379.253	182.19
379.478	192.19
379.704	197.19
379.929	182.19
380.155	184.19
380.38	195.19
380.606	205.19
380.831	191.19
381.057	189.19
381.282	168.19
381.507	196.19
381.733	191.19
381.958	197.19
382.184	191.19
382.409	196.19
382.634	181.19
382.86	197.19
383.085	202.19
383.31	193.19
383.535	210.19
383.761	212.19
383.986	209.19
384.211	221.19
384.436	226.19
384.662	213.19
384.887	239.19
385.112	216.19
385.337	208.19
385.562	218.19
385.787	211.19
386.013	234.19
386.238	233.19
386.463	225.19
386.688	229.19
386.913	231.19
387.138	211.19
387.363	226.19
387.588	216.19
387.813	203.19
388.038	214.19
388.263	219.19
388.488	225.19
388.713	211.19
388.938	201.19
389.163	204.19
389.387	217.19
389.612	214.19
389.837	207.19
390.062	211.19
390.287	196.19
390.512	211.19
390.736	218.19
390.961	208.19
391.186	216.19
391.411	223.19
391.636	215.19
391.86	229.19
392.085	250.19
392.31	225.19
392.534	230.19
392.759	236.19
392.984	223.19
393.208	226.19
393.433	221.19
393.658	228.19
393.882	232.19
394.107	236.19
394.331	221.19
394.556	233.19
394.78	234.19
395.005	234.19
395.229	233.19
395.454	229.19
395.678	237.19
395.903	247.19
396.127	221.19
396.352	224.19
396.576	216.19
396.801	233.19
397.025	232.19
397.249	221.19
397.474	222.19
397.698	236.19
397.922	237.19
398.147	229.19
398.371	236.19
398.595	248.19
398.82	256.19
399.044	274.19
399.268	284.19
399.492	326.19
399.717	367.19
399.941	344.19
400.165	326.19
400.389	293.19
400.613	260.19
400.837	248.19
401.062	277.19
401.286	250.19
401.51	245.19
401.734	246.19
401.958	256.19
402.182	255.19
402.406	269.19
402.63	257.19
402.854	259.19
403.078	257.19
403.302	286.19
403.526	291.19
403.75	283.19
403.974	293.19
404.198	293.19
404.422	286.19
404.645	282.19
404.869	298.19
405.093	278.19
405.317	284.19
405.541	273.19
405.765	286.19
405.988	277.19
406.212	280.19
406.436	285.19
406.66	290.19
406.883	290.19
407.107	283.19
407.331	304.19
407.555	305.19
407.778	323.19
408.002	314.19
408.226	307.19
408.449	309.19
408.673	285.19
408.896	295.19
409.12	294.19
409.344	281.19
409.567	281.19
409.791	289.19
410.014	303.19
410.238	284.19
410.461	282.19
410.685	293.19
410.908	278.19
411.132	274.19
411.355	250.19
411.578	263.19
411.802	249.19
412.025	266.19
412.249	272.19
412.472	260.19
412.695	256.19
412.919	258.19
413.142	246.19
413.365	252.19
413.589	237.19
413.812	243.19
414.035	264.19
414.258	244.19
414.482	255.19
414.705	271.19
414.928	256.19
415.151	258.19
415.374	243.19
415.597	253.19
415.821	237.19
416.044	239.19
416.267	244.19
416.49	249.19
416.713	250.19
416.936	259.19
417.159	252.19
417.382	245.19
417.605	234.19
417.828	264.19
418.051	263.19
418.274	268.19
418.497	245.19
418.72	260.19
418.943	244.19
419.166	264.19
419.389	271.19
419.611	284.19
419.834	262.19
420.057	277.19
420.28	269.19
420.503	249.19
420.726	249.19
420.948	248.19
421.171	242.19
421.394	259.19
421.617	249.19
421.839	258.19
422.062	255.19
422.285	260.19
422.507	270.19
422.73	279.19
422.953	274.19
423.175	247.19
423.398	269.19
423.621	266.19
423.843	279.19
424.066	274.19
424.288	267.19
424.511	265.19
424.733	263.19
424.956	257.19
425.178	252.19
425.401	236.19
425.623	252.19
425.846	242.19
426.068	241.19
426.291	252.19
426.513	237.19
426.735	253.19
426.958	252.19
427.18	242.19
427.402	235.19
427.625	226.19
427.847	228.19
428.069	232.19
428.292	225.19
428.514	215.19
428.736	234.19
428.958	217.19
429.181	224.19
429.403	242.19
429.625	231.19
429.847	237.19
430.069	220.19
430.292	235.19
430.514	234.19
430.736	236.19
430.958	233.19
431.18	227.19
431.402	230.19
431.624	235.19
431.846	233.19
432.068	239.19
432.29	233.19
432.512	219.19
432.734	229.19
432.956	236.19
433.178	230.19
433.4	225.19
433.622	245.19
433.844	248.19
434.066	251.19
434.287	239.19
434.509	243.19
434.731	239.19
434.953	258.19
435.175	261.19
435.397	268.19
435.618	229.19
435.84	215.19
436.062	219.19
436.284	240.19
436.505	230.19
436.727	231.19
436.949	249.19
437.17	225.19
437.392	226.19
437.614	233.19
437.835	236.19
438.057	220.19
438.278	222.19
438.5	232.19
438.721	219.19
438.943	221.19
439.165	229.19
439.386	224.19
439.608	226.19
439.829	240.19
440.05	237.19
440.272	223.19
440.493	212.19
440.715	241.19
440.936	243.19
441.158	245.19
441.379	251.19
441.6	262.19
441.822	265.19
442.043	265.19
442.264	257.19
442.486	261.19
442.707	267.19
442.928	232.19
443.149	244.19
443.371	259.19
443.592	249.19
443.813	256.19
444.034	272.19
444.255	273.19
444.476	268.19
444.698	269.19
444.919	289.19
445.14	352.19
445.361	305.19
445.582	266.19
445.803	242.19
446.024	252.19
446.245	234.19
446.466	240.19
446.687	233.19
446.908	235.19
447.129	213.19
447.35	224.19
447.571	236.19
447.792	228.19
448.013	217.19
448.234	229.19
448.455	210.19
448.675	216.19
448.896	210.19
449.117	215.19
449.338	217.19
449.559	235.19
449.779	215.19
450	200.19
450.221	216.19
450.442	224.19
450.662	204.19
450.883	228.19
451.104	229.19
451.324	210.19
451.545	219.19
451.766	209.19
451.986	216.19
452.207	224.19
452.428	238.19
452.648	227.19
452.869	207.19
453.089	200.19
453.31	216.19
453.53	205.19
453.751	217.19
453.971	210.19
454.192	224.19
454.412	188.19
454.633	209.19
454.853	211.19
455.073	202.19
455.294	206.19
455.514	215.19
455.734	203.19
455.955	194.19
456.175	199.19
456.395	202.19
456.616	215.19
456.836	195.19
457.056	220.19
457.276	197.19
457.497	206.19
457.717	219.19
457.937	213.19
458.157	221.19
458.377	195.19
458.598	223.19
458.818	205.19
459.038	214.19
459.258	234.19
459.478	230.19
459.698	250.19
459.918	240.19
460.138	242.19
460.358	257.19
460.578	278.19
460.798	259.19
461.018	273.19
461.238	259.19
461.458	246.19
461.678	277.19
461.898	264.19
462.118	268.19
462.338	272.19
462.558	283.19
462.777	316.19
462.997	301.19
463.217	348.19
463.437	357.19
463.657	336.19
463.876	304.19
464.096	297.19
464.316	326.19
464.536	286.19
464.755	305.19
464.975	292.19
465.195	273.19
465.414	257.19
465.634	236.19
465.854	243.19
466.073	230.19
466.293	228.19
466.512	234.19
466.732	231.19
466.951	232.19
467.171	229.19
467.391	249.19
467.61	241.19
467.829	212.19
468.049	219.19
468.268	231.19
468.488	214.19
468.707	204.19
468.927	215.19
469.146	214.19
469.365	246.19
469.585	223.19
469.804	213.19
470.023	228.19
470.243	229.19
470.462	220.19
470.681	239.19
470.901	235.19
471.12	232.19
471.339	230.19
471.558	227.19
471.777	230.19
471.997	232.19
472.216	223.19
472.435	217.19
472.654	226.19
472.873	239.19
473.092	200.19
473.311	225.19
473.53	205.19
473.749	217.19
473.968	232.19
474.187	201.19
474.406	213.19
474.625	233.19
474.844	224.19
475.063	212.19
475.282	225.19
475.501	217.19
475.72	199.19
475.939	225.19
476.158	225.19
476.377	222.19
476.596	230.19
476.814	224.19
477.033	218.19
477.252	233.19
477.471	223.19
477.69	245.19
477.908	235.19
478.127	245.19
478.346	249.19
478.564	261.19
478.783	272.19
479.002	266.19
479.22	273.19
479.439	265.19
479.658	265.19
479.876	262.19
480.095	243.19
480.313	275.19
480.532	276.19
480.751	287.19
480.969	272.19
481.188	259.19
481.406	255.19
481.624	243.19
481.843	253.19
482.061	230.19
482.28	235.19
482.498	255.19
482.717	236.19
482.935	225.19
483.153	227.19
483.372	258.19
483.59	263.19
483.808	233.19
484.027	252.19
484.245	249.19
484.463	250.19
484.681	273.19
484.9	253.19
485.118	261.19
485.336	259.19
485.554	259.19
485.772	265.19
485.99	271.19
486.209	267.19
486.427	270.19
486.645	263.19
486.863	266.19
487.081	266.19
487.299	275.19
487.517	246.19
487.735	262.19
487.953	275.19
488.171	259.19
488.389	264.19
488.607	242.19
488.825	235.19
489.043	267.19
489.261	242.19
489.479	253.19
489.696	277.19
489.914	255.19
490.132	260.19
490.35	253.19
490.568	258.19
490.786	262.19
491.003	258.19
491.221	267.19
491.439	276.19
491.657	261.19
491.874	273.19
492.092	264.19
492.31	272.19
492.527	269.19
492.745	266.19
492.963	270.19
493.18	260.19
493.398	287.19
493.615	273.19
493.833	267.19
494.05	275.19
494.268	292.19
494.485	273.19
494.703	262.19
494.92	265.19
495.138	275.19
495.355	277.19
495.573	276.19
495.79	280.19
496.008	281.19
496.225	265.19
496.442	290.19
496.66	275.19
496.877	271.19
497.094	290.19
497.312	284.19
497.529	278.19
497.746	295.19
497.963	294.19
498.181	299.19
498.398	340.19
498.615	342.19
498.832	351.19
499.049	388.19
499.267	436.19
499.484	420.19
499.701	477.19
499.918	514.19
500.135	603.19
500.352	686.19
500.569	740.19
500.786	719.19
501.003	687.19
501.22	625.19
501.437	545.19
501.654	467.19
501.871	426.19
502.088	408.19
502.305	387.19
502.522	365.19
502.739	358.19
502.956	341.19
503.172	327.19
503.389	325.19
