Data from 0.5MCu(NO3)2.Standard.Lamp.E10.CV._HRD10591_16-04-36-753.txt Node
Date: Mon Jul 22 16:04:36 EDT 2019
User: cochatt
Spectrometer: HR+D1059
Trigger mode: 1
Integration Time (sec): 1.000000E-1
Scans to average: 1
Electric dark correction enabled: true
Nonlinearity correction enabled: false
Boxcar width: 0
XAxis mode: Wavelengths
Number of Pixels in Spectrum: 2048
>>>>>Begin Spectral Data<<<<<
223.165	-19.75
223.4	-19.75
223.635	-19.75
223.869	-27.75
224.104	-15.75
224.338	-14.75
224.573	-15.75
224.808	2.25
225.042	-6.75
225.277	-6.75
225.511	-13.75
225.746	9.25
225.98	11.25
226.215	17.25
226.449	20.25
226.683	22.25
226.918	8.25
227.152	30.25
227.387	31.25
227.621	36.25
227.856	40.25
228.09	39.25
228.324	41.25
228.559	53.25
228.793	64.25
229.027	77.25
229.262	64.25
229.496	65.25
229.73	76.25
229.964	88.25
230.199	85.25
230.433	80.25
230.667	92.25
230.901	103.25
231.136	96.25
231.37	101.25
231.604	96.25
231.838	83.25
232.072	101.25
232.306	87.25
232.541	93.25
232.775	90.25
233.009	89.25
233.243	100.25
233.477	98.25
233.711	87.25
233.945	98.25
234.179	114.25
234.413	96.25
234.647	88.25
234.881	103.25
235.115	107.25
235.349	105.25
235.583	90.25
235.817	78.25
236.051	91.25
236.285	91.25
236.519	80.25
236.753	92.25
236.987	84.25
237.221	97.25
237.455	103.25
237.689	103.25
237.922	85.25
238.156	104.25
238.39	101.25
238.624	84.25
238.858	109.25
239.091	101.25
239.325	100.25
239.559	89.25
239.793	81.25
240.027	84.25
240.26	91.25
240.494	96.25
240.728	98.25
240.961	98.25
241.195	105.25
241.429	93.25
241.662	81.25
241.896	82.25
242.13	95.25
242.363	102.25
242.597	98.25
242.83	108.25
243.064	104.25
243.298	92.25
243.531	96.25
243.765	115.25
243.998	92.25
244.232	91.25
244.465	105.25
244.699	115.25
244.932	107.25
245.166	101.25
245.399	107.25
245.633	93.25
245.866	99.25
246.099	92.25
246.333	106.25
246.566	106.25
246.8	105.25
247.033	114.25
247.266	113.25
247.5	100.25
247.733	105.25
247.966	120.25
248.2	121.25
248.433	101.25
248.666	121.25
248.899	122.25
249.133	123.25
249.366	117.25
249.599	108.25
249.832	125.25
250.066	123.25
250.299	123.25
250.532	130.25
250.765	128.25
250.998	118.25
251.231	115.25
251.465	119.25
251.698	112.25
251.931	118.25
252.164	122.25
252.397	128.25
252.63	118.25
252.863	111.25
253.096	121.25
253.329	126.25
253.562	106.25
253.795	119.25
254.028	113.25
254.261	120.25
254.494	113.25
254.727	116.25
254.96	114.25
255.193	120.25
255.426	127.25
255.659	121.25
255.892	115.25
256.124	115.25
256.357	128.25
256.59	125.25
256.823	139.25
257.056	122.25
257.289	131.25
257.521	119.25
257.754	135.25
257.987	126.25
258.22	152.25
258.452	127.25
258.685	136.25
258.918	133.25
259.151	134.25
259.383	126.25
259.616	135.25
259.849	137.25
260.081	131.25
260.314	135.25
260.547	124.25
260.779	142.25
261.012	133.25
261.244	137.25
261.477	136.25
261.71	150.25
261.942	148.25
262.175	127.25
262.407	139.25
262.64	141.25
262.872	121.25
263.105	128.25
263.337	140.25
263.57	149.25
263.802	139.25
264.035	124.25
264.267	132.25
264.499	145.25
264.732	135.25
264.964	155.25
265.197	131.25
265.429	141.25
265.661	162.25
265.894	158.25
266.126	160.25
266.358	148.25
266.591	139.25
266.823	141.25
267.055	134.25
267.287	154.25
267.52	142.25
267.752	147.25
267.984	156.25
268.216	159.25
268.448	140.25
268.681	156.25
268.913	144.25
269.145	156.25
269.377	148.25
269.609	130.25
269.841	132.25
270.073	146.25
270.306	153.25
270.538	153.25
270.77	156.25
271.002	138.25
271.234	158.25
271.466	148.25
271.698	161.25
271.93	163.25
272.162	153.25
272.394	159.25
272.626	155.25
272.858	165.25
273.09	158.25
273.322	164.25
273.553	173.25
273.785	140.25
274.017	150.25
274.249	153.25
274.481	158.25
274.713	157.25
274.945	164.25
275.176	161.25
275.408	172.25
275.64	155.25
275.872	153.25
276.104	153.25
276.335	165.25
276.567	165.25
276.799	147.25
277.031	151.25
277.262	162.25
277.494	155.25
277.726	162.25
277.957	164.25
278.189	169.25
278.421	171.25
278.652	168.25
278.884	152.25
279.115	182.25
279.347	179.25
279.579	180.25
279.81	158.25
280.042	167.25
280.273	152.25
280.505	184.25
280.736	171.25
280.968	185.25
281.199	172.25
281.431	183.25
281.662	170.25
281.894	181.25
282.125	185.25
282.356	190.25
282.588	197.25
282.819	182.25
283.051	179.25
283.282	184.25
283.513	175.25
283.745	193.25
283.976	179.25
284.207	191.25
284.439	191.25
284.67	203.25
284.901	191.25
285.132	189.25
285.364	185.25
285.595	182.25
285.826	182.25
286.057	203.25
286.288	200.25
286.52	194.25
286.751	191.25
286.982	194.25
287.213	188.25
287.444	197.25
287.675	196.25
287.906	201.25
288.138	202.25
288.369	198.25
288.6	179.25
288.831	179.25
289.062	198.25
289.293	193.25
289.524	181.25
289.755	184.25
289.986	193.25
290.217	201.25
290.448	204.25
290.679	196.25
290.91	187.25
291.141	196.25
291.371	193.25
291.602	201.25
291.833	210.25
292.064	185.25
292.295	201.25
292.526	210.25
292.757	209.25
292.987	211.25
293.218	209.25
293.449	190.25
293.68	184.25
293.91	207.25
294.141	196.25
294.372	186.25
294.603	200.25
294.833	196.25
295.064	209.25
295.295	193.25
295.525	188.25
295.756	219.25
295.987	198.25
296.217	189.25
296.448	207.25
296.679	216.25
296.909	213.25
297.14	211.25
297.37	219.25
297.601	221.25
297.831	226.25
298.062	208.25
298.292	220.25
298.523	212.25
298.753	227.25
298.984	228.25
299.214	227.25
299.445	225.25
299.675	215.25
299.905	234.25
300.136	209.25
300.366	221.25
300.597	209.25
300.827	237.25
301.057	233.25
301.288	233.25
301.518	234.25
301.748	220.25
301.979	233.25
302.209	219.25
302.439	233.25
302.669	211.25
302.9	203.25
303.13	216.25
303.36	216.25
303.59	223.25
303.82	225.25
304.051	228.25
304.281	228.25
304.511	215.25
304.741	228.25
304.971	209.25
305.201	213.25
305.431	230.25
305.661	225.25
305.891	205.25
306.121	232.25
306.352	252.25
306.582	223.25
306.812	237.25
307.042	228.25
307.272	214.25
307.502	214.25
307.731	195.25
307.961	215.25
308.191	219.25
308.421	220.25
308.651	213.25
308.881	209.25
309.111	232.25
309.341	213.25
309.571	219.25
309.8	220.25
310.03	209.25
310.26	226.25
310.49	212.25
310.72	220.25
310.949	231.25
311.179	211.25
311.409	225.25
311.639	232.25
311.868	232.25
312.098	230.25
312.328	203.25
312.557	235.25
312.787	232.25
313.017	213.25
313.246	231.25
313.476	228.25
313.706	239.25
313.935	241.25
314.165	230.25
314.394	229.25
314.624	237.25
314.853	228.25
315.083	236.25
315.312	219.25
315.542	229.25
315.771	221.25
316.001	219.25
316.23	231.25
316.46	234.25
316.689	220.25
316.919	225.25
317.148	232.25
317.377	224.25
317.607	233.25
317.836	234.25
318.065	226.25
318.295	220.25
318.524	232.25
318.753	205.25
318.983	234.25
319.212	223.25
319.441	214.25
319.67	244.25
319.9	235.25
320.129	227.25
320.358	227.25
320.587	217.25
320.816	228.25
321.046	221.25
321.275	229.25
321.504	234.25
321.733	249.25
321.962	237.25
322.191	234.25
322.42	223.25
322.649	228.25
322.878	229.25
323.108	228.25
323.337	235.25
323.566	229.25
323.795	234.25
324.024	245.25
324.253	243.25
324.482	230.25
324.71	232.25
324.939	232.25
325.168	246.25
325.397	224.25
325.626	241.25
325.855	240.25
326.084	245.25
326.313	252.25
326.542	240.25
326.77	257.25
326.999	244.25
327.228	243.25
327.457	244.25
327.686	253.25
327.914	243.25
328.143	237.25
328.372	254.25
328.6	244.25
328.829	258.25
329.058	245.25
329.287	245.25
329.515	272.25
329.744	250.25
329.972	245.25
330.201	246.25
330.43	234.25
330.658	234.25
330.887	241.25
331.115	244.25
331.344	256.25
331.572	271.25
331.801	256.25
332.03	248.25
332.258	280.25
332.486	288.25
332.715	269.25
332.943	310.25
333.172	319.25
333.4	318.25
333.629	323.25
333.857	310.25
334.085	337.25
334.314	335.25
334.542	299.25
334.771	319.25
334.999	293.25
335.227	284.25
335.455	300.25
335.684	301.25
335.912	306.25
336.14	285.25
336.369	296.25
336.597	293.25
336.825	284.25
337.053	286.25
337.281	284.25
337.51	276.25
337.738	272.25
337.966	279.25
338.194	261.25
338.422	245.25
338.65	256.25
338.878	276.25
339.106	263.25
339.334	271.25
339.562	267.25
339.79	261.25
340.018	251.25
340.246	246.25
340.474	252.25
340.702	242.25
340.93	248.25
341.158	261.25
341.386	272.25
341.614	250.25
341.842	253.25
342.07	253.25
342.298	237.25
342.526	252.25
342.754	269.25
342.981	247.25
343.209	256.25
343.437	256.25
343.665	276.25
343.893	289.25
344.12	312.25
344.348	285.25
344.576	277.25
344.804	261.25
345.031	258.25
345.259	253.25
345.487	249.25
345.714	252.25
345.942	242.25
346.17	242.25
346.397	234.25
346.625	245.25
346.853	230.25
347.08	225.25
347.308	240.25
347.535	241.25
347.763	259.25
347.99	255.25
348.218	244.25
348.445	262.25
348.673	225.25
348.9	243.25
349.128	247.25
349.355	249.25
349.583	242.25
349.81	242.25
350.037	233.25
350.265	242.25
350.492	242.25
350.72	240.25
350.947	232.25
351.174	237.25
351.402	237.25
351.629	241.25
351.856	233.25
352.083	235.25
352.311	241.25
352.538	228.25
352.765	215.25
352.992	237.25
353.22	227.25
353.447	239.25
353.674	225.25
353.901	251.25
354.128	227.25
354.355	217.25
354.583	237.25
354.81	229.25
355.037	237.25
355.264	228.25
355.491	243.25
355.718	257.25
355.945	257.25
356.172	247.25
356.399	233.25
356.626	261.25
356.853	241.25
357.08	259.25
357.307	229.25
357.534	235.25
357.761	242.25
357.988	243.25
358.215	260.25
358.441	233.25
358.668	227.25
358.895	247.25
359.122	245.25
359.349	225.25
359.576	234.25
359.802	233.25
360.029	243.25
360.256	241.25
360.483	241.25
360.709	237.25
360.936	256.25
361.163	244.25
361.39	236.25
361.616	240.25
361.843	247.25
362.07	230.25
362.296	244.25
362.523	227.25
362.749	248.25
362.976	231.25
363.203	227.25
363.429	227.25
363.656	229.25
363.882	237.25
364.109	238.25
364.335	251.25
364.562	220.25
364.788	232.25
365.015	239.25
365.241	223.25
365.468	243.25
365.694	241.25
365.92	232.25
366.147	243.25
366.373	245.25
366.599	240.25
366.826	241.25
367.052	243.25
367.278	240.25
367.505	241.25
367.731	229.25
367.957	260.25
368.184	234.25
368.41	236.25
368.636	242.25
368.862	243.25
369.089	236.25
369.315	243.25
369.541	257.25
369.767	248.25
369.993	246.25
370.219	223.25
370.445	263.25
370.672	263.25
370.898	251.25
371.124	255.25
371.35	228.25
371.576	247.25
371.802	258.25
372.028	246.25
372.254	245.25
372.48	253.25
372.706	243.25
372.932	268.25
373.158	263.25
373.384	265.25
373.61	260.25
373.835	255.25
374.061	248.25
374.287	250.25
374.513	247.25
374.739	255.25
374.965	270.25
375.191	282.25
375.416	291.25
375.642	267.25
375.868	278.25
376.094	245.25
376.319	268.25
376.545	259.25
376.771	255.25
376.997	261.25
377.222	257.25
377.448	255.25
377.674	248.25
377.899	264.25
378.125	230.25
378.35	265.25
378.576	248.25
378.802	233.25
379.027	251.25
379.253	256.25
379.478	256.25
379.704	258.25
379.929	264.25
380.155	250.25
380.38	241.25
380.606	261.25
380.831	242.25
381.057	235.25
381.282	240.25
381.507	260.25
381.733	240.25
381.958	258.25
382.184	244.25
382.409	247.25
382.634	245.25
382.86	243.25
383.085	268.25
383.31	269.25
383.535	252.25
383.761	268.25
383.986	288.25
384.211	263.25
384.436	281.25
384.662	283.25
384.887	289.25
385.112	295.25
385.337	287.25
385.562	298.25
385.787	276.25
386.013	304.25
386.238	306.25
386.463	294.25
386.688	296.25
386.913	279.25
387.138	294.25
387.363	266.25
387.588	269.25
387.813	281.25
388.038	285.25
388.263	280.25
388.488	304.25
388.713	290.25
388.938	269.25
389.163	269.25
389.387	292.25
389.612	281.25
389.837	273.25
390.062	282.25
390.287	265.25
390.512	269.25
390.736	280.25
390.961	301.25
391.186	307.25
391.411	321.25
391.636	326.25
391.86	321.25
392.085	316.25
392.31	327.25
392.534	295.25
392.759	320.25
392.984	305.25
393.208	284.25
393.433	286.25
393.658	281.25
393.882	313.25
394.107	307.25
394.331	299.25
394.556	311.25
394.78	305.25
395.005	309.25
395.229	304.25
395.454	311.25
395.678	315.25
395.903	296.25
396.127	288.25
396.352	289.25
396.576	291.25
396.801	288.25
397.025	291.25
397.249	298.25
397.474	324.25
397.698	323.25
397.922	313.25
398.147	312.25
398.371	326.25
398.595	315.25
398.82	314.25
399.044	355.25
399.268	378.25
399.492	451.25
399.717	504.25
399.941	514.25
400.165	460.25
400.389	403.25
400.613	349.25
400.837	344.25
401.062	337.25
401.286	330.25
401.51	333.25
401.734	339.25
401.958	349.25
402.182	343.25
402.406	341.25
402.63	350.25
402.854	384.25
403.078	371.25
403.302	372.25
403.526	386.25
403.75	376.25
403.974	394.25
404.198	377.25
404.422	394.25
404.645	389.25
404.869	390.25
405.093	389.25
405.317	380.25
405.541	373.25
405.765	392.25
405.988	380.25
406.212	365.25
406.436	383.25
406.66	364.25
406.883	387.25
407.107	408.25
407.331	422.25
407.555	426.25
407.778	416.25
408.002	420.25
408.226	402.25
408.449	411.25
408.673	376.25
408.896	394.25
409.12	379.25
409.344	380.25
409.567	393.25
409.791	404.25
410.014	393.25
410.238	404.25
410.461	379.25
410.685	383.25
410.908	353.25
411.132	372.25
411.355	351.25
411.578	339.25
411.802	355.25
412.025	347.25
412.249	359.25
412.472	360.25
412.695	349.25
412.919	341.25
413.142	349.25
413.365	327.25
413.589	332.25
413.812	327.25
414.035	326.25
414.258	339.25
414.482	340.25
414.705	363.25
414.928	343.25
415.151	367.25
415.374	339.25
415.597	333.25
415.821	336.25
416.044	348.25
416.267	345.25
416.49	337.25
416.713	336.25
416.936	321.25
417.159	332.25
417.382	340.25
417.605	336.25
417.828	317.25
418.051	321.25
418.274	325.25
418.497	340.25
418.72	340.25
418.943	338.25
419.166	380.25
419.389	389.25
419.611	374.25
419.834	357.25
420.057	343.25
420.28	363.25
420.503	338.25
420.726	331.25
420.948	314.25
421.171	330.25
421.394	347.25
421.617	335.25
421.839	339.25
422.062	346.25
422.285	324.25
422.507	339.25
422.73	339.25
422.953	332.25
423.175	352.25
423.398	354.25
423.621	349.25
423.843	365.25
424.066	357.25
424.288	362.25
424.511	364.25
424.733	337.25
424.956	351.25
425.178	326.25
425.401	331.25
425.623	325.25
425.846	332.25
426.068	319.25
426.291	324.25
426.513	326.25
426.735	320.25
426.958	305.25
427.18	313.25
427.402	288.25
427.625	307.25
427.847	301.25
428.069	284.25
428.292	300.25
428.514	297.25
428.736	319.25
428.958	304.25
429.181	300.25
429.403	285.25
429.625	288.25
429.847	308.25
430.069	294.25
430.292	294.25
430.514	297.25
430.736	301.25
430.958	307.25
431.18	305.25
431.402	296.25
431.624	293.25
431.846	309.25
432.068	318.25
432.29	307.25
432.512	312.25
432.734	328.25
432.956	310.25
433.178	316.25
433.4	310.25
433.622	300.25
433.844	306.25
434.066	321.25
434.287	299.25
434.509	320.25
434.731	329.25
434.953	336.25
435.175	356.25
435.397	349.25
435.618	314.25
435.84	311.25
436.062	295.25
436.284	291.25
436.505	295.25
436.727	290.25
436.949	306.25
437.17	314.25
437.392	310.25
437.614	296.25
437.835	309.25
438.057	287.25
438.278	287.25
438.5	299.25
438.721	282.25
438.943	287.25
439.165	305.25
439.386	282.25
439.608	284.25
439.829	304.25
440.05	287.25
440.272	303.25
440.493	300.25
440.715	330.25
440.936	297.25
441.158	307.25
441.379	315.25
441.6	346.25
441.822	359.25
442.043	333.25
442.264	328.25
442.486	338.25
442.707	338.25
442.928	332.25
443.149	342.25
443.371	334.25
443.592	314.25
443.813	337.25
444.034	344.25
444.255	365.25
444.476	351.25
444.698	409.25
444.919	383.25
445.14	492.25
445.361	409.25
445.582	355.25
445.803	315.25
446.024	318.25
446.245	316.25
446.466	305.25
446.687	305.25
446.908	332.25
447.129	309.25
447.35	282.25
447.571	293.25
447.792	295.25
448.013	289.25
448.234	297.25
448.455	298.25
448.675	273.25
448.896	284.25
449.117	296.25
449.338	289.25
449.559	280.25
449.779	289.25
450	276.25
450.221	288.25
450.442	277.25
450.662	277.25
450.883	277.25
451.104	291.25
451.324	283.25
451.545	282.25
451.766	296.25
451.986	292.25
452.207	294.25
452.428	280.25
452.648	284.25
452.869	272.25
453.089	288.25
453.31	284.25
453.53	272.25
453.751	288.25
453.971	270.25
454.192	265.25
454.412	270.25
454.633	286.25
454.853	281.25
455.073	267.25
455.294	266.25
455.514	258.25
455.734	259.25
455.955	271.25
456.175	262.25
456.395	250.25
456.616	256.25
456.836	269.25
457.056	260.25
457.276	256.25
457.497	270.25
457.717	237.25
457.937	262.25
458.157	279.25
458.377	274.25
458.598	281.25
458.818	284.25
459.038	285.25
459.258	309.25
459.478	312.25
459.698	314.25
459.918	298.25
460.138	330.25
460.358	338.25
460.578	357.25
460.798	351.25
461.018	369.25
461.238	353.25
461.458	347.25
461.678	353.25
461.898	360.25
462.118	352.25
462.338	372.25
462.558	384.25
462.777	402.25
462.997	439.25
463.217	458.25
463.437	487.25
463.657	433.25
463.876	400.25
464.096	403.25
464.316	395.25
464.536	417.25
464.755	402.25
464.975	381.25
465.195	360.25
465.414	329.25
465.634	334.25
465.854	305.25
466.073	300.25
466.293	309.25
466.512	313.25
466.732	300.25
466.951	308.25
467.171	287.25
467.391	279.25
467.61	293.25
467.829	277.25
468.049	268.25
468.268	288.25
468.488	284.25
468.707	284.25
468.927	288.25
469.146	273.25
469.365	297.25
469.585	289.25
469.804	298.25
470.023	296.25
470.243	307.25
470.462	303.25
470.681	324.25
470.901	314.25
471.12	303.25
471.339	276.25
471.558	287.25
471.777	288.25
471.997	276.25
472.216	283.25
472.435	283.25
472.654	284.25
472.873	295.25
473.092	293.25
473.311	280.25
473.53	277.25
473.749	277.25
473.968	273.25
474.187	274.25
474.406	287.25
474.625	299.25
474.844	291.25
475.063	284.25
475.282	321.25
475.501	287.25
475.72	303.25
475.939	285.25
476.158	288.25
476.377	284.25
476.596	277.25
476.814	287.25
477.033	298.25
477.252	287.25
477.471	311.25
477.69	313.25
477.908	321.25
478.127	327.25
478.346	336.25
478.564	342.25
478.783	340.25
479.002	351.25
479.22	356.25
479.439	346.25
479.658	348.25
479.876	351.25
480.095	344.25
480.313	383.25
480.532	383.25
480.751	356.25
480.969	346.25
481.188	329.25
481.406	352.25
481.624	336.25
481.843	321.25
482.061	314.25
482.28	312.25
482.498	327.25
482.717	328.25
482.935	331.25
483.153	321.25
483.372	327.25
483.59	338.25
483.808	332.25
484.027	351.25
484.245	325.25
484.463	327.25
484.681	337.25
484.9	334.25
485.118	339.25
485.336	339.25
485.554	348.25
485.772	371.25
485.99	361.25
486.209	347.25
486.427	380.25
486.645	358.25
486.863	337.25
487.081	360.25
487.299	337.25
487.517	354.25
487.735	329.25
487.953	345.25
488.171	345.25
488.389	338.25
488.607	332.25
488.825	324.25
489.043	327.25
489.261	344.25
489.479	362.25
489.696	336.25
489.914	340.25
490.132	336.25
490.35	336.25
490.568	355.25
490.786	342.25
491.003	345.25
491.221	358.25
491.439	353.25
491.657	334.25
491.874	351.25
492.092	357.25
492.31	338.25
492.527	347.25
492.745	341.25
492.963	359.25
493.18	333.25
493.398	347.25
493.615	351.25
493.833	351.25
494.05	363.25
494.268	372.25
494.485	369.25
494.703	372.25
494.92	369.25
495.138	362.25
495.355	363.25
495.573	360.25
495.79	394.25
496.008	363.25
496.225	373.25
496.442	360.25
496.66	367.25
496.877	375.25
497.094	367.25
497.312	395.25
497.529	397.25
497.746	394.25
497.963	404.25
498.181	432.25
498.398	437.25
498.615	473.25
498.832	470.25
499.049	496.25
499.267	563.25
499.484	607.25
499.701	683.25
499.918	745.25
500.135	819.25
500.352	995.25
500.569	1010.25
500.786	1043.25
501.003	959.25
501.22	854.25
501.437	746.25
501.654	628.25
501.871	587.25
502.088	551.25
502.305	483.25
502.522	498.25
502.739	476.25
