Data from 0.5MCu(NO3)2.Standard.Lamp.E10.CV._HRD10591_16-06-39-754.txt Node
Date: Mon Jul 22 16:06:39 EDT 2019
User: cochatt
Spectrometer: HR+D1059
Trigger mode: 1
Integration Time (sec): 1.000000E-1
Scans to average: 1
Electric dark correction enabled: true
Nonlinearity correction enabled: false
Boxcar width: 0
XAxis mode: Wavelengths
Number of Pixels in Spectrum: 2048
>>>>>Begin Spectral Data<<<<<
223.165	-11.25
223.4	-11.25
223.635	-11.25
223.869	5.75
224.104	-25.25
224.338	-19.25
224.573	-12.25
224.808	-12.25
225.042	-1.25
225.277	-5.25
225.511	-3.25
225.746	-7.25
225.98	13.75
226.215	10.75
226.449	18.75
226.683	8.75
226.918	17.75
227.152	21.75
227.387	36.75
227.621	34.75
227.856	48.75
228.09	46.75
228.324	53.75
228.559	52.75
228.793	77.75
229.027	69.75
229.262	56.75
229.496	63.75
229.73	84.75
229.964	75.75
230.199	73.75
230.433	74.75
230.667	80.75
230.901	89.75
231.136	76.75
231.37	90.75
231.604	91.75
231.838	82.75
232.072	88.75
232.306	108.75
232.541	91.75
232.775	82.75
233.009	96.75
233.243	93.75
233.477	100.75
233.711	97.75
233.945	94.75
234.179	88.75
234.413	84.75
234.647	79.75
234.881	77.75
235.115	80.75
235.349	96.75
235.583	80.75
235.817	92.75
236.051	100.75
236.285	91.75
236.519	87.75
236.753	77.75
236.987	87.75
237.221	96.75
237.455	91.75
237.689	98.75
237.922	93.75
238.156	88.75
238.39	74.75
238.624	93.75
238.858	93.75
239.091	85.75
239.325	92.75
239.559	107.75
239.793	79.75
240.027	85.75
240.26	105.75
240.494	94.75
240.728	94.75
240.961	102.75
241.195	110.75
241.429	94.75
241.662	86.75
241.896	97.75
242.13	77.75
242.363	90.75
242.597	99.75
242.83	82.75
243.064	85.75
243.298	97.75
243.531	93.75
243.765	99.75
243.998	96.75
244.232	93.75
244.465	103.75
244.699	100.75
244.932	90.75
245.166	116.75
245.399	94.75
245.633	85.75
245.866	99.75
246.099	104.75
246.333	97.75
246.566	90.75
246.8	99.75
247.033	98.75
247.266	101.75
247.5	91.75
247.733	110.75
247.966	104.75
248.2	110.75
248.433	108.75
248.666	110.75
248.899	113.75
249.133	110.75
249.366	118.75
249.599	105.75
249.832	112.75
250.066	100.75
250.299	113.75
250.532	116.75
250.765	103.75
250.998	90.75
251.231	105.75
251.465	98.75
251.698	101.75
251.931	121.75
252.164	100.75
252.397	112.75
252.63	112.75
252.863	95.75
253.096	117.75
253.329	100.75
253.562	108.75
253.795	102.75
254.028	137.75
254.261	116.75
254.494	114.75
254.727	115.75
254.96	118.75
255.193	121.75
255.426	118.75
255.659	105.75
255.892	106.75
256.124	117.75
256.357	114.75
256.59	108.75
256.823	128.75
257.056	116.75
257.289	118.75
257.521	129.75
257.754	100.75
257.987	110.75
258.22	116.75
258.452	119.75
258.685	129.75
258.918	117.75
259.151	123.75
259.383	119.75
259.616	124.75
259.849	114.75
260.081	106.75
260.314	110.75
260.547	120.75
260.779	124.75
261.012	122.75
261.244	105.75
261.477	123.75
261.71	122.75
261.942	121.75
262.175	133.75
262.407	118.75
262.64	137.75
262.872	120.75
263.105	130.75
263.337	123.75
263.57	126.75
263.802	111.75
264.035	125.75
264.267	121.75
264.499	123.75
264.732	135.75
264.964	118.75
265.197	99.75
265.429	124.75
265.661	128.75
265.894	130.75
266.126	121.75
266.358	121.75
266.591	130.75
266.823	125.75
267.055	127.75
267.287	124.75
267.52	122.75
267.752	136.75
267.984	120.75
268.216	127.75
268.448	132.75
268.681	136.75
268.913	118.75
269.145	130.75
269.377	118.75
269.609	128.75
269.841	124.75
270.073	139.75
270.306	125.75
270.538	150.75
270.77	138.75
271.002	131.75
271.234	118.75
271.466	122.75
271.698	128.75
271.93	133.75
272.162	130.75
272.394	131.75
272.626	119.75
272.858	125.75
273.09	133.75
273.322	127.75
273.553	121.75
273.785	134.75
274.017	129.75
274.249	140.75
274.481	149.75
274.713	140.75
274.945	136.75
275.176	140.75
275.408	136.75
275.64	141.75
275.872	119.75
276.104	146.75
276.335	148.75
276.567	133.75
276.799	141.75
277.031	140.75
277.262	145.75
277.494	132.75
277.726	148.75
277.957	139.75
278.189	137.75
278.421	136.75
278.652	137.75
278.884	137.75
279.115	149.75
279.347	142.75
279.579	134.75
279.81	147.75
280.042	142.75
280.273	143.75
280.505	158.75
280.736	138.75
280.968	146.75
281.199	142.75
281.431	133.75
281.662	150.75
281.894	149.75
282.125	139.75
282.356	143.75
282.588	140.75
282.819	148.75
283.051	154.75
283.282	138.75
283.513	159.75
283.745	152.75
283.976	149.75
284.207	140.75
284.439	170.75
284.67	137.75
284.901	130.75
285.132	156.75
285.364	154.75
285.595	163.75
285.826	146.75
286.057	152.75
286.288	145.75
286.52	153.75
286.751	144.75
286.982	165.75
287.213	164.75
287.444	154.75
287.675	157.75
287.906	153.75
288.138	168.75
288.369	155.75
288.6	146.75
288.831	180.75
289.062	166.75
289.293	143.75
289.524	150.75
289.755	164.75
289.986	167.75
290.217	161.75
290.448	161.75
290.679	165.75
290.91	151.75
291.141	142.75
291.371	159.75
291.602	162.75
291.833	155.75
292.064	154.75
292.295	172.75
292.526	156.75
292.757	161.75
292.987	159.75
293.218	162.75
293.449	166.75
293.68	173.75
293.91	150.75
294.141	148.75
294.372	156.75
294.603	177.75
294.833	176.75
295.064	170.75
295.295	170.75
295.525	182.75
295.756	162.75
295.987	164.75
296.217	163.75
296.448	165.75
296.679	165.75
296.909	164.75
297.14	177.75
297.37	182.75
297.601	162.75
297.831	161.75
298.062	173.75
298.292	165.75
298.523	165.75
298.753	169.75
298.984	166.75
299.214	171.75
299.445	165.75
299.675	181.75
299.905	156.75
300.136	147.75
300.366	164.75
300.597	178.75
300.827	179.75
301.057	171.75
301.288	194.75
301.518	182.75
301.748	193.75
301.979	187.75
302.209	179.75
302.439	169.75
302.669	194.75
302.9	183.75
303.13	169.75
303.36	166.75
303.59	168.75
303.82	163.75
304.051	174.75
304.281	180.75
304.511	169.75
304.741	166.75
304.971	183.75
305.201	178.75
305.431	188.75
305.661	162.75
305.891	175.75
306.121	160.75
306.352	171.75
306.582	169.75
306.812	169.75
307.042	177.75
307.272	167.75
307.502	173.75
307.731	168.75
307.961	184.75
308.191	193.75
308.421	162.75
308.651	178.75
308.881	175.75
309.111	168.75
309.341	173.75
309.571	182.75
309.8	160.75
310.03	180.75
310.26	188.75
310.49	169.75
310.72	186.75
310.949	180.75
311.179	184.75
311.409	161.75
311.639	176.75
311.868	184.75
312.098	174.75
312.328	175.75
312.557	173.75
312.787	176.75
313.017	168.75
313.246	165.75
313.476	184.75
313.706	173.75
313.935	188.75
314.165	164.75
314.394	171.75
314.624	186.75
314.853	191.75
315.083	195.75
315.312	184.75
315.542	178.75
315.771	185.75
316.001	181.75
316.23	180.75
316.46	182.75
316.689	172.75
316.919	169.75
317.148	198.75
317.377	174.75
317.607	178.75
317.836	169.75
318.065	177.75
318.295	176.75
318.524	173.75
318.753	176.75
318.983	171.75
319.212	180.75
319.441	181.75
319.67	183.75
319.9	187.75
320.129	174.75
320.358	192.75
320.587	175.75
320.816	187.75
321.046	173.75
321.275	176.75
321.504	178.75
321.733	186.75
321.962	190.75
322.191	179.75
322.42	173.75
322.649	175.75
322.878	181.75
323.108	165.75
323.337	190.75
323.566	182.75
323.795	179.75
324.024	186.75
324.253	188.75
324.482	184.75
324.71	194.75
324.939	192.75
325.168	206.75
325.397	180.75
325.626	188.75
325.855	194.75
326.084	185.75
326.313	194.75
326.542	179.75
326.77	189.75
326.999	179.75
327.228	180.75
327.457	194.75
327.686	198.75
327.914	182.75
328.143	196.75
328.372	190.75
328.6	194.75
328.829	201.75
329.058	199.75
329.287	196.75
329.515	187.75
329.744	196.75
329.972	194.75
330.201	192.75
330.43	181.75
330.658	178.75
330.887	187.75
331.115	201.75
331.344	196.75
331.572	211.75
331.801	201.75
332.03	201.75
332.258	193.75
332.486	198.75
332.715	218.75
332.943	243.75
333.172	217.75
333.4	237.75
333.629	240.75
333.857	231.75
334.085	224.75
334.314	236.75
334.542	229.75
334.771	212.75
334.999	220.75
335.227	225.75
335.455	233.75
335.684	235.75
335.912	234.75
336.14	219.75
336.369	217.75
336.597	220.75
336.825	216.75
337.053	216.75
337.281	206.75
337.51	206.75
337.738	200.75
337.966	203.75
338.194	214.75
338.422	202.75
338.65	189.75
338.878	193.75
339.106	193.75
339.334	209.75
339.562	202.75
339.79	198.75
340.018	184.75
340.246	195.75
340.474	183.75
340.702	185.75
340.93	207.75
341.158	199.75
341.386	215.75
341.614	205.75
341.842	198.75
342.07	184.75
342.298	203.75
342.526	206.75
342.754	190.75
342.981	203.75
343.209	185.75
343.437	214.75
343.665	227.75
343.893	219.75
344.12	242.75
344.348	221.75
344.576	195.75
344.804	198.75
345.031	215.75
345.259	210.75
345.487	204.75
345.714	181.75
345.942	189.75
346.17	192.75
346.397	201.75
346.625	188.75
346.853	192.75
347.08	190.75
347.308	190.75
347.535	196.75
347.763	192.75
347.99	194.75
348.218	203.75
348.445	193.75
348.673	201.75
348.9	189.75
349.128	194.75
349.355	185.75
349.583	186.75
349.81	199.75
350.037	173.75
350.265	180.75
350.492	191.75
350.72	168.75
350.947	170.75
351.174	181.75
351.402	193.75
351.629	186.75
351.856	197.75
352.083	184.75
352.311	194.75
352.538	188.75
352.765	171.75
352.992	183.75
353.22	181.75
353.447	200.75
353.674	188.75
353.901	183.75
354.128	185.75
354.355	182.75
354.583	172.75
354.81	180.75
355.037	182.75
355.264	173.75
355.491	170.75
355.718	176.75
355.945	180.75
356.172	199.75
356.399	194.75
356.626	186.75
356.853	189.75
357.08	181.75
357.307	189.75
357.534	187.75
357.761	183.75
357.988	179.75
358.215	189.75
358.441	179.75
358.668	197.75
358.895	183.75
359.122	188.75
359.349	171.75
359.576	179.75
359.802	192.75
360.029	209.75
360.256	198.75
360.483	201.75
360.709	184.75
360.936	170.75
361.163	192.75
361.39	185.75
361.616	180.75
361.843	177.75
362.07	185.75
362.296	198.75
362.523	187.75
362.749	181.75
362.976	178.75
363.203	173.75
363.429	189.75
363.656	182.75
363.882	198.75
364.109	179.75
364.335	198.75
364.562	182.75
364.788	186.75
365.015	181.75
365.241	182.75
365.468	196.75
365.694	178.75
365.92	202.75
366.147	180.75
366.373	196.75
366.599	172.75
366.826	175.75
367.052	180.75
367.278	189.75
367.505	172.75
367.731	192.75
367.957	196.75
368.184	185.75
368.41	188.75
368.636	186.75
368.862	194.75
369.089	184.75
369.315	197.75
369.541	190.75
369.767	201.75
369.993	194.75
370.219	193.75
370.445	196.75
370.672	191.75
370.898	183.75
371.124	183.75
371.35	200.75
371.576	184.75
371.802	204.75
372.028	186.75
372.254	187.75
372.48	196.75
372.706	204.75
372.932	209.75
373.158	188.75
373.384	201.75
373.61	205.75
373.835	201.75
374.061	183.75
374.287	197.75
374.513	179.75
374.739	190.75
374.965	205.75
375.191	210.75
375.416	212.75
375.642	200.75
375.868	205.75
376.094	201.75
376.319	199.75
376.545	195.75
376.771	193.75
376.997	196.75
377.222	169.75
377.448	183.75
377.674	180.75
377.899	194.75
378.125	195.75
378.35	196.75
378.576	188.75
378.802	189.75
379.027	208.75
379.253	183.75
379.478	183.75
379.704	169.75
379.929	194.75
380.155	182.75
380.38	186.75
380.606	203.75
380.831	184.75
381.057	202.75
381.282	190.75
381.507	179.75
381.733	179.75
381.958	198.75
382.184	197.75
382.409	208.75
382.634	192.75
382.86	200.75
383.085	203.75
383.31	199.75
383.535	207.75
383.761	217.75
383.986	204.75
384.211	202.75
384.436	210.75
384.662	229.75
384.887	213.75
385.112	224.75
385.337	209.75
385.562	216.75
385.787	218.75
386.013	242.75
386.238	233.75
386.463	232.75
386.688	212.75
386.913	220.75
387.138	219.75
387.363	219.75
387.588	221.75
387.813	219.75
388.038	201.75
388.263	218.75
388.488	208.75
388.713	239.75
388.938	214.75
389.163	209.75
389.387	203.75
389.612	206.75
389.837	200.75
390.062	210.75
390.287	212.75
390.512	218.75
390.736	207.75
390.961	228.75
391.186	208.75
391.411	221.75
391.636	244.75
391.86	217.75
392.085	231.75
392.31	229.75
392.534	226.75
392.759	234.75
392.984	226.75
393.208	243.75
393.433	245.75
393.658	228.75
393.882	227.75
394.107	220.75
394.331	252.75
394.556	217.75
394.78	219.75
395.005	222.75
395.229	224.75
395.454	230.75
395.678	261.75
395.903	218.75
396.127	244.75
396.352	212.75
396.576	224.75
396.801	217.75
397.025	212.75
397.249	234.75
397.474	235.75
397.698	226.75
397.922	236.75
398.147	225.75
398.371	228.75
398.595	251.75
398.82	260.75
399.044	246.75
399.268	289.75
399.492	305.75
399.717	365.75
399.941	362.75
400.165	311.75
400.389	285.75
400.613	267.75
400.837	276.75
401.062	249.75
401.286	257.75
401.51	244.75
401.734	260.75
401.958	245.75
402.182	259.75
402.406	247.75
402.63	268.75
402.854	262.75
403.078	274.75
403.302	268.75
403.526	293.75
403.75	285.75
403.974	284.75
404.198	270.75
404.422	281.75
404.645	280.75
404.869	282.75
405.093	286.75
405.317	272.75
405.541	302.75
405.765	264.75
405.988	269.75
406.212	274.75
406.436	268.75
406.66	294.75
406.883	283.75
407.107	291.75
407.331	289.75
407.555	325.75
407.778	314.75
408.002	295.75
408.226	297.75
408.449	302.75
408.673	277.75
408.896	287.75
409.12	283.75
409.344	270.75
409.567	286.75
409.791	285.75
410.014	271.75
410.238	278.75
410.461	286.75
410.685	268.75
410.908	264.75
411.132	277.75
411.355	269.75
411.578	258.75
411.802	257.75
412.025	252.75
412.249	271.75
412.472	261.75
412.695	244.75
412.919	256.75
413.142	259.75
413.365	259.75
413.589	258.75
413.812	254.75
414.035	237.75
414.258	241.75
414.482	252.75
414.705	240.75
414.928	256.75
415.151	267.75
415.374	250.75
415.597	267.75
415.821	240.75
416.044	256.75
416.267	234.75
416.49	247.75
416.713	242.75
416.936	250.75
417.159	268.75
417.382	247.75
417.605	241.75
417.828	259.75
418.051	242.75
418.274	263.75
418.497	250.75
418.72	251.75
418.943	260.75
419.166	270.75
419.389	278.75
419.611	289.75
419.834	248.75
420.057	254.75
420.28	242.75
420.503	245.75
420.726	252.75
420.948	243.75
421.171	242.75
421.394	250.75
421.617	262.75
421.839	237.75
422.062	242.75
422.285	253.75
422.507	252.75
422.73	249.75
422.953	268.75
423.175	251.75
423.398	260.75
423.621	269.75
423.843	267.75
424.066	258.75
424.288	277.75
424.511	259.75
424.733	260.75
424.956	268.75
425.178	246.75
425.401	250.75
425.623	237.75
425.846	247.75
426.068	237.75
426.291	235.75
426.513	235.75
426.735	227.75
426.958	243.75
427.18	222.75
427.402	233.75
427.625	228.75
427.847	229.75
428.069	230.75
428.292	213.75
428.514	222.75
428.736	208.75
428.958	212.75
429.181	218.75
429.403	214.75
429.625	230.75
429.847	223.75
430.069	216.75
430.292	231.75
430.514	227.75
430.736	212.75
430.958	233.75
431.18	222.75
431.402	227.75
431.624	228.75
431.846	228.75
432.068	225.75
432.29	240.75
432.512	220.75
432.734	216.75
432.956	221.75
433.178	220.75
433.4	226.75
433.622	228.75
433.844	224.75
434.066	236.75
434.287	228.75
434.509	226.75
434.731	237.75
434.953	244.75
435.175	249.75
435.397	271.75
435.618	224.75
435.84	240.75
436.062	225.75
436.284	213.75
436.505	228.75
436.727	210.75
436.949	221.75
437.17	215.75
437.392	216.75
437.614	233.75
437.835	225.75
438.057	231.75
438.278	223.75
438.5	221.75
438.721	224.75
438.943	221.75
439.165	197.75
439.386	232.75
439.608	234.75
439.829	213.75
440.05	232.75
440.272	222.75
440.493	233.75
440.715	232.75
440.936	214.75
441.158	229.75
441.379	241.75
441.6	257.75
441.822	265.75
442.043	254.75
442.264	235.75
442.486	236.75
442.707	246.75
442.928	242.75
443.149	254.75
443.371	259.75
443.592	265.75
443.813	254.75
444.034	252.75
444.255	248.75
444.476	267.75
444.698	267.75
444.919	275.75
445.14	371.75
445.361	291.75
445.582	256.75
445.803	245.75
446.024	245.75
446.245	235.75
446.466	235.75
446.687	218.75
446.908	228.75
447.129	216.75
447.35	214.75
447.571	222.75
447.792	233.75
448.013	202.75
448.234	211.75
448.455	206.75
448.675	212.75
448.896	223.75
449.117	205.75
449.338	205.75
449.559	206.75
449.779	223.75
450	213.75
450.221	224.75
450.442	214.75
450.662	197.75
450.883	218.75
451.104	228.75
451.324	203.75
451.545	213.75
451.766	216.75
451.986	223.75
452.207	225.75
452.428	213.75
452.648	204.75
452.869	198.75
453.089	221.75
453.31	197.75
453.53	212.75
453.751	208.75
453.971	207.75
454.192	205.75
454.412	214.75
454.633	198.75
454.853	209.75
455.073	194.75
455.294	198.75
455.514	205.75
455.734	214.75
455.955	193.75
456.175	206.75
456.395	204.75
456.616	210.75
456.836	209.75
457.056	212.75
457.276	190.75
457.497	206.75
457.717	204.75
457.937	230.75
458.157	198.75
458.377	191.75
458.598	229.75
458.818	205.75
459.038	213.75
459.258	229.75
459.478	237.75
459.698	226.75
459.918	251.75
460.138	240.75
460.358	284.75
460.578	258.75
460.798	271.75
461.018	251.75
461.238	263.75
461.458	252.75
461.678	267.75
461.898	286.75
462.118	259.75
462.338	277.75
462.558	292.75
462.777	289.75
462.997	310.75
463.217	335.75
463.437	339.75
463.657	307.75
463.876	300.75
464.096	306.75
464.316	282.75
464.536	284.75
464.755	285.75
464.975	301.75
465.195	277.75
465.414	259.75
465.634	234.75
465.854	223.75
466.073	226.75
466.293	218.75
466.512	218.75
466.732	212.75
466.951	230.75
467.171	218.75
467.391	216.75
467.61	222.75
467.829	240.75
468.049	234.75
468.268	205.75
468.488	231.75
468.707	201.75
468.927	224.75
469.146	215.75
469.365	203.75
469.585	223.75
469.804	237.75
470.023	228.75
470.243	232.75
470.462	231.75
470.681	258.75
470.901	231.75
471.12	220.75
471.339	218.75
471.558	238.75
471.777	209.75
471.997	210.75
472.216	204.75
472.435	222.75
472.654	211.75
472.873	190.75
473.092	226.75
473.311	229.75
473.53	205.75
473.749	226.75
473.968	204.75
474.187	202.75
474.406	214.75
474.625	205.75
474.844	226.75
475.063	208.75
475.282	221.75
475.501	209.75
475.72	224.75
475.939	231.75
476.158	219.75
476.377	222.75
476.596	233.75
476.814	228.75
477.033	218.75
477.252	223.75
477.471	233.75
477.69	235.75
477.908	210.75
478.127	244.75
478.346	260.75
478.564	257.75
478.783	233.75
479.002	263.75
479.22	252.75
479.439	270.75
479.658	271.75
479.876	264.75
480.095	274.75
480.313	275.75
480.532	295.75
480.751	275.75
480.969	258.75
481.188	267.75
481.406	247.75
481.624	234.75
481.843	235.75
482.061	226.75
482.28	247.75
482.498	238.75
482.717	245.75
482.935	236.75
483.153	225.75
483.372	263.75
483.59	248.75
483.808	240.75
484.027	237.75
484.245	240.75
484.463	241.75
484.681	247.75
484.9	251.75
485.118	268.75
485.336	246.75
485.554	270.75
485.772	245.75
485.99	260.75
486.209	256.75
486.427	260.75
486.645	270.75
486.863	246.75
487.081	244.75
487.299	231.75
487.517	248.75
487.735	260.75
487.953	266.75
488.171	264.75
488.389	254.75
488.607	251.75
488.825	256.75
489.043	251.75
489.261	253.75
489.479	258.75
489.696	249.75
489.914	250.75
490.132	248.75
490.35	255.75
490.568	249.75
490.786	249.75
491.003	264.75
491.221	247.75
491.439	263.75
491.657	264.75
491.874	241.75
492.092	252.75
492.31	259.75
492.527	270.75
492.745	282.75
492.963	279.75
493.18	264.75
493.398	273.75
493.615	251.75
493.833	265.75
494.05	278.75
494.268	284.75
494.485	270.75
494.703	263.75
494.92	254.75
495.138	287.75
495.355	261.75
495.573	268.75
495.79	269.75
496.008	278.75
496.225	274.75
496.442	261.75
496.66	292.75
496.877	278.75
497.094	284.75
497.312	298.75
497.529	292.75
497.746	293.75
497.963	280.75
498.181	299.75
498.398	316.75
498.615	320.75
498.832	332.75
499.049	371.75
499.267	418.75
499.484	438.75
499.701	478.75
499.918	535.75
500.135	611.75
500.352	678.75
500.569	711.75
500.786	704.75
501.003	657.75
501.22	581.75
501.437	519.75
501.654	462.75
501.871	414.75
502.088	386.75
502.305	365.75
502.522	354.75
502.739	341.75
502.956	331.75
503.172	290.75
