Data from 0.5MCu(NO3)2.Standard.Lamp.E10.CV._HRD10591_16-03-47-753.txt Node
Date: Mon Jul 22 16:03:47 EDT 2019
User: cochatt
Spectrometer: HR+D1059
Trigger mode: 1
Integration Time (sec): 1.000000E-1
Scans to average: 1
Electric dark correction enabled: true
Nonlinearity correction enabled: false
Boxcar width: 0
XAxis mode: Wavelengths
Number of Pixels in Spectrum: 2048
>>>>>Begin Spectral Data<<<<<
223.165	5.31
223.4	5.31
223.635	5.31
223.869	-13.69
224.104	-20.69
224.338	-14.69
224.573	-19.69
224.808	-16.69
225.042	-15.69
225.277	-9.69
225.511	-0.69
225.746	-5.69
225.98	14.31
226.215	12.31
226.449	21.31
226.683	14.31
226.918	21.31
227.152	28.31
227.387	42.31
227.621	47.31
227.856	39.31
228.09	53.31
228.324	37.31
228.559	60.31
228.793	73.31
229.027	61.31
229.262	78.31
229.496	92.31
229.73	79.31
229.964	93.31
230.199	90.31
230.433	81.31
230.667	107.31
230.901	78.31
231.136	91.31
231.37	87.31
231.604	92.31
231.838	101.31
232.072	92.31
232.306	97.31
232.541	103.31
232.775	92.31
233.009	93.31
233.243	86.31
233.477	105.31
233.711	90.31
233.945	99.31
234.179	101.31
234.413	99.31
234.647	89.31
234.881	89.31
235.115	102.31
235.349	85.31
235.583	95.31
235.817	101.31
236.051	99.31
236.285	89.31
236.519	110.31
236.753	104.31
236.987	89.31
237.221	100.31
237.455	98.31
237.689	91.31
237.922	115.31
238.156	111.31
238.39	102.31
238.624	105.31
238.858	96.31
239.091	94.31
239.325	95.31
239.559	89.31
239.793	87.31
240.027	102.31
240.26	100.31
240.494	89.31
240.728	103.31
240.961	99.31
241.195	111.31
241.429	105.31
241.662	103.31
241.896	103.31
242.13	99.31
242.363	114.31
242.597	100.31
242.83	102.31
243.064	105.31
243.298	102.31
243.531	99.31
243.765	110.31
243.998	117.31
244.232	106.31
244.465	108.31
244.699	105.31
244.932	111.31
245.166	96.31
245.399	105.31
245.633	116.31
245.866	93.31
246.099	110.31
246.333	118.31
246.566	101.31
246.8	109.31
247.033	110.31
247.266	115.31
247.5	105.31
247.733	111.31
247.966	107.31
248.2	118.31
248.433	123.31
248.666	107.31
248.899	119.31
249.133	116.31
249.366	111.31
249.599	110.31
249.832	112.31
250.066	130.31
250.299	122.31
250.532	134.31
250.765	115.31
250.998	107.31
251.231	118.31
251.465	109.31
251.698	136.31
251.931	111.31
252.164	138.31
252.397	116.31
252.63	130.31
252.863	113.31
253.096	127.31
253.329	131.31
253.562	126.31
253.795	130.31
254.028	132.31
254.261	131.31
254.494	138.31
254.727	128.31
254.96	116.31
255.193	121.31
255.426	115.31
255.659	123.31
255.892	130.31
256.124	136.31
256.357	129.31
256.59	131.31
256.823	130.31
257.056	130.31
257.289	125.31
257.521	126.31
257.754	140.31
257.987	132.31
258.22	157.31
258.452	144.31
258.685	121.31
258.918	123.31
259.151	129.31
259.383	137.31
259.616	130.31
259.849	125.31
260.081	137.31
260.314	136.31
260.547	137.31
260.779	135.31
261.012	141.31
261.244	130.31
261.477	146.31
261.71	132.31
261.942	134.31
262.175	126.31
262.407	139.31
262.64	131.31
262.872	140.31
263.105	141.31
263.337	156.31
263.57	149.31
263.802	118.31
264.035	134.31
264.267	136.31
264.499	157.31
264.732	161.31
264.964	146.31
265.197	144.31
265.429	138.31
265.661	142.31
265.894	136.31
266.126	137.31
266.358	149.31
266.591	143.31
266.823	155.31
267.055	162.31
267.287	156.31
267.52	156.31
267.752	158.31
267.984	146.31
268.216	144.31
268.448	142.31
268.681	160.31
268.913	157.31
269.145	155.31
269.377	148.31
269.609	154.31
269.841	160.31
270.073	156.31
270.306	150.31
270.538	144.31
270.77	152.31
271.002	145.31
271.234	148.31
271.466	155.31
271.698	154.31
271.93	160.31
272.162	159.31
272.394	165.31
272.626	157.31
272.858	160.31
273.09	160.31
273.322	171.31
273.553	180.31
273.785	168.31
274.017	151.31
274.249	152.31
274.481	158.31
274.713	164.31
274.945	165.31
275.176	161.31
275.408	164.31
275.64	176.31
275.872	171.31
276.104	158.31
276.335	169.31
276.567	159.31
276.799	150.31
277.031	166.31
277.262	169.31
277.494	178.31
277.726	182.31
277.957	166.31
278.189	180.31
278.421	182.31
278.652	174.31
278.884	171.31
279.115	168.31
279.347	169.31
279.579	189.31
279.81	168.31
280.042	160.31
280.273	187.31
280.505	182.31
280.736	176.31
280.968	180.31
281.199	183.31
281.431	176.31
281.662	190.31
281.894	172.31
282.125	165.31
282.356	165.31
282.588	171.31
282.819	182.31
283.051	178.31
283.282	192.31
283.513	194.31
283.745	192.31
283.976	198.31
284.207	191.31
284.439	193.31
284.67	182.31
284.901	196.31
285.132	189.31
285.364	201.31
285.595	190.31
285.826	189.31
286.057	183.31
286.288	188.31
286.52	186.31
286.751	195.31
286.982	190.31
287.213	187.31
287.444	194.31
287.675	190.31
287.906	191.31
288.138	186.31
288.369	198.31
288.6	200.31
288.831	189.31
289.062	190.31
289.293	202.31
289.524	200.31
289.755	188.31
289.986	187.31
290.217	202.31
290.448	187.31
290.679	194.31
290.91	185.31
291.141	194.31
291.371	203.31
291.602	218.31
291.833	202.31
292.064	193.31
292.295	190.31
292.526	190.31
292.757	212.31
292.987	191.31
293.218	203.31
293.449	216.31
293.68	207.31
293.91	201.31
294.141	207.31
294.372	208.31
294.603	211.31
294.833	206.31
295.064	201.31
295.295	198.31
295.525	217.31
295.756	206.31
295.987	206.31
296.217	207.31
296.448	219.31
296.679	190.31
296.909	226.31
297.14	207.31
297.37	212.31
297.601	236.31
297.831	217.31
298.062	208.31
298.292	226.31
298.523	223.31
298.753	225.31
298.984	220.31
299.214	209.31
299.445	201.31
299.675	212.31
299.905	228.31
300.136	214.31
300.366	214.31
300.597	222.31
300.827	231.31
301.057	218.31
301.288	223.31
301.518	218.31
301.748	227.31
301.979	223.31
302.209	219.31
302.439	239.31
302.669	229.31
302.9	223.31
303.13	215.31
303.36	225.31
303.59	225.31
303.82	217.31
304.051	215.31
304.281	230.31
304.511	208.31
304.741	223.31
304.971	215.31
305.201	216.31
305.431	212.31
305.661	226.31
305.891	235.31
306.121	211.31
306.352	224.31
306.582	214.31
306.812	208.31
307.042	229.31
307.272	223.31
307.502	236.31
307.731	216.31
307.961	218.31
308.191	225.31
308.421	228.31
308.651	232.31
308.881	218.31
309.111	228.31
309.341	231.31
309.571	215.31
309.8	222.31
310.03	212.31
310.26	230.31
310.49	206.31
310.72	221.31
310.949	224.31
311.179	232.31
311.409	227.31
311.639	227.31
311.868	231.31
312.098	238.31
312.328	213.31
312.557	225.31
312.787	210.31
313.017	227.31
313.246	228.31
313.476	239.31
313.706	234.31
313.935	243.31
314.165	235.31
314.394	245.31
314.624	222.31
314.853	223.31
315.083	231.31
315.312	208.31
315.542	225.31
315.771	218.31
316.001	234.31
316.23	229.31
316.46	236.31
316.689	232.31
316.919	232.31
317.148	209.31
317.377	233.31
317.607	219.31
317.836	237.31
318.065	227.31
318.295	235.31
318.524	235.31
318.753	229.31
318.983	235.31
319.212	232.31
319.441	231.31
319.67	230.31
319.9	237.31
320.129	237.31
320.358	223.31
320.587	236.31
320.816	226.31
321.046	235.31
321.275	226.31
321.504	226.31
321.733	235.31
321.962	227.31
322.191	232.31
322.42	222.31
322.649	235.31
322.878	235.31
323.108	227.31
323.337	234.31
323.566	230.31
323.795	248.31
324.024	230.31
324.253	238.31
324.482	254.31
324.71	229.31
324.939	224.31
325.168	245.31
325.397	232.31
325.626	236.31
325.855	248.31
326.084	251.31
326.313	239.31
326.542	239.31
326.77	258.31
326.999	264.31
327.228	236.31
327.457	228.31
327.686	254.31
327.914	251.31
328.143	259.31
328.372	238.31
328.6	245.31
328.829	238.31
329.058	244.31
329.287	261.31
329.515	226.31
329.744	243.31
329.972	246.31
330.201	263.31
330.43	251.31
330.658	257.31
330.887	240.31
331.115	242.31
331.344	252.31
331.572	278.31
331.801	270.31
332.03	267.31
332.258	285.31
332.486	285.31
332.715	282.31
332.943	295.31
333.172	292.31
333.4	313.31
333.629	322.31
333.857	318.31
334.085	315.31
334.314	298.31
334.542	299.31
334.771	309.31
334.999	294.31
335.227	301.31
335.455	310.31
335.684	295.31
335.912	278.31
336.14	272.31
336.369	308.31
336.597	277.31
336.825	278.31
337.053	291.31
337.281	257.31
337.51	278.31
337.738	276.31
337.966	264.31
338.194	246.31
338.422	247.31
338.65	253.31
338.878	264.31
339.106	260.31
339.334	280.31
339.562	245.31
339.79	258.31
340.018	264.31
340.246	228.31
340.474	260.31
340.702	262.31
340.93	270.31
341.158	269.31
341.386	251.31
341.614	256.31
341.842	267.31
342.07	263.31
342.298	263.31
342.526	238.31
342.754	248.31
342.981	234.31
343.209	269.31
343.437	281.31
343.665	271.31
343.893	296.31
344.12	320.31
344.348	282.31
344.576	285.31
344.804	271.31
345.031	255.31
345.259	255.31
345.487	263.31
345.714	258.31
345.942	236.31
346.17	246.31
346.397	260.31
346.625	265.31
346.853	254.31
347.08	240.31
347.308	249.31
347.535	249.31
347.763	266.31
347.99	276.31
348.218	278.31
348.445	269.31
348.673	272.31
348.9	232.31
349.128	241.31
349.355	227.31
349.583	235.31
349.81	231.31
350.037	243.31
350.265	254.31
350.492	244.31
350.72	254.31
350.947	244.31
351.174	228.31
351.402	232.31
351.629	238.31
351.856	245.31
352.083	230.31
352.311	233.31
352.538	252.31
352.765	246.31
352.992	231.31
353.22	221.31
353.447	236.31
353.674	247.31
353.901	229.31
354.128	242.31
354.355	244.31
354.583	246.31
354.81	244.31
355.037	238.31
355.264	230.31
355.491	236.31
355.718	249.31
355.945	252.31
356.172	261.31
356.399	242.31
356.626	246.31
356.853	246.31
357.08	238.31
357.307	250.31
357.534	240.31
357.761	244.31
357.988	239.31
358.215	237.31
358.441	246.31
358.668	232.31
358.895	236.31
359.122	232.31
359.349	231.31
359.576	247.31
359.802	242.31
360.029	242.31
360.256	237.31
360.483	235.31
360.709	242.31
360.936	243.31
361.163	238.31
361.39	227.31
361.616	241.31
361.843	237.31
362.07	243.31
362.296	222.31
362.523	230.31
362.749	237.31
362.976	244.31
363.203	236.31
363.429	221.31
363.656	246.31
363.882	236.31
364.109	237.31
364.335	229.31
364.562	229.31
364.788	227.31
365.015	227.31
365.241	231.31
365.468	233.31
365.694	232.31
365.92	223.31
366.147	222.31
366.373	238.31
366.599	235.31
366.826	225.31
367.052	236.31
367.278	238.31
367.505	235.31
367.731	242.31
367.957	244.31
368.184	235.31
368.41	229.31
368.636	246.31
368.862	254.31
369.089	243.31
369.315	246.31
369.541	237.31
369.767	268.31
369.993	232.31
370.219	253.31
370.445	254.31
370.672	253.31
370.898	238.31
371.124	250.31
371.35	253.31
371.576	251.31
371.802	219.31
372.028	240.31
372.254	249.31
372.48	250.31
372.706	255.31
372.932	241.31
373.158	246.31
373.384	251.31
373.61	250.31
373.835	253.31
374.061	239.31
374.287	273.31
374.513	264.31
374.739	280.31
374.965	265.31
375.191	274.31
375.416	283.31
375.642	259.31
375.868	284.31
376.094	247.31
376.319	246.31
376.545	250.31
376.771	258.31
376.997	259.31
377.222	251.31
377.448	248.31
377.674	255.31
377.899	242.31
378.125	257.31
378.35	225.31
378.576	235.31
378.802	234.31
379.027	249.31
379.253	264.31
379.478	270.31
379.704	249.31
379.929	244.31
380.155	246.31
380.38	235.31
380.606	246.31
380.831	250.31
381.057	262.31
381.282	254.31
381.507	228.31
381.733	253.31
381.958	258.31
382.184	264.31
382.409	263.31
382.634	248.31
382.86	252.31
383.085	280.31
383.31	286.31
383.535	260.31
383.761	271.31
383.986	295.31
384.211	282.31
384.436	294.31
384.662	274.31
384.887	298.31
385.112	308.31
385.337	294.31
385.562	286.31
385.787	295.31
386.013	296.31
386.238	328.31
386.463	294.31
386.688	286.31
386.913	303.31
387.138	280.31
387.363	310.31
387.588	284.31
387.813	270.31
388.038	308.31
388.263	292.31
388.488	290.31
388.713	285.31
388.938	264.31
389.163	276.31
389.387	278.31
389.612	280.31
389.837	279.31
390.062	282.31
390.287	276.31
390.512	291.31
390.736	282.31
390.961	282.31
391.186	302.31
391.411	295.31
391.636	302.31
391.86	306.31
392.085	320.31
392.31	326.31
392.534	314.31
392.759	304.31
392.984	276.31
393.208	301.31
393.433	300.31
393.658	318.31
393.882	319.31
394.107	310.31
394.331	320.31
394.556	315.31
394.78	298.31
395.005	307.31
395.229	299.31
395.454	316.31
395.678	331.31
395.903	316.31
396.127	308.31
396.352	306.31
396.576	289.31
396.801	304.31
397.025	297.31
397.249	298.31
397.474	301.31
397.698	317.31
397.922	321.31
398.147	315.31
398.371	310.31
398.595	316.31
398.82	336.31
399.044	365.31
399.268	396.31
399.492	436.31
399.717	509.31
399.941	482.31
400.165	443.31
400.389	397.31
400.613	376.31
400.837	353.31
401.062	330.31
401.286	318.31
401.51	349.31
401.734	332.31
401.958	329.31
402.182	329.31
402.406	334.31
402.63	357.31
402.854	357.31
403.078	339.31
403.302	358.31
403.526	383.31
403.75	388.31
403.974	396.31
404.198	366.31
404.422	390.31
404.645	385.31
404.869	388.31
405.093	391.31
405.317	377.31
405.541	372.31
405.765	377.31
405.988	347.31
406.212	364.31
406.436	361.31
406.66	382.31
406.883	372.31
407.107	394.31
407.331	409.31
407.555	420.31
407.778	419.31
408.002	426.31
408.226	399.31
408.449	390.31
408.673	390.31
408.896	373.31
409.12	368.31
409.344	362.31
409.567	378.31
409.791	379.31
410.014	390.31
410.238	384.31
410.461	374.31
410.685	382.31
410.908	373.31
411.132	351.31
411.355	362.31
411.578	347.31
411.802	342.31
412.025	357.31
412.249	350.31
412.472	353.31
412.695	342.31
412.919	338.31
413.142	319.31
413.365	340.31
413.589	351.31
413.812	350.31
414.035	333.31
414.258	315.31
414.482	330.31
414.705	348.31
414.928	330.31
415.151	339.31
415.374	351.31
415.597	332.31
415.821	326.31
416.044	318.31
416.267	336.31
416.49	325.31
416.713	315.31
416.936	335.31
417.159	351.31
417.382	344.31
417.605	342.31
417.828	323.31
418.051	318.31
418.274	340.31
418.497	333.31
418.72	355.31
418.943	347.31
419.166	360.31
419.389	372.31
419.611	377.31
419.834	357.31
420.057	360.31
420.28	335.31
420.503	336.31
420.726	323.31
420.948	342.31
421.171	311.31
421.394	325.31
421.617	319.31
421.839	309.31
422.062	320.31
422.285	357.31
422.507	376.31
422.73	350.31
422.953	342.31
423.175	335.31
423.398	351.31
423.621	345.31
423.843	353.31
424.066	360.31
424.288	370.31
424.511	342.31
424.733	348.31
424.956	357.31
425.178	357.31
425.401	336.31
425.623	338.31
425.846	324.31
426.068	342.31
426.291	321.31
426.513	318.31
426.735	318.31
426.958	318.31
427.18	304.31
427.402	312.31
427.625	301.31
427.847	316.31
428.069	310.31
428.292	315.31
428.514	294.31
428.736	291.31
428.958	308.31
429.181	294.31
429.403	299.31
429.625	303.31
429.847	279.31
430.069	280.31
430.292	294.31
430.514	311.31
430.736	305.31
430.958	288.31
431.18	274.31
431.402	292.31
431.624	306.31
431.846	292.31
432.068	300.31
432.29	311.31
432.512	308.31
432.734	310.31
432.956	316.31
433.178	310.31
433.4	323.31
433.622	309.31
433.844	297.31
434.066	316.31
434.287	306.31
434.509	325.31
434.731	322.31
434.953	335.31
435.175	334.31
435.397	346.31
435.618	319.31
435.84	303.31
436.062	304.31
436.284	321.31
436.505	299.31
436.727	297.31
436.949	316.31
437.17	316.31
437.392	304.31
437.614	306.31
437.835	303.31
438.057	299.31
438.278	291.31
438.5	280.31
438.721	285.31
438.943	310.31
439.165	269.31
439.386	287.31
439.608	302.31
439.829	282.31
440.05	312.31
440.272	323.31
440.493	308.31
440.715	310.31
440.936	310.31
441.158	296.31
441.379	320.31
441.6	354.31
441.822	350.31
442.043	336.31
442.264	328.31
442.486	315.31
442.707	340.31
442.928	334.31
443.149	330.31
443.371	330.31
443.592	327.31
443.813	351.31
444.034	344.31
444.255	346.31
444.476	355.31
444.698	364.31
444.919	388.31
445.14	502.31
445.361	416.31
445.582	342.31
445.803	323.31
446.024	318.31
446.245	331.31
446.466	346.31
446.687	323.31
446.908	303.31
447.129	286.31
447.35	291.31
447.571	292.31
447.792	291.31
448.013	302.31
448.234	294.31
448.455	279.31
448.675	271.31
448.896	286.31
449.117	275.31
449.338	271.31
449.559	266.31
449.779	278.31
450	283.31
450.221	291.31
450.442	284.31
450.662	291.31
450.883	294.31
451.104	292.31
451.324	295.31
451.545	303.31
451.766	300.31
451.986	282.31
452.207	297.31
452.428	278.31
452.648	288.31
452.869	274.31
453.089	287.31
453.31	284.31
453.53	276.31
453.751	266.31
453.971	275.31
454.192	280.31
454.412	269.31
454.633	272.31
454.853	271.31
455.073	271.31
455.294	270.31
455.514	271.31
455.734	280.31
455.955	282.31
456.175	275.31
456.395	267.31
456.616	262.31
456.836	267.31
457.056	266.31
457.276	251.31
457.497	268.31
457.717	243.31
457.937	256.31
458.157	278.31
458.377	287.31
458.598	269.31
458.818	278.31
459.038	290.31
459.258	291.31
459.478	308.31
459.698	309.31
459.918	333.31
460.138	335.31
460.358	355.31
460.578	341.31
460.798	354.31
461.018	345.31
461.238	323.31
461.458	336.31
461.678	354.31
461.898	351.31
462.118	342.31
462.338	374.31
462.558	372.31
462.777	395.31
462.997	410.31
463.217	468.31
463.437	479.31
463.657	439.31
463.876	397.31
464.096	408.31
464.316	408.31
464.536	391.31
464.755	392.31
464.975	404.31
465.195	386.31
465.414	349.31
465.634	334.31
465.854	301.31
466.073	322.31
466.293	315.31
466.512	310.31
466.732	301.31
466.951	282.31
467.171	322.31
467.391	312.31
467.61	302.31
467.829	289.31
468.049	290.31
468.268	291.31
468.488	280.31
468.707	278.31
468.927	292.31
469.146	276.31
469.365	295.31
469.585	301.31
469.804	290.31
470.023	310.31
470.243	286.31
470.462	321.31
470.681	321.31
470.901	311.31
471.12	284.31
471.339	292.31
471.558	301.31
471.777	310.31
471.997	279.31
472.216	292.31
472.435	286.31
472.654	289.31
472.873	277.31
473.092	294.31
473.311	279.31
473.53	286.31
473.749	283.31
473.968	296.31
474.187	298.31
474.406	291.31
474.625	272.31
474.844	286.31
475.063	298.31
475.282	304.31
475.501	290.31
475.72	300.31
475.939	285.31
476.158	310.31
476.377	288.31
476.596	298.31
476.814	286.31
477.033	315.31
477.252	302.31
477.471	324.31
477.69	323.31
477.908	316.31
478.127	338.31
478.346	336.31
478.564	344.31
478.783	323.31
479.002	345.31
479.22	344.31
479.439	346.31
479.658	347.31
479.876	338.31
480.095	350.31
480.313	356.31
480.532	374.31
480.751	368.31
480.969	367.31
481.188	348.31
481.406	336.31
481.624	338.31
481.843	324.31
482.061	296.31
482.28	321.31
482.498	303.31
482.717	320.31
482.935	321.31
483.153	317.31
483.372	336.31
483.59	310.31
483.808	299.31
484.027	332.31
484.245	332.31
484.463	319.31
484.681	333.31
484.9	352.31
485.118	351.31
485.336	354.31
485.554	359.31
485.772	344.31
485.99	347.31
486.209	349.31
486.427	353.31
486.645	356.31
486.863	344.31
487.081	345.31
487.299	347.31
487.517	347.31
487.735	340.31
487.953	350.31
488.171	357.31
488.389	355.31
488.607	357.31
488.825	340.31
489.043	328.31
489.261	346.31
489.479	348.31
489.696	327.31
489.914	338.31
490.132	348.31
490.35	354.31
490.568	345.31
490.786	334.31
491.003	329.31
491.221	348.31
491.439	363.31
491.657	343.31
491.874	339.31
492.092	351.31
492.31	365.31
492.527	358.31
492.745	347.31
492.963	352.31
493.18	347.31
493.398	346.31
493.615	330.31
493.833	375.31
494.05	327.31
494.268	364.31
494.485	348.31
494.703	356.31
494.92	374.31
495.138	354.31
495.355	335.31
495.573	376.31
495.79	380.31
496.008	360.31
496.225	353.31
496.442	371.31
496.66	384.31
496.877	378.31
497.094	389.31
497.312	373.31
497.529	366.31
497.746	383.31
497.963	396.31
498.181	424.31
498.398	451.31
498.615	467.31
498.832	474.31
499.049	519.31
499.267	564.31
499.484	626.31
499.701	647.31
499.918	712.31
500.135	856.31
500.352	973.31
500.569	1048.31
500.786	981.31
501.003	928.31
501.22	829.31
501.437	705.31
501.654	640.31
501.871	574.31
502.088	541.31
502.305	516.31
502.522	476.31
502.739	477.31
