Data from 0.5MCu(NO3)2.Standard.Lamp.E10.CV._HRD10591_16-04-34-753.txt Node
Date: Mon Jul 22 16:04:34 EDT 2019
User: cochatt
Spectrometer: HR+D1059
Trigger mode: 1
Integration Time (sec): 1.000000E-1
Scans to average: 1
Electric dark correction enabled: true
Nonlinearity correction enabled: false
Boxcar width: 0
XAxis mode: Wavelengths
Number of Pixels in Spectrum: 2048
>>>>>Begin Spectral Data<<<<<
223.165	-12.56
223.4	-12.56
223.635	-12.56
223.869	-3.56
224.104	-26.56
224.338	-22.56
224.573	-8.56
224.808	-23.56
225.042	-18.56
225.277	-1.56
225.511	1.44
225.746	3.44
225.98	8.44
226.215	9.44
226.449	29.44
226.683	21.44
226.918	20.44
227.152	23.44
227.387	30.44
227.621	33.44
227.856	56.44
228.09	33.44
228.324	41.44
228.559	44.44
228.793	55.44
229.027	67.44
229.262	77.44
229.496	78.44
229.73	73.44
229.964	78.44
230.199	83.44
230.433	65.44
230.667	78.44
230.901	82.44
231.136	84.44
231.37	85.44
231.604	88.44
231.838	83.44
232.072	88.44
232.306	81.44
232.541	93.44
232.775	99.44
233.009	85.44
233.243	94.44
233.477	99.44
233.711	76.44
233.945	85.44
234.179	81.44
234.413	83.44
234.647	91.44
234.881	87.44
235.115	70.44
235.349	85.44
235.583	98.44
235.817	79.44
236.051	87.44
236.285	96.44
236.519	77.44
236.753	92.44
236.987	81.44
237.221	88.44
237.455	82.44
237.689	81.44
237.922	78.44
238.156	78.44
238.39	83.44
238.624	79.44
238.858	86.44
239.091	102.44
239.325	83.44
239.559	87.44
239.793	84.44
240.027	79.44
240.26	95.44
240.494	91.44
240.728	76.44
240.961	80.44
241.195	94.44
241.429	76.44
241.662	88.44
241.896	86.44
242.13	95.44
242.363	97.44
242.597	91.44
242.83	100.44
243.064	85.44
243.298	101.44
243.531	79.44
243.765	91.44
243.998	83.44
244.232	93.44
244.465	92.44
244.699	98.44
244.932	99.44
245.166	104.44
245.399	87.44
245.633	84.44
245.866	101.44
246.099	84.44
246.333	108.44
246.566	87.44
246.8	82.44
247.033	86.44
247.266	99.44
247.5	90.44
247.733	95.44
247.966	95.44
248.2	97.44
248.433	102.44
248.666	92.44
248.899	110.44
249.133	111.44
249.366	115.44
249.599	92.44
249.832	109.44
250.066	106.44
250.299	104.44
250.532	100.44
250.765	109.44
250.998	103.44
251.231	88.44
251.465	112.44
251.698	109.44
251.931	103.44
252.164	99.44
252.397	103.44
252.63	102.44
252.863	101.44
253.096	103.44
253.329	120.44
253.562	114.44
253.795	110.44
254.028	113.44
254.261	114.44
254.494	95.44
254.727	83.44
254.96	103.44
255.193	87.44
255.426	109.44
255.659	112.44
255.892	136.44
256.124	111.44
256.357	110.44
256.59	110.44
256.823	101.44
257.056	107.44
257.289	111.44
257.521	102.44
257.754	99.44
257.987	112.44
258.22	111.44
258.452	116.44
258.685	115.44
258.918	110.44
259.151	121.44
259.383	115.44
259.616	117.44
259.849	117.44
260.081	110.44
260.314	102.44
260.547	107.44
260.779	105.44
261.012	111.44
261.244	117.44
261.477	115.44
261.71	113.44
261.942	118.44
262.175	131.44
262.407	115.44
262.64	120.44
262.872	112.44
263.105	117.44
263.337	118.44
263.57	116.44
263.802	120.44
264.035	113.44
264.267	108.44
264.499	116.44
264.732	128.44
264.964	131.44
265.197	123.44
265.429	114.44
265.661	141.44
265.894	117.44
266.126	129.44
266.358	114.44
266.591	103.44
266.823	120.44
267.055	111.44
267.287	119.44
267.52	128.44
267.752	131.44
267.984	116.44
268.216	114.44
268.448	145.44
268.681	124.44
268.913	123.44
269.145	131.44
269.377	110.44
269.609	124.44
269.841	132.44
270.073	143.44
270.306	142.44
270.538	131.44
270.77	127.44
271.002	127.44
271.234	128.44
271.466	137.44
271.698	119.44
271.93	124.44
272.162	135.44
272.394	136.44
272.626	124.44
272.858	121.44
273.09	114.44
273.322	137.44
273.553	138.44
273.785	123.44
274.017	131.44
274.249	125.44
274.481	135.44
274.713	144.44
274.945	146.44
275.176	134.44
275.408	145.44
275.64	142.44
275.872	133.44
276.104	125.44
276.335	127.44
276.567	133.44
276.799	134.44
277.031	140.44
277.262	150.44
277.494	141.44
277.726	137.44
277.957	131.44
278.189	139.44
278.421	137.44
278.652	136.44
278.884	134.44
279.115	140.44
279.347	143.44
279.579	153.44
279.81	145.44
280.042	147.44
280.273	143.44
280.505	127.44
280.736	137.44
280.968	148.44
281.199	139.44
281.431	149.44
281.662	141.44
281.894	135.44
282.125	136.44
282.356	151.44
282.588	145.44
282.819	134.44
283.051	143.44
283.282	151.44
283.513	148.44
283.745	156.44
283.976	141.44
284.207	137.44
284.439	148.44
284.67	149.44
284.901	142.44
285.132	155.44
285.364	143.44
285.595	138.44
285.826	159.44
286.057	155.44
286.288	150.44
286.52	157.44
286.751	157.44
286.982	143.44
287.213	176.44
287.444	161.44
287.675	149.44
287.906	154.44
288.138	159.44
288.369	157.44
288.6	156.44
288.831	146.44
289.062	155.44
289.293	158.44
289.524	157.44
289.755	154.44
289.986	173.44
290.217	163.44
290.448	157.44
290.679	167.44
290.91	150.44
291.141	160.44
291.371	177.44
291.602	145.44
291.833	147.44
292.064	161.44
292.295	161.44
292.526	155.44
292.757	163.44
292.987	159.44
293.218	152.44
293.449	151.44
293.68	155.44
293.91	157.44
294.141	171.44
294.372	159.44
294.603	159.44
294.833	161.44
295.064	179.44
295.295	160.44
295.525	160.44
295.756	178.44
295.987	143.44
296.217	173.44
296.448	175.44
296.679	167.44
296.909	157.44
297.14	169.44
297.37	164.44
297.601	174.44
297.831	188.44
298.062	173.44
298.292	175.44
298.523	185.44
298.753	179.44
298.984	158.44
299.214	166.44
299.445	168.44
299.675	165.44
299.905	173.44
300.136	175.44
300.366	175.44
300.597	168.44
300.827	170.44
301.057	159.44
301.288	184.44
301.518	164.44
301.748	189.44
301.979	165.44
302.209	175.44
302.439	187.44
302.669	171.44
302.9	168.44
303.13	181.44
303.36	161.44
303.59	161.44
303.82	171.44
304.051	189.44
304.281	168.44
304.511	164.44
304.741	183.44
304.971	194.44
305.201	168.44
305.431	182.44
305.661	175.44
305.891	182.44
306.121	161.44
306.352	177.44
306.582	172.44
306.812	183.44
307.042	162.44
307.272	158.44
307.502	159.44
307.731	166.44
307.961	165.44
308.191	177.44
308.421	169.44
308.651	182.44
308.881	181.44
309.111	166.44
309.341	181.44
309.571	173.44
309.8	167.44
310.03	182.44
310.26	167.44
310.49	146.44
310.72	167.44
310.949	188.44
311.179	165.44
311.409	183.44
311.639	182.44
311.868	167.44
312.098	175.44
312.328	167.44
312.557	179.44
312.787	193.44
313.017	184.44
313.246	179.44
313.476	187.44
313.706	176.44
313.935	178.44
314.165	172.44
314.394	172.44
314.624	185.44
314.853	172.44
315.083	172.44
315.312	172.44
315.542	172.44
315.771	176.44
316.001	157.44
316.23	197.44
316.46	171.44
316.689	174.44
316.919	150.44
317.148	185.44
317.377	165.44
317.607	171.44
317.836	177.44
318.065	182.44
318.295	184.44
318.524	184.44
318.753	182.44
318.983	176.44
319.212	177.44
319.441	176.44
319.67	173.44
319.9	169.44
320.129	171.44
320.358	184.44
320.587	181.44
320.816	175.44
321.046	188.44
321.275	194.44
321.504	182.44
321.733	181.44
321.962	174.44
322.191	178.44
322.42	183.44
322.649	174.44
322.878	164.44
323.108	181.44
323.337	179.44
323.566	177.44
323.795	187.44
324.024	183.44
324.253	173.44
324.482	181.44
324.71	190.44
324.939	194.44
325.168	182.44
325.397	177.44
325.626	198.44
325.855	174.44
326.084	185.44
326.313	200.44
326.542	184.44
326.77	188.44
326.999	196.44
327.228	180.44
327.457	179.44
327.686	187.44
327.914	200.44
328.143	175.44
328.372	193.44
328.6	183.44
328.829	190.44
329.058	179.44
329.287	188.44
329.515	200.44
329.744	180.44
329.972	165.44
330.201	189.44
330.43	192.44
330.658	196.44
330.887	187.44
331.115	193.44
331.344	192.44
331.572	201.44
331.801	186.44
332.03	193.44
332.258	213.44
332.486	225.44
332.715	205.44
332.943	213.44
333.172	223.44
333.4	233.44
333.629	226.44
333.857	236.44
334.085	251.44
334.314	257.44
334.542	231.44
334.771	220.44
334.999	235.44
335.227	219.44
335.455	235.44
335.684	223.44
335.912	228.44
336.14	219.44
336.369	200.44
336.597	211.44
336.825	226.44
337.053	208.44
337.281	213.44
337.51	208.44
337.738	208.44
337.966	196.44
338.194	199.44
338.422	190.44
338.65	193.44
338.878	200.44
339.106	215.44
339.334	215.44
339.562	197.44
339.79	193.44
340.018	195.44
340.246	198.44
340.474	197.44
340.702	199.44
340.93	198.44
341.158	209.44
341.386	205.44
341.614	206.44
341.842	191.44
342.07	199.44
342.298	182.44
342.526	183.44
342.754	187.44
342.981	194.44
343.209	199.44
343.437	211.44
343.665	208.44
343.893	227.44
344.12	226.44
344.348	209.44
344.576	210.44
344.804	197.44
345.031	191.44
345.259	212.44
345.487	205.44
345.714	188.44
345.942	180.44
346.17	180.44
346.397	194.44
346.625	201.44
346.853	164.44
347.08	188.44
347.308	192.44
347.535	179.44
347.763	200.44
347.99	201.44
348.218	196.44
348.445	180.44
348.673	188.44
348.9	182.44
349.128	187.44
349.355	199.44
349.583	183.44
349.81	190.44
350.037	191.44
350.265	178.44
350.492	171.44
350.72	169.44
350.947	185.44
351.174	189.44
351.402	177.44
351.629	176.44
351.856	202.44
352.083	178.44
352.311	179.44
352.538	191.44
352.765	175.44
352.992	176.44
353.22	191.44
353.447	192.44
353.674	188.44
353.901	194.44
354.128	177.44
354.355	185.44
354.583	183.44
354.81	205.44
355.037	203.44
355.264	188.44
355.491	202.44
355.718	188.44
355.945	190.44
356.172	177.44
356.399	200.44
356.626	192.44
356.853	171.44
357.08	181.44
357.307	195.44
357.534	173.44
357.761	197.44
357.988	187.44
358.215	187.44
358.441	175.44
358.668	181.44
358.895	181.44
359.122	188.44
359.349	187.44
359.576	193.44
359.802	180.44
360.029	184.44
360.256	184.44
360.483	189.44
360.709	169.44
360.936	182.44
361.163	179.44
361.39	184.44
361.616	183.44
361.843	175.44
362.07	175.44
362.296	193.44
362.523	194.44
362.749	190.44
362.976	179.44
363.203	204.44
363.429	195.44
363.656	181.44
363.882	177.44
364.109	161.44
364.335	167.44
364.562	180.44
364.788	181.44
365.015	200.44
365.241	182.44
365.468	193.44
365.694	191.44
365.92	182.44
366.147	196.44
366.373	166.44
366.599	180.44
366.826	178.44
367.052	172.44
367.278	179.44
367.505	168.44
367.731	168.44
367.957	166.44
368.184	173.44
368.41	189.44
368.636	181.44
368.862	175.44
369.089	187.44
369.315	200.44
369.541	184.44
369.767	200.44
369.993	202.44
370.219	178.44
370.445	183.44
370.672	200.44
370.898	199.44
371.124	195.44
371.35	194.44
371.576	205.44
371.802	186.44
372.028	195.44
372.254	198.44
372.48	204.44
372.706	205.44
372.932	208.44
373.158	197.44
373.384	187.44
373.61	200.44
373.835	196.44
374.061	200.44
374.287	177.44
374.513	186.44
374.739	199.44
374.965	206.44
375.191	215.44
375.416	211.44
375.642	198.44
375.868	201.44
376.094	197.44
376.319	195.44
376.545	197.44
376.771	192.44
376.997	194.44
377.222	201.44
377.448	190.44
377.674	203.44
377.899	186.44
378.125	181.44
378.35	177.44
378.576	199.44
378.802	190.44
379.027	192.44
379.253	193.44
379.478	184.44
379.704	200.44
379.929	187.44
380.155	186.44
380.38	185.44
380.606	185.44
380.831	199.44
381.057	193.44
381.282	187.44
381.507	192.44
381.733	193.44
381.958	191.44
382.184	186.44
382.409	202.44
382.634	183.44
382.86	204.44
383.085	211.44
383.31	218.44
383.535	227.44
383.761	215.44
383.986	213.44
384.211	208.44
384.436	211.44
384.662	215.44
384.887	216.44
385.112	231.44
385.337	224.44
385.562	217.44
385.787	221.44
386.013	225.44
386.238	219.44
386.463	229.44
386.688	230.44
386.913	205.44
387.138	236.44
387.363	217.44
387.588	199.44
387.813	216.44
388.038	209.44
388.263	210.44
388.488	246.44
388.713	207.44
388.938	221.44
389.163	209.44
389.387	215.44
389.612	215.44
389.837	216.44
390.062	197.44
390.287	206.44
390.512	224.44
390.736	215.44
390.961	229.44
391.186	218.44
391.411	232.44
391.636	245.44
391.86	235.44
392.085	241.44
392.31	236.44
392.534	244.44
392.759	239.44
392.984	207.44
393.208	223.44
393.433	229.44
393.658	228.44
393.882	225.44
394.107	219.44
394.331	244.44
394.556	220.44
394.78	237.44
395.005	227.44
395.229	245.44
395.454	240.44
395.678	226.44
395.903	252.44
396.127	246.44
396.352	227.44
396.576	231.44
396.801	220.44
397.025	226.44
397.249	228.44
397.474	238.44
397.698	231.44
397.922	235.44
398.147	230.44
398.371	202.44
398.595	232.44
398.82	241.44
399.044	269.44
399.268	316.44
399.492	334.44
399.717	382.44
399.941	368.44
400.165	323.44
400.389	287.44
400.613	284.44
400.837	265.44
401.062	251.44
401.286	228.44
401.51	248.44
401.734	259.44
401.958	265.44
402.182	278.44
402.406	270.44
402.63	267.44
402.854	279.44
403.078	277.44
403.302	284.44
403.526	302.44
403.75	287.44
403.974	298.44
404.198	299.44
404.422	299.44
404.645	276.44
404.869	280.44
405.093	279.44
405.317	260.44
405.541	278.44
405.765	288.44
405.988	278.44
406.212	259.44
406.436	273.44
406.66	283.44
406.883	290.44
407.107	293.44
407.331	319.44
407.555	321.44
407.778	323.44
408.002	316.44
408.226	275.44
408.449	281.44
408.673	312.44
408.896	274.44
409.12	281.44
409.344	301.44
409.567	295.44
409.791	295.44
410.014	289.44
410.238	286.44
410.461	277.44
410.685	294.44
410.908	294.44
411.132	291.44
411.355	244.44
411.578	257.44
411.802	264.44
412.025	263.44
412.249	260.44
412.472	264.44
412.695	262.44
412.919	229.44
413.142	261.44
413.365	241.44
413.589	250.44
413.812	263.44
414.035	273.44
414.258	260.44
414.482	261.44
414.705	247.44
414.928	264.44
415.151	275.44
415.374	264.44
415.597	263.44
415.821	272.44
416.044	258.44
416.267	260.44
416.49	256.44
416.713	243.44
416.936	271.44
417.159	246.44
417.382	244.44
417.605	238.44
417.828	242.44
418.051	247.44
418.274	253.44
418.497	243.44
418.72	273.44
418.943	271.44
419.166	285.44
419.389	273.44
419.611	294.44
419.834	285.44
420.057	265.44
420.28	272.44
420.503	263.44
420.726	259.44
420.948	255.44
421.171	254.44
421.394	254.44
421.617	263.44
421.839	260.44
422.062	250.44
422.285	255.44
422.507	256.44
422.73	262.44
422.953	246.44
423.175	252.44
423.398	270.44
423.621	266.44
423.843	300.44
424.066	280.44
424.288	283.44
424.511	281.44
424.733	269.44
424.956	277.44
425.178	265.44
425.401	261.44
425.623	245.44
425.846	261.44
426.068	241.44
426.291	251.44
426.513	253.44
426.735	230.44
426.958	226.44
427.18	212.44
427.402	236.44
427.625	238.44
427.847	236.44
428.069	241.44
428.292	251.44
428.514	235.44
428.736	223.44
428.958	239.44
429.181	231.44
429.403	235.44
429.625	235.44
429.847	227.44
430.069	225.44
430.292	212.44
430.514	223.44
430.736	231.44
430.958	224.44
431.18	225.44
431.402	223.44
431.624	217.44
431.846	229.44
432.068	216.44
432.29	228.44
432.512	223.44
432.734	242.44
432.956	224.44
433.178	230.44
433.4	235.44
433.622	237.44
433.844	227.44
434.066	221.44
434.287	215.44
434.509	244.44
434.731	239.44
434.953	262.44
435.175	276.44
435.397	257.44
435.618	244.44
435.84	259.44
436.062	216.44
436.284	227.44
436.505	228.44
436.727	231.44
436.949	233.44
437.17	251.44
437.392	227.44
437.614	238.44
437.835	234.44
438.057	216.44
438.278	222.44
438.5	216.44
438.721	229.44
438.943	225.44
439.165	220.44
439.386	220.44
439.608	230.44
439.829	233.44
440.05	231.44
440.272	227.44
440.493	241.44
440.715	243.44
440.936	214.44
441.158	249.44
441.379	246.44
441.6	260.44
441.822	265.44
442.043	254.44
442.264	240.44
442.486	243.44
442.707	240.44
442.928	252.44
443.149	245.44
443.371	259.44
443.592	255.44
443.813	262.44
444.034	257.44
444.255	279.44
444.476	269.44
444.698	290.44
444.919	301.44
445.14	419.44
445.361	327.44
445.582	263.44
445.803	235.44
446.024	232.44
446.245	249.44
446.466	237.44
446.687	221.44
446.908	249.44
447.129	228.44
447.35	210.44
447.571	231.44
447.792	220.44
448.013	219.44
448.234	219.44
448.455	230.44
448.675	233.44
448.896	207.44
449.117	211.44
449.338	199.44
449.559	216.44
449.779	201.44
450	210.44
450.221	203.44
450.442	220.44
450.662	220.44
450.883	230.44
451.104	212.44
451.324	214.44
451.545	212.44
451.766	232.44
451.986	231.44
452.207	211.44
452.428	214.44
452.648	215.44
452.869	213.44
453.089	205.44
453.31	228.44
453.53	213.44
453.751	205.44
453.971	199.44
454.192	204.44
454.412	214.44
454.633	211.44
454.853	212.44
455.073	206.44
455.294	216.44
455.514	213.44
455.734	220.44
455.955	192.44
456.175	204.44
456.395	203.44
456.616	223.44
456.836	220.44
457.056	225.44
457.276	185.44
457.497	202.44
457.717	203.44
457.937	200.44
458.157	215.44
458.377	209.44
458.598	203.44
458.818	223.44
459.038	230.44
459.258	229.44
459.478	240.44
459.698	224.44
459.918	238.44
460.138	230.44
460.358	277.44
460.578	275.44
460.798	279.44
461.018	272.44
461.238	275.44
461.458	251.44
461.678	278.44
461.898	276.44
462.118	269.44
462.338	270.44
462.558	266.44
462.777	317.44
462.997	323.44
463.217	361.44
463.437	351.44
463.657	327.44
463.876	320.44
464.096	317.44
464.316	291.44
464.536	321.44
464.755	297.44
464.975	291.44
465.195	279.44
465.414	269.44
465.634	263.44
465.854	261.44
466.073	240.44
466.293	235.44
466.512	236.44
466.732	221.44
466.951	233.44
467.171	238.44
467.391	232.44
467.61	236.44
467.829	221.44
468.049	226.44
468.268	223.44
468.488	218.44
468.707	226.44
468.927	219.44
469.146	212.44
469.365	213.44
469.585	229.44
469.804	212.44
470.023	238.44
470.243	243.44
470.462	240.44
470.681	244.44
470.901	254.44
471.12	241.44
471.339	239.44
471.558	228.44
471.777	222.44
471.997	231.44
472.216	213.44
472.435	238.44
472.654	209.44
472.873	230.44
473.092	214.44
473.311	204.44
473.53	194.44
473.749	222.44
473.968	231.44
474.187	217.44
474.406	235.44
474.625	216.44
474.844	221.44
475.063	233.44
475.282	209.44
475.501	212.44
475.72	209.44
475.939	224.44
476.158	225.44
476.377	229.44
476.596	222.44
476.814	233.44
477.033	223.44
477.252	237.44
477.471	244.44
477.69	249.44
477.908	246.44
478.127	272.44
478.346	254.44
478.564	254.44
478.783	271.44
479.002	260.44
479.22	269.44
479.439	252.44
479.658	258.44
479.876	252.44
480.095	254.44
480.313	279.44
480.532	283.44
480.751	272.44
480.969	269.44
481.188	261.44
481.406	259.44
481.624	255.44
481.843	249.44
482.061	240.44
482.28	273.44
482.498	238.44
482.717	253.44
482.935	248.44
483.153	248.44
483.372	262.44
483.59	264.44
483.808	260.44
484.027	256.44
484.245	271.44
484.463	240.44
484.681	270.44
484.9	266.44
485.118	271.44
485.336	265.44
485.554	276.44
485.772	270.44
485.99	265.44
486.209	272.44
486.427	275.44
486.645	284.44
486.863	275.44
487.081	267.44
487.299	273.44
487.517	250.44
487.735	281.44
487.953	285.44
488.171	284.44
488.389	259.44
488.607	262.44
488.825	259.44
489.043	255.44
489.261	247.44
489.479	270.44
489.696	257.44
489.914	257.44
490.132	271.44
490.35	249.44
490.568	260.44
490.786	266.44
491.003	272.44
491.221	285.44
491.439	275.44
491.657	256.44
491.874	279.44
492.092	261.44
492.31	272.44
492.527	260.44
492.745	278.44
492.963	272.44
493.18	249.44
493.398	273.44
493.615	272.44
493.833	266.44
494.05	275.44
494.268	267.44
494.485	266.44
494.703	274.44
494.92	273.44
495.138	258.44
495.355	304.44
495.573	266.44
495.79	273.44
496.008	283.44
496.225	287.44
496.442	286.44
496.66	284.44
496.877	280.44
497.094	283.44
497.312	295.44
497.529	290.44
497.746	299.44
497.963	301.44
498.181	308.44
498.398	313.44
498.615	353.44
498.832	362.44
499.049	379.44
499.267	417.44
499.484	442.44
499.701	500.44
499.918	529.44
500.135	608.44
500.352	694.44
500.569	726.44
500.786	735.44
501.003	692.44
501.22	627.44
501.437	528.44
501.654	487.44
501.871	447.44
502.088	393.44
502.305	379.44
502.522	358.44
502.739	360.44
502.956	350.44
503.172	317.44
503.389	307.44
