Data from 0.5MCu(NO3)2.Standard.Lamp.E10.CV._HRD10591_16-05-55-754.txt Node
Date: Mon Jul 22 16:05:55 EDT 2019
User: cochatt
Spectrometer: HR+D1059
Trigger mode: 1
Integration Time (sec): 1.000000E-1
Scans to average: 1
Electric dark correction enabled: true
Nonlinearity correction enabled: false
Boxcar width: 0
XAxis mode: Wavelengths
Number of Pixels in Spectrum: 2048
>>>>>Begin Spectral Data<<<<<
223.165	-15.69
223.4	-15.69
223.635	-15.69
223.869	-18.69
224.104	-25.69
224.338	-16.69
224.573	-22.69
224.808	-19.69
225.042	-4.69
225.277	-0.69
225.511	-5.69
225.746	3.31
225.98	8.31
226.215	10.31
226.449	29.31
226.683	27.31
226.918	18.31
227.152	33.31
227.387	40.31
227.621	38.31
227.856	43.31
228.09	48.31
228.324	53.31
228.559	52.31
228.793	66.31
229.027	60.31
229.262	80.31
229.496	68.31
229.73	76.31
229.964	62.31
230.199	83.31
230.433	85.31
230.667	83.31
230.901	78.31
231.136	98.31
231.37	100.31
231.604	74.31
231.838	93.31
232.072	97.31
232.306	105.31
232.541	86.31
232.775	100.31
233.009	109.31
233.243	86.31
233.477	96.31
233.711	85.31
233.945	98.31
234.179	101.31
234.413	96.31
234.647	91.31
234.881	92.31
235.115	101.31
235.349	96.31
235.583	86.31
235.817	105.31
236.051	92.31
236.285	78.31
236.519	100.31
236.753	97.31
236.987	92.31
237.221	95.31
237.455	102.31
237.689	85.31
237.922	86.31
238.156	88.31
238.39	94.31
238.624	98.31
238.858	89.31
239.091	89.31
239.325	83.31
239.559	101.31
239.793	95.31
240.027	115.31
240.26	94.31
240.494	93.31
240.728	108.31
240.961	87.31
241.195	84.31
241.429	117.31
241.662	95.31
241.896	86.31
242.13	98.31
242.363	101.31
242.597	100.31
242.83	88.31
243.064	101.31
243.298	110.31
243.531	94.31
243.765	85.31
243.998	100.31
244.232	110.31
244.465	108.31
244.699	104.31
244.932	103.31
245.166	97.31
245.399	110.31
245.633	98.31
245.866	101.31
246.099	104.31
246.333	106.31
246.566	102.31
246.8	116.31
247.033	114.31
247.266	95.31
247.5	92.31
247.733	109.31
247.966	100.31
248.2	115.31
248.433	107.31
248.666	103.31
248.899	105.31
249.133	107.31
249.366	126.31
249.599	106.31
249.832	115.31
250.066	123.31
250.299	117.31
250.532	125.31
250.765	108.31
250.998	107.31
251.231	124.31
251.465	116.31
251.698	110.31
251.931	118.31
252.164	124.31
252.397	125.31
252.63	130.31
252.863	107.31
253.096	119.31
253.329	131.31
253.562	126.31
253.795	109.31
254.028	124.31
254.261	128.31
254.494	121.31
254.727	121.31
254.96	124.31
255.193	131.31
255.426	118.31
255.659	126.31
255.892	115.31
256.124	125.31
256.357	119.31
256.59	129.31
256.823	128.31
257.056	136.31
257.289	115.31
257.521	115.31
257.754	123.31
257.987	127.31
258.22	135.31
258.452	129.31
258.685	118.31
258.918	143.31
259.151	133.31
259.383	136.31
259.616	128.31
259.849	135.31
260.081	122.31
260.314	135.31
260.547	122.31
260.779	127.31
261.012	139.31
261.244	141.31
261.477	121.31
261.71	133.31
261.942	139.31
262.175	140.31
262.407	128.31
262.64	130.31
262.872	144.31
263.105	128.31
263.337	145.31
263.57	130.31
263.802	139.31
264.035	143.31
264.267	128.31
264.499	119.31
264.732	137.31
264.964	145.31
265.197	150.31
265.429	133.31
265.661	137.31
265.894	139.31
266.126	145.31
266.358	134.31
266.591	133.31
266.823	133.31
267.055	135.31
267.287	135.31
267.52	137.31
267.752	157.31
267.984	150.31
268.216	131.31
268.448	144.31
268.681	143.31
268.913	136.31
269.145	147.31
269.377	155.31
269.609	144.31
269.841	134.31
270.073	139.31
270.306	136.31
270.538	145.31
270.77	146.31
271.002	129.31
271.234	143.31
271.466	151.31
271.698	154.31
271.93	150.31
272.162	157.31
272.394	156.31
272.626	135.31
272.858	142.31
273.09	158.31
273.322	147.31
273.553	126.31
273.785	148.31
274.017	142.31
274.249	158.31
274.481	169.31
274.713	164.31
274.945	152.31
275.176	149.31
275.408	168.31
275.64	155.31
275.872	154.31
276.104	161.31
276.335	153.31
276.567	154.31
276.799	165.31
277.031	154.31
277.262	137.31
277.494	178.31
277.726	161.31
277.957	162.31
278.189	158.31
278.421	147.31
278.652	154.31
278.884	153.31
279.115	169.31
279.347	166.31
279.579	174.31
279.81	175.31
280.042	170.31
280.273	164.31
280.505	180.31
280.736	163.31
280.968	157.31
281.199	164.31
281.431	169.31
281.662	160.31
281.894	160.31
282.125	161.31
282.356	174.31
282.588	152.31
282.819	171.31
283.051	162.31
283.282	184.31
283.513	182.31
283.745	156.31
283.976	154.31
284.207	159.31
284.439	180.31
284.67	184.31
284.901	173.31
285.132	173.31
285.364	169.31
285.595	157.31
285.826	183.31
286.057	187.31
286.288	175.31
286.52	179.31
286.751	172.31
286.982	172.31
287.213	179.31
287.444	175.31
287.675	184.31
287.906	194.31
288.138	172.31
288.369	191.31
288.6	173.31
288.831	195.31
289.062	180.31
289.293	185.31
289.524	184.31
289.755	172.31
289.986	182.31
290.217	178.31
290.448	179.31
290.679	192.31
290.91	181.31
291.141	176.31
291.371	182.31
291.602	191.31
291.833	184.31
292.064	189.31
292.295	187.31
292.526	190.31
292.757	167.31
292.987	182.31
293.218	177.31
293.449	184.31
293.68	190.31
293.91	182.31
294.141	191.31
294.372	191.31
294.603	194.31
294.833	194.31
295.064	195.31
295.295	183.31
295.525	182.31
295.756	183.31
295.987	192.31
296.217	183.31
296.448	193.31
296.679	184.31
296.909	193.31
297.14	193.31
297.37	198.31
297.601	208.31
297.831	192.31
298.062	207.31
298.292	218.31
298.523	205.31
298.753	198.31
298.984	198.31
299.214	209.31
299.445	205.31
299.675	202.31
299.905	191.31
300.136	190.31
300.366	214.31
300.597	203.31
300.827	198.31
301.057	194.31
301.288	213.31
301.518	212.31
301.748	204.31
301.979	211.31
302.209	196.31
302.439	197.31
302.669	200.31
302.9	207.31
303.13	208.31
303.36	201.31
303.59	195.31
303.82	194.31
304.051	200.31
304.281	202.31
304.511	203.31
304.741	203.31
304.971	191.31
305.201	195.31
305.431	213.31
305.661	196.31
305.891	220.31
306.121	211.31
306.352	206.31
306.582	192.31
306.812	205.31
307.042	206.31
307.272	202.31
307.502	192.31
307.731	198.31
307.961	193.31
308.191	197.31
308.421	199.31
308.651	213.31
308.881	188.31
309.111	206.31
309.341	206.31
309.571	192.31
309.8	210.31
310.03	215.31
310.26	199.31
310.49	195.31
310.72	206.31
310.949	196.31
311.179	213.31
311.409	197.31
311.639	198.31
311.868	207.31
312.098	220.31
312.328	219.31
312.557	216.31
312.787	191.31
313.017	218.31
313.246	198.31
313.476	218.31
313.706	216.31
313.935	208.31
314.165	220.31
314.394	214.31
314.624	211.31
314.853	221.31
315.083	203.31
315.312	199.31
315.542	207.31
315.771	225.31
316.001	226.31
316.23	224.31
316.46	214.31
316.689	207.31
316.919	199.31
317.148	218.31
317.377	202.31
317.607	223.31
317.836	208.31
318.065	205.31
318.295	210.31
318.524	210.31
318.753	205.31
318.983	215.31
319.212	208.31
319.441	212.31
319.67	204.31
319.9	216.31
320.129	226.31
320.358	209.31
320.587	215.31
320.816	198.31
321.046	199.31
321.275	203.31
321.504	197.31
321.733	195.31
321.962	205.31
322.191	215.31
322.42	217.31
322.649	221.31
322.878	213.31
323.108	212.31
323.337	213.31
323.566	210.31
323.795	211.31
324.024	212.31
324.253	214.31
324.482	205.31
324.71	210.31
324.939	215.31
325.168	222.31
325.397	228.31
325.626	229.31
325.855	221.31
326.084	228.31
326.313	230.31
326.542	232.31
326.77	240.31
326.999	223.31
327.228	220.31
327.457	236.31
327.686	220.31
327.914	233.31
328.143	233.31
328.372	228.31
328.6	218.31
328.829	239.31
329.058	215.31
329.287	212.31
329.515	222.31
329.744	235.31
329.972	242.31
330.201	234.31
330.43	229.31
330.658	218.31
330.887	238.31
331.115	247.31
331.344	258.31
331.572	238.31
331.801	227.31
332.03	234.31
332.258	246.31
332.486	262.31
332.715	269.31
332.943	267.31
333.172	295.31
333.4	289.31
333.629	290.31
333.857	281.31
334.085	294.31
334.314	270.31
334.542	276.31
334.771	282.31
334.999	265.31
335.227	268.31
335.455	266.31
335.684	286.31
335.912	266.31
336.14	266.31
336.369	267.31
336.597	257.31
336.825	259.31
337.053	259.31
337.281	246.31
337.51	254.31
337.738	244.31
337.966	250.31
338.194	231.31
338.422	249.31
338.65	232.31
338.878	254.31
339.106	250.31
339.334	254.31
339.562	220.31
339.79	231.31
340.018	227.31
340.246	237.31
340.474	227.31
340.702	231.31
340.93	240.31
341.158	230.31
341.386	230.31
341.614	236.31
341.842	238.31
342.07	235.31
342.298	218.31
342.526	228.31
342.754	226.31
342.981	217.31
343.209	227.31
343.437	254.31
343.665	238.31
343.893	278.31
344.12	264.31
344.348	270.31
344.576	254.31
344.804	245.31
345.031	245.31
345.259	250.31
345.487	232.31
345.714	235.31
345.942	240.31
346.17	237.31
346.397	225.31
346.625	222.31
346.853	231.31
347.08	229.31
347.308	244.31
347.535	227.31
347.763	213.31
347.99	230.31
348.218	245.31
348.445	221.31
348.673	218.31
348.9	235.31
349.128	234.31
349.355	219.31
349.583	208.31
349.81	221.31
350.037	210.31
350.265	223.31
350.492	217.31
350.72	237.31
350.947	203.31
351.174	222.31
351.402	222.31
351.629	212.31
351.856	199.31
352.083	199.31
352.311	202.31
352.538	215.31
352.765	209.31
352.992	223.31
353.22	212.31
353.447	227.31
353.674	226.31
353.901	211.31
354.128	216.31
354.355	213.31
354.583	219.31
354.81	214.31
355.037	210.31
355.264	212.31
355.491	218.31
355.718	213.31
355.945	226.31
356.172	219.31
356.399	218.31
356.626	227.31
356.853	208.31
357.08	237.31
357.307	220.31
357.534	222.31
357.761	230.31
357.988	228.31
358.215	244.31
358.441	229.31
358.668	214.31
358.895	206.31
359.122	227.31
359.349	223.31
359.576	211.31
359.802	212.31
360.029	211.31
360.256	209.31
360.483	213.31
360.709	212.31
360.936	236.31
361.163	217.31
361.39	213.31
361.616	216.31
361.843	209.31
362.07	223.31
362.296	226.31
362.523	226.31
362.749	238.31
362.976	221.31
363.203	219.31
363.429	203.31
363.656	221.31
363.882	220.31
364.109	215.31
364.335	229.31
364.562	211.31
364.788	212.31
365.015	208.31
365.241	204.31
365.468	215.31
365.694	221.31
365.92	215.31
366.147	210.31
366.373	205.31
366.599	218.31
366.826	202.31
367.052	206.31
367.278	207.31
367.505	218.31
367.731	217.31
367.957	211.31
368.184	211.31
368.41	217.31
368.636	214.31
368.862	235.31
369.089	210.31
369.315	213.31
369.541	244.31
369.767	222.31
369.993	218.31
370.219	231.31
370.445	226.31
370.672	212.31
370.898	221.31
371.124	217.31
371.35	237.31
371.576	231.31
371.802	240.31
372.028	246.31
372.254	224.31
372.48	254.31
372.706	238.31
372.932	248.31
373.158	215.31
373.384	243.31
373.61	233.31
373.835	215.31
374.061	224.31
374.287	225.31
374.513	247.31
374.739	250.31
374.965	275.31
375.191	254.31
375.416	260.31
375.642	254.31
375.868	234.31
376.094	239.31
376.319	240.31
376.545	239.31
376.771	235.31
376.997	230.31
377.222	223.31
377.448	237.31
377.674	235.31
377.899	227.31
378.125	227.31
378.35	236.31
378.576	251.31
378.802	235.31
379.027	238.31
379.253	243.31
379.478	226.31
379.704	206.31
379.929	232.31
380.155	221.31
380.38	234.31
380.606	230.31
380.831	222.31
381.057	234.31
381.282	227.31
381.507	226.31
381.733	246.31
381.958	217.31
382.184	220.31
382.409	233.31
382.634	228.31
382.86	236.31
383.085	249.31
383.31	256.31
383.535	246.31
383.761	231.31
383.986	248.31
384.211	250.31
384.436	263.31
384.662	255.31
384.887	251.31
385.112	282.31
385.337	256.31
385.562	251.31
385.787	263.31
386.013	270.31
386.238	264.31
386.463	262.31
386.688	276.31
386.913	271.31
387.138	256.31
387.363	244.31
387.588	266.31
387.813	262.31
388.038	251.31
388.263	259.31
388.488	260.31
388.713	239.31
388.938	244.31
389.163	259.31
389.387	250.31
389.612	265.31
389.837	258.31
390.062	239.31
390.287	251.31
390.512	262.31
390.736	246.31
390.961	262.31
391.186	266.31
391.411	252.31
391.636	295.31
391.86	285.31
392.085	292.31
392.31	290.31
392.534	285.31
392.759	271.31
392.984	264.31
393.208	270.31
393.433	278.31
393.658	284.31
393.882	258.31
394.107	256.31
394.331	280.31
394.556	277.31
394.78	280.31
395.005	268.31
395.229	253.31
395.454	246.31
395.678	273.31
395.903	301.31
396.127	282.31
396.352	257.31
396.576	278.31
396.801	274.31
397.025	267.31
397.249	282.31
397.474	276.31
397.698	281.31
397.922	299.31
398.147	283.31
398.371	275.31
398.595	292.31
398.82	318.31
399.044	300.31
399.268	357.31
399.492	419.31
399.717	446.31
399.941	436.31
400.165	394.31
400.389	350.31
400.613	344.31
400.837	312.31
401.062	307.31
401.286	322.31
401.51	307.31
401.734	320.31
401.958	321.31
402.182	311.31
402.406	313.31
402.63	346.31
402.854	322.31
403.078	339.31
403.302	322.31
403.526	334.31
403.75	350.31
403.974	339.31
404.198	353.31
404.422	359.31
404.645	348.31
404.869	355.31
405.093	350.31
405.317	349.31
405.541	337.31
405.765	319.31
405.988	340.31
406.212	329.31
406.436	343.31
406.66	333.31
406.883	337.31
407.107	370.31
407.331	373.31
407.555	380.31
407.778	380.31
408.002	367.31
408.226	342.31
408.449	359.31
408.673	376.31
408.896	353.31
409.12	337.31
409.344	346.31
409.567	342.31
409.791	338.31
410.014	346.31
410.238	347.31
410.461	337.31
410.685	342.31
410.908	341.31
411.132	332.31
411.355	314.31
411.578	318.31
411.802	306.31
412.025	319.31
412.249	325.31
412.472	320.31
412.695	311.31
412.919	309.31
413.142	300.31
413.365	308.31
413.589	320.31
413.812	292.31
414.035	296.31
414.258	306.31
414.482	299.31
414.705	320.31
414.928	309.31
415.151	292.31
415.374	290.31
415.597	308.31
415.821	297.31
416.044	299.31
416.267	308.31
416.49	296.31
416.713	298.31
416.936	284.31
417.159	309.31
417.382	284.31
417.605	306.31
417.828	293.31
418.051	304.31
418.274	298.31
418.497	300.31
418.72	316.31
418.943	311.31
419.166	324.31
419.389	347.31
419.611	335.31
419.834	331.31
420.057	319.31
420.28	298.31
420.503	308.31
420.726	298.31
420.948	298.31
421.171	292.31
421.394	311.31
421.617	304.31
421.839	310.31
422.062	312.31
422.285	286.31
422.507	328.31
422.73	330.31
422.953	327.31
423.175	310.31
423.398	342.31
423.621	316.31
423.843	318.31
424.066	326.31
424.288	343.31
424.511	326.31
424.733	306.31
424.956	310.31
425.178	340.31
425.401	312.31
425.623	303.31
425.846	291.31
426.068	281.31
426.291	276.31
426.513	283.31
426.735	279.31
426.958	294.31
427.18	294.31
427.402	280.31
427.625	296.31
427.847	301.31
428.069	282.31
428.292	270.31
428.514	264.31
428.736	286.31
428.958	284.31
429.181	268.31
429.403	256.31
429.625	271.31
429.847	278.31
430.069	268.31
430.292	266.31
430.514	267.31
430.736	249.31
430.958	277.31
431.18	254.31
431.402	264.31
431.624	273.31
431.846	267.31
432.068	290.31
432.29	293.31
432.512	282.31
432.734	263.31
432.956	262.31
433.178	272.31
433.4	278.31
433.622	269.31
433.844	281.31
434.066	290.31
434.287	283.31
434.509	266.31
434.731	308.31
434.953	297.31
435.175	329.31
435.397	291.31
435.618	297.31
435.84	294.31
436.062	275.31
436.284	271.31
436.505	278.31
436.727	282.31
436.949	271.31
437.17	275.31
437.392	282.31
437.614	277.31
437.835	277.31
438.057	256.31
438.278	263.31
438.5	267.31
438.721	275.31
438.943	258.31
439.165	269.31
439.386	291.31
439.608	284.31
439.829	278.31
440.05	277.31
440.272	283.31
440.493	282.31
440.715	288.31
440.936	275.31
441.158	267.31
441.379	291.31
441.6	312.31
441.822	318.31
442.043	299.31
442.264	300.31
442.486	314.31
442.707	313.31
442.928	298.31
443.149	292.31
443.371	293.31
443.592	298.31
443.813	321.31
444.034	316.31
444.255	338.31
444.476	314.31
444.698	363.31
444.919	350.31
445.14	436.31
445.361	373.31
445.582	321.31
445.803	312.31
446.024	285.31
446.245	283.31
446.466	270.31
446.687	263.31
446.908	263.31
447.129	276.31
447.35	259.31
447.571	265.31
447.792	262.31
448.013	251.31
448.234	266.31
448.455	268.31
448.675	278.31
448.896	270.31
449.117	246.31
449.338	253.31
449.559	268.31
449.779	248.31
450	251.31
450.221	239.31
450.442	266.31
450.662	258.31
450.883	268.31
451.104	263.31
451.324	272.31
451.545	262.31
451.766	270.31
451.986	269.31
452.207	250.31
452.428	258.31
452.648	261.31
452.869	256.31
453.089	234.31
453.31	257.31
453.53	239.31
453.751	270.31
453.971	251.31
454.192	248.31
454.412	251.31
454.633	260.31
454.853	259.31
455.073	259.31
455.294	235.31
455.514	261.31
455.734	262.31
455.955	226.31
456.175	223.31
456.395	231.31
456.616	230.31
456.836	251.31
457.056	237.31
457.276	242.31
457.497	242.31
457.717	246.31
457.937	260.31
458.157	252.31
458.377	232.31
458.598	259.31
458.818	253.31
459.038	261.31
459.258	275.31
459.478	267.31
459.698	286.31
459.918	303.31
460.138	303.31
460.358	327.31
460.578	322.31
460.798	329.31
461.018	328.31
461.238	316.31
461.458	327.31
461.678	309.31
461.898	326.31
462.118	314.31
462.338	358.31
462.558	345.31
462.777	356.31
462.997	382.31
463.217	420.31
463.437	430.31
463.657	392.31
463.876	365.31
464.096	358.31
464.316	375.31
464.536	359.31
464.755	355.31
464.975	357.31
465.195	330.31
465.414	319.31
465.634	302.31
465.854	278.31
466.073	287.31
466.293	270.31
466.512	265.31
466.732	268.31
466.951	274.31
467.171	280.31
467.391	275.31
467.61	284.31
467.829	269.31
468.049	270.31
468.268	263.31
468.488	290.31
468.707	258.31
468.927	246.31
469.146	248.31
469.365	265.31
469.585	256.31
469.804	270.31
470.023	279.31
470.243	286.31
470.462	270.31
470.681	293.31
470.901	287.31
471.12	270.31
471.339	262.31
471.558	267.31
471.777	284.31
471.997	272.31
472.216	271.31
472.435	258.31
472.654	251.31
472.873	261.31
473.092	252.31
473.311	248.31
473.53	263.31
473.749	255.31
473.968	256.31
474.187	251.31
474.406	247.31
474.625	270.31
474.844	248.31
475.063	257.31
475.282	254.31
475.501	262.31
475.72	268.31
475.939	266.31
476.158	270.31
476.377	253.31
476.596	268.31
476.814	272.31
477.033	262.31
477.252	291.31
477.471	289.31
477.69	290.31
477.908	285.31
478.127	274.31
478.346	301.31
478.564	291.31
478.783	315.31
479.002	327.31
479.22	329.31
479.439	318.31
479.658	289.31
479.876	302.31
480.095	309.31
480.313	326.31
480.532	327.31
480.751	354.31
480.969	330.31
481.188	313.31
481.406	297.31
481.624	280.31
481.843	305.31
482.061	292.31
482.28	286.31
482.498	280.31
482.717	301.31
482.935	293.31
483.153	316.31
483.372	288.31
483.59	293.31
483.808	280.31
484.027	294.31
484.245	283.31
484.463	316.31
484.681	300.31
484.9	314.31
485.118	330.31
485.336	306.31
485.554	318.31
485.772	307.31
485.99	331.31
486.209	323.31
486.427	316.31
486.645	306.31
486.863	307.31
487.081	303.31
487.299	324.31
487.517	302.31
487.735	311.31
487.953	310.31
488.171	319.31
488.389	310.31
488.607	313.31
488.825	299.31
489.043	304.31
489.261	298.31
489.479	293.31
489.696	308.31
489.914	300.31
490.132	319.31
490.35	316.31
490.568	315.31
490.786	311.31
491.003	312.31
491.221	310.31
491.439	320.31
491.657	322.31
491.874	311.31
492.092	299.31
492.31	318.31
492.527	315.31
492.745	336.31
492.963	309.31
493.18	322.31
493.398	305.31
493.615	310.31
493.833	318.31
494.05	315.31
494.268	311.31
494.485	342.31
494.703	322.31
494.92	313.31
495.138	316.31
495.355	342.31
495.573	310.31
495.79	313.31
496.008	336.31
496.225	327.31
496.442	331.31
496.66	333.31
496.877	308.31
497.094	341.31
497.312	340.31
497.529	355.31
497.746	382.31
497.963	371.31
498.181	373.31
498.398	372.31
498.615	414.31
498.832	448.31
499.049	461.31
499.267	490.31
499.484	534.31
499.701	595.31
499.918	662.31
500.135	748.31
500.352	885.31
500.569	902.31
500.786	917.31
501.003	835.31
501.22	742.31
501.437	635.31
501.654	558.31
501.871	536.31
502.088	508.31
502.305	475.31
502.522	455.31
502.739	412.31
502.956	406.31
