Data from 0.5MCu(NO3)2.Standard.Lamp.E10.CV._HRD10591_16-06-35-754.txt Node
Date: Mon Jul 22 16:06:35 EDT 2019
User: cochatt
Spectrometer: HR+D1059
Trigger mode: 1
Integration Time (sec): 1.000000E-1
Scans to average: 1
Electric dark correction enabled: true
Nonlinearity correction enabled: false
Boxcar width: 0
XAxis mode: Wavelengths
Number of Pixels in Spectrum: 2048
>>>>>Begin Spectral Data<<<<<
223.165	-16.25
223.4	-16.25
223.635	-16.25
223.869	-31.25
224.104	-33.25
224.338	-21.25
224.573	-4.25
224.808	-6.25
225.042	6.75
225.277	-4.25
225.511	8.75
225.746	11.75
225.98	8.75
226.215	12.75
226.449	7.75
226.683	11.75
226.918	24.75
227.152	23.75
227.387	41.75
227.621	28.75
227.856	37.75
228.09	35.75
228.324	53.75
228.559	43.75
228.793	56.75
229.027	69.75
229.262	73.75
229.496	74.75
229.73	73.75
229.964	75.75
230.199	81.75
230.433	69.75
230.667	77.75
230.901	65.75
231.136	83.75
231.37	92.75
231.604	99.75
231.838	88.75
232.072	75.75
232.306	75.75
232.541	75.75
232.775	91.75
233.009	96.75
233.243	100.75
233.477	88.75
233.711	96.75
233.945	90.75
234.179	88.75
234.413	103.75
234.647	98.75
234.881	92.75
235.115	90.75
235.349	94.75
235.583	93.75
235.817	93.75
236.051	89.75
236.285	90.75
236.519	78.75
236.753	81.75
236.987	93.75
237.221	97.75
237.455	102.75
237.689	109.75
237.922	107.75
238.156	98.75
238.39	94.75
238.624	77.75
238.858	102.75
239.091	94.75
239.325	88.75
239.559	86.75
239.793	93.75
240.027	102.75
240.26	107.75
240.494	113.75
240.728	120.75
240.961	100.75
241.195	86.75
241.429	99.75
241.662	87.75
241.896	118.75
242.13	96.75
242.363	96.75
242.597	100.75
242.83	105.75
243.064	105.75
243.298	88.75
243.531	104.75
243.765	109.75
243.998	105.75
244.232	124.75
244.465	113.75
244.699	97.75
244.932	112.75
245.166	106.75
245.399	100.75
245.633	113.75
245.866	113.75
246.099	100.75
246.333	120.75
246.566	104.75
246.8	105.75
247.033	101.75
247.266	114.75
247.5	109.75
247.733	109.75
247.966	124.75
248.2	109.75
248.433	124.75
248.666	124.75
248.899	121.75
249.133	111.75
249.366	124.75
249.599	122.75
249.832	126.75
250.066	124.75
250.299	117.75
250.532	129.75
250.765	112.75
250.998	117.75
251.231	120.75
251.465	120.75
251.698	118.75
251.931	126.75
252.164	96.75
252.397	129.75
252.63	122.75
252.863	124.75
253.096	123.75
253.329	119.75
253.562	120.75
253.795	122.75
254.028	135.75
254.261	130.75
254.494	132.75
254.727	154.75
254.96	126.75
255.193	128.75
255.426	122.75
255.659	130.75
255.892	128.75
256.124	134.75
256.357	129.75
256.59	136.75
256.823	121.75
257.056	148.75
257.289	122.75
257.521	123.75
257.754	140.75
257.987	127.75
258.22	123.75
258.452	142.75
258.685	138.75
258.918	122.75
259.151	125.75
259.383	135.75
259.616	142.75
259.849	133.75
260.081	132.75
260.314	142.75
260.547	130.75
260.779	137.75
261.012	149.75
261.244	124.75
261.477	124.75
261.71	128.75
261.942	116.75
262.175	140.75
262.407	140.75
262.64	126.75
262.872	127.75
263.105	114.75
263.337	123.75
263.57	126.75
263.802	146.75
264.035	135.75
264.267	136.75
264.499	149.75
264.732	124.75
264.964	138.75
265.197	154.75
265.429	140.75
265.661	126.75
265.894	136.75
266.126	136.75
266.358	142.75
266.591	149.75
266.823	164.75
267.055	139.75
267.287	155.75
267.52	143.75
267.752	138.75
267.984	140.75
268.216	142.75
268.448	167.75
268.681	142.75
268.913	168.75
269.145	149.75
269.377	155.75
269.609	154.75
269.841	156.75
270.073	158.75
270.306	145.75
270.538	144.75
270.77	156.75
271.002	148.75
271.234	155.75
271.466	164.75
271.698	128.75
271.93	144.75
272.162	155.75
272.394	168.75
272.626	156.75
272.858	159.75
273.09	166.75
273.322	147.75
273.553	171.75
273.785	168.75
274.017	162.75
274.249	164.75
274.481	168.75
274.713	163.75
274.945	155.75
275.176	169.75
275.408	157.75
275.64	161.75
275.872	172.75
276.104	187.75
276.335	158.75
276.567	155.75
276.799	166.75
277.031	163.75
277.262	171.75
277.494	170.75
277.726	165.75
277.957	157.75
278.189	171.75
278.421	171.75
278.652	182.75
278.884	149.75
279.115	181.75
279.347	173.75
279.579	189.75
279.81	178.75
280.042	180.75
280.273	173.75
280.505	167.75
280.736	189.75
280.968	188.75
281.199	173.75
281.431	172.75
281.662	168.75
281.894	178.75
282.125	183.75
282.356	185.75
282.588	200.75
282.819	192.75
283.051	191.75
283.282	197.75
283.513	190.75
283.745	189.75
283.976	197.75
284.207	180.75
284.439	192.75
284.67	197.75
284.901	188.75
285.132	177.75
285.364	171.75
285.595	192.75
285.826	176.75
286.057	196.75
286.288	167.75
286.52	194.75
286.751	190.75
286.982	186.75
287.213	181.75
287.444	188.75
287.675	181.75
287.906	203.75
288.138	195.75
288.369	215.75
288.6	218.75
288.831	183.75
289.062	208.75
289.293	212.75
289.524	202.75
289.755	212.75
289.986	202.75
290.217	215.75
290.448	197.75
290.679	194.75
290.91	208.75
291.141	201.75
291.371	208.75
291.602	199.75
291.833	214.75
292.064	212.75
292.295	200.75
292.526	228.75
292.757	215.75
292.987	226.75
293.218	208.75
293.449	213.75
293.68	210.75
293.91	190.75
294.141	196.75
294.372	209.75
294.603	208.75
294.833	184.75
295.064	213.75
295.295	208.75
295.525	200.75
295.756	220.75
295.987	203.75
296.217	206.75
296.448	207.75
296.679	197.75
296.909	216.75
297.14	213.75
297.37	202.75
297.601	222.75
297.831	203.75
298.062	218.75
298.292	218.75
298.523	218.75
298.753	195.75
298.984	212.75
299.214	218.75
299.445	205.75
299.675	222.75
299.905	218.75
300.136	206.75
300.366	214.75
300.597	218.75
300.827	212.75
301.057	227.75
301.288	237.75
301.518	213.75
301.748	241.75
301.979	234.75
302.209	217.75
302.439	225.75
302.669	229.75
302.9	218.75
303.13	229.75
303.36	231.75
303.59	220.75
303.82	215.75
304.051	224.75
304.281	224.75
304.511	223.75
304.741	220.75
304.971	217.75
305.201	218.75
305.431	220.75
305.661	241.75
305.891	218.75
306.121	204.75
306.352	233.75
306.582	224.75
306.812	220.75
307.042	226.75
307.272	212.75
307.502	214.75
307.731	224.75
307.961	206.75
308.191	225.75
308.421	225.75
308.651	232.75
308.881	227.75
309.111	220.75
309.341	216.75
309.571	217.75
309.8	222.75
310.03	224.75
310.26	228.75
310.49	223.75
310.72	232.75
310.949	224.75
311.179	230.75
311.409	231.75
311.639	221.75
311.868	237.75
312.098	237.75
312.328	215.75
312.557	218.75
312.787	214.75
313.017	229.75
313.246	231.75
313.476	219.75
313.706	229.75
313.935	244.75
314.165	250.75
314.394	234.75
314.624	234.75
314.853	219.75
315.083	241.75
315.312	239.75
315.542	227.75
315.771	229.75
316.001	238.75
316.23	237.75
316.46	246.75
316.689	228.75
316.919	245.75
317.148	219.75
317.377	232.75
317.607	226.75
317.836	224.75
318.065	228.75
318.295	243.75
318.524	236.75
318.753	206.75
318.983	211.75
319.212	212.75
319.441	227.75
319.67	229.75
319.9	241.75
320.129	260.75
320.358	231.75
320.587	233.75
320.816	230.75
321.046	231.75
321.275	226.75
321.504	250.75
321.733	254.75
321.962	240.75
322.191	228.75
322.42	248.75
322.649	229.75
322.878	233.75
323.108	225.75
323.337	235.75
323.566	231.75
323.795	240.75
324.024	250.75
324.253	235.75
324.482	233.75
324.71	225.75
324.939	235.75
325.168	246.75
325.397	263.75
325.626	233.75
325.855	246.75
326.084	267.75
326.313	260.75
326.542	231.75
326.77	251.75
326.999	261.75
327.228	274.75
327.457	235.75
327.686	254.75
327.914	246.75
328.143	265.75
328.372	260.75
328.6	241.75
328.829	255.75
329.058	257.75
329.287	237.75
329.515	235.75
329.744	249.75
329.972	258.75
330.201	259.75
330.43	234.75
330.658	260.75
330.887	254.75
331.115	267.75
331.344	266.75
331.572	262.75
331.801	269.75
332.03	257.75
332.258	278.75
332.486	277.75
332.715	281.75
332.943	278.75
333.172	316.75
333.4	327.75
333.629	302.75
333.857	300.75
334.085	329.75
334.314	317.75
334.542	301.75
334.771	316.75
334.999	286.75
335.227	294.75
335.455	301.75
335.684	291.75
335.912	307.75
336.14	283.75
336.369	274.75
336.597	305.75
336.825	272.75
337.053	270.75
337.281	287.75
337.51	282.75
337.738	277.75
337.966	276.75
338.194	267.75
338.422	267.75
338.65	265.75
338.878	268.75
339.106	269.75
339.334	241.75
339.562	265.75
339.79	238.75
340.018	237.75
340.246	259.75
340.474	247.75
340.702	253.75
340.93	257.75
341.158	267.75
341.386	260.75
341.614	240.75
341.842	255.75
342.07	258.75
342.298	256.75
342.526	247.75
342.754	249.75
342.981	258.75
343.209	273.75
343.437	260.75
343.665	286.75
343.893	320.75
344.12	289.75
344.348	285.75
344.576	285.75
344.804	278.75
345.031	265.75
345.259	269.75
345.487	252.75
345.714	246.75
345.942	244.75
346.17	242.75
346.397	256.75
346.625	248.75
346.853	244.75
347.08	254.75
347.308	243.75
347.535	249.75
347.763	237.75
347.99	247.75
348.218	238.75
348.445	246.75
348.673	262.75
348.9	237.75
349.128	242.75
349.355	246.75
349.583	237.75
349.81	249.75
350.037	252.75
350.265	241.75
350.492	251.75
350.72	218.75
350.947	237.75
351.174	237.75
351.402	229.75
351.629	223.75
351.856	240.75
352.083	234.75
352.311	230.75
352.538	256.75
352.765	247.75
352.992	240.75
353.22	250.75
353.447	243.75
353.674	247.75
353.901	227.75
354.128	237.75
354.355	235.75
354.583	235.75
354.81	231.75
355.037	255.75
355.264	233.75
355.491	243.75
355.718	233.75
355.945	248.75
356.172	236.75
356.399	241.75
356.626	256.75
356.853	227.75
357.08	233.75
357.307	235.75
357.534	244.75
357.761	239.75
357.988	224.75
358.215	232.75
358.441	235.75
358.668	222.75
358.895	235.75
359.122	238.75
359.349	236.75
359.576	228.75
359.802	231.75
360.029	230.75
360.256	254.75
360.483	233.75
360.709	233.75
360.936	250.75
361.163	241.75
361.39	240.75
361.616	233.75
361.843	252.75
362.07	243.75
362.296	217.75
362.523	240.75
362.749	233.75
362.976	240.75
363.203	233.75
363.429	202.75
363.656	229.75
363.882	224.75
364.109	230.75
364.335	243.75
364.562	231.75
364.788	229.75
365.015	241.75
365.241	226.75
365.468	233.75
365.694	227.75
365.92	239.75
366.147	240.75
366.373	235.75
366.599	219.75
366.826	219.75
367.052	236.75
367.278	233.75
367.505	227.75
367.731	228.75
367.957	228.75
368.184	226.75
368.41	227.75
368.636	240.75
368.862	240.75
369.089	237.75
369.315	223.75
369.541	243.75
369.767	231.75
369.993	240.75
370.219	243.75
370.445	250.75
370.672	232.75
370.898	231.75
371.124	260.75
371.35	235.75
371.576	249.75
371.802	233.75
372.028	236.75
372.254	246.75
372.48	245.75
372.706	238.75
372.932	257.75
373.158	256.75
373.384	257.75
373.61	263.75
373.835	257.75
374.061	238.75
374.287	244.75
374.513	245.75
374.739	246.75
374.965	248.75
375.191	268.75
375.416	282.75
375.642	278.75
375.868	286.75
376.094	252.75
376.319	248.75
376.545	253.75
376.771	241.75
376.997	235.75
377.222	246.75
377.448	266.75
377.674	226.75
377.899	240.75
378.125	236.75
378.35	233.75
378.576	235.75
378.802	244.75
379.027	232.75
379.253	258.75
379.478	243.75
379.704	243.75
379.929	230.75
380.155	240.75
380.38	238.75
380.606	228.75
380.831	243.75
381.057	233.75
381.282	266.75
381.507	249.75
381.733	247.75
381.958	247.75
382.184	242.75
382.409	242.75
382.634	246.75
382.86	257.75
383.085	265.75
383.31	275.75
383.535	260.75
383.761	271.75
383.986	267.75
384.211	270.75
384.436	277.75
384.662	297.75
384.887	278.75
385.112	283.75
385.337	301.75
385.562	292.75
385.787	293.75
386.013	288.75
386.238	290.75
386.463	292.75
386.688	297.75
386.913	275.75
387.138	284.75
387.363	279.75
387.588	277.75
387.813	283.75
388.038	275.75
388.263	291.75
388.488	289.75
388.713	270.75
388.938	265.75
389.163	278.75
389.387	291.75
389.612	266.75
389.837	278.75
390.062	271.75
390.287	299.75
390.512	273.75
390.736	269.75
390.961	279.75
391.186	276.75
391.411	299.75
391.636	307.75
391.86	307.75
392.085	318.75
392.31	322.75
392.534	307.75
392.759	289.75
392.984	296.75
393.208	282.75
393.433	294.75
393.658	292.75
393.882	276.75
394.107	278.75
394.331	284.75
394.556	300.75
394.78	291.75
395.005	299.75
395.229	284.75
395.454	289.75
395.678	305.75
395.903	301.75
396.127	301.75
396.352	285.75
396.576	296.75
396.801	279.75
397.025	281.75
397.249	290.75
397.474	314.75
397.698	308.75
397.922	317.75
398.147	304.75
398.371	292.75
398.595	320.75
398.82	340.75
399.044	340.75
399.268	377.75
399.492	418.75
399.717	490.75
399.941	478.75
400.165	430.75
400.389	376.75
400.613	353.75
400.837	329.75
401.062	326.75
401.286	321.75
401.51	310.75
401.734	330.75
401.958	321.75
402.182	312.75
402.406	331.75
402.63	336.75
402.854	340.75
403.078	360.75
403.302	340.75
403.526	380.75
403.75	381.75
403.974	362.75
404.198	371.75
404.422	384.75
404.645	365.75
404.869	353.75
405.093	362.75
405.317	345.75
405.541	348.75
405.765	345.75
405.988	327.75
406.212	360.75
406.436	352.75
406.66	342.75
406.883	363.75
407.107	384.75
407.331	394.75
407.555	406.75
407.778	408.75
408.002	385.75
408.226	378.75
408.449	378.75
408.673	357.75
408.896	359.75
409.12	346.75
409.344	377.75
409.567	353.75
409.791	382.75
410.014	346.75
410.238	368.75
410.461	375.75
410.685	362.75
410.908	360.75
411.132	357.75
411.355	334.75
411.578	330.75
411.802	318.75
412.025	312.75
412.249	330.75
412.472	335.75
412.695	335.75
412.919	313.75
413.142	310.75
413.365	308.75
413.589	316.75
413.812	310.75
414.035	300.75
414.258	338.75
414.482	308.75
414.705	317.75
414.928	324.75
415.151	326.75
415.374	330.75
415.597	334.75
415.821	311.75
416.044	332.75
416.267	314.75
416.49	311.75
416.713	314.75
416.936	312.75
417.159	311.75
417.382	298.75
417.605	308.75
417.828	325.75
418.051	326.75
418.274	324.75
418.497	330.75
418.72	309.75
418.943	321.75
419.166	335.75
419.389	358.75
419.611	342.75
419.834	342.75
420.057	329.75
420.28	332.75
420.503	308.75
420.726	316.75
420.948	299.75
421.171	317.75
421.394	296.75
421.617	339.75
421.839	321.75
422.062	317.75
422.285	309.75
422.507	324.75
422.73	329.75
422.953	321.75
423.175	329.75
423.398	317.75
423.621	333.75
423.843	326.75
424.066	336.75
424.288	344.75
424.511	333.75
424.733	337.75
424.956	328.75
425.178	309.75
425.401	302.75
425.623	322.75
425.846	328.75
426.068	304.75
426.291	294.75
426.513	295.75
426.735	310.75
426.958	269.75
427.18	296.75
427.402	301.75
427.625	282.75
427.847	280.75
428.069	282.75
428.292	292.75
428.514	270.75
428.736	269.75
428.958	291.75
429.181	280.75
429.403	294.75
429.625	268.75
429.847	276.75
430.069	293.75
430.292	272.75
430.514	278.75
430.736	283.75
430.958	257.75
431.18	284.75
431.402	272.75
431.624	290.75
431.846	282.75
432.068	290.75
432.29	289.75
432.512	288.75
432.734	282.75
432.956	281.75
433.178	298.75
433.4	288.75
433.622	298.75
433.844	293.75
434.066	293.75
434.287	290.75
434.509	301.75
434.731	308.75
434.953	307.75
435.175	330.75
435.397	322.75
435.618	315.75
435.84	295.75
436.062	280.75
436.284	282.75
436.505	274.75
436.727	282.75
436.949	304.75
437.17	280.75
437.392	268.75
437.614	265.75
437.835	264.75
438.057	266.75
438.278	272.75
438.5	272.75
438.721	275.75
438.943	271.75
439.165	290.75
439.386	272.75
439.608	268.75
439.829	275.75
440.05	279.75
440.272	269.75
440.493	284.75
440.715	285.75
440.936	289.75
441.158	299.75
441.379	280.75
441.6	300.75
441.822	329.75
442.043	306.75
442.264	322.75
442.486	307.75
442.707	320.75
442.928	317.75
443.149	314.75
443.371	313.75
443.592	316.75
443.813	317.75
444.034	329.75
444.255	334.75
444.476	333.75
444.698	354.75
444.919	378.75
445.14	462.75
445.361	383.75
445.582	315.75
445.803	317.75
446.024	296.75
446.245	304.75
446.466	294.75
446.687	278.75
446.908	286.75
447.129	288.75
447.35	273.75
447.571	291.75
447.792	279.75
448.013	276.75
448.234	278.75
448.455	264.75
448.675	250.75
448.896	281.75
449.117	264.75
449.338	258.75
449.559	257.75
449.779	268.75
450	247.75
450.221	259.75
450.442	269.75
450.662	275.75
450.883	273.75
451.104	278.75
451.324	275.75
451.545	284.75
451.766	258.75
451.986	268.75
452.207	260.75
452.428	273.75
452.648	260.75
452.869	271.75
453.089	260.75
453.31	274.75
453.53	272.75
453.751	268.75
453.971	263.75
454.192	257.75
454.412	253.75
454.633	276.75
454.853	264.75
455.073	277.75
455.294	238.75
455.514	261.75
455.734	248.75
455.955	237.75
456.175	244.75
456.395	216.75
456.616	244.75
456.836	250.75
457.056	271.75
457.276	254.75
457.497	256.75
457.717	257.75
457.937	248.75
458.157	244.75
458.377	255.75
458.598	249.75
458.818	258.75
459.038	271.75
459.258	284.75
459.478	274.75
459.698	288.75
459.918	290.75
460.138	313.75
460.358	325.75
460.578	338.75
460.798	335.75
461.018	330.75
461.238	333.75
461.458	316.75
461.678	328.75
461.898	326.75
462.118	327.75
462.338	358.75
462.558	350.75
462.777	369.75
462.997	403.75
463.217	429.75
463.437	460.75
463.657	409.75
463.876	382.75
464.096	375.75
464.316	359.75
464.536	373.75
464.755	377.75
464.975	364.75
465.195	368.75
465.414	346.75
465.634	301.75
465.854	303.75
466.073	298.75
466.293	291.75
466.512	281.75
466.732	285.75
466.951	278.75
467.171	280.75
467.391	286.75
467.61	286.75
467.829	286.75
468.049	269.75
468.268	279.75
468.488	262.75
468.707	270.75
468.927	261.75
469.146	277.75
469.365	290.75
469.585	265.75
469.804	271.75
470.023	298.75
470.243	271.75
470.462	278.75
470.681	288.75
470.901	307.75
471.12	272.75
471.339	266.75
471.558	267.75
471.777	281.75
471.997	261.75
472.216	255.75
472.435	279.75
472.654	245.75
472.873	288.75
473.092	265.75
473.311	295.75
473.53	259.75
473.749	274.75
473.968	262.75
474.187	262.75
474.406	286.75
474.625	270.75
474.844	269.75
475.063	273.75
475.282	275.75
475.501	259.75
475.72	268.75
475.939	259.75
476.158	284.75
476.377	269.75
476.596	301.75
476.814	278.75
477.033	286.75
477.252	282.75
477.471	280.75
477.69	289.75
477.908	302.75
478.127	329.75
478.346	306.75
478.564	315.75
478.783	312.75
479.002	346.75
479.22	324.75
479.439	331.75
479.658	331.75
479.876	317.75
480.095	324.75
480.313	330.75
480.532	350.75
480.751	367.75
480.969	340.75
481.188	329.75
481.406	323.75
481.624	328.75
481.843	302.75
482.061	300.75
482.28	314.75
482.498	298.75
482.717	312.75
482.935	285.75
483.153	301.75
483.372	298.75
483.59	307.75
483.808	304.75
484.027	311.75
484.245	327.75
484.463	335.75
484.681	334.75
484.9	322.75
485.118	324.75
485.336	330.75
485.554	312.75
485.772	331.75
485.99	310.75
486.209	341.75
486.427	364.75
486.645	330.75
486.863	342.75
487.081	330.75
487.299	336.75
487.517	324.75
487.735	323.75
487.953	336.75
488.171	323.75
488.389	317.75
488.607	321.75
488.825	312.75
489.043	317.75
489.261	306.75
489.479	305.75
489.696	337.75
489.914	326.75
490.132	338.75
490.35	332.75
490.568	316.75
490.786	322.75
491.003	320.75
491.221	309.75
491.439	330.75
491.657	326.75
491.874	350.75
492.092	329.75
492.31	334.75
492.527	324.75
492.745	336.75
492.963	322.75
493.18	342.75
493.398	337.75
493.615	332.75
493.833	350.75
494.05	322.75
494.268	341.75
494.485	323.75
494.703	326.75
494.92	348.75
495.138	340.75
495.355	337.75
495.573	334.75
495.79	346.75
496.008	357.75
496.225	353.75
496.442	351.75
496.66	342.75
496.877	349.75
497.094	350.75
497.312	363.75
497.529	373.75
497.746	374.75
497.963	386.75
498.181	391.75
498.398	417.75
498.615	441.75
498.832	470.75
499.049	500.75
499.267	530.75
499.484	576.75
499.701	627.75
499.918	696.75
500.135	792.75
500.352	920.75
500.569	985.75
500.786	941.75
501.003	901.75
501.22	805.75
501.437	693.75
501.654	601.75
501.871	554.75
502.088	516.75
502.305	470.75
502.522	473.75
502.739	457.75
502.956	443.75
