Data from 0.5MCu(NO3)2.Standard.Lamp.E10.CV._HRD10591_16-04-57-754.txt Node
Date: Mon Jul 22 16:04:57 EDT 2019
User: cochatt
Spectrometer: HR+D1059
Trigger mode: 1
Integration Time (sec): 1.000000E-1
Scans to average: 1
Electric dark correction enabled: true
Nonlinearity correction enabled: false
Boxcar width: 0
XAxis mode: Wavelengths
Number of Pixels in Spectrum: 2048
>>>>>Begin Spectral Data<<<<<
223.165	-18.75
223.4	-18.75
223.635	-18.75
223.869	-7.75
224.104	-17.75
224.338	-10.75
224.573	-27.75
224.808	-6.75
225.042	5.25
225.277	-14.75
225.511	0.25
225.746	10.25
225.98	5.25
226.215	-2.75
226.449	24.25
226.683	6.25
226.918	26.25
227.152	29.25
227.387	35.25
227.621	55.25
227.856	49.25
228.09	42.25
228.324	56.25
228.559	48.25
228.793	57.25
229.027	69.25
229.262	64.25
229.496	82.25
229.73	85.25
229.964	68.25
230.199	89.25
230.433	78.25
230.667	92.25
230.901	90.25
231.136	81.25
231.37	92.25
231.604	76.25
231.838	87.25
232.072	84.25
232.306	82.25
232.541	103.25
232.775	84.25
233.009	89.25
233.243	102.25
233.477	94.25
233.711	91.25
233.945	94.25
234.179	88.25
234.413	78.25
234.647	75.25
234.881	82.25
235.115	69.25
235.349	87.25
235.583	85.25
235.817	85.25
236.051	80.25
236.285	100.25
236.519	75.25
236.753	100.25
236.987	85.25
237.221	85.25
237.455	77.25
237.689	88.25
237.922	84.25
238.156	92.25
238.39	92.25
238.624	94.25
238.858	88.25
239.091	106.25
239.325	85.25
239.559	93.25
239.793	85.25
240.027	97.25
240.26	97.25
240.494	82.25
240.728	100.25
240.961	97.25
241.195	83.25
241.429	96.25
241.662	91.25
241.896	85.25
242.13	84.25
242.363	88.25
242.597	88.25
242.83	99.25
243.064	99.25
243.298	89.25
243.531	98.25
243.765	107.25
243.998	116.25
244.232	100.25
244.465	89.25
244.699	102.25
244.932	101.25
245.166	89.25
245.399	99.25
245.633	108.25
245.866	101.25
246.099	96.25
246.333	90.25
246.566	109.25
246.8	113.25
247.033	108.25
247.266	90.25
247.5	105.25
247.733	103.25
247.966	100.25
248.2	97.25
248.433	101.25
248.666	104.25
248.899	110.25
249.133	103.25
249.366	103.25
249.599	98.25
249.832	109.25
250.066	102.25
250.299	101.25
250.532	105.25
250.765	100.25
250.998	112.25
251.231	83.25
251.465	104.25
251.698	108.25
251.931	116.25
252.164	104.25
252.397	104.25
252.63	103.25
252.863	106.25
253.096	106.25
253.329	87.25
253.562	113.25
253.795	112.25
254.028	109.25
254.261	112.25
254.494	108.25
254.727	105.25
254.96	105.25
255.193	108.25
255.426	100.25
255.659	117.25
255.892	109.25
256.124	109.25
256.357	124.25
256.59	114.25
256.823	120.25
257.056	110.25
257.289	114.25
257.521	116.25
257.754	98.25
257.987	126.25
258.22	93.25
258.452	110.25
258.685	97.25
258.918	124.25
259.151	120.25
259.383	113.25
259.616	122.25
259.849	128.25
260.081	116.25
260.314	129.25
260.547	117.25
260.779	116.25
261.012	103.25
261.244	114.25
261.477	124.25
261.71	117.25
261.942	134.25
262.175	111.25
262.407	124.25
262.64	130.25
262.872	120.25
263.105	121.25
263.337	131.25
263.57	116.25
263.802	116.25
264.035	121.25
264.267	114.25
264.499	116.25
264.732	121.25
264.964	128.25
265.197	134.25
265.429	131.25
265.661	109.25
265.894	130.25
266.126	132.25
266.358	130.25
266.591	121.25
266.823	132.25
267.055	121.25
267.287	127.25
267.52	121.25
267.752	120.25
267.984	142.25
268.216	128.25
268.448	127.25
268.681	129.25
268.913	132.25
269.145	131.25
269.377	129.25
269.609	136.25
269.841	121.25
270.073	132.25
270.306	134.25
270.538	153.25
270.77	129.25
271.002	141.25
271.234	137.25
271.466	128.25
271.698	130.25
271.93	132.25
272.162	134.25
272.394	141.25
272.626	142.25
272.858	145.25
273.09	136.25
273.322	132.25
273.553	123.25
273.785	130.25
274.017	141.25
274.249	137.25
274.481	145.25
274.713	124.25
274.945	132.25
275.176	132.25
275.408	136.25
275.64	137.25
275.872	138.25
276.104	130.25
276.335	133.25
276.567	142.25
276.799	138.25
277.031	139.25
277.262	147.25
277.494	145.25
277.726	143.25
277.957	135.25
278.189	153.25
278.421	149.25
278.652	135.25
278.884	146.25
279.115	148.25
279.347	142.25
279.579	149.25
279.81	140.25
280.042	150.25
280.273	140.25
280.505	148.25
280.736	142.25
280.968	161.25
281.199	154.25
281.431	171.25
281.662	162.25
281.894	144.25
282.125	164.25
282.356	164.25
282.588	149.25
282.819	148.25
283.051	140.25
283.282	147.25
283.513	153.25
283.745	146.25
283.976	146.25
284.207	165.25
284.439	150.25
284.67	160.25
284.901	152.25
285.132	154.25
285.364	153.25
285.595	149.25
285.826	147.25
286.057	142.25
286.288	157.25
286.52	148.25
286.751	156.25
286.982	158.25
287.213	155.25
287.444	155.25
287.675	165.25
287.906	158.25
288.138	164.25
288.369	161.25
288.6	163.25
288.831	150.25
289.062	164.25
289.293	163.25
289.524	158.25
289.755	164.25
289.986	138.25
290.217	169.25
290.448	155.25
290.679	173.25
290.91	149.25
291.141	148.25
291.371	154.25
291.602	178.25
291.833	166.25
292.064	170.25
292.295	160.25
292.526	150.25
292.757	177.25
292.987	161.25
293.218	182.25
293.449	191.25
293.68	179.25
293.91	166.25
294.141	164.25
294.372	162.25
294.603	152.25
294.833	158.25
295.064	167.25
295.295	176.25
295.525	179.25
295.756	168.25
295.987	170.25
296.217	153.25
296.448	156.25
296.679	174.25
296.909	178.25
297.14	164.25
297.37	185.25
297.601	182.25
297.831	168.25
298.062	171.25
298.292	176.25
298.523	172.25
298.753	187.25
298.984	187.25
299.214	178.25
299.445	198.25
299.675	171.25
299.905	178.25
300.136	188.25
300.366	179.25
300.597	172.25
300.827	194.25
301.057	189.25
301.288	192.25
301.518	192.25
301.748	183.25
301.979	187.25
302.209	186.25
302.439	185.25
302.669	180.25
302.9	170.25
303.13	188.25
303.36	176.25
303.59	174.25
303.82	184.25
304.051	170.25
304.281	179.25
304.511	176.25
304.741	183.25
304.971	182.25
305.201	185.25
305.431	187.25
305.661	172.25
305.891	177.25
306.121	182.25
306.352	169.25
306.582	190.25
306.812	165.25
307.042	176.25
307.272	187.25
307.502	162.25
307.731	184.25
307.961	185.25
308.191	173.25
308.421	198.25
308.651	183.25
308.881	170.25
309.111	180.25
309.341	178.25
309.571	173.25
309.8	171.25
310.03	184.25
310.26	174.25
310.49	179.25
310.72	176.25
310.949	176.25
311.179	189.25
311.409	181.25
311.639	174.25
311.868	186.25
312.098	182.25
312.328	190.25
312.557	173.25
312.787	189.25
313.017	167.25
313.246	185.25
313.476	203.25
313.706	193.25
313.935	186.25
314.165	201.25
314.394	184.25
314.624	190.25
314.853	187.25
315.083	176.25
315.312	198.25
315.542	182.25
315.771	183.25
316.001	189.25
316.23	198.25
316.46	188.25
316.689	192.25
316.919	182.25
317.148	194.25
317.377	206.25
317.607	180.25
317.836	176.25
318.065	183.25
318.295	176.25
318.524	170.25
318.753	174.25
318.983	171.25
319.212	168.25
319.441	177.25
319.67	190.25
319.9	186.25
320.129	187.25
320.358	172.25
320.587	187.25
320.816	181.25
321.046	167.25
321.275	178.25
321.504	184.25
321.733	185.25
321.962	209.25
322.191	188.25
322.42	194.25
322.649	194.25
322.878	188.25
323.108	191.25
323.337	179.25
323.566	174.25
323.795	201.25
324.024	184.25
324.253	187.25
324.482	186.25
324.71	185.25
324.939	190.25
325.168	200.25
325.397	202.25
325.626	207.25
325.855	201.25
326.084	192.25
326.313	190.25
326.542	192.25
326.77	204.25
326.999	191.25
327.228	213.25
327.457	194.25
327.686	212.25
327.914	189.25
328.143	194.25
328.372	187.25
328.6	194.25
328.829	195.25
329.058	194.25
329.287	205.25
329.515	180.25
329.744	201.25
329.972	186.25
330.201	198.25
330.43	213.25
330.658	192.25
330.887	204.25
331.115	199.25
331.344	201.25
331.572	211.25
331.801	206.25
332.03	201.25
332.258	198.25
332.486	218.25
332.715	215.25
332.943	235.25
333.172	244.25
333.4	241.25
333.629	222.25
333.857	246.25
334.085	245.25
334.314	240.25
334.542	248.25
334.771	211.25
334.999	229.25
335.227	209.25
335.455	221.25
335.684	234.25
335.912	230.25
336.14	229.25
336.369	230.25
336.597	204.25
336.825	225.25
337.053	233.25
337.281	229.25
337.51	231.25
337.738	205.25
337.966	209.25
338.194	209.25
338.422	216.25
338.65	213.25
338.878	202.25
339.106	195.25
339.334	182.25
339.562	204.25
339.79	212.25
340.018	198.25
340.246	188.25
340.474	215.25
340.702	195.25
340.93	189.25
341.158	192.25
341.386	208.25
341.614	194.25
341.842	197.25
342.07	186.25
342.298	186.25
342.526	202.25
342.754	198.25
342.981	197.25
343.209	203.25
343.437	207.25
343.665	221.25
343.893	237.25
344.12	224.25
344.348	235.25
344.576	217.25
344.804	220.25
345.031	216.25
345.259	203.25
345.487	200.25
345.714	195.25
345.942	195.25
346.17	199.25
346.397	195.25
346.625	202.25
346.853	188.25
347.08	195.25
347.308	212.25
347.535	199.25
347.763	222.25
347.99	215.25
348.218	214.25
348.445	208.25
348.673	201.25
348.9	217.25
349.128	195.25
349.355	198.25
349.583	194.25
349.81	197.25
350.037	203.25
350.265	187.25
350.492	183.25
350.72	187.25
350.947	194.25
351.174	194.25
351.402	187.25
351.629	187.25
351.856	202.25
352.083	198.25
352.311	197.25
352.538	188.25
352.765	203.25
352.992	192.25
353.22	178.25
353.447	185.25
353.674	170.25
353.901	176.25
354.128	199.25
354.355	193.25
354.583	195.25
354.81	189.25
355.037	200.25
355.264	189.25
355.491	217.25
355.718	202.25
355.945	178.25
356.172	196.25
356.399	180.25
356.626	198.25
356.853	205.25
357.08	196.25
357.307	182.25
357.534	200.25
357.761	196.25
357.988	207.25
358.215	195.25
358.441	185.25
358.668	204.25
358.895	182.25
359.122	209.25
359.349	187.25
359.576	194.25
359.802	196.25
360.029	169.25
360.256	205.25
360.483	194.25
360.709	182.25
360.936	195.25
361.163	201.25
361.39	180.25
361.616	190.25
361.843	197.25
362.07	195.25
362.296	191.25
362.523	191.25
362.749	185.25
362.976	182.25
363.203	199.25
363.429	198.25
363.656	197.25
363.882	181.25
364.109	192.25
364.335	192.25
364.562	199.25
364.788	189.25
365.015	188.25
365.241	201.25
365.468	189.25
365.694	187.25
365.92	190.25
366.147	193.25
366.373	207.25
366.599	188.25
366.826	192.25
367.052	200.25
367.278	188.25
367.505	201.25
367.731	191.25
367.957	192.25
368.184	185.25
368.41	189.25
368.636	196.25
368.862	187.25
369.089	195.25
369.315	184.25
369.541	201.25
369.767	198.25
369.993	193.25
370.219	195.25
370.445	205.25
370.672	198.25
370.898	205.25
371.124	202.25
371.35	200.25
371.576	207.25
371.802	201.25
372.028	213.25
372.254	203.25
372.48	212.25
372.706	208.25
372.932	204.25
373.158	198.25
373.384	226.25
373.61	208.25
373.835	204.25
374.061	201.25
374.287	221.25
374.513	231.25
374.739	196.25
374.965	212.25
375.191	204.25
375.416	216.25
375.642	196.25
375.868	217.25
376.094	212.25
376.319	215.25
376.545	195.25
376.771	214.25
376.997	202.25
377.222	188.25
377.448	201.25
377.674	216.25
377.899	196.25
378.125	185.25
378.35	197.25
378.576	202.25
378.802	195.25
379.027	202.25
379.253	213.25
379.478	207.25
379.704	190.25
379.929	220.25
380.155	206.25
380.38	204.25
380.606	208.25
380.831	204.25
381.057	195.25
381.282	196.25
381.507	204.25
381.733	194.25
381.958	210.25
382.184	202.25
382.409	202.25
382.634	196.25
382.86	204.25
383.085	204.25
383.31	216.25
383.535	232.25
383.761	221.25
383.986	238.25
384.211	216.25
384.436	224.25
384.662	235.25
384.887	233.25
385.112	255.25
385.337	218.25
385.562	225.25
385.787	235.25
386.013	232.25
386.238	234.25
386.463	219.25
386.688	221.25
386.913	209.25
387.138	224.25
387.363	232.25
387.588	228.25
387.813	217.25
388.038	243.25
388.263	238.25
388.488	224.25
388.713	224.25
388.938	225.25
389.163	220.25
389.387	221.25
389.612	228.25
389.837	214.25
390.062	224.25
390.287	218.25
390.512	230.25
390.736	224.25
390.961	231.25
391.186	248.25
391.411	246.25
391.636	242.25
391.86	245.25
392.085	240.25
392.31	251.25
392.534	220.25
392.759	236.25
392.984	252.25
393.208	241.25
393.433	244.25
393.658	253.25
393.882	227.25
394.107	235.25
394.331	240.25
394.556	236.25
394.78	246.25
395.005	243.25
395.229	250.25
395.454	237.25
395.678	244.25
395.903	252.25
396.127	250.25
396.352	225.25
396.576	224.25
396.801	236.25
397.025	226.25
397.249	229.25
397.474	242.25
397.698	244.25
397.922	226.25
398.147	235.25
398.371	245.25
398.595	256.25
398.82	260.25
399.044	271.25
399.268	292.25
399.492	314.25
399.717	376.25
399.941	359.25
400.165	332.25
400.389	314.25
400.613	296.25
400.837	273.25
401.062	262.25
401.286	275.25
401.51	259.25
401.734	245.25
401.958	269.25
402.182	270.25
402.406	275.25
402.63	280.25
402.854	289.25
403.078	277.25
403.302	289.25
403.526	285.25
403.75	292.25
403.974	291.25
404.198	293.25
404.422	293.25
404.645	307.25
404.869	289.25
405.093	296.25
405.317	275.25
405.541	295.25
405.765	301.25
405.988	265.25
406.212	287.25
406.436	280.25
406.66	288.25
406.883	289.25
407.107	309.25
407.331	316.25
407.555	338.25
407.778	317.25
408.002	322.25
408.226	305.25
408.449	339.25
408.673	320.25
408.896	284.25
409.12	270.25
409.344	297.25
409.567	309.25
409.791	292.25
410.014	301.25
410.238	287.25
410.461	308.25
410.685	292.25
410.908	293.25
411.132	285.25
411.355	286.25
411.578	271.25
411.802	265.25
412.025	262.25
412.249	281.25
412.472	289.25
412.695	270.25
412.919	260.25
413.142	259.25
413.365	272.25
413.589	261.25
413.812	265.25
414.035	253.25
414.258	259.25
414.482	244.25
414.705	278.25
414.928	267.25
415.151	264.25
415.374	246.25
415.597	259.25
415.821	262.25
416.044	258.25
416.267	264.25
416.49	282.25
416.713	267.25
416.936	249.25
417.159	261.25
417.382	269.25
417.605	259.25
417.828	279.25
418.051	266.25
418.274	261.25
418.497	275.25
418.72	251.25
418.943	268.25
419.166	263.25
419.389	288.25
419.611	294.25
419.834	289.25
420.057	285.25
420.28	284.25
420.503	262.25
420.726	269.25
420.948	252.25
421.171	250.25
421.394	262.25
421.617	256.25
421.839	253.25
422.062	258.25
422.285	252.25
422.507	264.25
422.73	266.25
422.953	279.25
423.175	285.25
423.398	282.25
423.621	288.25
423.843	285.25
424.066	262.25
424.288	280.25
424.511	292.25
424.733	281.25
424.956	258.25
425.178	261.25
425.401	265.25
425.623	263.25
425.846	264.25
426.068	263.25
426.291	261.25
426.513	249.25
426.735	254.25
426.958	265.25
427.18	244.25
427.402	226.25
427.625	227.25
427.847	233.25
428.069	251.25
428.292	257.25
428.514	244.25
428.736	237.25
428.958	220.25
429.181	214.25
429.403	246.25
429.625	228.25
429.847	229.25
430.069	242.25
430.292	239.25
430.514	235.25
430.736	236.25
430.958	240.25
431.18	227.25
431.402	238.25
431.624	226.25
431.846	253.25
432.068	269.25
432.29	235.25
432.512	246.25
432.734	246.25
432.956	236.25
433.178	237.25
433.4	230.25
433.622	231.25
433.844	247.25
434.066	251.25
434.287	242.25
434.509	260.25
434.731	270.25
434.953	264.25
435.175	265.25
435.397	262.25
435.618	239.25
435.84	248.25
436.062	250.25
436.284	243.25
436.505	254.25
436.727	237.25
436.949	235.25
437.17	221.25
437.392	235.25
437.614	231.25
437.835	228.25
438.057	246.25
438.278	240.25
438.5	233.25
438.721	243.25
438.943	248.25
439.165	234.25
439.386	230.25
439.608	245.25
439.829	246.25
440.05	238.25
440.272	238.25
440.493	259.25
440.715	236.25
440.936	256.25
441.158	255.25
441.379	253.25
441.6	261.25
441.822	258.25
442.043	269.25
442.264	254.25
442.486	249.25
442.707	272.25
442.928	259.25
443.149	266.25
443.371	256.25
443.592	255.25
443.813	289.25
444.034	264.25
444.255	280.25
444.476	287.25
444.698	288.25
444.919	310.25
445.14	424.25
445.361	340.25
445.582	268.25
445.803	232.25
446.024	252.25
446.245	240.25
446.466	221.25
446.687	236.25
446.908	260.25
447.129	242.25
447.35	236.25
447.571	232.25
447.792	233.25
448.013	218.25
448.234	211.25
448.455	217.25
448.675	235.25
448.896	228.25
449.117	204.25
449.338	232.25
449.559	236.25
449.779	242.25
450	228.25
450.221	236.25
450.442	227.25
450.662	243.25
450.883	245.25
451.104	230.25
451.324	229.25
451.545	230.25
451.766	221.25
451.986	219.25
452.207	217.25
452.428	224.25
452.648	230.25
452.869	218.25
453.089	221.25
453.31	229.25
453.53	231.25
453.751	222.25
453.971	225.25
454.192	229.25
454.412	208.25
454.633	221.25
454.853	214.25
455.073	221.25
455.294	229.25
455.514	214.25
455.734	191.25
455.955	206.25
456.175	218.25
456.395	211.25
456.616	213.25
456.836	218.25
457.056	208.25
457.276	203.25
457.497	211.25
457.717	213.25
457.937	221.25
458.157	231.25
458.377	216.25
458.598	210.25
458.818	222.25
459.038	233.25
459.258	249.25
459.478	237.25
459.698	242.25
459.918	235.25
460.138	255.25
460.358	274.25
460.578	276.25
460.798	268.25
461.018	276.25
461.238	265.25
461.458	286.25
461.678	285.25
461.898	257.25
462.118	280.25
462.338	293.25
462.558	312.25
462.777	292.25
462.997	341.25
463.217	354.25
463.437	377.25
463.657	335.25
463.876	314.25
464.096	320.25
464.316	331.25
464.536	330.25
464.755	317.25
464.975	286.25
465.195	292.25
465.414	274.25
465.634	254.25
465.854	242.25
466.073	261.25
466.293	247.25
466.512	216.25
466.732	238.25
466.951	244.25
467.171	241.25
467.391	257.25
467.61	241.25
467.829	228.25
468.049	219.25
468.268	214.25
468.488	242.25
468.707	235.25
468.927	215.25
469.146	223.25
469.365	219.25
469.585	240.25
469.804	246.25
470.023	269.25
470.243	218.25
470.462	239.25
470.681	244.25
470.901	248.25
471.12	235.25
471.339	263.25
471.558	223.25
471.777	236.25
471.997	230.25
472.216	238.25
472.435	236.25
472.654	224.25
472.873	235.25
473.092	244.25
473.311	222.25
473.53	222.25
473.749	216.25
473.968	232.25
474.187	214.25
474.406	196.25
474.625	218.25
474.844	214.25
475.063	227.25
475.282	233.25
475.501	221.25
475.72	241.25
475.939	233.25
476.158	235.25
476.377	238.25
476.596	221.25
476.814	221.25
477.033	225.25
477.252	252.25
477.471	252.25
477.69	246.25
477.908	244.25
478.127	271.25
478.346	260.25
478.564	280.25
478.783	267.25
479.002	266.25
479.22	271.25
479.439	275.25
479.658	275.25
479.876	279.25
480.095	267.25
480.313	287.25
480.532	289.25
480.751	296.25
480.969	281.25
481.188	280.25
481.406	265.25
481.624	266.25
481.843	235.25
482.061	269.25
482.28	260.25
482.498	249.25
482.717	250.25
482.935	264.25
483.153	252.25
483.372	267.25
483.59	259.25
483.808	256.25
484.027	259.25
484.245	249.25
484.463	251.25
484.681	275.25
484.9	265.25
485.118	265.25
485.336	282.25
485.554	280.25
485.772	282.25
485.99	283.25
486.209	268.25
486.427	271.25
486.645	265.25
486.863	292.25
487.081	286.25
487.299	276.25
487.517	280.25
487.735	285.25
487.953	284.25
488.171	294.25
488.389	278.25
488.607	270.25
488.825	270.25
489.043	257.25
489.261	272.25
489.479	274.25
489.696	253.25
489.914	282.25
490.132	269.25
490.35	286.25
490.568	279.25
490.786	277.25
491.003	270.25
491.221	272.25
491.439	265.25
491.657	264.25
491.874	287.25
492.092	294.25
492.31	282.25
492.527	284.25
492.745	270.25
492.963	281.25
493.18	279.25
493.398	282.25
493.615	284.25
493.833	283.25
494.05	280.25
494.268	290.25
494.485	289.25
494.703	308.25
494.92	276.25
495.138	291.25
495.355	282.25
495.573	306.25
495.79	302.25
496.008	284.25
496.225	282.25
496.442	280.25
496.66	296.25
496.877	321.25
497.094	304.25
497.312	302.25
497.529	286.25
497.746	313.25
497.963	308.25
498.181	330.25
498.398	355.25
498.615	358.25
498.832	375.25
499.049	414.25
499.267	406.25
499.484	445.25
499.701	490.25
499.918	530.25
500.135	621.25
500.352	723.25
500.569	776.25
500.786	732.25
501.003	712.25
501.22	605.25
501.437	551.25
501.654	510.25
501.871	454.25
502.088	418.25
502.305	389.25
502.522	354.25
502.739	361.25
502.956	354.25
503.172	341.25
