Data from 0.5MCu(NO3)2.Standard.Lamp.E10.CV._HRD10591_16-06-26-753.txt Node
Date: Mon Jul 22 16:06:26 EDT 2019
User: cochatt
Spectrometer: HR+D1059
Trigger mode: 1
Integration Time (sec): 1.000000E-1
Scans to average: 1
Electric dark correction enabled: true
Nonlinearity correction enabled: false
Boxcar width: 0
XAxis mode: Wavelengths
Number of Pixels in Spectrum: 2048
>>>>>Begin Spectral Data<<<<<
223.165	-20.56
223.4	-20.56
223.635	-20.56
223.869	-11.56
224.104	-12.56
224.338	-16.56
224.573	-12.56
224.808	-6.56
225.042	1.44
225.277	-8.56
225.511	-11.56
225.746	3.44
225.98	15.44
226.215	1.44
226.449	23.44
226.683	5.44
226.918	19.44
227.152	30.44
227.387	37.44
227.621	50.44
227.856	46.44
228.09	41.44
228.324	53.44
228.559	73.44
228.793	67.44
229.027	73.44
229.262	80.44
229.496	73.44
229.73	81.44
229.964	80.44
230.199	76.44
230.433	85.44
230.667	91.44
230.901	102.44
231.136	82.44
231.37	82.44
231.604	103.44
231.838	87.44
232.072	75.44
232.306	82.44
232.541	101.44
232.775	88.44
233.009	88.44
233.243	78.44
233.477	93.44
233.711	91.44
233.945	97.44
234.179	94.44
234.413	91.44
234.647	106.44
234.881	84.44
235.115	84.44
235.349	79.44
235.583	87.44
235.817	82.44
236.051	101.44
236.285	98.44
236.519	85.44
236.753	81.44
236.987	81.44
237.221	84.44
237.455	90.44
237.689	103.44
237.922	82.44
238.156	89.44
238.39	90.44
238.624	89.44
238.858	85.44
239.091	93.44
239.325	91.44
239.559	93.44
239.793	96.44
240.027	96.44
240.26	95.44
240.494	92.44
240.728	113.44
240.961	98.44
241.195	91.44
241.429	90.44
241.662	93.44
241.896	89.44
242.13	88.44
242.363	88.44
242.597	95.44
242.83	84.44
243.064	89.44
243.298	98.44
243.531	88.44
243.765	100.44
243.998	90.44
244.232	78.44
244.465	91.44
244.699	96.44
244.932	102.44
245.166	88.44
245.399	101.44
245.633	96.44
245.866	108.44
246.099	111.44
246.333	97.44
246.566	92.44
246.8	104.44
247.033	101.44
247.266	89.44
247.5	103.44
247.733	96.44
247.966	112.44
248.2	102.44
248.433	104.44
248.666	92.44
248.899	112.44
249.133	91.44
249.366	109.44
249.599	108.44
249.832	101.44
250.066	96.44
250.299	96.44
250.532	104.44
250.765	116.44
250.998	110.44
251.231	113.44
251.465	103.44
251.698	107.44
251.931	100.44
252.164	113.44
252.397	106.44
252.63	112.44
252.863	107.44
253.096	93.44
253.329	98.44
253.562	106.44
253.795	103.44
254.028	111.44
254.261	102.44
254.494	105.44
254.727	99.44
254.96	119.44
255.193	101.44
255.426	104.44
255.659	108.44
255.892	119.44
256.124	99.44
256.357	110.44
256.59	131.44
256.823	126.44
257.056	122.44
257.289	95.44
257.521	119.44
257.754	123.44
257.987	127.44
258.22	125.44
258.452	126.44
258.685	118.44
258.918	116.44
259.151	110.44
259.383	119.44
259.616	119.44
259.849	126.44
260.081	104.44
260.314	101.44
260.547	121.44
260.779	112.44
261.012	119.44
261.244	100.44
261.477	123.44
261.71	113.44
261.942	112.44
262.175	121.44
262.407	128.44
262.64	119.44
262.872	123.44
263.105	118.44
263.337	111.44
263.57	125.44
263.802	130.44
264.035	113.44
264.267	123.44
264.499	118.44
264.732	122.44
264.964	127.44
265.197	127.44
265.429	116.44
265.661	121.44
265.894	136.44
266.126	121.44
266.358	129.44
266.591	124.44
266.823	126.44
267.055	129.44
267.287	118.44
267.52	129.44
267.752	123.44
267.984	123.44
268.216	117.44
268.448	123.44
268.681	118.44
268.913	121.44
269.145	119.44
269.377	123.44
269.609	131.44
269.841	124.44
270.073	131.44
270.306	126.44
270.538	128.44
270.77	124.44
271.002	118.44
271.234	132.44
271.466	139.44
271.698	127.44
271.93	131.44
272.162	135.44
272.394	124.44
272.626	131.44
272.858	125.44
273.09	133.44
273.322	139.44
273.553	136.44
273.785	131.44
274.017	145.44
274.249	141.44
274.481	129.44
274.713	135.44
274.945	142.44
275.176	129.44
275.408	124.44
275.64	140.44
275.872	132.44
276.104	141.44
276.335	142.44
276.567	137.44
276.799	137.44
277.031	151.44
277.262	143.44
277.494	145.44
277.726	137.44
277.957	140.44
278.189	154.44
278.421	146.44
278.652	122.44
278.884	135.44
279.115	133.44
279.347	129.44
279.579	145.44
279.81	147.44
280.042	130.44
280.273	140.44
280.505	126.44
280.736	128.44
280.968	135.44
281.199	143.44
281.431	142.44
281.662	153.44
281.894	153.44
282.125	152.44
282.356	145.44
282.588	139.44
282.819	143.44
283.051	135.44
283.282	135.44
283.513	145.44
283.745	144.44
283.976	157.44
284.207	145.44
284.439	156.44
284.67	132.44
284.901	158.44
285.132	141.44
285.364	159.44
285.595	132.44
285.826	153.44
286.057	150.44
286.288	150.44
286.52	168.44
286.751	135.44
286.982	154.44
287.213	153.44
287.444	146.44
287.675	171.44
287.906	158.44
288.138	157.44
288.369	167.44
288.6	167.44
288.831	159.44
289.062	156.44
289.293	156.44
289.524	164.44
289.755	158.44
289.986	160.44
290.217	158.44
290.448	157.44
290.679	165.44
290.91	151.44
291.141	144.44
291.371	152.44
291.602	159.44
291.833	163.44
292.064	157.44
292.295	150.44
292.526	152.44
292.757	166.44
292.987	152.44
293.218	174.44
293.449	173.44
293.68	151.44
293.91	169.44
294.141	142.44
294.372	157.44
294.603	171.44
294.833	158.44
295.064	159.44
295.295	150.44
295.525	158.44
295.756	172.44
295.987	159.44
296.217	172.44
296.448	153.44
296.679	152.44
296.909	167.44
297.14	175.44
297.37	170.44
297.601	157.44
297.831	150.44
298.062	152.44
298.292	162.44
298.523	176.44
298.753	172.44
298.984	176.44
299.214	163.44
299.445	171.44
299.675	160.44
299.905	156.44
300.136	168.44
300.366	188.44
300.597	173.44
300.827	178.44
301.057	184.44
301.288	177.44
301.518	171.44
301.748	167.44
301.979	175.44
302.209	184.44
302.439	166.44
302.669	180.44
302.9	156.44
303.13	151.44
303.36	185.44
303.59	159.44
303.82	170.44
304.051	193.44
304.281	195.44
304.511	187.44
304.741	178.44
304.971	179.44
305.201	169.44
305.431	184.44
305.661	183.44
305.891	170.44
306.121	179.44
306.352	170.44
306.582	173.44
306.812	167.44
307.042	172.44
307.272	185.44
307.502	174.44
307.731	163.44
307.961	165.44
308.191	178.44
308.421	175.44
308.651	180.44
308.881	177.44
309.111	185.44
309.341	170.44
309.571	176.44
309.8	174.44
310.03	174.44
310.26	171.44
310.49	163.44
310.72	167.44
310.949	152.44
311.179	180.44
311.409	173.44
311.639	169.44
311.868	170.44
312.098	179.44
312.328	181.44
312.557	189.44
312.787	182.44
313.017	159.44
313.246	189.44
313.476	175.44
313.706	184.44
313.935	171.44
314.165	167.44
314.394	179.44
314.624	189.44
314.853	176.44
315.083	173.44
315.312	189.44
315.542	176.44
315.771	184.44
316.001	191.44
316.23	176.44
316.46	164.44
316.689	191.44
316.919	176.44
317.148	185.44
317.377	180.44
317.607	196.44
317.836	154.44
318.065	179.44
318.295	182.44
318.524	195.44
318.753	180.44
318.983	176.44
319.212	191.44
319.441	181.44
319.67	174.44
319.9	159.44
320.129	196.44
320.358	183.44
320.587	177.44
320.816	174.44
321.046	187.44
321.275	193.44
321.504	175.44
321.733	174.44
321.962	177.44
322.191	175.44
322.42	180.44
322.649	185.44
322.878	175.44
323.108	167.44
323.337	181.44
323.566	180.44
323.795	180.44
324.024	174.44
324.253	170.44
324.482	182.44
324.71	184.44
324.939	182.44
325.168	194.44
325.397	165.44
325.626	185.44
325.855	185.44
326.084	186.44
326.313	188.44
326.542	184.44
326.77	206.44
326.999	200.44
327.228	177.44
327.457	177.44
327.686	190.44
327.914	181.44
328.143	190.44
328.372	195.44
328.6	197.44
328.829	194.44
329.058	208.44
329.287	195.44
329.515	189.44
329.744	194.44
329.972	186.44
330.201	195.44
330.43	180.44
330.658	189.44
330.887	195.44
331.115	185.44
331.344	191.44
331.572	196.44
331.801	195.44
332.03	197.44
332.258	217.44
332.486	208.44
332.715	212.44
332.943	234.44
333.172	220.44
333.4	216.44
333.629	231.44
333.857	249.44
334.085	250.44
334.314	227.44
334.542	227.44
334.771	220.44
334.999	216.44
335.227	220.44
335.455	225.44
335.684	203.44
335.912	213.44
336.14	214.44
336.369	204.44
336.597	216.44
336.825	209.44
337.053	209.44
337.281	214.44
337.51	201.44
337.738	210.44
337.966	215.44
338.194	216.44
338.422	195.44
338.65	208.44
338.878	205.44
339.106	206.44
339.334	200.44
339.562	205.44
339.79	187.44
340.018	172.44
340.246	183.44
340.474	206.44
340.702	186.44
340.93	185.44
341.158	200.44
341.386	208.44
341.614	180.44
341.842	191.44
342.07	187.44
342.298	170.44
342.526	182.44
342.754	187.44
342.981	190.44
343.209	199.44
343.437	196.44
343.665	212.44
343.893	216.44
344.12	225.44
344.348	200.44
344.576	207.44
344.804	199.44
345.031	208.44
345.259	191.44
345.487	202.44
345.714	199.44
345.942	173.44
346.17	203.44
346.397	174.44
346.625	188.44
346.853	186.44
347.08	202.44
347.308	192.44
347.535	185.44
347.763	209.44
347.99	195.44
348.218	205.44
348.445	186.44
348.673	183.44
348.9	198.44
349.128	188.44
349.355	184.44
349.583	188.44
349.81	181.44
350.037	170.44
350.265	183.44
350.492	172.44
350.72	179.44
350.947	181.44
351.174	187.44
351.402	173.44
351.629	172.44
351.856	191.44
352.083	197.44
352.311	176.44
352.538	181.44
352.765	166.44
352.992	170.44
353.22	183.44
353.447	187.44
353.674	183.44
353.901	176.44
354.128	188.44
354.355	184.44
354.583	184.44
354.81	187.44
355.037	191.44
355.264	185.44
355.491	185.44
355.718	182.44
355.945	183.44
356.172	182.44
356.399	175.44
356.626	183.44
356.853	173.44
357.08	197.44
357.307	186.44
357.534	168.44
357.761	169.44
357.988	177.44
358.215	188.44
358.441	191.44
358.668	182.44
358.895	167.44
359.122	181.44
359.349	180.44
359.576	189.44
359.802	171.44
360.029	177.44
360.256	184.44
360.483	176.44
360.709	183.44
360.936	201.44
361.163	180.44
361.39	200.44
361.616	189.44
361.843	169.44
362.07	202.44
362.296	175.44
362.523	193.44
362.749	180.44
362.976	179.44
363.203	191.44
363.429	180.44
363.656	179.44
363.882	191.44
364.109	183.44
364.335	187.44
364.562	188.44
364.788	170.44
365.015	177.44
365.241	192.44
365.468	184.44
365.694	172.44
365.92	194.44
366.147	187.44
366.373	176.44
366.599	177.44
366.826	168.44
367.052	177.44
367.278	168.44
367.505	188.44
367.731	174.44
367.957	176.44
368.184	180.44
368.41	183.44
368.636	189.44
368.862	185.44
369.089	182.44
369.315	190.44
369.541	181.44
369.767	187.44
369.993	183.44
370.219	197.44
370.445	177.44
370.672	191.44
370.898	185.44
371.124	196.44
371.35	181.44
371.576	191.44
371.802	186.44
372.028	193.44
372.254	192.44
372.48	202.44
372.706	187.44
372.932	189.44
373.158	176.44
373.384	191.44
373.61	187.44
373.835	182.44
374.061	190.44
374.287	191.44
374.513	211.44
374.739	201.44
374.965	193.44
375.191	215.44
375.416	215.44
375.642	209.44
375.868	206.44
376.094	194.44
376.319	189.44
376.545	191.44
376.771	197.44
376.997	184.44
377.222	183.44
377.448	200.44
377.674	189.44
377.899	188.44
378.125	188.44
378.35	182.44
378.576	187.44
378.802	191.44
379.027	181.44
379.253	204.44
379.478	199.44
379.704	193.44
379.929	192.44
380.155	186.44
380.38	195.44
380.606	188.44
380.831	191.44
381.057	196.44
381.282	197.44
381.507	191.44
381.733	188.44
381.958	189.44
382.184	189.44
382.409	205.44
382.634	204.44
382.86	210.44
383.085	185.44
383.31	199.44
383.535	217.44
383.761	202.44
383.986	206.44
384.211	194.44
384.436	219.44
384.662	212.44
384.887	220.44
385.112	219.44
385.337	212.44
385.562	223.44
385.787	211.44
386.013	234.44
386.238	199.44
386.463	200.44
386.688	236.44
386.913	213.44
387.138	223.44
387.363	217.44
387.588	221.44
387.813	229.44
388.038	205.44
388.263	204.44
388.488	210.44
388.713	212.44
388.938	210.44
389.163	230.44
389.387	207.44
389.612	209.44
389.837	207.44
390.062	190.44
390.287	201.44
390.512	204.44
390.736	229.44
390.961	217.44
391.186	212.44
391.411	230.44
391.636	215.44
391.86	218.44
392.085	230.44
392.31	234.44
392.534	229.44
392.759	217.44
392.984	210.44
393.208	201.44
393.433	235.44
393.658	230.44
393.882	224.44
394.107	211.44
394.331	225.44
394.556	217.44
394.78	213.44
395.005	229.44
395.229	228.44
395.454	233.44
395.678	232.44
395.903	230.44
396.127	237.44
396.352	228.44
396.576	217.44
396.801	208.44
397.025	220.44
397.249	223.44
397.474	234.44
397.698	217.44
397.922	218.44
398.147	223.44
398.371	234.44
398.595	232.44
398.82	246.44
399.044	264.44
399.268	277.44
399.492	340.44
399.717	372.44
399.941	359.44
400.165	323.44
400.389	276.44
400.613	262.44
400.837	247.44
401.062	232.44
401.286	229.44
401.51	247.44
401.734	251.44
401.958	259.44
402.182	224.44
402.406	249.44
402.63	257.44
402.854	273.44
403.078	271.44
403.302	271.44
403.526	287.44
403.75	292.44
403.974	292.44
404.198	312.44
404.422	289.44
404.645	295.44
404.869	283.44
405.093	295.44
405.317	268.44
405.541	270.44
405.765	255.44
405.988	261.44
406.212	267.44
406.436	258.44
406.66	258.44
406.883	271.44
407.107	267.44
407.331	297.44
407.555	323.44
407.778	294.44
408.002	286.44
408.226	280.44
408.449	279.44
408.673	260.44
408.896	283.44
409.12	275.44
409.344	278.44
409.567	263.44
409.791	270.44
410.014	266.44
410.238	276.44
410.461	271.44
410.685	280.44
410.908	284.44
411.132	286.44
411.355	272.44
411.578	259.44
411.802	265.44
412.025	256.44
412.249	272.44
412.472	264.44
412.695	256.44
412.919	249.44
413.142	243.44
413.365	240.44
413.589	243.44
413.812	247.44
414.035	236.44
414.258	249.44
414.482	230.44
414.705	263.44
414.928	253.44
415.151	245.44
415.374	240.44
415.597	259.44
415.821	239.44
416.044	254.44
416.267	243.44
416.49	247.44
416.713	254.44
416.936	237.44
417.159	246.44
417.382	248.44
417.605	253.44
417.828	248.44
418.051	267.44
418.274	248.44
418.497	258.44
418.72	236.44
418.943	252.44
419.166	273.44
419.389	281.44
419.611	273.44
419.834	284.44
420.057	263.44
420.28	246.44
420.503	247.44
420.726	255.44
420.948	262.44
421.171	248.44
421.394	246.44
421.617	244.44
421.839	246.44
422.062	257.44
422.285	256.44
422.507	279.44
422.73	248.44
422.953	252.44
423.175	251.44
423.398	263.44
423.621	253.44
423.843	262.44
424.066	281.44
424.288	265.44
424.511	268.44
424.733	255.44
424.956	266.44
425.178	245.44
425.401	256.44
425.623	254.44
425.846	230.44
426.068	243.44
426.291	233.44
426.513	230.44
426.735	240.44
426.958	231.44
427.18	243.44
427.402	224.44
427.625	237.44
427.847	210.44
428.069	230.44
428.292	220.44
428.514	219.44
428.736	214.44
428.958	217.44
429.181	219.44
429.403	222.44
429.625	236.44
429.847	238.44
430.069	215.44
430.292	210.44
430.514	226.44
430.736	212.44
430.958	224.44
431.18	223.44
431.402	222.44
431.624	231.44
431.846	219.44
432.068	222.44
432.29	239.44
432.512	232.44
432.734	226.44
432.956	227.44
433.178	222.44
433.4	228.44
433.622	222.44
433.844	231.44
434.066	227.44
434.287	223.44
434.509	222.44
434.731	236.44
434.953	272.44
435.175	262.44
435.397	261.44
435.618	241.44
435.84	228.44
436.062	231.44
436.284	225.44
436.505	234.44
436.727	236.44
436.949	232.44
437.17	211.44
437.392	230.44
437.614	217.44
437.835	224.44
438.057	227.44
438.278	223.44
438.5	232.44
438.721	217.44
438.943	241.44
439.165	224.44
439.386	239.44
439.608	234.44
439.829	226.44
440.05	245.44
440.272	217.44
440.493	246.44
440.715	233.44
440.936	247.44
441.158	248.44
441.379	239.44
441.6	267.44
441.822	252.44
442.043	267.44
442.264	233.44
442.486	238.44
442.707	236.44
442.928	251.44
443.149	254.44
443.371	240.44
443.592	255.44
443.813	255.44
444.034	254.44
444.255	269.44
444.476	263.44
444.698	275.44
444.919	286.44
445.14	363.44
445.361	312.44
445.582	249.44
445.803	245.44
446.024	250.44
446.245	240.44
446.466	238.44
446.687	224.44
446.908	231.44
447.129	224.44
447.35	228.44
447.571	218.44
447.792	205.44
448.013	204.44
448.234	209.44
448.455	216.44
448.675	206.44
448.896	206.44
449.117	216.44
449.338	217.44
449.559	204.44
449.779	206.44
450	200.44
450.221	207.44
450.442	216.44
450.662	204.44
450.883	224.44
451.104	229.44
451.324	214.44
451.545	214.44
451.766	207.44
451.986	209.44
452.207	212.44
452.428	195.44
452.648	218.44
452.869	205.44
453.089	196.44
453.31	207.44
453.53	205.44
453.751	210.44
453.971	206.44
454.192	205.44
454.412	209.44
454.633	203.44
454.853	205.44
455.073	205.44
455.294	206.44
455.514	187.44
455.734	189.44
455.955	199.44
456.175	210.44
456.395	214.44
456.616	204.44
456.836	198.44
457.056	197.44
457.276	210.44
457.497	195.44
457.717	190.44
457.937	213.44
458.157	207.44
458.377	191.44
458.598	192.44
458.818	219.44
459.038	218.44
459.258	230.44
459.478	229.44
459.698	226.44
459.918	228.44
460.138	262.44
460.358	260.44
460.578	263.44
460.798	257.44
461.018	276.44
461.238	264.44
461.458	267.44
461.678	259.44
461.898	255.44
462.118	266.44
462.338	277.44
462.558	284.44
462.777	284.44
462.997	318.44
463.217	357.44
463.437	331.44
463.657	320.44
463.876	301.44
464.096	287.44
464.316	307.44
464.536	322.44
464.755	295.44
464.975	280.44
465.195	263.44
465.414	254.44
465.634	232.44
465.854	223.44
466.073	239.44
466.293	231.44
466.512	225.44
466.732	230.44
466.951	231.44
467.171	234.44
467.391	230.44
467.61	214.44
467.829	227.44
468.049	216.44
468.268	205.44
468.488	207.44
468.707	239.44
468.927	206.44
469.146	220.44
469.365	212.44
469.585	217.44
469.804	237.44
470.023	225.44
470.243	227.44
470.462	219.44
470.681	237.44
470.901	214.44
471.12	227.44
471.339	212.44
471.558	225.44
471.777	222.44
471.997	213.44
472.216	220.44
472.435	208.44
472.654	223.44
472.873	222.44
473.092	217.44
473.311	211.44
473.53	218.44
473.749	222.44
473.968	237.44
474.187	222.44
474.406	218.44
474.625	201.44
474.844	201.44
475.063	202.44
475.282	210.44
475.501	207.44
475.72	220.44
475.939	221.44
476.158	224.44
476.377	217.44
476.596	215.44
476.814	223.44
477.033	210.44
477.252	222.44
477.471	222.44
477.69	247.44
477.908	238.44
478.127	254.44
478.346	242.44
478.564	252.44
478.783	220.44
479.002	251.44
479.22	243.44
479.439	255.44
479.658	253.44
479.876	256.44
480.095	254.44
480.313	255.44
480.532	271.44
480.751	280.44
480.969	260.44
481.188	264.44
481.406	245.44
481.624	234.44
481.843	241.44
482.061	252.44
482.28	238.44
482.498	246.44
482.717	220.44
482.935	232.44
483.153	237.44
483.372	237.44
483.59	229.44
483.808	251.44
484.027	247.44
484.245	251.44
484.463	243.44
484.681	246.44
484.9	238.44
485.118	267.44
485.336	263.44
485.554	240.44
485.772	257.44
485.99	253.44
486.209	261.44
486.427	248.44
486.645	267.44
486.863	243.44
487.081	278.44
487.299	261.44
487.517	252.44
487.735	264.44
487.953	268.44
488.171	251.44
488.389	245.44
488.607	252.44
488.825	261.44
489.043	238.44
489.261	255.44
489.479	241.44
489.696	258.44
489.914	258.44
490.132	246.44
490.35	271.44
490.568	246.44
490.786	256.44
491.003	240.44
491.221	237.44
491.439	260.44
491.657	253.44
491.874	253.44
492.092	252.44
492.31	254.44
492.527	244.44
492.745	253.44
492.963	252.44
493.18	267.44
493.398	259.44
493.615	268.44
493.833	263.44
494.05	263.44
494.268	246.44
494.485	266.44
494.703	282.44
494.92	257.44
495.138	255.44
495.355	257.44
495.573	264.44
495.79	272.44
496.008	269.44
496.225	262.44
496.442	259.44
496.66	276.44
496.877	273.44
497.094	296.44
497.312	286.44
497.529	286.44
497.746	297.44
497.963	305.44
498.181	299.44
498.398	297.44
498.615	331.44
498.832	349.44
499.049	374.44
499.267	379.44
499.484	441.44
499.701	460.44
499.918	521.44
500.135	578.44
500.352	675.44
500.569	725.44
500.786	715.44
501.003	647.44
501.22	585.44
501.437	517.44
501.654	485.44
501.871	424.44
502.088	395.44
502.305	387.44
502.522	342.44
502.739	347.44
502.956	341.44
503.172	313.44
