Data from 0.5MCu(NO3)2.Standard.Lamp.E10.CV._HRD10591_16-06-07-753.txt Node
Date: Mon Jul 22 16:06:07 EDT 2019
User: cochatt
Spectrometer: HR+D1059
Trigger mode: 1
Integration Time (sec): 1.000000E-1
Scans to average: 1
Electric dark correction enabled: true
Nonlinearity correction enabled: false
Boxcar width: 0
XAxis mode: Wavelengths
Number of Pixels in Spectrum: 2048
>>>>>Begin Spectral Data<<<<<
223.165	-21.81
223.4	-21.81
223.635	-21.81
223.869	-31.81
224.104	-15.81
224.338	-9.81
224.573	-16.81
224.808	-22.81
225.042	-4.81
225.277	-5.81
225.511	5.19
225.746	10.19
225.98	10.19
226.215	6.19
226.449	13.19
226.683	23.19
226.918	27.19
227.152	34.19
227.387	26.19
227.621	43.19
227.856	63.19
228.09	58.19
228.324	44.19
228.559	66.19
228.793	55.19
229.027	70.19
229.262	63.19
229.496	73.19
229.73	77.19
229.964	80.19
230.199	81.19
230.433	99.19
230.667	90.19
230.901	82.19
231.136	83.19
231.37	102.19
231.604	101.19
231.838	105.19
232.072	91.19
232.306	98.19
232.541	98.19
232.775	90.19
233.009	81.19
233.243	74.19
233.477	87.19
233.711	103.19
233.945	98.19
234.179	88.19
234.413	93.19
234.647	85.19
234.881	93.19
235.115	83.19
235.349	104.19
235.583	102.19
235.817	83.19
236.051	97.19
236.285	94.19
236.519	94.19
236.753	92.19
236.987	84.19
237.221	107.19
237.455	86.19
237.689	97.19
237.922	96.19
238.156	74.19
238.39	92.19
238.624	91.19
238.858	95.19
239.091	86.19
239.325	83.19
239.559	95.19
239.793	98.19
240.027	93.19
240.26	79.19
240.494	93.19
240.728	89.19
240.961	88.19
241.195	84.19
241.429	83.19
241.662	75.19
241.896	88.19
242.13	94.19
242.363	93.19
242.597	95.19
242.83	97.19
243.064	100.19
243.298	98.19
243.531	90.19
243.765	99.19
243.998	95.19
244.232	94.19
244.465	107.19
244.699	82.19
244.932	103.19
245.166	97.19
245.399	99.19
245.633	102.19
245.866	95.19
246.099	105.19
246.333	99.19
246.566	105.19
246.8	89.19
247.033	127.19
247.266	108.19
247.5	112.19
247.733	117.19
247.966	103.19
248.2	102.19
248.433	117.19
248.666	111.19
248.899	108.19
249.133	98.19
249.366	104.19
249.599	97.19
249.832	101.19
250.066	108.19
250.299	96.19
250.532	99.19
250.765	117.19
250.998	103.19
251.231	111.19
251.465	110.19
251.698	101.19
251.931	98.19
252.164	106.19
252.397	117.19
252.63	109.19
252.863	103.19
253.096	106.19
253.329	120.19
253.562	111.19
253.795	115.19
254.028	120.19
254.261	123.19
254.494	117.19
254.727	111.19
254.96	108.19
255.193	108.19
255.426	113.19
255.659	107.19
255.892	111.19
256.124	123.19
256.357	103.19
256.59	103.19
256.823	131.19
257.056	111.19
257.289	122.19
257.521	125.19
257.754	116.19
257.987	119.19
258.22	125.19
258.452	120.19
258.685	116.19
258.918	117.19
259.151	130.19
259.383	114.19
259.616	122.19
259.849	116.19
260.081	115.19
260.314	120.19
260.547	124.19
260.779	107.19
261.012	130.19
261.244	115.19
261.477	115.19
261.71	114.19
261.942	125.19
262.175	117.19
262.407	117.19
262.64	114.19
262.872	124.19
263.105	137.19
263.337	129.19
263.57	126.19
263.802	122.19
264.035	122.19
264.267	120.19
264.499	113.19
264.732	116.19
264.964	132.19
265.197	124.19
265.429	122.19
265.661	130.19
265.894	126.19
266.126	132.19
266.358	126.19
266.591	118.19
266.823	124.19
267.055	130.19
267.287	131.19
267.52	131.19
267.752	130.19
267.984	118.19
268.216	123.19
268.448	120.19
268.681	125.19
268.913	110.19
269.145	140.19
269.377	160.19
269.609	134.19
269.841	125.19
270.073	142.19
270.306	131.19
270.538	141.19
270.77	126.19
271.002	125.19
271.234	143.19
271.466	130.19
271.698	140.19
271.93	125.19
272.162	126.19
272.394	149.19
272.626	134.19
272.858	145.19
273.09	143.19
273.322	126.19
273.553	130.19
273.785	124.19
274.017	130.19
274.249	141.19
274.481	148.19
274.713	141.19
274.945	142.19
275.176	145.19
275.408	142.19
275.64	144.19
275.872	141.19
276.104	133.19
276.335	127.19
276.567	146.19
276.799	130.19
277.031	145.19
277.262	154.19
277.494	141.19
277.726	136.19
277.957	140.19
278.189	144.19
278.421	139.19
278.652	144.19
278.884	132.19
279.115	153.19
279.347	129.19
279.579	133.19
279.81	155.19
280.042	146.19
280.273	150.19
280.505	165.19
280.736	153.19
280.968	154.19
281.199	141.19
281.431	145.19
281.662	148.19
281.894	144.19
282.125	165.19
282.356	160.19
282.588	156.19
282.819	140.19
283.051	160.19
283.282	154.19
283.513	155.19
283.745	172.19
283.976	138.19
284.207	155.19
284.439	161.19
284.67	150.19
284.901	157.19
285.132	149.19
285.364	141.19
285.595	146.19
285.826	159.19
286.057	158.19
286.288	154.19
286.52	156.19
286.751	158.19
286.982	173.19
287.213	172.19
287.444	159.19
287.675	157.19
287.906	167.19
288.138	170.19
288.369	171.19
288.6	159.19
288.831	150.19
289.062	153.19
289.293	153.19
289.524	152.19
289.755	153.19
289.986	150.19
290.217	134.19
290.448	150.19
290.679	162.19
290.91	166.19
291.141	166.19
291.371	160.19
291.602	163.19
291.833	169.19
292.064	158.19
292.295	176.19
292.526	175.19
292.757	160.19
292.987	162.19
293.218	164.19
293.449	162.19
293.68	170.19
293.91	178.19
294.141	168.19
294.372	165.19
294.603	168.19
294.833	182.19
295.064	167.19
295.295	174.19
295.525	174.19
295.756	171.19
295.987	171.19
296.217	172.19
296.448	172.19
296.679	184.19
296.909	181.19
297.14	177.19
297.37	181.19
297.601	163.19
297.831	164.19
298.062	174.19
298.292	180.19
298.523	182.19
298.753	183.19
298.984	177.19
299.214	158.19
299.445	184.19
299.675	169.19
299.905	166.19
300.136	182.19
300.366	178.19
300.597	188.19
300.827	176.19
301.057	167.19
301.288	175.19
301.518	185.19
301.748	189.19
301.979	194.19
302.209	181.19
302.439	187.19
302.669	175.19
302.9	178.19
303.13	167.19
303.36	172.19
303.59	190.19
303.82	167.19
304.051	169.19
304.281	169.19
304.511	175.19
304.741	184.19
304.971	177.19
305.201	182.19
305.431	171.19
305.661	167.19
305.891	186.19
306.121	173.19
306.352	196.19
306.582	188.19
306.812	174.19
307.042	178.19
307.272	176.19
307.502	169.19
307.731	183.19
307.961	161.19
308.191	196.19
308.421	177.19
308.651	182.19
308.881	173.19
309.111	169.19
309.341	179.19
309.571	188.19
309.8	184.19
310.03	181.19
310.26	161.19
310.49	182.19
310.72	187.19
310.949	186.19
311.179	177.19
311.409	176.19
311.639	187.19
311.868	192.19
312.098	180.19
312.328	183.19
312.557	168.19
312.787	182.19
313.017	196.19
313.246	180.19
313.476	192.19
313.706	181.19
313.935	173.19
314.165	194.19
314.394	196.19
314.624	176.19
314.853	188.19
315.083	183.19
315.312	166.19
315.542	181.19
315.771	180.19
316.001	189.19
316.23	188.19
316.46	183.19
316.689	178.19
316.919	187.19
317.148	185.19
317.377	182.19
317.607	182.19
317.836	175.19
318.065	169.19
318.295	187.19
318.524	182.19
318.753	187.19
318.983	189.19
319.212	188.19
319.441	186.19
319.67	182.19
319.9	174.19
320.129	186.19
320.358	194.19
320.587	171.19
320.816	172.19
321.046	171.19
321.275	182.19
321.504	177.19
321.733	190.19
321.962	195.19
322.191	194.19
322.42	178.19
322.649	183.19
322.878	179.19
323.108	173.19
323.337	183.19
323.566	165.19
323.795	168.19
324.024	176.19
324.253	181.19
324.482	181.19
324.71	170.19
324.939	181.19
325.168	208.19
325.397	184.19
325.626	174.19
325.855	178.19
326.084	181.19
326.313	184.19
326.542	201.19
326.77	191.19
326.999	203.19
327.228	185.19
327.457	185.19
327.686	179.19
327.914	207.19
328.143	203.19
328.372	195.19
328.6	204.19
328.829	198.19
329.058	206.19
329.287	198.19
329.515	190.19
329.744	197.19
329.972	195.19
330.201	178.19
330.43	192.19
330.658	204.19
330.887	212.19
331.115	190.19
331.344	197.19
331.572	217.19
331.801	204.19
332.03	204.19
332.258	222.19
332.486	226.19
332.715	221.19
332.943	223.19
333.172	231.19
333.4	240.19
333.629	238.19
333.857	235.19
334.085	235.19
334.314	232.19
334.542	235.19
334.771	232.19
334.999	229.19
335.227	215.19
335.455	225.19
335.684	237.19
335.912	221.19
336.14	202.19
336.369	215.19
336.597	222.19
336.825	210.19
337.053	222.19
337.281	228.19
337.51	217.19
337.738	204.19
337.966	204.19
338.194	223.19
338.422	219.19
338.65	217.19
338.878	212.19
339.106	213.19
339.334	206.19
339.562	212.19
339.79	195.19
340.018	200.19
340.246	203.19
340.474	212.19
340.702	192.19
340.93	195.19
341.158	192.19
341.386	182.19
341.614	207.19
341.842	207.19
342.07	192.19
342.298	196.19
342.526	199.19
342.754	201.19
342.981	205.19
343.209	198.19
343.437	204.19
343.665	222.19
343.893	239.19
344.12	245.19
344.348	228.19
344.576	214.19
344.804	222.19
345.031	201.19
345.259	207.19
345.487	204.19
345.714	185.19
345.942	197.19
346.17	205.19
346.397	208.19
346.625	192.19
346.853	198.19
347.08	201.19
347.308	182.19
347.535	192.19
347.763	198.19
347.99	218.19
348.218	186.19
348.445	187.19
348.673	198.19
348.9	192.19
349.128	183.19
349.355	187.19
349.583	206.19
349.81	197.19
350.037	185.19
350.265	197.19
350.492	197.19
350.72	199.19
350.947	181.19
351.174	209.19
351.402	186.19
351.629	186.19
351.856	178.19
352.083	197.19
352.311	193.19
352.538	186.19
352.765	184.19
352.992	192.19
353.22	186.19
353.447	199.19
353.674	182.19
353.901	186.19
354.128	204.19
354.355	177.19
354.583	194.19
354.81	192.19
355.037	195.19
355.264	204.19
355.491	172.19
355.718	195.19
355.945	188.19
356.172	185.19
356.399	171.19
356.626	186.19
356.853	192.19
357.08	189.19
357.307	187.19
357.534	183.19
357.761	205.19
357.988	182.19
358.215	205.19
358.441	202.19
358.668	200.19
358.895	186.19
359.122	159.19
359.349	173.19
359.576	192.19
359.802	177.19
360.029	186.19
360.256	186.19
360.483	196.19
360.709	186.19
360.936	190.19
361.163	184.19
361.39	193.19
361.616	192.19
361.843	204.19
362.07	187.19
362.296	184.19
362.523	188.19
362.749	185.19
362.976	179.19
363.203	202.19
363.429	200.19
363.656	187.19
363.882	191.19
364.109	187.19
364.335	196.19
364.562	181.19
364.788	199.19
365.015	188.19
365.241	185.19
365.468	195.19
365.694	167.19
365.92	196.19
366.147	184.19
366.373	187.19
366.599	189.19
366.826	194.19
367.052	189.19
367.278	186.19
367.505	172.19
367.731	194.19
367.957	203.19
368.184	182.19
368.41	164.19
368.636	190.19
368.862	192.19
369.089	197.19
369.315	190.19
369.541	182.19
369.767	205.19
369.993	201.19
370.219	194.19
370.445	185.19
370.672	194.19
370.898	200.19
371.124	201.19
371.35	211.19
371.576	183.19
371.802	191.19
372.028	209.19
372.254	187.19
372.48	182.19
372.706	217.19
372.932	196.19
373.158	194.19
373.384	197.19
373.61	196.19
373.835	190.19
374.061	177.19
374.287	187.19
374.513	211.19
374.739	205.19
374.965	207.19
375.191	214.19
375.416	222.19
375.642	213.19
375.868	200.19
376.094	201.19
376.319	190.19
376.545	196.19
376.771	192.19
376.997	205.19
377.222	214.19
377.448	192.19
377.674	192.19
377.899	201.19
378.125	199.19
378.35	187.19
378.576	179.19
378.802	184.19
379.027	191.19
379.253	205.19
379.478	196.19
379.704	180.19
379.929	192.19
380.155	204.19
380.38	191.19
380.606	188.19
380.831	188.19
381.057	210.19
381.282	191.19
381.507	209.19
381.733	215.19
381.958	191.19
382.184	196.19
382.409	197.19
382.634	198.19
382.86	202.19
383.085	207.19
383.31	215.19
383.535	225.19
383.761	227.19
383.986	230.19
384.211	222.19
384.436	224.19
384.662	234.19
384.887	233.19
385.112	235.19
385.337	223.19
385.562	231.19
385.787	243.19
386.013	226.19
386.238	231.19
386.463	234.19
386.688	227.19
386.913	229.19
387.138	215.19
387.363	207.19
387.588	228.19
387.813	209.19
388.038	219.19
388.263	217.19
388.488	231.19
388.713	220.19
388.938	220.19
389.163	223.19
389.387	233.19
389.612	237.19
389.837	208.19
390.062	213.19
390.287	215.19
390.512	220.19
390.736	211.19
390.961	211.19
391.186	213.19
391.411	242.19
391.636	234.19
391.86	243.19
392.085	236.19
392.31	243.19
392.534	228.19
392.759	231.19
392.984	234.19
393.208	232.19
393.433	214.19
393.658	223.19
393.882	242.19
394.107	231.19
394.331	231.19
394.556	225.19
394.78	231.19
395.005	223.19
395.229	239.19
395.454	216.19
395.678	224.19
395.903	239.19
396.127	232.19
396.352	235.19
396.576	221.19
396.801	237.19
397.025	231.19
397.249	235.19
397.474	229.19
397.698	222.19
397.922	232.19
398.147	246.19
398.371	237.19
398.595	249.19
398.82	248.19
399.044	250.19
399.268	287.19
399.492	321.19
399.717	361.19
399.941	357.19
400.165	326.19
400.389	306.19
400.613	279.19
400.837	268.19
401.062	252.19
401.286	253.19
401.51	249.19
401.734	262.19
401.958	255.19
402.182	250.19
402.406	271.19
402.63	269.19
402.854	272.19
403.078	266.19
403.302	279.19
403.526	278.19
403.75	289.19
403.974	293.19
404.198	298.19
404.422	292.19
404.645	294.19
404.869	295.19
405.093	289.19
405.317	278.19
405.541	298.19
405.765	286.19
405.988	282.19
406.212	271.19
406.436	262.19
406.66	278.19
406.883	285.19
407.107	303.19
407.331	317.19
407.555	328.19
407.778	325.19
408.002	293.19
408.226	283.19
408.449	297.19
408.673	276.19
408.896	270.19
409.12	258.19
409.344	286.19
409.567	269.19
409.791	286.19
410.014	298.19
410.238	282.19
410.461	282.19
410.685	258.19
410.908	255.19
411.132	274.19
411.355	260.19
411.578	255.19
411.802	266.19
412.025	262.19
412.249	251.19
412.472	251.19
412.695	263.19
412.919	247.19
413.142	246.19
413.365	272.19
413.589	250.19
413.812	253.19
414.035	238.19
414.258	236.19
414.482	246.19
414.705	268.19
414.928	251.19
415.151	260.19
415.374	262.19
415.597	263.19
415.821	237.19
416.044	235.19
416.267	244.19
416.49	247.19
416.713	266.19
416.936	235.19
417.159	251.19
417.382	266.19
417.605	253.19
417.828	261.19
418.051	251.19
418.274	260.19
418.497	255.19
418.72	263.19
418.943	276.19
419.166	287.19
419.389	284.19
419.611	283.19
419.834	257.19
420.057	271.19
420.28	253.19
420.503	263.19
420.726	250.19
420.948	248.19
421.171	254.19
421.394	255.19
421.617	262.19
421.839	238.19
422.062	236.19
422.285	261.19
422.507	271.19
422.73	267.19
422.953	269.19
423.175	255.19
423.398	275.19
423.621	252.19
423.843	274.19
424.066	286.19
424.288	273.19
424.511	276.19
424.733	250.19
424.956	252.19
425.178	281.19
425.401	264.19
425.623	244.19
425.846	238.19
426.068	230.19
426.291	274.19
426.513	244.19
426.735	228.19
426.958	258.19
427.18	233.19
427.402	231.19
427.625	247.19
427.847	235.19
428.069	226.19
428.292	231.19
428.514	230.19
428.736	233.19
428.958	250.19
429.181	227.19
429.403	224.19
429.625	229.19
429.847	197.19
430.069	216.19
430.292	227.19
430.514	222.19
430.736	234.19
430.958	231.19
431.18	236.19
431.402	231.19
431.624	245.19
431.846	246.19
432.068	238.19
432.29	223.19
432.512	229.19
432.734	221.19
432.956	252.19
433.178	237.19
433.4	244.19
433.622	228.19
433.844	232.19
434.066	236.19
434.287	258.19
434.509	242.19
434.731	262.19
434.953	264.19
435.175	261.19
435.397	253.19
435.618	231.19
435.84	214.19
436.062	220.19
436.284	214.19
436.505	233.19
436.727	246.19
436.949	253.19
437.17	250.19
437.392	215.19
437.614	241.19
437.835	236.19
438.057	208.19
438.278	240.19
438.5	232.19
438.721	226.19
438.943	215.19
439.165	226.19
439.386	248.19
439.608	225.19
439.829	223.19
440.05	237.19
440.272	228.19
440.493	216.19
440.715	232.19
440.936	259.19
441.158	251.19
441.379	243.19
441.6	261.19
441.822	259.19
442.043	250.19
442.264	253.19
442.486	260.19
442.707	244.19
442.928	223.19
443.149	238.19
443.371	260.19
443.592	254.19
443.813	270.19
444.034	239.19
444.255	266.19
444.476	280.19
444.698	290.19
444.919	294.19
445.14	406.19
445.361	312.19
445.582	263.19
445.803	240.19
446.024	259.19
446.245	239.19
446.466	229.19
446.687	221.19
446.908	238.19
447.129	239.19
447.35	220.19
447.571	225.19
447.792	223.19
448.013	222.19
448.234	210.19
448.455	219.19
448.675	202.19
448.896	233.19
449.117	223.19
449.338	207.19
449.559	220.19
449.779	223.19
450	218.19
450.221	222.19
450.442	223.19
450.662	216.19
450.883	218.19
451.104	227.19
451.324	222.19
451.545	199.19
451.766	198.19
451.986	207.19
452.207	228.19
452.428	219.19
452.648	229.19
452.869	226.19
453.089	195.19
453.31	212.19
453.53	218.19
453.751	208.19
453.971	205.19
454.192	217.19
454.412	216.19
454.633	207.19
454.853	206.19
455.073	211.19
455.294	214.19
455.514	203.19
455.734	201.19
455.955	194.19
456.175	218.19
456.395	198.19
456.616	205.19
456.836	213.19
457.056	207.19
457.276	212.19
457.497	207.19
457.717	209.19
457.937	218.19
458.157	211.19
458.377	210.19
458.598	213.19
458.818	218.19
459.038	231.19
459.258	228.19
459.478	230.19
459.698	236.19
459.918	239.19
460.138	234.19
460.358	272.19
460.578	273.19
460.798	270.19
461.018	283.19
461.238	279.19
461.458	271.19
461.678	265.19
461.898	274.19
462.118	260.19
462.338	275.19
462.558	290.19
462.777	286.19
462.997	309.19
463.217	346.19
463.437	353.19
463.657	312.19
463.876	319.19
464.096	311.19
464.316	315.19
464.536	306.19
464.755	310.19
464.975	281.19
465.195	291.19
465.414	275.19
465.634	268.19
465.854	238.19
466.073	237.19
466.293	241.19
466.512	213.19
466.732	224.19
466.951	228.19
467.171	227.19
467.391	228.19
467.61	237.19
467.829	238.19
468.049	227.19
468.268	219.19
468.488	217.19
468.707	218.19
468.927	229.19
469.146	207.19
469.365	231.19
469.585	198.19
469.804	236.19
470.023	237.19
470.243	245.19
470.462	248.19
470.681	233.19
470.901	246.19
471.12	233.19
471.339	234.19
471.558	225.19
471.777	213.19
471.997	230.19
472.216	230.19
472.435	217.19
472.654	215.19
472.873	244.19
473.092	236.19
473.311	209.19
473.53	224.19
473.749	217.19
473.968	215.19
474.187	218.19
474.406	215.19
474.625	231.19
474.844	233.19
475.063	229.19
475.282	211.19
475.501	225.19
475.72	218.19
475.939	242.19
476.158	227.19
476.377	230.19
476.596	216.19
476.814	216.19
477.033	214.19
477.252	218.19
477.471	240.19
477.69	234.19
477.908	254.19
478.127	246.19
478.346	239.19
478.564	250.19
478.783	250.19
479.002	248.19
479.22	260.19
479.439	269.19
479.658	247.19
479.876	274.19
480.095	259.19
480.313	280.19
480.532	282.19
480.751	280.19
480.969	254.19
481.188	260.19
481.406	267.19
481.624	249.19
481.843	262.19
482.061	234.19
482.28	262.19
482.498	250.19
482.717	237.19
482.935	246.19
483.153	253.19
483.372	243.19
483.59	247.19
483.808	246.19
484.027	242.19
484.245	235.19
484.463	257.19
484.681	271.19
484.9	251.19
485.118	271.19
485.336	253.19
485.554	256.19
485.772	256.19
485.99	249.19
486.209	266.19
486.427	257.19
486.645	267.19
486.863	267.19
487.081	281.19
487.299	264.19
487.517	263.19
487.735	264.19
487.953	259.19
488.171	256.19
488.389	268.19
488.607	270.19
488.825	267.19
489.043	254.19
489.261	241.19
489.479	259.19
489.696	244.19
489.914	252.19
490.132	260.19
490.35	268.19
490.568	263.19
490.786	261.19
491.003	254.19
491.221	251.19
491.439	259.19
491.657	270.19
491.874	261.19
492.092	275.19
492.31	264.19
492.527	269.19
492.745	272.19
492.963	261.19
493.18	284.19
493.398	276.19
493.615	276.19
493.833	249.19
494.05	274.19
494.268	261.19
494.485	277.19
494.703	276.19
494.92	262.19
495.138	269.19
495.355	286.19
495.573	284.19
495.79	276.19
496.008	271.19
496.225	282.19
496.442	273.19
496.66	279.19
496.877	288.19
497.094	290.19
497.312	287.19
497.529	292.19
497.746	302.19
497.963	273.19
498.181	306.19
498.398	337.19
498.615	334.19
498.832	357.19
499.049	380.19
499.267	404.19
499.484	457.19
499.701	485.19
499.918	504.19
500.135	586.19
500.352	681.19
500.569	726.19
500.786	697.19
501.003	654.19
501.22	570.19
501.437	517.19
501.654	470.19
501.871	422.19
502.088	405.19
502.305	371.19
502.522	362.19
502.739	326.19
502.956	333.19
503.172	315.19
