Data from 0.5MCu(NO3)2.Standard.Lamp.E10.CV._HRD10591_16-06-33-754.txt Node
Date: Mon Jul 22 16:06:33 EDT 2019
User: cochatt
Spectrometer: HR+D1059
Trigger mode: 1
Integration Time (sec): 1.000000E-1
Scans to average: 1
Electric dark correction enabled: true
Nonlinearity correction enabled: false
Boxcar width: 0
XAxis mode: Wavelengths
Number of Pixels in Spectrum: 2048
>>>>>Begin Spectral Data<<<<<
223.165	6.5
223.4	6.5
223.635	6.5
223.869	-21.5
224.104	-4.5
224.338	-4.5
224.573	-23.5
224.808	-9.5
225.042	-10.5
225.277	-1.5
225.511	-22.5
225.746	1.5
225.98	5.5
226.215	11.5
226.449	10.5
226.683	7.5
226.918	21.5
227.152	33.5
227.387	38.5
227.621	45.5
227.856	31.5
228.09	50.5
228.324	51.5
228.559	44.5
228.793	59.5
229.027	65.5
229.262	74.5
229.496	75.5
229.73	81.5
229.964	85.5
230.199	83.5
230.433	85.5
230.667	81.5
230.901	83.5
231.136	78.5
231.37	98.5
231.604	93.5
231.838	92.5
232.072	84.5
232.306	75.5
232.541	85.5
232.775	97.5
233.009	91.5
233.243	97.5
233.477	72.5
233.711	97.5
233.945	100.5
234.179	90.5
234.413	102.5
234.647	102.5
234.881	79.5
235.115	91.5
235.349	90.5
235.583	82.5
235.817	80.5
236.051	89.5
236.285	80.5
236.519	86.5
236.753	86.5
236.987	83.5
237.221	85.5
237.455	97.5
237.689	94.5
237.922	94.5
238.156	87.5
238.39	100.5
238.624	75.5
238.858	89.5
239.091	82.5
239.325	97.5
239.559	95.5
239.793	84.5
240.027	101.5
240.26	81.5
240.494	107.5
240.728	97.5
240.961	94.5
241.195	90.5
241.429	94.5
241.662	107.5
241.896	82.5
242.13	103.5
242.363	81.5
242.597	77.5
242.83	103.5
243.064	90.5
243.298	96.5
243.531	93.5
243.765	95.5
243.998	98.5
244.232	99.5
244.465	98.5
244.699	92.5
244.932	93.5
245.166	99.5
245.399	86.5
245.633	103.5
245.866	106.5
246.099	92.5
246.333	100.5
246.566	95.5
246.8	100.5
247.033	98.5
247.266	90.5
247.5	111.5
247.733	106.5
247.966	113.5
248.2	107.5
248.433	99.5
248.666	90.5
248.899	91.5
249.133	105.5
249.366	101.5
249.599	105.5
249.832	99.5
250.066	101.5
250.299	105.5
250.532	94.5
250.765	112.5
250.998	117.5
251.231	118.5
251.465	99.5
251.698	109.5
251.931	103.5
252.164	96.5
252.397	103.5
252.63	107.5
252.863	122.5
253.096	109.5
253.329	107.5
253.562	107.5
253.795	101.5
254.028	113.5
254.261	116.5
254.494	115.5
254.727	109.5
254.96	110.5
255.193	111.5
255.426	102.5
255.659	109.5
255.892	107.5
256.124	117.5
256.357	104.5
256.59	110.5
256.823	121.5
257.056	121.5
257.289	110.5
257.521	133.5
257.754	109.5
257.987	99.5
258.22	119.5
258.452	126.5
258.685	114.5
258.918	113.5
259.151	108.5
259.383	121.5
259.616	120.5
259.849	117.5
260.081	116.5
260.314	129.5
260.547	104.5
260.779	119.5
261.012	120.5
261.244	110.5
261.477	127.5
261.71	110.5
261.942	111.5
262.175	124.5
262.407	106.5
262.64	101.5
262.872	136.5
263.105	131.5
263.337	124.5
263.57	121.5
263.802	109.5
264.035	121.5
264.267	127.5
264.499	126.5
264.732	143.5
264.964	135.5
265.197	130.5
265.429	133.5
265.661	128.5
265.894	125.5
266.126	130.5
266.358	135.5
266.591	132.5
266.823	127.5
267.055	131.5
267.287	122.5
267.52	135.5
267.752	139.5
267.984	123.5
268.216	131.5
268.448	137.5
268.681	115.5
268.913	129.5
269.145	133.5
269.377	141.5
269.609	131.5
269.841	119.5
270.073	133.5
270.306	136.5
270.538	131.5
270.77	141.5
271.002	131.5
271.234	126.5
271.466	129.5
271.698	138.5
271.93	126.5
272.162	133.5
272.394	133.5
272.626	141.5
272.858	140.5
273.09	126.5
273.322	134.5
273.553	122.5
273.785	126.5
274.017	129.5
274.249	124.5
274.481	113.5
274.713	145.5
274.945	143.5
275.176	131.5
275.408	129.5
275.64	142.5
275.872	151.5
276.104	145.5
276.335	147.5
276.567	143.5
276.799	139.5
277.031	153.5
277.262	139.5
277.494	145.5
277.726	143.5
277.957	146.5
278.189	137.5
278.421	136.5
278.652	141.5
278.884	164.5
279.115	129.5
279.347	135.5
279.579	154.5
279.81	147.5
280.042	145.5
280.273	127.5
280.505	141.5
280.736	141.5
280.968	136.5
281.199	151.5
281.431	161.5
281.662	136.5
281.894	139.5
282.125	146.5
282.356	138.5
282.588	150.5
282.819	153.5
283.051	142.5
283.282	151.5
283.513	158.5
283.745	161.5
283.976	159.5
284.207	158.5
284.439	159.5
284.67	164.5
284.901	149.5
285.132	146.5
285.364	152.5
285.595	156.5
285.826	147.5
286.057	147.5
286.288	147.5
286.52	160.5
286.751	164.5
286.982	164.5
287.213	158.5
287.444	155.5
287.675	150.5
287.906	158.5
288.138	150.5
288.369	154.5
288.6	159.5
288.831	139.5
289.062	173.5
289.293	162.5
289.524	157.5
289.755	165.5
289.986	162.5
290.217	162.5
290.448	174.5
290.679	165.5
290.91	169.5
291.141	139.5
291.371	163.5
291.602	164.5
291.833	178.5
292.064	158.5
292.295	157.5
292.526	161.5
292.757	149.5
292.987	159.5
293.218	155.5
293.449	156.5
293.68	170.5
293.91	169.5
294.141	157.5
294.372	138.5
294.603	171.5
294.833	171.5
295.064	170.5
295.295	164.5
295.525	171.5
295.756	180.5
295.987	166.5
296.217	170.5
296.448	165.5
296.679	161.5
296.909	167.5
297.14	178.5
297.37	163.5
297.601	170.5
297.831	176.5
298.062	163.5
298.292	177.5
298.523	193.5
298.753	182.5
298.984	185.5
299.214	167.5
299.445	172.5
299.675	185.5
299.905	170.5
300.136	167.5
300.366	184.5
300.597	179.5
300.827	190.5
301.057	171.5
301.288	190.5
301.518	190.5
301.748	164.5
301.979	181.5
302.209	188.5
302.439	177.5
302.669	164.5
302.9	185.5
303.13	186.5
303.36	179.5
303.59	179.5
303.82	174.5
304.051	181.5
304.281	177.5
304.511	183.5
304.741	178.5
304.971	163.5
305.201	187.5
305.431	173.5
305.661	168.5
305.891	168.5
306.121	179.5
306.352	179.5
306.582	170.5
306.812	164.5
307.042	176.5
307.272	192.5
307.502	182.5
307.731	184.5
307.961	183.5
308.191	174.5
308.421	183.5
308.651	169.5
308.881	162.5
309.111	174.5
309.341	163.5
309.571	189.5
309.8	177.5
310.03	169.5
310.26	185.5
310.49	177.5
310.72	181.5
310.949	178.5
311.179	179.5
311.409	182.5
311.639	178.5
311.868	169.5
312.098	188.5
312.328	177.5
312.557	146.5
312.787	187.5
313.017	195.5
313.246	187.5
313.476	196.5
313.706	191.5
313.935	177.5
314.165	192.5
314.394	194.5
314.624	181.5
314.853	179.5
315.083	186.5
315.312	183.5
315.542	185.5
315.771	178.5
316.001	180.5
316.23	194.5
316.46	185.5
316.689	167.5
316.919	189.5
317.148	188.5
317.377	202.5
317.607	185.5
317.836	193.5
318.065	167.5
318.295	187.5
318.524	171.5
318.753	173.5
318.983	164.5
319.212	178.5
319.441	169.5
319.67	191.5
319.9	174.5
320.129	193.5
320.358	189.5
320.587	189.5
320.816	171.5
321.046	197.5
321.275	185.5
321.504	191.5
321.733	177.5
321.962	167.5
322.191	182.5
322.42	185.5
322.649	190.5
322.878	196.5
323.108	188.5
323.337	203.5
323.566	187.5
323.795	183.5
324.024	166.5
324.253	175.5
324.482	182.5
324.71	172.5
324.939	191.5
325.168	187.5
325.397	187.5
325.626	192.5
325.855	183.5
326.084	195.5
326.313	204.5
326.542	190.5
326.77	182.5
326.999	193.5
327.228	195.5
327.457	203.5
327.686	191.5
327.914	195.5
328.143	196.5
328.372	195.5
328.6	175.5
328.829	201.5
329.058	176.5
329.287	190.5
329.515	189.5
329.744	185.5
329.972	186.5
330.201	201.5
330.43	179.5
330.658	177.5
330.887	204.5
331.115	191.5
331.344	203.5
331.572	193.5
331.801	175.5
332.03	189.5
332.258	202.5
332.486	198.5
332.715	211.5
332.943	220.5
333.172	210.5
333.4	236.5
333.629	230.5
333.857	256.5
334.085	232.5
334.314	225.5
334.542	220.5
334.771	220.5
334.999	211.5
335.227	194.5
335.455	219.5
335.684	219.5
335.912	216.5
336.14	205.5
336.369	228.5
336.597	219.5
336.825	210.5
337.053	213.5
337.281	214.5
337.51	198.5
337.738	199.5
337.966	203.5
338.194	207.5
338.422	215.5
338.65	217.5
338.878	206.5
339.106	196.5
339.334	225.5
339.562	203.5
339.79	188.5
340.018	205.5
340.246	185.5
340.474	196.5
340.702	210.5
340.93	203.5
341.158	191.5
341.386	206.5
341.614	205.5
341.842	200.5
342.07	210.5
342.298	198.5
342.526	185.5
342.754	177.5
342.981	217.5
343.209	205.5
343.437	217.5
343.665	208.5
343.893	228.5
344.12	242.5
344.348	216.5
344.576	216.5
344.804	219.5
345.031	191.5
345.259	204.5
345.487	191.5
345.714	207.5
345.942	195.5
346.17	195.5
346.397	216.5
346.625	190.5
346.853	186.5
347.08	188.5
347.308	207.5
347.535	191.5
347.763	206.5
347.99	186.5
348.218	204.5
348.445	195.5
348.673	196.5
348.9	189.5
349.128	199.5
349.355	184.5
349.583	191.5
349.81	196.5
350.037	207.5
350.265	186.5
350.492	191.5
350.72	184.5
350.947	182.5
351.174	173.5
351.402	201.5
351.629	184.5
351.856	191.5
352.083	194.5
352.311	189.5
352.538	182.5
352.765	187.5
352.992	190.5
353.22	191.5
353.447	181.5
353.674	199.5
353.901	180.5
354.128	192.5
354.355	201.5
354.583	180.5
354.81	188.5
355.037	185.5
355.264	172.5
355.491	188.5
355.718	191.5
355.945	185.5
356.172	182.5
356.399	185.5
356.626	185.5
356.853	183.5
357.08	175.5
357.307	189.5
357.534	183.5
357.761	183.5
357.988	204.5
358.215	180.5
358.441	190.5
358.668	184.5
358.895	179.5
359.122	187.5
359.349	172.5
359.576	197.5
359.802	183.5
360.029	202.5
360.256	194.5
360.483	192.5
360.709	163.5
360.936	204.5
361.163	191.5
361.39	186.5
361.616	174.5
361.843	199.5
362.07	188.5
362.296	181.5
362.523	197.5
362.749	182.5
362.976	198.5
363.203	173.5
363.429	173.5
363.656	190.5
363.882	179.5
364.109	185.5
364.335	179.5
364.562	175.5
364.788	200.5
365.015	195.5
365.241	178.5
365.468	182.5
365.694	191.5
365.92	175.5
366.147	181.5
366.373	194.5
366.599	187.5
366.826	172.5
367.052	181.5
367.278	195.5
367.505	189.5
367.731	186.5
367.957	178.5
368.184	203.5
368.41	186.5
368.636	176.5
368.862	191.5
369.089	188.5
369.315	187.5
369.541	196.5
369.767	195.5
369.993	197.5
370.219	204.5
370.445	206.5
370.672	214.5
370.898	207.5
371.124	191.5
371.35	204.5
371.576	191.5
371.802	206.5
372.028	204.5
372.254	189.5
372.48	211.5
372.706	190.5
372.932	205.5
373.158	189.5
373.384	191.5
373.61	201.5
373.835	196.5
374.061	180.5
374.287	206.5
374.513	202.5
374.739	203.5
374.965	214.5
375.191	215.5
375.416	210.5
375.642	201.5
375.868	195.5
376.094	204.5
376.319	207.5
376.545	205.5
376.771	186.5
376.997	192.5
377.222	194.5
377.448	197.5
377.674	189.5
377.899	200.5
378.125	194.5
378.35	203.5
378.576	189.5
378.802	195.5
379.027	196.5
379.253	209.5
379.478	202.5
379.704	195.5
379.929	207.5
380.155	201.5
380.38	193.5
380.606	195.5
380.831	199.5
381.057	192.5
381.282	190.5
381.507	199.5
381.733	201.5
381.958	199.5
382.184	201.5
382.409	206.5
382.634	202.5
382.86	196.5
383.085	215.5
383.31	203.5
383.535	209.5
383.761	194.5
383.986	192.5
384.211	221.5
384.436	227.5
384.662	210.5
384.887	227.5
385.112	225.5
385.337	212.5
385.562	223.5
385.787	221.5
386.013	225.5
386.238	235.5
386.463	243.5
386.688	224.5
386.913	229.5
387.138	218.5
387.363	211.5
387.588	198.5
387.813	221.5
388.038	217.5
388.263	236.5
388.488	238.5
388.713	235.5
388.938	205.5
389.163	219.5
389.387	221.5
389.612	202.5
389.837	206.5
390.062	210.5
390.287	214.5
390.512	235.5
390.736	218.5
390.961	230.5
391.186	231.5
391.411	220.5
391.636	232.5
391.86	255.5
392.085	245.5
392.31	250.5
392.534	225.5
392.759	231.5
392.984	216.5
393.208	243.5
393.433	220.5
393.658	231.5
393.882	241.5
394.107	222.5
394.331	235.5
394.556	241.5
394.78	220.5
395.005	246.5
395.229	215.5
395.454	237.5
395.678	244.5
395.903	248.5
396.127	238.5
396.352	234.5
396.576	221.5
396.801	238.5
397.025	230.5
397.249	229.5
397.474	239.5
397.698	237.5
397.922	236.5
398.147	241.5
398.371	242.5
398.595	234.5
398.82	247.5
399.044	267.5
399.268	276.5
399.492	330.5
399.717	365.5
399.941	376.5
400.165	337.5
400.389	293.5
400.613	274.5
400.837	258.5
401.062	257.5
401.286	257.5
401.51	279.5
401.734	269.5
401.958	260.5
402.182	256.5
402.406	265.5
402.63	266.5
402.854	287.5
403.078	270.5
403.302	290.5
403.526	292.5
403.75	303.5
403.974	290.5
404.198	318.5
404.422	318.5
404.645	286.5
404.869	290.5
405.093	281.5
405.317	273.5
405.541	287.5
405.765	280.5
405.988	272.5
406.212	275.5
406.436	279.5
406.66	291.5
406.883	277.5
407.107	310.5
407.331	303.5
407.555	317.5
407.778	319.5
408.002	320.5
408.226	297.5
408.449	303.5
408.673	278.5
408.896	296.5
409.12	274.5
409.344	283.5
409.567	291.5
409.791	297.5
410.014	282.5
410.238	298.5
410.461	292.5
410.685	295.5
410.908	268.5
411.132	265.5
411.355	277.5
411.578	259.5
411.802	260.5
412.025	260.5
412.249	292.5
412.472	245.5
412.695	261.5
412.919	260.5
413.142	271.5
413.365	258.5
413.589	244.5
413.812	250.5
414.035	262.5
414.258	248.5
414.482	267.5
414.705	262.5
414.928	247.5
415.151	261.5
415.374	268.5
415.597	268.5
415.821	252.5
416.044	263.5
416.267	249.5
416.49	250.5
416.713	254.5
416.936	255.5
417.159	248.5
417.382	248.5
417.605	258.5
417.828	248.5
418.051	239.5
418.274	250.5
418.497	256.5
418.72	276.5
418.943	252.5
419.166	279.5
419.389	293.5
419.611	286.5
419.834	263.5
420.057	279.5
420.28	261.5
420.503	237.5
420.726	238.5
420.948	233.5
421.171	254.5
421.394	235.5
421.617	259.5
421.839	250.5
422.062	272.5
422.285	252.5
422.507	266.5
422.73	265.5
422.953	259.5
423.175	269.5
423.398	268.5
423.621	273.5
423.843	284.5
424.066	267.5
424.288	272.5
424.511	275.5
424.733	262.5
424.956	250.5
425.178	264.5
425.401	271.5
425.623	266.5
425.846	253.5
426.068	260.5
426.291	262.5
426.513	247.5
426.735	238.5
426.958	249.5
427.18	230.5
427.402	246.5
427.625	242.5
427.847	222.5
428.069	238.5
428.292	245.5
428.514	245.5
428.736	229.5
428.958	223.5
429.181	223.5
429.403	236.5
429.625	234.5
429.847	215.5
430.069	218.5
430.292	220.5
430.514	223.5
430.736	232.5
430.958	239.5
431.18	228.5
431.402	231.5
431.624	226.5
431.846	230.5
432.068	236.5
432.29	246.5
432.512	243.5
432.734	229.5
432.956	231.5
433.178	232.5
433.4	219.5
433.622	241.5
433.844	235.5
434.066	237.5
434.287	254.5
434.509	249.5
434.731	255.5
434.953	249.5
435.175	260.5
435.397	263.5
435.618	238.5
435.84	237.5
436.062	256.5
436.284	234.5
436.505	225.5
436.727	237.5
436.949	241.5
437.17	243.5
437.392	239.5
437.614	218.5
437.835	225.5
438.057	229.5
438.278	232.5
438.5	224.5
438.721	223.5
438.943	227.5
439.165	238.5
439.386	229.5
439.608	231.5
439.829	245.5
440.05	231.5
440.272	238.5
440.493	244.5
440.715	216.5
440.936	236.5
441.158	233.5
441.379	238.5
441.6	257.5
441.822	263.5
442.043	267.5
442.264	269.5
442.486	235.5
442.707	247.5
442.928	254.5
443.149	262.5
443.371	252.5
443.592	261.5
443.813	259.5
444.034	269.5
444.255	270.5
444.476	263.5
444.698	278.5
444.919	279.5
445.14	352.5
445.361	311.5
445.582	246.5
445.803	229.5
446.024	244.5
446.245	240.5
446.466	246.5
446.687	235.5
446.908	230.5
447.129	213.5
447.35	238.5
447.571	222.5
447.792	209.5
448.013	229.5
448.234	227.5
448.455	230.5
448.675	218.5
448.896	235.5
449.117	217.5
449.338	207.5
449.559	228.5
449.779	227.5
450	231.5
450.221	217.5
450.442	229.5
450.662	215.5
450.883	238.5
451.104	224.5
451.324	215.5
451.545	218.5
451.766	231.5
451.986	217.5
452.207	218.5
452.428	214.5
452.648	206.5
452.869	222.5
453.089	212.5
453.31	215.5
453.53	220.5
453.751	220.5
453.971	210.5
454.192	215.5
454.412	212.5
454.633	210.5
454.853	221.5
455.073	211.5
455.294	228.5
455.514	220.5
455.734	224.5
455.955	211.5
456.175	196.5
456.395	204.5
456.616	188.5
456.836	224.5
457.056	226.5
457.276	206.5
457.497	218.5
457.717	206.5
457.937	202.5
458.157	203.5
458.377	214.5
458.598	210.5
458.818	225.5
459.038	229.5
459.258	225.5
459.478	238.5
459.698	236.5
459.918	251.5
460.138	232.5
460.358	277.5
460.578	259.5
460.798	259.5
461.018	276.5
461.238	272.5
461.458	264.5
461.678	249.5
461.898	282.5
462.118	279.5
462.338	289.5
462.558	277.5
462.777	297.5
462.997	331.5
463.217	351.5
463.437	353.5
463.657	311.5
463.876	307.5
464.096	309.5
464.316	309.5
464.536	317.5
464.755	299.5
464.975	293.5
465.195	261.5
465.414	271.5
465.634	253.5
465.854	246.5
466.073	230.5
466.293	248.5
466.512	221.5
466.732	242.5
466.951	227.5
467.171	226.5
467.391	235.5
467.61	231.5
467.829	216.5
468.049	234.5
468.268	213.5
468.488	221.5
468.707	221.5
468.927	215.5
469.146	221.5
469.365	220.5
469.585	230.5
469.804	244.5
470.023	239.5
470.243	225.5
470.462	230.5
470.681	246.5
470.901	242.5
471.12	220.5
471.339	226.5
471.558	221.5
471.777	216.5
471.997	241.5
472.216	215.5
472.435	236.5
472.654	228.5
472.873	222.5
473.092	234.5
473.311	223.5
473.53	236.5
473.749	219.5
473.968	217.5
474.187	210.5
474.406	210.5
474.625	217.5
474.844	227.5
475.063	216.5
475.282	209.5
475.501	227.5
475.72	222.5
475.939	234.5
476.158	223.5
476.377	195.5
476.596	225.5
476.814	238.5
477.033	248.5
477.252	226.5
477.471	246.5
477.69	241.5
477.908	262.5
478.127	246.5
478.346	257.5
478.564	245.5
478.783	250.5
479.002	259.5
479.22	263.5
479.439	254.5
479.658	255.5
479.876	276.5
480.095	244.5
480.313	271.5
480.532	296.5
480.751	272.5
480.969	284.5
481.188	265.5
481.406	252.5
481.624	239.5
481.843	234.5
482.061	252.5
482.28	253.5
482.498	238.5
482.717	241.5
482.935	241.5
483.153	245.5
483.372	259.5
483.59	252.5
483.808	259.5
484.027	248.5
484.245	265.5
484.463	244.5
484.681	264.5
484.9	257.5
485.118	274.5
485.336	259.5
485.554	261.5
485.772	279.5
485.99	273.5
486.209	265.5
486.427	268.5
486.645	241.5
486.863	272.5
487.081	289.5
487.299	271.5
487.517	249.5
487.735	255.5
487.953	268.5
488.171	269.5
488.389	276.5
488.607	257.5
488.825	261.5
489.043	259.5
489.261	252.5
489.479	275.5
489.696	246.5
489.914	268.5
490.132	250.5
490.35	243.5
490.568	238.5
490.786	273.5
491.003	259.5
491.221	255.5
491.439	260.5
491.657	266.5
491.874	277.5
492.092	263.5
492.31	292.5
492.527	261.5
492.745	279.5
492.963	264.5
493.18	273.5
493.398	281.5
493.615	266.5
493.833	273.5
494.05	286.5
494.268	285.5
494.485	276.5
494.703	279.5
494.92	263.5
495.138	258.5
495.355	259.5
495.573	264.5
495.79	267.5
496.008	271.5
496.225	250.5
496.442	285.5
496.66	273.5
496.877	293.5
497.094	294.5
497.312	284.5
497.529	287.5
497.746	302.5
497.963	308.5
498.181	324.5
498.398	335.5
498.615	339.5
498.832	353.5
499.049	364.5
499.267	418.5
499.484	437.5
499.701	483.5
499.918	526.5
500.135	598.5
500.352	702.5
500.569	737.5
500.786	725.5
501.003	680.5
501.22	625.5
501.437	529.5
501.654	468.5
501.871	414.5
502.088	397.5
502.305	373.5
502.522	366.5
502.739	331.5
502.956	332.5
503.172	315.5
503.389	305.5
503.606	312.5
503.823	305.5
504.04	317.5
504.256	290.5
504.473	314.5
504.69	291.5
504.907	319.5
505.123	301.5
505.34	284.5
505.557	295.5
505.773	271.5
505.99	254.5
506.207	265.5
506.423	250.5
506.64	241.5
506.856	241.5
507.073	243.5
507.289	239.5
507.506	236.5
507.722	220.5
507.939	237.5
508.155	238.5
508.372	255.5
508.588	248.5
508.805	237.5
509.021	248.5
509.238	254.5
509.454	242.5
509.67	229.5
509.887	230.5
510.103	230.5
510.319	234.5
510.536	219.5
510.752	232.5
510.968	241.5
511.184	246.5
511.401	240.5
511.617	229.5
511.833	233.5
512.049	226.5
512.265	227.5
512.481	242.5
512.698	233.5
512.914	224.5
513.13	224.5
513.346	241.5
513.562	241.5
513.778	248.5
513.994	230.5
514.21	259.5
514.426	245.5
514.642	219.5
514.858	237.5
515.074	221.5
515.29	237.5
515.506	267.5
515.721	246.5
515.937	240.5
516.153	254.5
516.369	233.5
516.585	262.5
516.801	279.5
517.016	267.5
517.232	294.5
517.448	302.5
517.664	309.5
517.879	311.5
518.095	317.5
518.311	307.5
518.527	283.5
518.742	278.5
518.958	271.5
519.173	288.5
519.389	259.5
519.605	266.5
519.82	241.5
520.036	246.5
520.251	245.5
520.467	242.5
520.682	221.5
520.898	231.5
521.113	237.5
521.329	228.5
