Data from 0.5MCu(NO3)2.Standard.Lamp.E10.CV._HRD10591_16-05-16-753.txt Node
Date: Mon Jul 22 16:05:16 EDT 2019
User: cochatt
Spectrometer: HR+D1059
Trigger mode: 1
Integration Time (sec): 1.000000E-1
Scans to average: 1
Electric dark correction enabled: true
Nonlinearity correction enabled: false
Boxcar width: 0
XAxis mode: Wavelengths
Number of Pixels in Spectrum: 2048
>>>>>Begin Spectral Data<<<<<
223.165	-15
223.4	-15
223.635	-15
223.869	-21
224.104	-11
224.338	-8
224.573	-17
224.808	-27
225.042	-2
225.277	-6
225.511	-13
225.746	5
225.98	3
226.215	5
226.449	15
226.683	31
226.918	24
227.152	37
227.387	35
227.621	49
227.856	32
228.09	53
228.324	49
228.559	69
228.793	69
229.027	77
229.262	78
229.496	68
229.73	81
229.964	88
230.199	90
230.433	92
230.667	84
230.901	81
231.136	97
231.37	114
231.604	83
231.838	72
232.072	89
232.306	90
232.541	100
232.775	99
233.009	95
233.243	112
233.477	108
233.711	82
233.945	105
234.179	104
234.413	86
234.647	92
234.881	101
235.115	96
235.349	104
235.583	102
235.817	111
236.051	92
236.285	95
236.519	103
236.753	88
236.987	102
237.221	110
237.455	110
237.689	99
237.922	91
238.156	101
238.39	87
238.624	94
238.858	98
239.091	98
239.325	98
239.559	105
239.793	108
240.027	106
240.26	99
240.494	120
240.728	108
240.961	109
241.195	106
241.429	106
241.662	95
241.896	104
242.13	115
242.363	96
242.597	106
242.83	98
243.064	89
243.298	103
243.531	118
243.765	115
243.998	95
244.232	103
244.465	93
244.699	106
244.932	104
245.166	125
245.399	109
245.633	113
245.866	118
246.099	106
246.333	117
246.566	105
246.8	109
247.033	115
247.266	117
247.5	134
247.733	125
247.966	122
248.2	115
248.433	101
248.666	111
248.899	124
249.133	119
249.366	110
249.599	128
249.832	131
250.066	116
250.299	131
250.532	122
250.765	119
250.998	128
251.231	110
251.465	117
251.698	115
251.931	119
252.164	142
252.397	121
252.63	129
252.863	127
253.096	135
253.329	125
253.562	132
253.795	137
254.028	125
254.261	124
254.494	125
254.727	129
254.96	128
255.193	147
255.426	129
255.659	122
255.892	123
256.124	137
256.357	130
256.59	126
256.823	127
257.056	135
257.289	135
257.521	123
257.754	133
257.987	149
258.22	121
258.452	131
258.685	141
258.918	130
259.151	139
259.383	139
259.616	124
259.849	133
260.081	145
260.314	132
260.547	133
260.779	149
261.012	150
261.244	147
261.477	143
261.71	153
261.942	142
262.175	159
262.407	145
262.64	157
262.872	142
263.105	137
263.337	131
263.57	150
263.802	142
264.035	155
264.267	142
264.499	136
264.732	161
264.964	161
265.197	164
265.429	158
265.661	141
265.894	156
266.126	161
266.358	149
266.591	158
266.823	163
267.055	152
267.287	161
267.52	141
267.752	147
267.984	153
268.216	168
268.448	160
268.681	163
268.913	154
269.145	156
269.377	157
269.609	161
269.841	159
270.073	173
270.306	166
270.538	156
270.77	161
271.002	151
271.234	159
271.466	168
271.698	169
271.93	156
272.162	149
272.394	167
272.626	166
272.858	154
273.09	159
273.322	174
273.553	151
273.785	162
274.017	163
274.249	168
274.481	171
274.713	176
274.945	166
275.176	158
275.408	153
275.64	171
275.872	173
276.104	170
276.335	174
276.567	172
276.799	165
277.031	165
277.262	175
277.494	180
277.726	174
277.957	179
278.189	189
278.421	165
278.652	187
278.884	179
279.115	180
279.347	179
279.579	179
279.81	171
280.042	188
280.273	179
280.505	181
280.736	195
280.968	175
281.199	172
281.431	179
281.662	186
281.894	200
282.125	182
282.356	173
282.588	207
282.819	190
283.051	184
283.282	181
283.513	197
283.745	205
283.976	185
284.207	186
284.439	199
284.67	204
284.901	204
285.132	195
285.364	186
285.595	201
285.826	199
286.057	213
286.288	214
286.52	205
286.751	201
286.982	205
287.213	202
287.444	201
287.675	198
287.906	204
288.138	215
288.369	233
288.6	199
288.831	203
289.062	213
289.293	212
289.524	185
289.755	221
289.986	201
290.217	215
290.448	222
290.679	195
290.91	204
291.141	213
291.371	216
291.602	212
291.833	198
292.064	221
292.295	201
292.526	195
292.757	213
292.987	221
293.218	202
293.449	204
293.68	218
293.91	200
294.141	187
294.372	207
294.603	221
294.833	203
295.064	214
295.295	228
295.525	210
295.756	221
295.987	222
296.217	212
296.448	227
296.679	204
296.909	217
297.14	220
297.37	219
297.601	215
297.831	236
298.062	215
298.292	247
298.523	229
298.753	228
298.984	228
299.214	231
299.445	244
299.675	243
299.905	223
300.136	234
300.366	235
300.597	220
300.827	240
301.057	245
301.288	244
301.518	236
301.748	239
301.979	253
302.209	247
302.439	243
302.669	241
302.9	232
303.13	237
303.36	246
303.59	249
303.82	242
304.051	251
304.281	239
304.511	241
304.741	227
304.971	245
305.201	241
305.431	246
305.661	239
305.891	252
306.121	222
306.352	233
306.582	233
306.812	226
307.042	225
307.272	234
307.502	223
307.731	232
307.961	240
308.191	238
308.421	235
308.651	241
308.881	234
309.111	243
309.341	244
309.571	232
309.8	221
310.03	234
310.26	215
310.49	236
310.72	227
310.949	243
311.179	229
311.409	228
311.639	234
311.868	223
312.098	233
312.328	237
312.557	253
312.787	242
313.017	257
313.246	254
313.476	246
313.706	241
313.935	263
314.165	255
314.394	249
314.624	247
314.853	248
315.083	240
315.312	258
315.542	249
315.771	222
316.001	260
316.23	253
316.46	244
316.689	246
316.919	236
317.148	235
317.377	239
317.607	256
317.836	252
318.065	243
318.295	253
318.524	246
318.753	251
318.983	237
319.212	237
319.441	235
319.67	224
319.9	241
320.129	254
320.358	251
320.587	255
320.816	249
321.046	237
321.275	236
321.504	250
321.733	239
321.962	244
322.191	236
322.42	246
322.649	245
322.878	226
323.108	241
323.337	241
323.566	259
323.795	250
324.024	233
324.253	235
324.482	230
324.71	259
324.939	254
325.168	246
325.397	268
325.626	257
325.855	258
326.084	274
326.313	277
326.542	284
326.77	276
326.999	270
327.228	275
327.457	257
327.686	251
327.914	276
328.143	267
328.372	270
328.6	262
328.829	236
329.058	263
329.287	274
329.515	269
329.744	277
329.972	261
330.201	265
330.43	263
330.658	282
330.887	275
331.115	277
331.344	284
331.572	295
331.801	284
332.03	291
332.258	287
332.486	291
332.715	322
332.943	314
333.172	319
333.4	325
333.629	341
333.857	349
334.085	336
334.314	318
334.542	328
334.771	311
334.999	309
335.227	293
335.455	315
335.684	322
335.912	305
336.14	290
336.369	286
336.597	317
336.825	300
337.053	318
337.281	311
337.51	289
337.738	283
337.966	284
338.194	297
338.422	296
338.65	280
338.878	277
339.106	270
339.334	263
339.562	283
339.79	268
340.018	263
340.246	255
340.474	262
340.702	262
340.93	277
341.158	266
341.386	274
341.614	282
341.842	266
342.07	262
342.298	286
342.526	279
342.754	266
342.981	263
343.209	260
343.437	285
343.665	294
343.893	321
344.12	342
344.348	314
344.576	297
344.804	281
345.031	296
345.259	271
345.487	269
345.714	282
345.942	264
346.17	255
346.397	259
346.625	269
346.853	263
347.08	275
347.308	264
347.535	272
347.763	261
347.99	272
348.218	277
348.445	271
348.673	284
348.9	285
349.128	265
349.355	265
349.583	259
349.81	250
350.037	267
350.265	256
350.492	259
350.72	240
350.947	242
351.174	254
351.402	239
351.629	257
351.856	261
352.083	243
352.311	241
352.538	270
352.765	269
352.992	235
353.22	257
353.447	251
353.674	258
353.901	257
354.128	244
354.355	253
354.583	241
354.81	255
355.037	249
355.264	256
355.491	253
355.718	252
355.945	262
356.172	267
356.399	261
356.626	253
356.853	247
357.08	232
357.307	266
357.534	259
357.761	248
357.988	249
358.215	236
358.441	247
358.668	239
358.895	266
359.122	239
359.349	259
359.576	241
359.802	242
360.029	258
360.256	266
360.483	258
360.709	235
360.936	241
361.163	258
361.39	257
361.616	287
361.843	265
362.07	259
362.296	266
362.523	257
362.749	247
362.976	249
363.203	256
363.429	234
363.656	251
363.882	245
364.109	254
364.335	244
364.562	257
364.788	258
365.015	249
365.241	249
365.468	236
365.694	235
365.92	247
366.147	263
366.373	251
366.599	247
366.826	247
367.052	237
367.278	238
367.505	251
367.731	264
367.957	257
368.184	237
368.41	239
368.636	243
368.862	237
369.089	253
369.315	268
369.541	272
369.767	258
369.993	273
370.219	259
370.445	260
370.672	249
370.898	255
371.124	278
371.35	268
371.576	265
371.802	255
372.028	267
372.254	270
372.48	263
372.706	278
372.932	269
373.158	284
373.384	284
373.61	283
373.835	282
374.061	254
374.287	269
374.513	270
374.739	283
374.965	287
375.191	292
375.416	291
375.642	279
375.868	299
376.094	291
376.319	279
376.545	276
376.771	267
376.997	267
377.222	267
377.448	280
377.674	277
377.899	278
378.125	276
378.35	271
378.576	277
378.802	262
379.027	241
379.253	258
379.478	245
379.704	253
379.929	260
380.155	264
380.38	247
380.606	260
380.831	259
381.057	260
381.282	236
381.507	261
381.733	267
381.958	269
382.184	273
382.409	285
382.634	296
382.86	301
383.085	294
383.31	270
383.535	276
383.761	295
383.986	296
384.211	300
384.436	302
384.662	309
384.887	299
385.112	298
385.337	328
385.562	309
385.787	297
386.013	321
386.238	310
386.463	309
386.688	317
386.913	302
387.138	308
387.363	307
387.588	294
387.813	296
388.038	296
388.263	324
388.488	328
388.713	293
388.938	287
389.163	296
389.387	307
389.612	298
389.837	286
390.062	289
390.287	308
390.512	289
390.736	318
390.961	307
391.186	313
391.411	325
391.636	310
391.86	337
392.085	330
392.31	340
392.534	330
392.759	333
392.984	314
393.208	333
393.433	320
393.658	317
393.882	303
394.107	316
394.331	321
394.556	309
394.78	315
395.005	324
395.229	321
395.454	334
395.678	351
395.903	346
396.127	330
396.352	321
396.576	314
396.801	313
397.025	322
397.249	331
397.474	321
397.698	329
397.922	318
398.147	339
398.371	337
398.595	357
398.82	349
399.044	378
399.268	435
399.492	484
399.717	539
399.941	545
400.165	459
400.389	429
400.613	401
400.837	377
401.062	378
401.286	355
401.51	371
401.734	343
401.958	378
402.182	373
402.406	381
402.63	374
402.854	381
403.078	365
403.302	389
403.526	405
403.75	421
403.974	429
404.198	444
404.422	428
404.645	439
404.869	409
405.093	397
405.317	389
405.541	389
405.765	406
405.988	403
406.212	399
406.436	370
406.66	403
406.883	393
407.107	446
407.331	461
407.555	475
407.778	461
408.002	441
408.226	436
408.449	419
408.673	399
408.896	400
409.12	408
409.344	409
409.567	424
409.791	433
410.014	402
410.238	392
410.461	402
410.685	393
410.908	390
411.132	385
411.355	379
411.578	395
411.802	379
412.025	356
412.249	372
412.472	362
412.695	363
412.919	343
413.142	360
413.365	360
413.589	378
413.812	371
414.035	357
414.258	353
414.482	360
414.705	360
414.928	376
415.151	368
415.374	364
415.597	377
415.821	367
416.044	352
416.267	365
416.49	340
416.713	349
416.936	355
417.159	361
417.382	360
417.605	366
417.828	359
418.051	351
418.274	353
418.497	349
418.72	369
418.943	359
419.166	391
419.389	409
419.611	397
419.834	379
420.057	379
420.28	371
420.503	362
420.726	364
420.948	360
421.171	356
421.394	394
421.617	359
421.839	361
422.062	373
422.285	347
422.507	372
422.73	366
422.953	369
423.175	376
423.398	387
423.621	394
423.843	387
424.066	396
424.288	399
424.511	383
424.733	396
424.956	379
425.178	362
425.401	356
425.623	375
425.846	343
426.068	359
426.291	338
426.513	342
426.735	343
426.958	341
427.18	321
427.402	336
427.625	325
427.847	337
428.069	331
428.292	323
428.514	310
428.736	327
428.958	313
429.181	317
429.403	323
429.625	323
429.847	316
430.069	332
430.292	311
430.514	312
430.736	328
430.958	311
431.18	305
431.402	319
431.624	321
431.846	326
432.068	325
432.29	334
432.512	323
432.734	331
432.956	323
433.178	309
433.4	328
433.622	335
433.844	320
434.066	328
434.287	331
434.509	358
434.731	362
434.953	382
435.175	370
435.397	363
435.618	348
435.84	339
436.062	337
436.284	341
436.505	312
436.727	320
436.949	325
437.17	319
437.392	315
437.614	310
437.835	309
438.057	317
438.278	326
438.5	305
438.721	309
438.943	306
439.165	316
439.386	311
439.608	326
439.829	325
440.05	318
440.272	325
440.493	344
440.715	324
440.936	334
441.158	324
441.379	349
441.6	374
441.822	369
442.043	362
442.264	360
442.486	332
442.707	350
442.928	359
443.149	362
443.371	345
443.592	354
443.813	334
444.034	350
444.255	377
444.476	387
444.698	398
444.919	446
445.14	547
445.361	429
445.582	368
445.803	355
446.024	355
446.245	320
446.466	338
446.687	328
446.908	325
447.129	314
447.35	304
447.571	324
447.792	299
448.013	297
448.234	299
448.455	294
448.675	300
448.896	287
449.117	293
449.338	302
449.559	316
449.779	290
450	305
450.221	287
450.442	294
450.662	294
450.883	327
451.104	303
451.324	337
451.545	313
451.766	308
451.986	305
452.207	307
452.428	311
452.648	328
452.869	302
453.089	310
453.31	279
453.53	297
453.751	283
453.971	284
454.192	299
454.412	262
454.633	295
454.853	286
455.073	295
455.294	301
455.514	295
455.734	301
455.955	278
456.175	279
456.395	281
456.616	290
456.836	285
457.056	305
457.276	251
457.497	282
457.717	269
457.937	292
458.157	321
458.377	285
458.598	283
458.818	311
459.038	327
459.258	323
459.478	322
459.698	332
459.918	339
460.138	358
460.358	372
460.578	357
460.798	397
461.018	391
461.238	361
461.458	387
461.678	366
461.898	371
462.118	393
462.338	393
462.558	399
462.777	441
462.997	465
463.217	527
463.437	507
463.657	478
463.876	425
464.096	440
464.316	430
464.536	453
464.755	452
464.975	412
465.195	388
465.414	366
465.634	347
465.854	340
466.073	344
466.293	332
466.512	326
466.732	338
466.951	336
467.171	334
467.391	333
467.61	317
467.829	338
468.049	329
468.268	312
468.488	298
468.707	307
468.927	307
469.146	297
469.365	321
469.585	318
469.804	301
470.023	326
470.243	333
470.462	320
470.681	326
470.901	338
471.12	331
471.339	321
471.558	335
471.777	277
471.997	291
472.216	300
472.435	313
472.654	312
472.873	306
473.092	312
473.311	307
473.53	305
473.749	299
473.968	292
474.187	286
474.406	298
474.625	299
474.844	321
475.063	314
475.282	314
475.501	319
475.72	302
475.939	305
476.158	298
476.377	324
476.596	326
476.814	315
477.033	322
477.252	320
477.471	338
477.69	342
477.908	355
478.127	350
478.346	369
478.564	354
478.783	353
479.002	365
479.22	397
479.439	362
479.658	361
479.876	362
480.095	366
480.313	394
480.532	411
480.751	387
480.969	372
481.188	370
481.406	365
481.624	335
481.843	338
482.061	343
482.28	341
482.498	340
482.717	329
482.935	359
483.153	341
483.372	342
483.59	363
483.808	352
484.027	349
484.245	354
484.463	365
484.681	375
484.9	364
485.118	383
485.336	358
485.554	369
485.772	399
485.99	390
486.209	392
486.427	385
486.645	377
486.863	375
487.081	358
487.299	373
487.517	349
487.735	350
487.953	356
488.171	380
488.389	369
488.607	363
488.825	356
489.043	349
489.261	379
489.479	366
489.696	383
489.914	375
490.132	366
490.35	373
490.568	381
490.786	382
491.003	360
491.221	373
491.439	370
491.657	364
491.874	383
492.092	369
492.31	372
492.527	357
492.745	381
492.963	371
493.18	395
493.398	390
493.615	383
493.833	365
494.05	373
494.268	393
494.485	383
494.703	405
494.92	377
495.138	371
495.355	387
495.573	389
495.79	382
496.008	400
496.225	405
496.442	402
496.66	385
496.877	398
497.094	389
497.312	404
497.529	406
497.746	426
497.963	449
498.181	455
498.398	482
498.615	499
498.832	547
499.049	584
499.267	602
499.484	670
499.701	740
499.918	820
500.135	889
500.352	1107
500.569	1153
500.786	1122
501.003	1012
501.22	912
501.437	820
501.654	706
501.871	644
502.088	582
502.305	562
502.522	516
502.739	495
502.956	466
503.172	460
503.389	461
503.606	447
503.823	444
504.04	445
504.256	431
504.473	431
504.69	462
504.907	460
505.123	408
505.34	389
505.557	381
505.773	376
505.99	385
506.207	360
506.423	349
506.64	377
506.856	353
507.073	362
507.289	357
507.506	356
507.722	365
507.939	343
508.155	333
508.372	355
508.588	334
508.805	321
509.021	328
509.238	330
509.454	342
509.67	326
509.887	311
510.103	333
510.319	329
510.536	314
510.752	322
510.968	319
511.184	309
511.401	326
511.617	327
511.833	340
512.049	330
512.265	330
512.481	328
512.698	321
512.914	355
513.13	325
513.346	318
513.562	334
513.778	310
513.994	310
514.21	332
514.426	325
514.642	338
514.858	319
515.074	325
515.29	326
515.506	333
515.721	362
515.937	347
516.153	361
516.369	364
516.585	355
516.801	375
517.016	399
517.232	414
517.448	443
517.664	454
517.879	475
518.095	437
518.311	419
518.527	413
518.742	413
518.958	392
519.173	379
519.389	377
519.605	353
519.82	339
520.036	343
520.251	339
520.467	336
520.682	324
520.898	347
521.113	333
521.329	335
521.544	325
521.76	332
521.975	315
522.19	322
522.406	329
522.621	327
522.836	309
523.052	321
523.267	313
523.482	302
523.698	311
523.913	307
524.128	310
524.343	303
524.559	316
524.774	323
524.989	297
525.204	305
525.419	308
525.634	312
525.849	313
526.064	305
526.28	299
526.495	322
526.71	307
526.925	317
527.14	296
527.355	296
527.57	299
527.785	308
527.999	309
528.214	307
528.429	321
528.644	299
528.859	310
529.074	298
529.289	315
529.503	299
529.718	286
529.933	318
530.148	303
530.363	312
530.577	287
530.792	298
531.007	313
531.221	315
531.436	302
531.651	309
531.865	311
532.08	310
532.295	322
532.509	316
532.724	306
532.938	317
533.153	305
533.367	290
533.582	298
533.796	310
534.011	308
534.225	310
534.44	313
534.654	292
534.868	287
535.083	305
535.297	326
535.511	303
535.726	291
535.94	328
536.154	301
536.369	309
536.583	284
536.797	294
537.011	314
537.225	283
537.44	297
537.654	283
537.868	281
538.082	297
538.296	289
538.51	283
538.724	302
538.938	293
539.153	299
539.367	296
539.581	279
539.795	291
540.009	305
540.222	282
540.436	285
540.65	281
540.864	279
541.078	279
541.292	287
541.506	274
541.72	283
541.934	293
542.147	281
542.361	293
542.575	280
542.789	287
543.002	277
543.216	281
543.43	297
543.644	291
543.857	269
544.071	295
544.285	285
544.498	301
544.712	277
544.925	291
545.139	279
545.352	295
545.566	288
545.779	291
545.993	286
546.206	286
546.42	283
546.633	287
546.847	284
547.06	304
547.274	281
547.487	308
547.7	294
547.914	307
548.127	315
548.34	320
548.554	297
548.767	305
548.98	298
549.193	290
549.407	295
549.62	311
549.833	302
550.046	305
550.259	311
550.473	302
550.686	326
550.899	297
551.112	279
551.325	303
551.538	293
551.751	287
551.964	300
552.177	301
552.39	294
552.603	295
552.816	314
553.029	315
553.242	317
553.455	335
553.667	328
553.88	335
554.093	312
554.306	293
554.519	298
554.732	292
554.944	293
555.157	283
555.37	271
555.583	292
555.795	295
556.008	300
556.221	276
556.433	276
556.646	264
556.859	269
557.071	260
557.284	248
557.496	268
557.709	270
557.921	256
558.134	267
558.346	260
558.559	268
558.771	259
558.984	249
559.196	259
559.409	247
559.621	255
559.833	243
560.046	245
560.258	236
560.47	248
560.683	263
560.895	238
561.107	261
561.32	237
561.532	251
561.744	269
561.956	255
562.168	255
562.381	276
562.593	262
562.805	256
563.017	271
563.229	256
563.441	267
563.653	276
563.865	274
564.077	272
564.289	253
564.501	277
