Data from 0.5MCu(NO3)2.Standard.Lamp.E10.CV._HRD10591_16-06-54-754.txt Node
Date: Mon Jul 22 16:06:54 EDT 2019
User: cochatt
Spectrometer: HR+D1059
Trigger mode: 1
Integration Time (sec): 1.000000E-1
Scans to average: 1
Electric dark correction enabled: true
Nonlinearity correction enabled: false
Boxcar width: 0
XAxis mode: Wavelengths
Number of Pixels in Spectrum: 2048
>>>>>Begin Spectral Data<<<<<
223.165	-13.88
223.4	-13.88
223.635	-13.88
223.869	-7.88
224.104	-14.88
224.338	-13.88
224.573	-22.88
224.808	-9.88
225.042	-8.88
225.277	-17.88
225.511	3.12
225.746	0.12
225.98	6.12
226.215	8.12
226.449	20.12
226.683	24.12
226.918	18.12
227.152	30.12
227.387	35.12
227.621	36.12
227.856	38.12
228.09	59.12
228.324	53.12
228.559	48.12
228.793	50.12
229.027	76.12
229.262	76.12
229.496	67.12
229.73	56.12
229.964	74.12
230.199	64.12
230.433	96.12
230.667	78.12
230.901	79.12
231.136	90.12
231.37	77.12
231.604	83.12
231.838	84.12
232.072	87.12
232.306	92.12
232.541	96.12
232.775	82.12
233.009	81.12
233.243	82.12
233.477	84.12
233.711	94.12
233.945	92.12
234.179	95.12
234.413	87.12
234.647	87.12
234.881	79.12
235.115	95.12
235.349	89.12
235.583	96.12
235.817	82.12
236.051	79.12
236.285	102.12
236.519	74.12
236.753	81.12
236.987	82.12
237.221	76.12
237.455	82.12
237.689	95.12
237.922	90.12
238.156	80.12
238.39	83.12
238.624	75.12
238.858	81.12
239.091	96.12
239.325	83.12
239.559	102.12
239.793	75.12
240.027	73.12
240.26	102.12
240.494	85.12
240.728	88.12
240.961	91.12
241.195	87.12
241.429	82.12
241.662	88.12
241.896	71.12
242.13	79.12
242.363	91.12
242.597	95.12
242.83	82.12
243.064	97.12
243.298	98.12
243.531	92.12
243.765	92.12
243.998	84.12
244.232	86.12
244.465	91.12
244.699	85.12
244.932	96.12
245.166	100.12
245.399	89.12
245.633	83.12
245.866	83.12
246.099	82.12
246.333	83.12
246.566	105.12
246.8	99.12
247.033	98.12
247.266	91.12
247.5	101.12
247.733	92.12
247.966	82.12
248.2	93.12
248.433	92.12
248.666	106.12
248.899	96.12
249.133	103.12
249.366	94.12
249.599	107.12
249.832	91.12
250.066	96.12
250.299	107.12
250.532	94.12
250.765	85.12
250.998	80.12
251.231	108.12
251.465	104.12
251.698	95.12
251.931	99.12
252.164	93.12
252.397	92.12
252.63	103.12
252.863	114.12
253.096	95.12
253.329	106.12
253.562	100.12
253.795	105.12
254.028	111.12
254.261	90.12
254.494	105.12
254.727	107.12
254.96	110.12
255.193	104.12
255.426	103.12
255.659	106.12
255.892	103.12
256.124	108.12
256.357	105.12
256.59	109.12
256.823	98.12
257.056	101.12
257.289	108.12
257.521	108.12
257.754	107.12
257.987	116.12
258.22	107.12
258.452	98.12
258.685	98.12
258.918	108.12
259.151	108.12
259.383	97.12
259.616	118.12
259.849	99.12
260.081	112.12
260.314	112.12
260.547	114.12
260.779	97.12
261.012	126.12
261.244	111.12
261.477	129.12
261.71	110.12
261.942	111.12
262.175	101.12
262.407	112.12
262.64	115.12
262.872	107.12
263.105	122.12
263.337	114.12
263.57	120.12
263.802	116.12
264.035	106.12
264.267	113.12
264.499	112.12
264.732	114.12
264.964	115.12
265.197	99.12
265.429	116.12
265.661	116.12
265.894	115.12
266.126	114.12
266.358	128.12
266.591	128.12
266.823	111.12
267.055	112.12
267.287	123.12
267.52	112.12
267.752	124.12
267.984	108.12
268.216	114.12
268.448	129.12
268.681	124.12
268.913	131.12
269.145	104.12
269.377	116.12
269.609	119.12
269.841	111.12
270.073	122.12
270.306	118.12
270.538	135.12
270.77	126.12
271.002	124.12
271.234	130.12
271.466	111.12
271.698	116.12
271.93	116.12
272.162	132.12
272.394	132.12
272.626	121.12
272.858	128.12
273.09	136.12
273.322	132.12
273.553	131.12
273.785	118.12
274.017	126.12
274.249	136.12
274.481	122.12
274.713	127.12
274.945	134.12
275.176	134.12
275.408	130.12
275.64	122.12
275.872	138.12
276.104	118.12
276.335	129.12
276.567	126.12
276.799	126.12
277.031	133.12
277.262	121.12
277.494	139.12
277.726	128.12
277.957	127.12
278.189	127.12
278.421	131.12
278.652	122.12
278.884	124.12
279.115	124.12
279.347	119.12
279.579	140.12
279.81	134.12
280.042	140.12
280.273	115.12
280.505	129.12
280.736	125.12
280.968	136.12
281.199	138.12
281.431	140.12
281.662	135.12
281.894	140.12
282.125	139.12
282.356	138.12
282.588	128.12
282.819	138.12
283.051	135.12
283.282	150.12
283.513	146.12
283.745	132.12
283.976	144.12
284.207	130.12
284.439	134.12
284.67	141.12
284.901	137.12
285.132	141.12
285.364	126.12
285.595	127.12
285.826	151.12
286.057	139.12
286.288	148.12
286.52	145.12
286.751	144.12
286.982	134.12
287.213	149.12
287.444	153.12
287.675	141.12
287.906	136.12
288.138	148.12
288.369	151.12
288.6	144.12
288.831	153.12
289.062	154.12
289.293	146.12
289.524	158.12
289.755	131.12
289.986	146.12
290.217	138.12
290.448	134.12
290.679	151.12
290.91	157.12
291.141	147.12
291.371	164.12
291.602	168.12
291.833	153.12
292.064	161.12
292.295	156.12
292.526	132.12
292.757	149.12
292.987	162.12
293.218	169.12
293.449	150.12
293.68	146.12
293.91	142.12
294.141	138.12
294.372	150.12
294.603	146.12
294.833	159.12
295.064	154.12
295.295	158.12
295.525	148.12
295.756	155.12
295.987	147.12
296.217	151.12
296.448	159.12
296.679	146.12
296.909	171.12
297.14	164.12
297.37	151.12
297.601	161.12
297.831	155.12
298.062	158.12
298.292	169.12
298.523	163.12
298.753	156.12
298.984	158.12
299.214	147.12
299.445	150.12
299.675	152.12
299.905	154.12
300.136	162.12
300.366	156.12
300.597	153.12
300.827	167.12
301.057	153.12
301.288	158.12
301.518	157.12
301.748	159.12
301.979	162.12
302.209	162.12
302.439	177.12
302.669	173.12
302.9	170.12
303.13	159.12
303.36	158.12
303.59	163.12
303.82	158.12
304.051	154.12
304.281	162.12
304.511	158.12
304.741	168.12
304.971	155.12
305.201	154.12
305.431	176.12
305.661	176.12
305.891	153.12
306.121	161.12
306.352	154.12
306.582	166.12
306.812	166.12
307.042	156.12
307.272	149.12
307.502	147.12
307.731	150.12
307.961	166.12
308.191	156.12
308.421	152.12
308.651	152.12
308.881	145.12
309.111	158.12
309.341	152.12
309.571	166.12
309.8	141.12
310.03	148.12
310.26	183.12
310.49	168.12
310.72	159.12
310.949	147.12
311.179	170.12
311.409	165.12
311.639	150.12
311.868	158.12
312.098	163.12
312.328	171.12
312.557	171.12
312.787	161.12
313.017	155.12
313.246	168.12
313.476	166.12
313.706	166.12
313.935	157.12
314.165	163.12
314.394	167.12
314.624	160.12
314.853	174.12
315.083	186.12
315.312	182.12
315.542	146.12
315.771	177.12
316.001	160.12
316.23	163.12
316.46	156.12
316.689	162.12
316.919	161.12
317.148	169.12
317.377	172.12
317.607	157.12
317.836	155.12
318.065	159.12
318.295	161.12
318.524	164.12
318.753	165.12
318.983	166.12
319.212	168.12
319.441	177.12
319.67	163.12
319.9	170.12
320.129	164.12
320.358	156.12
320.587	153.12
320.816	170.12
321.046	163.12
321.275	165.12
321.504	153.12
321.733	156.12
321.962	169.12
322.191	163.12
322.42	164.12
322.649	174.12
322.878	170.12
323.108	169.12
323.337	176.12
323.566	159.12
323.795	168.12
324.024	191.12
324.253	174.12
324.482	166.12
324.71	154.12
324.939	175.12
325.168	170.12
325.397	170.12
325.626	176.12
325.855	170.12
326.084	158.12
326.313	181.12
326.542	175.12
326.77	168.12
326.999	164.12
327.228	160.12
327.457	183.12
327.686	169.12
327.914	186.12
328.143	174.12
328.372	180.12
328.6	160.12
328.829	162.12
329.058	167.12
329.287	182.12
329.515	195.12
329.744	189.12
329.972	169.12
330.201	167.12
330.43	171.12
330.658	171.12
330.887	171.12
331.115	168.12
331.344	194.12
331.572	172.12
331.801	178.12
332.03	188.12
332.258	182.12
332.486	191.12
332.715	211.12
332.943	200.12
333.172	194.12
333.4	215.12
333.629	220.12
333.857	214.12
334.085	214.12
334.314	211.12
334.542	210.12
334.771	207.12
334.999	199.12
335.227	208.12
335.455	203.12
335.684	200.12
335.912	214.12
336.14	197.12
336.369	196.12
336.597	198.12
336.825	215.12
337.053	212.12
337.281	207.12
337.51	174.12
337.738	176.12
337.966	179.12
338.194	190.12
338.422	200.12
338.65	181.12
338.878	193.12
339.106	179.12
339.334	193.12
339.562	175.12
339.79	174.12
340.018	178.12
340.246	172.12
340.474	176.12
340.702	187.12
340.93	194.12
341.158	190.12
341.386	198.12
341.614	170.12
341.842	171.12
342.07	167.12
342.298	186.12
342.526	156.12
342.754	171.12
342.981	188.12
343.209	200.12
343.437	191.12
343.665	201.12
343.893	213.12
344.12	210.12
344.348	192.12
344.576	187.12
344.804	196.12
345.031	191.12
345.259	189.12
345.487	181.12
345.714	182.12
345.942	164.12
346.17	186.12
346.397	182.12
346.625	171.12
346.853	176.12
347.08	180.12
347.308	167.12
347.535	155.12
347.763	168.12
347.99	182.12
348.218	174.12
348.445	178.12
348.673	172.12
348.9	180.12
349.128	190.12
349.355	180.12
349.583	183.12
349.81	164.12
350.037	163.12
350.265	176.12
350.492	170.12
350.72	180.12
350.947	176.12
351.174	170.12
351.402	162.12
351.629	168.12
351.856	170.12
352.083	180.12
352.311	162.12
352.538	170.12
352.765	164.12
352.992	175.12
353.22	156.12
353.447	166.12
353.674	170.12
353.901	172.12
354.128	170.12
354.355	154.12
354.583	172.12
354.81	169.12
355.037	176.12
355.264	167.12
355.491	175.12
355.718	172.12
355.945	172.12
356.172	163.12
356.399	150.12
356.626	167.12
356.853	183.12
357.08	187.12
357.307	195.12
357.534	163.12
357.761	169.12
357.988	169.12
358.215	179.12
358.441	180.12
358.668	174.12
358.895	178.12
359.122	180.12
359.349	182.12
359.576	176.12
359.802	167.12
360.029	182.12
360.256	162.12
360.483	153.12
360.709	171.12
360.936	167.12
361.163	160.12
361.39	154.12
361.616	161.12
361.843	172.12
362.07	179.12
362.296	166.12
362.523	164.12
362.749	169.12
362.976	166.12
363.203	192.12
363.429	171.12
363.656	178.12
363.882	163.12
364.109	155.12
364.335	176.12
364.562	180.12
364.788	160.12
365.015	171.12
365.241	152.12
365.468	162.12
365.694	171.12
365.92	174.12
366.147	178.12
366.373	174.12
366.599	170.12
366.826	171.12
367.052	153.12
367.278	162.12
367.505	168.12
367.731	186.12
367.957	166.12
368.184	175.12
368.41	168.12
368.636	162.12
368.862	187.12
369.089	189.12
369.315	175.12
369.541	177.12
369.767	188.12
369.993	184.12
370.219	184.12
370.445	172.12
370.672	170.12
370.898	168.12
371.124	166.12
371.35	183.12
371.576	180.12
371.802	176.12
372.028	181.12
372.254	175.12
372.48	181.12
372.706	183.12
372.932	186.12
373.158	178.12
373.384	177.12
373.61	190.12
373.835	174.12
374.061	178.12
374.287	183.12
374.513	184.12
374.739	202.12
374.965	195.12
375.191	187.12
375.416	199.12
375.642	203.12
375.868	193.12
376.094	194.12
376.319	183.12
376.545	176.12
376.771	190.12
376.997	189.12
377.222	182.12
377.448	192.12
377.674	171.12
377.899	184.12
378.125	184.12
378.35	179.12
378.576	177.12
378.802	169.12
379.027	186.12
379.253	171.12
379.478	176.12
379.704	184.12
379.929	190.12
380.155	176.12
380.38	172.12
380.606	178.12
380.831	185.12
381.057	189.12
381.282	167.12
381.507	159.12
381.733	180.12
381.958	187.12
382.184	185.12
382.409	182.12
382.634	185.12
382.86	188.12
383.085	181.12
383.31	192.12
383.535	190.12
383.761	203.12
383.986	190.12
384.211	194.12
384.436	203.12
384.662	189.12
384.887	198.12
385.112	204.12
385.337	206.12
385.562	206.12
385.787	188.12
386.013	204.12
386.238	207.12
386.463	206.12
386.688	183.12
386.913	196.12
387.138	195.12
387.363	201.12
387.588	191.12
387.813	202.12
388.038	207.12
388.263	196.12
388.488	196.12
388.713	209.12
388.938	187.12
389.163	182.12
389.387	188.12
389.612	199.12
389.837	198.12
390.062	180.12
390.287	187.12
390.512	196.12
390.736	210.12
390.961	186.12
391.186	205.12
391.411	217.12
391.636	218.12
391.86	202.12
392.085	218.12
392.31	229.12
392.534	204.12
392.759	202.12
392.984	200.12
393.208	208.12
393.433	187.12
393.658	215.12
393.882	198.12
394.107	233.12
394.331	214.12
394.556	222.12
394.78	206.12
395.005	210.12
395.229	212.12
395.454	217.12
395.678	216.12
395.903	210.12
396.127	224.12
396.352	202.12
396.576	189.12
396.801	205.12
397.025	209.12
397.249	213.12
397.474	218.12
397.698	215.12
397.922	214.12
398.147	210.12
398.371	196.12
398.595	226.12
398.82	218.12
399.044	234.12
399.268	257.12
399.492	308.12
399.717	345.12
399.941	314.12
400.165	302.12
400.389	271.12
400.613	248.12
400.837	237.12
401.062	222.12
401.286	229.12
401.51	231.12
401.734	224.12
401.958	252.12
402.182	234.12
402.406	250.12
402.63	239.12
402.854	251.12
403.078	258.12
403.302	255.12
403.526	256.12
403.75	254.12
403.974	266.12
404.198	281.12
404.422	276.12
404.645	279.12
404.869	260.12
405.093	264.12
405.317	245.12
405.541	242.12
405.765	248.12
405.988	250.12
406.212	256.12
406.436	246.12
406.66	257.12
406.883	252.12
407.107	259.12
407.331	265.12
407.555	288.12
407.778	291.12
408.002	279.12
408.226	268.12
408.449	275.12
408.673	270.12
408.896	262.12
409.12	253.12
409.344	263.12
409.567	254.12
409.791	263.12
410.014	265.12
410.238	258.12
410.461	267.12
410.685	249.12
410.908	245.12
411.132	258.12
411.355	248.12
411.578	218.12
411.802	240.12
412.025	240.12
412.249	244.12
412.472	243.12
412.695	231.12
412.919	224.12
413.142	219.12
413.365	221.12
413.589	231.12
413.812	238.12
414.035	213.12
414.258	234.12
414.482	239.12
414.705	235.12
414.928	228.12
415.151	241.12
415.374	225.12
415.597	240.12
415.821	219.12
416.044	243.12
416.267	230.12
416.49	222.12
416.713	235.12
416.936	241.12
417.159	229.12
417.382	215.12
417.605	232.12
417.828	239.12
418.051	222.12
418.274	221.12
418.497	252.12
418.72	240.12
418.943	246.12
419.166	241.12
419.389	258.12
419.611	246.12
419.834	258.12
420.057	242.12
420.28	246.12
420.503	223.12
420.726	225.12
420.948	215.12
421.171	229.12
421.394	239.12
421.617	246.12
421.839	235.12
422.062	212.12
422.285	226.12
422.507	238.12
422.73	243.12
422.953	227.12
423.175	239.12
423.398	230.12
423.621	241.12
423.843	258.12
424.066	244.12
424.288	235.12
424.511	244.12
424.733	246.12
424.956	226.12
425.178	242.12
425.401	238.12
425.623	217.12
425.846	226.12
426.068	206.12
426.291	211.12
426.513	233.12
426.735	215.12
426.958	210.12
427.18	251.12
427.402	206.12
427.625	220.12
427.847	217.12
428.069	214.12
428.292	197.12
428.514	203.12
428.736	208.12
428.958	208.12
429.181	204.12
429.403	213.12
429.625	212.12
429.847	206.12
430.069	201.12
430.292	216.12
430.514	193.12
430.736	194.12
430.958	212.12
431.18	209.12
431.402	210.12
431.624	201.12
431.846	215.12
432.068	209.12
432.29	207.12
432.512	242.12
432.734	204.12
432.956	208.12
433.178	214.12
433.4	217.12
433.622	221.12
433.844	208.12
434.066	230.12
434.287	217.12
434.509	219.12
434.731	236.12
434.953	236.12
435.175	234.12
435.397	232.12
435.618	234.12
435.84	223.12
436.062	218.12
436.284	212.12
436.505	204.12
436.727	194.12
436.949	202.12
437.17	212.12
437.392	198.12
437.614	208.12
437.835	206.12
438.057	219.12
438.278	187.12
438.5	200.12
438.721	218.12
438.943	206.12
439.165	204.12
439.386	209.12
439.608	194.12
439.829	214.12
440.05	204.12
440.272	201.12
440.493	219.12
440.715	218.12
440.936	206.12
441.158	200.12
441.379	220.12
441.6	242.12
441.822	254.12
442.043	225.12
442.264	218.12
442.486	219.12
442.707	227.12
442.928	239.12
443.149	239.12
443.371	227.12
443.592	216.12
443.813	227.12
444.034	238.12
444.255	260.12
444.476	244.12
444.698	257.12
444.919	264.12
445.14	333.12
445.361	293.12
445.582	240.12
445.803	224.12
446.024	224.12
446.245	220.12
446.466	205.12
446.687	208.12
446.908	197.12
447.129	208.12
447.35	202.12
447.571	213.12
447.792	209.12
448.013	207.12
448.234	203.12
448.455	194.12
448.675	200.12
448.896	200.12
449.117	195.12
449.338	202.12
449.559	195.12
449.779	188.12
450	201.12
450.221	205.12
450.442	190.12
450.662	208.12
450.883	203.12
451.104	204.12
451.324	218.12
451.545	196.12
451.766	198.12
451.986	194.12
452.207	196.12
452.428	208.12
452.648	193.12
452.869	195.12
453.089	192.12
453.31	198.12
453.53	191.12
453.751	189.12
453.971	187.12
454.192	203.12
454.412	180.12
454.633	191.12
454.853	193.12
455.073	195.12
455.294	196.12
455.514	185.12
455.734	192.12
455.955	186.12
456.175	186.12
456.395	172.12
456.616	196.12
456.836	197.12
457.056	178.12
457.276	178.12
457.497	180.12
457.717	184.12
457.937	198.12
458.157	195.12
458.377	185.12
458.598	196.12
458.818	202.12
459.038	200.12
459.258	205.12
459.478	206.12
459.698	219.12
459.918	232.12
460.138	228.12
460.358	224.12
460.578	240.12
460.798	244.12
461.018	232.12
461.238	244.12
461.458	245.12
461.678	244.12
461.898	237.12
462.118	219.12
462.338	260.12
462.558	244.12
462.777	250.12
462.997	293.12
463.217	314.12
463.437	308.12
463.657	294.12
463.876	291.12
464.096	275.12
464.316	268.12
464.536	278.12
464.755	278.12
464.975	266.12
465.195	236.12
465.414	258.12
465.634	227.12
465.854	211.12
466.073	213.12
466.293	212.12
466.512	201.12
466.732	203.12
466.951	211.12
467.171	220.12
467.391	211.12
467.61	197.12
467.829	204.12
468.049	199.12
468.268	195.12
468.488	203.12
468.707	193.12
468.927	194.12
469.146	198.12
469.365	192.12
469.585	205.12
469.804	212.12
470.023	220.12
470.243	207.12
470.462	213.12
470.681	224.12
470.901	214.12
471.12	225.12
471.339	202.12
471.558	194.12
471.777	202.12
471.997	221.12
472.216	206.12
472.435	195.12
472.654	206.12
472.873	180.12
473.092	196.12
473.311	192.12
473.53	194.12
473.749	198.12
473.968	190.12
474.187	190.12
474.406	198.12
474.625	179.12
474.844	207.12
475.063	205.12
475.282	214.12
475.501	182.12
475.72	207.12
475.939	200.12
476.158	200.12
476.377	208.12
476.596	199.12
476.814	200.12
477.033	212.12
477.252	214.12
477.471	212.12
477.69	208.12
477.908	230.12
478.127	228.12
478.346	229.12
478.564	224.12
478.783	217.12
479.002	240.12
479.22	248.12
479.439	238.12
479.658	217.12
479.876	242.12
480.095	219.12
480.313	247.12
480.532	259.12
480.751	242.12
480.969	236.12
481.188	225.12
481.406	230.12
481.624	231.12
481.843	215.12
482.061	219.12
482.28	238.12
482.498	208.12
482.717	220.12
482.935	211.12
483.153	224.12
483.372	225.12
483.59	235.12
483.808	225.12
484.027	238.12
484.245	219.12
484.463	230.12
484.681	246.12
484.9	241.12
485.118	238.12
485.336	227.12
485.554	246.12
485.772	220.12
485.99	231.12
486.209	225.12
486.427	246.12
486.645	229.12
486.863	248.12
487.081	242.12
487.299	233.12
487.517	248.12
487.735	240.12
487.953	244.12
488.171	225.12
488.389	238.12
488.607	232.12
488.825	222.12
489.043	241.12
489.261	230.12
489.479	225.12
489.696	220.12
489.914	242.12
490.132	218.12
490.35	233.12
490.568	218.12
490.786	230.12
491.003	249.12
491.221	252.12
491.439	241.12
491.657	241.12
491.874	233.12
492.092	246.12
492.31	246.12
492.527	243.12
492.745	253.12
492.963	265.12
493.18	244.12
493.398	245.12
493.615	249.12
493.833	265.12
494.05	257.12
494.268	237.12
494.485	231.12
494.703	253.12
494.92	233.12
495.138	261.12
495.355	237.12
495.573	244.12
495.79	248.12
496.008	250.12
496.225	252.12
496.442	258.12
496.66	246.12
496.877	248.12
497.094	262.12
497.312	270.12
497.529	271.12
497.746	276.12
497.963	273.12
498.181	287.12
498.398	289.12
498.615	296.12
498.832	344.12
499.049	331.12
499.267	345.12
499.484	397.12
499.701	439.12
499.918	474.12
500.135	548.12
500.352	616.12
500.569	639.12
500.786	622.12
501.003	598.12
501.22	500.12
501.437	450.12
501.654	416.12
501.871	400.12
502.088	360.12
502.305	348.12
502.522	322.12
502.739	307.12
502.956	295.12
503.172	268.12
503.389	264.12
503.606	275.12
