Data from 0.5MCu(NO3)2.Standard.Lamp.E10.CV._HRD10591_16-05-21-753.txt Node
Date: Mon Jul 22 16:05:21 EDT 2019
User: cochatt
Spectrometer: HR+D1059
Trigger mode: 1
Integration Time (sec): 1.000000E-1
Scans to average: 1
Electric dark correction enabled: true
Nonlinearity correction enabled: false
Boxcar width: 0
XAxis mode: Wavelengths
Number of Pixels in Spectrum: 2048
>>>>>Begin Spectral Data<<<<<
223.165	-13.06
223.4	-13.06
223.635	-13.06
223.869	-11.06
224.104	-15.06
224.338	-13.06
224.573	-13.06
224.808	-15.06
225.042	-7.06
225.277	-4.06
225.511	-9.06
225.746	-1.06
225.98	7.94
226.215	13.94
226.449	9.94
226.683	18.94
226.918	18.94
227.152	31.94
227.387	23.94
227.621	53.94
227.856	48.94
228.09	46.94
228.324	56.94
228.559	52.94
228.793	55.94
229.027	88.94
229.262	61.94
229.496	59.94
229.73	75.94
229.964	87.94
230.199	70.94
230.433	76.94
230.667	73.94
230.901	78.94
231.136	78.94
231.37	82.94
231.604	94.94
231.838	82.94
232.072	95.94
232.306	91.94
232.541	100.94
232.775	83.94
233.009	86.94
233.243	75.94
233.477	91.94
233.711	82.94
233.945	94.94
234.179	97.94
234.413	87.94
234.647	77.94
234.881	98.94
235.115	96.94
235.349	90.94
235.583	99.94
235.817	83.94
236.051	88.94
236.285	79.94
236.519	89.94
236.753	101.94
236.987	94.94
237.221	96.94
237.455	92.94
237.689	82.94
237.922	90.94
238.156	98.94
238.39	89.94
238.624	82.94
238.858	77.94
239.091	94.94
239.325	103.94
239.559	83.94
239.793	100.94
240.027	92.94
240.26	84.94
240.494	87.94
240.728	99.94
240.961	103.94
241.195	89.94
241.429	86.94
241.662	97.94
241.896	85.94
242.13	76.94
242.363	81.94
242.597	100.94
242.83	111.94
243.064	92.94
243.298	98.94
243.531	100.94
243.765	89.94
243.998	100.94
244.232	89.94
244.465	97.94
244.699	101.94
244.932	104.94
245.166	99.94
245.399	99.94
245.633	91.94
245.866	101.94
246.099	83.94
246.333	94.94
246.566	95.94
246.8	94.94
247.033	100.94
247.266	106.94
247.5	106.94
247.733	91.94
247.966	124.94
248.2	104.94
248.433	91.94
248.666	102.94
248.899	112.94
249.133	115.94
249.366	118.94
249.599	110.94
249.832	103.94
250.066	95.94
250.299	101.94
250.532	122.94
250.765	113.94
250.998	98.94
251.231	112.94
251.465	110.94
251.698	105.94
251.931	110.94
252.164	101.94
252.397	112.94
252.63	102.94
252.863	108.94
253.096	129.94
253.329	107.94
253.562	90.94
253.795	112.94
254.028	117.94
254.261	85.94
254.494	118.94
254.727	100.94
254.96	124.94
255.193	101.94
255.426	115.94
255.659	128.94
255.892	123.94
256.124	113.94
256.357	124.94
256.59	126.94
256.823	118.94
257.056	116.94
257.289	120.94
257.521	120.94
257.754	109.94
257.987	119.94
258.22	112.94
258.452	116.94
258.685	117.94
258.918	118.94
259.151	119.94
259.383	115.94
259.616	120.94
259.849	106.94
260.081	110.94
260.314	118.94
260.547	117.94
260.779	119.94
261.012	114.94
261.244	120.94
261.477	128.94
261.71	119.94
261.942	122.94
262.175	123.94
262.407	127.94
262.64	115.94
262.872	103.94
263.105	123.94
263.337	136.94
263.57	130.94
263.802	140.94
264.035	117.94
264.267	105.94
264.499	124.94
264.732	123.94
264.964	122.94
265.197	118.94
265.429	121.94
265.661	129.94
265.894	126.94
266.126	147.94
266.358	122.94
266.591	132.94
266.823	136.94
267.055	121.94
267.287	131.94
267.52	121.94
267.752	121.94
267.984	127.94
268.216	119.94
268.448	135.94
268.681	127.94
268.913	120.94
269.145	138.94
269.377	134.94
269.609	140.94
269.841	131.94
270.073	149.94
270.306	130.94
270.538	148.94
270.77	125.94
271.002	126.94
271.234	133.94
271.466	145.94
271.698	129.94
271.93	146.94
272.162	143.94
272.394	131.94
272.626	114.94
272.858	133.94
273.09	138.94
273.322	138.94
273.553	122.94
273.785	150.94
274.017	126.94
274.249	143.94
274.481	144.94
274.713	136.94
274.945	142.94
275.176	144.94
275.408	147.94
275.64	156.94
275.872	161.94
276.104	150.94
276.335	144.94
276.567	152.94
276.799	131.94
277.031	148.94
277.262	139.94
277.494	150.94
277.726	138.94
277.957	134.94
278.189	130.94
278.421	144.94
278.652	138.94
278.884	129.94
279.115	151.94
279.347	135.94
279.579	147.94
279.81	137.94
280.042	151.94
280.273	165.94
280.505	147.94
280.736	149.94
280.968	144.94
281.199	137.94
281.431	150.94
281.662	151.94
281.894	141.94
282.125	142.94
282.356	165.94
282.588	159.94
282.819	160.94
283.051	144.94
283.282	155.94
283.513	139.94
283.745	160.94
283.976	159.94
284.207	151.94
284.439	158.94
284.67	155.94
284.901	152.94
285.132	142.94
285.364	176.94
285.595	167.94
285.826	153.94
286.057	158.94
286.288	151.94
286.52	144.94
286.751	161.94
286.982	155.94
287.213	152.94
287.444	174.94
287.675	154.94
287.906	161.94
288.138	158.94
288.369	171.94
288.6	162.94
288.831	144.94
289.062	148.94
289.293	168.94
289.524	163.94
289.755	178.94
289.986	171.94
290.217	165.94
290.448	159.94
290.679	159.94
290.91	188.94
291.141	160.94
291.371	168.94
291.602	170.94
291.833	163.94
292.064	162.94
292.295	160.94
292.526	185.94
292.757	176.94
292.987	163.94
293.218	178.94
293.449	162.94
293.68	173.94
293.91	162.94
294.141	164.94
294.372	174.94
294.603	163.94
294.833	173.94
295.064	154.94
295.295	185.94
295.525	184.94
295.756	176.94
295.987	183.94
296.217	177.94
296.448	167.94
296.679	173.94
296.909	162.94
297.14	160.94
297.37	168.94
297.601	180.94
297.831	170.94
298.062	165.94
298.292	177.94
298.523	185.94
298.753	179.94
298.984	180.94
299.214	183.94
299.445	164.94
299.675	162.94
299.905	188.94
300.136	198.94
300.366	178.94
300.597	187.94
300.827	198.94
301.057	195.94
301.288	171.94
301.518	178.94
301.748	187.94
301.979	175.94
302.209	170.94
302.439	182.94
302.669	187.94
302.9	178.94
303.13	171.94
303.36	181.94
303.59	187.94
303.82	185.94
304.051	174.94
304.281	200.94
304.511	188.94
304.741	168.94
304.971	188.94
305.201	178.94
305.431	177.94
305.661	176.94
305.891	182.94
306.121	175.94
306.352	171.94
306.582	192.94
306.812	185.94
307.042	186.94
307.272	186.94
307.502	186.94
307.731	169.94
307.961	184.94
308.191	193.94
308.421	186.94
308.651	167.94
308.881	172.94
309.111	186.94
309.341	180.94
309.571	179.94
309.8	182.94
310.03	172.94
310.26	180.94
310.49	187.94
310.72	176.94
310.949	176.94
311.179	183.94
311.409	186.94
311.639	178.94
311.868	169.94
312.098	194.94
312.328	179.94
312.557	197.94
312.787	164.94
313.017	178.94
313.246	197.94
313.476	179.94
313.706	184.94
313.935	201.94
314.165	186.94
314.394	195.94
314.624	199.94
314.853	190.94
315.083	198.94
315.312	177.94
315.542	179.94
315.771	190.94
316.001	180.94
316.23	193.94
316.46	186.94
316.689	182.94
316.919	195.94
317.148	178.94
317.377	176.94
317.607	195.94
317.836	191.94
318.065	178.94
318.295	183.94
318.524	185.94
318.753	178.94
318.983	188.94
319.212	198.94
319.441	198.94
319.67	200.94
319.9	182.94
320.129	184.94
320.358	191.94
320.587	197.94
320.816	179.94
321.046	190.94
321.275	192.94
321.504	190.94
321.733	182.94
321.962	176.94
322.191	198.94
322.42	202.94
322.649	210.94
322.878	188.94
323.108	178.94
323.337	183.94
323.566	185.94
323.795	186.94
324.024	185.94
324.253	181.94
324.482	194.94
324.71	189.94
324.939	197.94
325.168	186.94
325.397	171.94
325.626	188.94
325.855	190.94
326.084	206.94
326.313	193.94
326.542	200.94
326.77	211.94
326.999	198.94
327.228	198.94
327.457	193.94
327.686	190.94
327.914	195.94
328.143	198.94
328.372	200.94
328.6	196.94
328.829	208.94
329.058	196.94
329.287	197.94
329.515	195.94
329.744	184.94
329.972	193.94
330.201	195.94
330.43	201.94
330.658	195.94
330.887	209.94
331.115	206.94
331.344	211.94
331.572	205.94
331.801	217.94
332.03	222.94
332.258	206.94
332.486	219.94
332.715	236.94
332.943	225.94
333.172	243.94
333.4	249.94
333.629	259.94
333.857	250.94
334.085	235.94
334.314	245.94
334.542	263.94
334.771	258.94
334.999	235.94
335.227	244.94
335.455	247.94
335.684	235.94
335.912	238.94
336.14	234.94
336.369	216.94
336.597	233.94
336.825	209.94
337.053	215.94
337.281	217.94
337.51	228.94
337.738	208.94
337.966	208.94
338.194	216.94
338.422	210.94
338.65	209.94
338.878	204.94
339.106	208.94
339.334	207.94
339.562	209.94
339.79	216.94
340.018	199.94
340.246	203.94
340.474	201.94
340.702	215.94
340.93	217.94
341.158	209.94
341.386	199.94
341.614	198.94
341.842	211.94
342.07	228.94
342.298	172.94
342.526	195.94
342.754	191.94
342.981	192.94
343.209	204.94
343.437	208.94
343.665	228.94
343.893	227.94
344.12	242.94
344.348	224.94
344.576	230.94
344.804	216.94
345.031	198.94
345.259	215.94
345.487	209.94
345.714	222.94
345.942	207.94
346.17	215.94
346.397	202.94
346.625	201.94
346.853	207.94
347.08	195.94
347.308	199.94
347.535	202.94
347.763	194.94
347.99	185.94
348.218	215.94
348.445	215.94
348.673	210.94
348.9	197.94
349.128	211.94
349.355	196.94
349.583	197.94
349.81	218.94
350.037	205.94
350.265	197.94
350.492	191.94
350.72	198.94
350.947	209.94
351.174	201.94
351.402	186.94
351.629	184.94
351.856	192.94
352.083	187.94
352.311	211.94
352.538	184.94
352.765	198.94
352.992	201.94
353.22	205.94
353.447	187.94
353.674	194.94
353.901	204.94
354.128	190.94
354.355	183.94
354.583	199.94
354.81	192.94
355.037	176.94
355.264	195.94
355.491	194.94
355.718	186.94
355.945	200.94
356.172	197.94
356.399	202.94
356.626	179.94
356.853	188.94
357.08	187.94
357.307	192.94
357.534	196.94
357.761	185.94
357.988	196.94
358.215	197.94
358.441	184.94
358.668	209.94
358.895	195.94
359.122	203.94
359.349	203.94
359.576	191.94
359.802	197.94
360.029	190.94
360.256	180.94
360.483	199.94
360.709	210.94
360.936	194.94
361.163	183.94
361.39	204.94
361.616	195.94
361.843	183.94
362.07	191.94
362.296	208.94
362.523	179.94
362.749	183.94
362.976	211.94
363.203	199.94
363.429	204.94
363.656	192.94
363.882	190.94
364.109	191.94
364.335	193.94
364.562	186.94
364.788	196.94
365.015	182.94
365.241	186.94
365.468	195.94
365.694	198.94
365.92	206.94
366.147	189.94
366.373	176.94
366.599	196.94
366.826	184.94
367.052	178.94
367.278	180.94
367.505	198.94
367.731	185.94
367.957	193.94
368.184	200.94
368.41	190.94
368.636	186.94
368.862	205.94
369.089	180.94
369.315	187.94
369.541	178.94
369.767	198.94
369.993	190.94
370.219	184.94
370.445	200.94
370.672	212.94
370.898	203.94
371.124	202.94
371.35	201.94
371.576	216.94
371.802	200.94
372.028	188.94
372.254	200.94
372.48	201.94
372.706	204.94
372.932	225.94
373.158	211.94
373.384	198.94
373.61	211.94
373.835	215.94
374.061	205.94
374.287	199.94
374.513	215.94
374.739	202.94
374.965	224.94
375.191	230.94
375.416	225.94
375.642	219.94
375.868	212.94
376.094	212.94
376.319	205.94
376.545	208.94
376.771	186.94
376.997	214.94
377.222	197.94
377.448	208.94
377.674	201.94
377.899	194.94
378.125	198.94
378.35	198.94
378.576	194.94
378.802	205.94
379.027	186.94
379.253	200.94
379.478	219.94
379.704	214.94
379.929	194.94
380.155	188.94
380.38	202.94
380.606	198.94
380.831	199.94
381.057	199.94
381.282	209.94
381.507	200.94
381.733	208.94
381.958	183.94
382.184	214.94
382.409	212.94
382.634	215.94
382.86	215.94
383.085	222.94
383.31	222.94
383.535	213.94
383.761	207.94
383.986	215.94
384.211	232.94
384.436	218.94
384.662	217.94
384.887	246.94
385.112	245.94
385.337	234.94
385.562	230.94
385.787	229.94
386.013	233.94
386.238	220.94
386.463	246.94
386.688	228.94
386.913	224.94
387.138	234.94
387.363	240.94
387.588	214.94
387.813	219.94
388.038	239.94
388.263	228.94
388.488	232.94
388.713	239.94
388.938	233.94
389.163	218.94
389.387	224.94
389.612	201.94
389.837	203.94
390.062	223.94
390.287	228.94
390.512	216.94
390.736	226.94
390.961	224.94
391.186	228.94
391.411	228.94
391.636	249.94
391.86	245.94
392.085	259.94
392.31	248.94
392.534	245.94
392.759	227.94
392.984	218.94
393.208	238.94
393.433	231.94
393.658	238.94
393.882	244.94
394.107	244.94
394.331	244.94
394.556	244.94
394.78	243.94
395.005	232.94
395.229	213.94
395.454	244.94
395.678	257.94
395.903	238.94
396.127	241.94
396.352	243.94
396.576	230.94
396.801	253.94
397.025	238.94
397.249	251.94
397.474	237.94
397.698	255.94
397.922	227.94
398.147	250.94
398.371	239.94
398.595	246.94
398.82	264.94
399.044	260.94
399.268	294.94
399.492	346.94
399.717	402.94
399.941	368.94
400.165	324.94
400.389	313.94
400.613	282.94
400.837	268.94
401.062	254.94
401.286	264.94
401.51	268.94
401.734	246.94
401.958	275.94
402.182	264.94
402.406	278.94
402.63	282.94
402.854	279.94
403.078	285.94
403.302	287.94
403.526	312.94
403.75	299.94
403.974	315.94
404.198	311.94
404.422	311.94
404.645	299.94
404.869	280.94
405.093	295.94
405.317	287.94
405.541	306.94
405.765	296.94
405.988	295.94
406.212	279.94
406.436	296.94
406.66	290.94
406.883	295.94
407.107	306.94
407.331	318.94
407.555	343.94
407.778	338.94
408.002	323.94
408.226	298.94
408.449	304.94
408.673	317.94
408.896	313.94
409.12	288.94
409.344	304.94
409.567	284.94
409.791	311.94
410.014	299.94
410.238	299.94
410.461	302.94
410.685	299.94
410.908	267.94
411.132	285.94
411.355	280.94
411.578	296.94
411.802	271.94
412.025	262.94
412.249	259.94
412.472	282.94
412.695	271.94
412.919	266.94
413.142	264.94
413.365	272.94
413.589	265.94
413.812	254.94
414.035	263.94
414.258	268.94
414.482	279.94
414.705	269.94
414.928	264.94
415.151	267.94
415.374	273.94
415.597	274.94
415.821	256.94
416.044	263.94
416.267	271.94
416.49	260.94
416.713	254.94
416.936	267.94
417.159	253.94
417.382	267.94
417.605	280.94
417.828	274.94
418.051	251.94
418.274	274.94
418.497	251.94
418.72	278.94
418.943	274.94
419.166	298.94
419.389	292.94
419.611	302.94
419.834	294.94
420.057	292.94
420.28	276.94
420.503	270.94
420.726	269.94
420.948	268.94
421.171	272.94
421.394	269.94
421.617	250.94
421.839	290.94
422.062	269.94
422.285	257.94
422.507	264.94
422.73	279.94
422.953	272.94
423.175	287.94
423.398	287.94
423.621	273.94
423.843	278.94
424.066	277.94
424.288	279.94
424.511	277.94
424.733	287.94
424.956	286.94
425.178	256.94
425.401	267.94
425.623	268.94
425.846	254.94
426.068	250.94
426.291	252.94
426.513	246.94
426.735	258.94
426.958	248.94
427.18	241.94
427.402	246.94
427.625	233.94
427.847	238.94
428.069	225.94
428.292	238.94
428.514	247.94
428.736	228.94
428.958	242.94
429.181	235.94
429.403	226.94
429.625	235.94
429.847	231.94
430.069	234.94
430.292	251.94
430.514	242.94
430.736	244.94
430.958	225.94
431.18	241.94
431.402	241.94
431.624	228.94
431.846	254.94
432.068	271.94
432.29	260.94
432.512	233.94
432.734	241.94
432.956	238.94
433.178	238.94
433.4	246.94
433.622	222.94
433.844	231.94
434.066	238.94
434.287	248.94
434.509	258.94
434.731	259.94
434.953	263.94
435.175	262.94
435.397	266.94
435.618	244.94
435.84	240.94
436.062	255.94
436.284	242.94
436.505	243.94
436.727	245.94
436.949	223.94
437.17	240.94
437.392	244.94
437.614	246.94
437.835	224.94
438.057	244.94
438.278	229.94
438.5	224.94
438.721	232.94
438.943	267.94
439.165	248.94
439.386	252.94
439.608	239.94
439.829	244.94
440.05	245.94
440.272	222.94
440.493	236.94
440.715	269.94
440.936	262.94
441.158	245.94
441.379	234.94
441.6	260.94
441.822	283.94
442.043	289.94
442.264	257.94
442.486	265.94
442.707	281.94
442.928	251.94
443.149	234.94
443.371	266.94
443.592	278.94
443.813	260.94
444.034	276.94
444.255	275.94
444.476	280.94
444.698	294.94
444.919	302.94
445.14	422.94
445.361	350.94
445.582	264.94
445.803	248.94
446.024	254.94
446.245	263.94
446.466	246.94
446.687	242.94
446.908	232.94
447.129	230.94
447.35	247.94
447.571	249.94
447.792	234.94
448.013	218.94
448.234	234.94
448.455	232.94
448.675	208.94
448.896	226.94
449.117	228.94
449.338	252.94
449.559	231.94
449.779	229.94
450	215.94
450.221	210.94
450.442	231.94
450.662	223.94
450.883	235.94
451.104	238.94
451.324	220.94
451.545	218.94
451.766	225.94
451.986	217.94
452.207	226.94
452.428	224.94
452.648	238.94
452.869	227.94
453.089	217.94
453.31	217.94
453.53	231.94
453.751	222.94
453.971	202.94
454.192	213.94
454.412	213.94
454.633	228.94
454.853	247.94
455.073	227.94
455.294	216.94
455.514	232.94
455.734	216.94
455.955	204.94
456.175	227.94
456.395	223.94
456.616	213.94
456.836	222.94
457.056	200.94
457.276	203.94
457.497	217.94
457.717	222.94
457.937	208.94
458.157	209.94
458.377	214.94
458.598	209.94
458.818	222.94
459.038	240.94
459.258	257.94
459.478	244.94
459.698	250.94
459.918	267.94
460.138	280.94
460.358	290.94
460.578	275.94
460.798	277.94
461.018	282.94
461.238	271.94
461.458	264.94
461.678	269.94
461.898	292.94
462.118	302.94
462.338	286.94
462.558	293.94
462.777	321.94
462.997	343.94
463.217	352.94
463.437	367.94
463.657	344.94
463.876	325.94
464.096	312.94
464.316	322.94
464.536	323.94
464.755	316.94
464.975	296.94
465.195	281.94
465.414	274.94
465.634	264.94
465.854	267.94
466.073	246.94
466.293	248.94
466.512	232.94
466.732	243.94
466.951	238.94
467.171	240.94
467.391	250.94
467.61	250.94
467.829	233.94
468.049	223.94
468.268	220.94
468.488	236.94
468.707	221.94
468.927	221.94
469.146	232.94
469.365	229.94
469.585	227.94
469.804	242.94
470.023	250.94
470.243	254.94
470.462	253.94
470.681	259.94
470.901	247.94
471.12	265.94
471.339	256.94
471.558	234.94
471.777	228.94
471.997	235.94
472.216	245.94
472.435	231.94
472.654	238.94
472.873	215.94
473.092	230.94
473.311	238.94
473.53	239.94
473.749	226.94
473.968	228.94
474.187	233.94
474.406	227.94
474.625	246.94
474.844	238.94
475.063	235.94
475.282	226.94
475.501	224.94
475.72	226.94
475.939	243.94
476.158	238.94
476.377	222.94
476.596	235.94
476.814	242.94
477.033	233.94
477.252	246.94
477.471	255.94
477.69	246.94
477.908	260.94
478.127	269.94
478.346	264.94
478.564	263.94
478.783	286.94
479.002	276.94
479.22	288.94
479.439	284.94
479.658	266.94
479.876	272.94
480.095	266.94
480.313	288.94
480.532	306.94
480.751	296.94
480.969	294.94
481.188	276.94
481.406	266.94
481.624	264.94
481.843	258.94
482.061	239.94
482.28	259.94
482.498	257.94
482.717	246.94
482.935	249.94
483.153	238.94
483.372	266.94
483.59	251.94
483.808	267.94
484.027	261.94
484.245	238.94
484.463	263.94
484.681	278.94
484.9	269.94
485.118	275.94
485.336	280.94
485.554	260.94
485.772	271.94
485.99	275.94
486.209	278.94
486.427	282.94
486.645	278.94
486.863	279.94
487.081	295.94
487.299	277.94
487.517	265.94
487.735	262.94
487.953	288.94
488.171	266.94
488.389	288.94
488.607	285.94
488.825	268.94
489.043	259.94
489.261	271.94
489.479	266.94
489.696	284.94
489.914	266.94
490.132	252.94
490.35	269.94
490.568	264.94
490.786	272.94
491.003	262.94
491.221	268.94
491.439	267.94
491.657	273.94
491.874	288.94
492.092	271.94
492.31	273.94
492.527	282.94
492.745	278.94
492.963	291.94
493.18	288.94
493.398	288.94
493.615	287.94
493.833	279.94
494.05	283.94
494.268	288.94
494.485	298.94
494.703	278.94
494.92	305.94
495.138	275.94
495.355	264.94
495.573	287.94
495.79	286.94
496.008	295.94
496.225	279.94
496.442	287.94
496.66	294.94
496.877	288.94
497.094	295.94
497.312	305.94
497.529	310.94
497.746	305.94
497.963	305.94
498.181	337.94
498.398	342.94
498.615	356.94
498.832	361.94
499.049	402.94
499.267	436.94
499.484	454.94
499.701	511.94
499.918	578.94
500.135	650.94
500.352	725.94
500.569	784.94
500.786	753.94
501.003	756.94
501.22	634.94
501.437	566.94
501.654	465.94
501.871	448.94
502.088	404.94
502.305	406.94
502.522	388.94
502.739	376.94
502.956	354.94
503.172	332.94
