Data from 0.5MCu(NO3)2.Standard.Lamp.E10.CV._HRD10591_16-04-40-753.txt Node
Date: Mon Jul 22 16:04:40 EDT 2019
User: cochatt
Spectrometer: HR+D1059
Trigger mode: 1
Integration Time (sec): 1.000000E-1
Scans to average: 1
Electric dark correction enabled: true
Nonlinearity correction enabled: false
Boxcar width: 0
XAxis mode: Wavelengths
Number of Pixels in Spectrum: 2048
>>>>>Begin Spectral Data<<<<<
223.165	-12.38
223.4	-12.38
223.635	-12.38
223.869	-26.38
224.104	-15.38
224.338	-12.38
224.573	-22.38
224.808	-16.38
225.042	-14.38
225.277	5.62
225.511	-4.38
225.746	3.62
225.98	10.62
226.215	12.62
226.449	20.62
226.683	29.62
226.918	17.62
227.152	23.62
227.387	44.62
227.621	35.62
227.856	47.62
228.09	52.62
228.324	42.62
228.559	67.62
228.793	52.62
229.027	58.62
229.262	68.62
229.496	64.62
229.73	81.62
229.964	85.62
230.199	83.62
230.433	92.62
230.667	84.62
230.901	77.62
231.136	80.62
231.37	92.62
231.604	100.62
231.838	82.62
232.072	82.62
232.306	89.62
232.541	101.62
232.775	92.62
233.009	85.62
233.243	94.62
233.477	86.62
233.711	83.62
233.945	84.62
234.179	104.62
234.413	90.62
234.647	89.62
234.881	94.62
235.115	98.62
235.349	98.62
235.583	92.62
235.817	90.62
236.051	85.62
236.285	96.62
236.519	87.62
236.753	93.62
236.987	101.62
237.221	91.62
237.455	89.62
237.689	93.62
237.922	85.62
238.156	96.62
238.39	93.62
238.624	86.62
238.858	88.62
239.091	83.62
239.325	93.62
239.559	97.62
239.793	100.62
240.027	106.62
240.26	100.62
240.494	102.62
240.728	84.62
240.961	91.62
241.195	88.62
241.429	99.62
241.662	96.62
241.896	88.62
242.13	86.62
242.363	92.62
242.597	93.62
242.83	99.62
243.064	99.62
243.298	99.62
243.531	93.62
243.765	104.62
243.998	93.62
244.232	88.62
244.465	96.62
244.699	87.62
244.932	117.62
245.166	101.62
245.399	91.62
245.633	101.62
245.866	104.62
246.099	112.62
246.333	93.62
246.566	114.62
246.8	92.62
247.033	96.62
247.266	104.62
247.5	97.62
247.733	94.62
247.966	96.62
248.2	105.62
248.433	93.62
248.666	107.62
248.899	115.62
249.133	104.62
249.366	114.62
249.599	121.62
249.832	106.62
250.066	113.62
250.299	111.62
250.532	119.62
250.765	115.62
250.998	119.62
251.231	122.62
251.465	108.62
251.698	120.62
251.931	113.62
252.164	108.62
252.397	118.62
252.63	117.62
252.863	106.62
253.096	107.62
253.329	121.62
253.562	101.62
253.795	124.62
254.028	109.62
254.261	124.62
254.494	119.62
254.727	111.62
254.96	105.62
255.193	100.62
255.426	107.62
255.659	121.62
255.892	121.62
256.124	113.62
256.357	111.62
256.59	122.62
256.823	123.62
257.056	124.62
257.289	125.62
257.521	115.62
257.754	129.62
257.987	107.62
258.22	128.62
258.452	123.62
258.685	116.62
258.918	107.62
259.151	113.62
259.383	133.62
259.616	126.62
259.849	128.62
260.081	115.62
260.314	109.62
260.547	115.62
260.779	125.62
261.012	129.62
261.244	113.62
261.477	132.62
261.71	132.62
261.942	119.62
262.175	129.62
262.407	121.62
262.64	116.62
262.872	126.62
263.105	131.62
263.337	123.62
263.57	127.62
263.802	120.62
264.035	134.62
264.267	116.62
264.499	131.62
264.732	118.62
264.964	132.62
265.197	138.62
265.429	119.62
265.661	101.62
265.894	141.62
266.126	135.62
266.358	142.62
266.591	131.62
266.823	140.62
267.055	122.62
267.287	140.62
267.52	140.62
267.752	130.62
267.984	144.62
268.216	140.62
268.448	122.62
268.681	124.62
268.913	129.62
269.145	126.62
269.377	147.62
269.609	134.62
269.841	135.62
270.073	133.62
270.306	139.62
270.538	131.62
270.77	137.62
271.002	143.62
271.234	139.62
271.466	125.62
271.698	133.62
271.93	129.62
272.162	140.62
272.394	147.62
272.626	145.62
272.858	130.62
273.09	147.62
273.322	132.62
273.553	135.62
273.785	137.62
274.017	133.62
274.249	138.62
274.481	144.62
274.713	146.62
274.945	148.62
275.176	149.62
275.408	149.62
275.64	136.62
275.872	131.62
276.104	144.62
276.335	162.62
276.567	151.62
276.799	137.62
277.031	142.62
277.262	149.62
277.494	155.62
277.726	161.62
277.957	145.62
278.189	137.62
278.421	132.62
278.652	148.62
278.884	159.62
279.115	143.62
279.347	153.62
279.579	145.62
279.81	152.62
280.042	155.62
280.273	159.62
280.505	157.62
280.736	139.62
280.968	152.62
281.199	155.62
281.431	160.62
281.662	159.62
281.894	152.62
282.125	158.62
282.356	167.62
282.588	169.62
282.819	167.62
283.051	148.62
283.282	141.62
283.513	156.62
283.745	156.62
283.976	148.62
284.207	154.62
284.439	167.62
284.67	157.62
284.901	166.62
285.132	163.62
285.364	176.62
285.595	155.62
285.826	159.62
286.057	173.62
286.288	153.62
286.52	162.62
286.751	181.62
286.982	156.62
287.213	170.62
287.444	158.62
287.675	169.62
287.906	174.62
288.138	179.62
288.369	166.62
288.6	183.62
288.831	173.62
289.062	159.62
289.293	155.62
289.524	166.62
289.755	164.62
289.986	189.62
290.217	175.62
290.448	176.62
290.679	172.62
290.91	173.62
291.141	174.62
291.371	187.62
291.602	165.62
291.833	167.62
292.064	167.62
292.295	167.62
292.526	161.62
292.757	185.62
292.987	160.62
293.218	163.62
293.449	160.62
293.68	181.62
293.91	185.62
294.141	169.62
294.372	159.62
294.603	182.62
294.833	186.62
295.064	180.62
295.295	171.62
295.525	183.62
295.756	175.62
295.987	185.62
296.217	191.62
296.448	183.62
296.679	178.62
296.909	191.62
297.14	181.62
297.37	175.62
297.601	177.62
297.831	185.62
298.062	187.62
298.292	194.62
298.523	192.62
298.753	180.62
298.984	170.62
299.214	161.62
299.445	182.62
299.675	176.62
299.905	185.62
300.136	194.62
300.366	189.62
300.597	176.62
300.827	189.62
301.057	185.62
301.288	180.62
301.518	202.62
301.748	193.62
301.979	192.62
302.209	204.62
302.439	186.62
302.669	189.62
302.9	195.62
303.13	181.62
303.36	185.62
303.59	193.62
303.82	194.62
304.051	186.62
304.281	168.62
304.511	195.62
304.741	199.62
304.971	189.62
305.201	192.62
305.431	184.62
305.661	192.62
305.891	184.62
306.121	201.62
306.352	186.62
306.582	209.62
306.812	179.62
307.042	182.62
307.272	176.62
307.502	187.62
307.731	190.62
307.961	172.62
308.191	179.62
308.421	180.62
308.651	185.62
308.881	187.62
309.111	194.62
309.341	175.62
309.571	182.62
309.8	193.62
310.03	194.62
310.26	183.62
310.49	186.62
310.72	184.62
310.949	198.62
311.179	198.62
311.409	187.62
311.639	183.62
311.868	201.62
312.098	193.62
312.328	185.62
312.557	194.62
312.787	191.62
313.017	193.62
313.246	195.62
313.476	190.62
313.706	198.62
313.935	189.62
314.165	220.62
314.394	196.62
314.624	201.62
314.853	195.62
315.083	200.62
315.312	193.62
315.542	192.62
315.771	194.62
316.001	186.62
316.23	190.62
316.46	198.62
316.689	185.62
316.919	197.62
317.148	206.62
317.377	178.62
317.607	217.62
317.836	172.62
318.065	201.62
318.295	195.62
318.524	200.62
318.753	188.62
318.983	196.62
319.212	196.62
319.441	212.62
319.67	191.62
319.9	190.62
320.129	195.62
320.358	179.62
320.587	189.62
320.816	180.62
321.046	195.62
321.275	202.62
321.504	184.62
321.733	190.62
321.962	185.62
322.191	197.62
322.42	196.62
322.649	188.62
322.878	195.62
323.108	205.62
323.337	191.62
323.566	216.62
323.795	200.62
324.024	200.62
324.253	198.62
324.482	190.62
324.71	199.62
324.939	195.62
325.168	221.62
325.397	192.62
325.626	207.62
325.855	217.62
326.084	209.62
326.313	199.62
326.542	197.62
326.77	204.62
326.999	209.62
327.228	206.62
327.457	197.62
327.686	195.62
327.914	222.62
328.143	199.62
328.372	185.62
328.6	228.62
328.829	224.62
329.058	209.62
329.287	214.62
329.515	198.62
329.744	215.62
329.972	198.62
330.201	216.62
330.43	216.62
330.658	213.62
330.887	204.62
331.115	212.62
331.344	213.62
331.572	215.62
331.801	207.62
332.03	226.62
332.258	229.62
332.486	229.62
332.715	228.62
332.943	229.62
333.172	231.62
333.4	259.62
333.629	264.62
333.857	251.62
334.085	256.62
334.314	273.62
334.542	258.62
334.771	247.62
334.999	255.62
335.227	222.62
335.455	244.62
335.684	243.62
335.912	239.62
336.14	233.62
336.369	241.62
336.597	228.62
336.825	231.62
337.053	237.62
337.281	240.62
337.51	236.62
337.738	235.62
337.966	208.62
338.194	224.62
338.422	210.62
338.65	216.62
338.878	228.62
339.106	217.62
339.334	233.62
339.562	209.62
339.79	207.62
340.018	202.62
340.246	216.62
340.474	203.62
340.702	204.62
340.93	203.62
341.158	219.62
341.386	214.62
341.614	202.62
341.842	211.62
342.07	220.62
342.298	203.62
342.526	206.62
342.754	199.62
342.981	201.62
343.209	219.62
343.437	244.62
343.665	216.62
343.893	243.62
344.12	257.62
344.348	251.62
344.576	230.62
344.804	211.62
345.031	215.62
345.259	202.62
345.487	220.62
345.714	221.62
345.942	218.62
346.17	201.62
346.397	215.62
346.625	208.62
346.853	207.62
347.08	216.62
347.308	224.62
347.535	209.62
347.763	210.62
347.99	216.62
348.218	213.62
348.445	214.62
348.673	192.62
348.9	215.62
349.128	214.62
349.355	199.62
349.583	219.62
349.81	213.62
350.037	210.62
350.265	193.62
350.492	207.62
350.72	204.62
350.947	194.62
351.174	194.62
351.402	191.62
351.629	196.62
351.856	213.62
352.083	203.62
352.311	193.62
352.538	213.62
352.765	199.62
352.992	198.62
353.22	197.62
353.447	197.62
353.674	214.62
353.901	199.62
354.128	205.62
354.355	197.62
354.583	216.62
354.81	212.62
355.037	207.62
355.264	212.62
355.491	197.62
355.718	201.62
355.945	215.62
356.172	218.62
356.399	212.62
356.626	210.62
356.853	216.62
357.08	216.62
357.307	219.62
357.534	185.62
357.761	204.62
357.988	215.62
358.215	204.62
358.441	186.62
358.668	203.62
358.895	194.62
359.122	211.62
359.349	191.62
359.576	188.62
359.802	198.62
360.029	193.62
360.256	192.62
360.483	198.62
360.709	179.62
360.936	186.62
361.163	198.62
361.39	191.62
361.616	191.62
361.843	197.62
362.07	194.62
362.296	187.62
362.523	215.62
362.749	195.62
362.976	203.62
363.203	186.62
363.429	219.62
363.656	183.62
363.882	210.62
364.109	198.62
364.335	181.62
364.562	186.62
364.788	188.62
365.015	216.62
365.241	200.62
365.468	191.62
365.694	203.62
365.92	188.62
366.147	204.62
366.373	202.62
366.599	194.62
366.826	194.62
367.052	199.62
367.278	215.62
367.505	224.62
367.731	209.62
367.957	201.62
368.184	197.62
368.41	204.62
368.636	194.62
368.862	200.62
369.089	212.62
369.315	198.62
369.541	188.62
369.767	205.62
369.993	216.62
370.219	202.62
370.445	211.62
370.672	211.62
370.898	196.62
371.124	215.62
371.35	213.62
371.576	210.62
371.802	210.62
372.028	207.62
372.254	209.62
372.48	202.62
372.706	207.62
372.932	220.62
373.158	209.62
373.384	212.62
373.61	230.62
373.835	206.62
374.061	212.62
374.287	209.62
374.513	219.62
374.739	224.62
374.965	237.62
375.191	215.62
375.416	235.62
375.642	217.62
375.868	223.62
376.094	213.62
376.319	224.62
376.545	211.62
376.771	198.62
376.997	205.62
377.222	203.62
377.448	224.62
377.674	214.62
377.899	207.62
378.125	221.62
378.35	224.62
378.576	197.62
378.802	188.62
379.027	202.62
379.253	212.62
379.478	202.62
379.704	218.62
379.929	215.62
380.155	196.62
380.38	219.62
380.606	209.62
380.831	208.62
381.057	199.62
381.282	217.62
381.507	203.62
381.733	202.62
381.958	216.62
382.184	197.62
382.409	210.62
382.634	228.62
382.86	186.62
383.085	213.62
383.31	205.62
383.535	213.62
383.761	219.62
383.986	241.62
384.211	236.62
384.436	241.62
384.662	236.62
384.887	242.62
385.112	233.62
385.337	244.62
385.562	238.62
385.787	253.62
386.013	239.62
386.238	234.62
386.463	242.62
386.688	239.62
386.913	242.62
387.138	248.62
387.363	239.62
387.588	240.62
387.813	232.62
388.038	243.62
388.263	226.62
388.488	211.62
388.713	226.62
388.938	229.62
389.163	243.62
389.387	244.62
389.612	233.62
389.837	236.62
390.062	233.62
390.287	231.62
390.512	216.62
390.736	218.62
390.961	232.62
391.186	228.62
391.411	252.62
391.636	235.62
391.86	243.62
392.085	263.62
392.31	263.62
392.534	229.62
392.759	240.62
392.984	246.62
393.208	258.62
393.433	260.62
393.658	261.62
393.882	248.62
394.107	231.62
394.331	262.62
394.556	239.62
394.78	247.62
395.005	243.62
395.229	258.62
395.454	252.62
395.678	260.62
395.903	247.62
396.127	240.62
396.352	234.62
396.576	260.62
396.801	256.62
397.025	258.62
397.249	252.62
397.474	264.62
397.698	242.62
397.922	244.62
398.147	258.62
398.371	249.62
398.595	251.62
398.82	274.62
399.044	293.62
399.268	300.62
399.492	357.62
399.717	393.62
399.941	394.62
400.165	343.62
400.389	335.62
400.613	296.62
400.837	280.62
401.062	282.62
401.286	300.62
401.51	276.62
401.734	270.62
401.958	285.62
402.182	273.62
402.406	283.62
402.63	273.62
402.854	312.62
403.078	290.62
403.302	293.62
403.526	308.62
403.75	331.62
403.974	316.62
404.198	331.62
404.422	331.62
404.645	306.62
404.869	305.62
405.093	300.62
405.317	300.62
405.541	290.62
405.765	294.62
405.988	306.62
406.212	305.62
406.436	303.62
406.66	305.62
406.883	308.62
407.107	331.62
407.331	315.62
407.555	337.62
407.778	331.62
408.002	332.62
408.226	322.62
408.449	320.62
408.673	316.62
408.896	311.62
409.12	302.62
409.344	315.62
409.567	301.62
409.791	316.62
410.014	309.62
410.238	284.62
410.461	305.62
410.685	317.62
410.908	303.62
411.132	303.62
411.355	290.62
411.578	297.62
411.802	276.62
412.025	279.62
412.249	296.62
412.472	287.62
412.695	293.62
412.919	276.62
413.142	271.62
413.365	283.62
413.589	269.62
413.812	278.62
414.035	283.62
414.258	272.62
414.482	303.62
414.705	286.62
414.928	287.62
415.151	289.62
415.374	268.62
415.597	266.62
415.821	274.62
416.044	264.62
416.267	257.62
416.49	270.62
416.713	275.62
416.936	260.62
417.159	275.62
417.382	271.62
417.605	268.62
417.828	273.62
418.051	305.62
418.274	287.62
418.497	299.62
418.72	286.62
418.943	289.62
419.166	305.62
419.389	290.62
419.611	309.62
419.834	305.62
420.057	297.62
420.28	278.62
420.503	282.62
420.726	273.62
420.948	265.62
421.171	278.62
421.394	267.62
421.617	270.62
421.839	281.62
422.062	282.62
422.285	261.62
422.507	278.62
422.73	281.62
422.953	302.62
423.175	283.62
423.398	282.62
423.621	292.62
423.843	290.62
424.066	295.62
424.288	284.62
424.511	278.62
424.733	276.62
424.956	278.62
425.178	273.62
425.401	285.62
425.623	260.62
425.846	266.62
426.068	264.62
426.291	266.62
426.513	261.62
426.735	253.62
426.958	246.62
427.18	261.62
427.402	255.62
427.625	254.62
427.847	255.62
428.069	259.62
428.292	249.62
428.514	243.62
428.736	239.62
428.958	247.62
429.181	255.62
429.403	250.62
429.625	248.62
429.847	248.62
430.069	266.62
430.292	241.62
430.514	250.62
430.736	251.62
430.958	247.62
431.18	250.62
431.402	240.62
431.624	240.62
431.846	236.62
432.068	257.62
432.29	281.62
432.512	251.62
432.734	243.62
432.956	254.62
433.178	249.62
433.4	246.62
433.622	269.62
433.844	258.62
434.066	260.62
434.287	256.62
434.509	256.62
434.731	257.62
434.953	264.62
435.175	284.62
435.397	271.62
435.618	256.62
435.84	263.62
436.062	250.62
436.284	242.62
436.505	250.62
436.727	229.62
436.949	278.62
437.17	249.62
437.392	234.62
437.614	235.62
437.835	233.62
438.057	233.62
438.278	225.62
438.5	223.62
438.721	225.62
438.943	256.62
439.165	266.62
439.386	251.62
439.608	242.62
439.829	225.62
440.05	240.62
440.272	252.62
440.493	252.62
440.715	260.62
440.936	247.62
441.158	267.62
441.379	274.62
441.6	287.62
441.822	281.62
442.043	283.62
442.264	296.62
442.486	273.62
442.707	260.62
442.928	270.62
443.149	289.62
443.371	280.62
443.592	264.62
443.813	265.62
444.034	294.62
444.255	286.62
444.476	289.62
444.698	305.62
444.919	322.62
445.14	407.62
445.361	354.62
445.582	285.62
445.803	272.62
446.024	259.62
446.245	263.62
446.466	256.62
446.687	242.62
446.908	241.62
447.129	255.62
447.35	243.62
447.571	244.62
447.792	236.62
448.013	233.62
448.234	233.62
448.455	252.62
448.675	235.62
448.896	229.62
449.117	229.62
449.338	223.62
449.559	251.62
449.779	232.62
450	217.62
450.221	225.62
450.442	250.62
450.662	235.62
450.883	234.62
451.104	263.62
451.324	244.62
451.545	249.62
451.766	227.62
451.986	234.62
452.207	226.62
452.428	263.62
452.648	236.62
452.869	236.62
453.089	233.62
453.31	221.62
453.53	228.62
453.751	233.62
453.971	237.62
454.192	239.62
454.412	225.62
454.633	220.62
454.853	229.62
455.073	224.62
455.294	220.62
455.514	212.62
455.734	241.62
455.955	235.62
456.175	225.62
456.395	217.62
456.616	230.62
456.836	215.62
457.056	210.62
457.276	216.62
457.497	206.62
457.717	211.62
457.937	225.62
458.157	221.62
458.377	213.62
458.598	229.62
458.818	214.62
459.038	247.62
459.258	263.62
459.478	255.62
459.698	251.62
459.918	261.62
460.138	289.62
460.358	294.62
460.578	295.62
460.798	308.62
461.018	303.62
461.238	273.62
461.458	291.62
461.678	295.62
461.898	282.62
462.118	311.62
462.338	299.62
462.558	295.62
462.777	320.62
462.997	343.62
463.217	375.62
463.437	376.62
463.657	360.62
463.876	337.62
464.096	321.62
464.316	324.62
464.536	328.62
464.755	330.62
464.975	316.62
465.195	307.62
465.414	298.62
465.634	266.62
465.854	244.62
466.073	259.62
466.293	268.62
466.512	242.62
466.732	251.62
466.951	273.62
467.171	239.62
467.391	239.62
467.61	253.62
467.829	259.62
468.049	251.62
468.268	242.62
468.488	231.62
468.707	230.62
468.927	240.62
469.146	229.62
469.365	243.62
469.585	242.62
469.804	228.62
470.023	267.62
470.243	257.62
470.462	252.62
470.681	274.62
470.901	248.62
471.12	259.62
471.339	246.62
471.558	241.62
471.777	231.62
471.997	251.62
472.216	233.62
472.435	220.62
472.654	234.62
472.873	224.62
473.092	236.62
473.311	244.62
473.53	226.62
473.749	248.62
473.968	243.62
474.187	244.62
474.406	239.62
474.625	244.62
474.844	235.62
475.063	230.62
475.282	254.62
475.501	231.62
475.72	245.62
475.939	224.62
476.158	232.62
476.377	248.62
476.596	237.62
476.814	235.62
477.033	259.62
477.252	243.62
477.471	240.62
477.69	258.62
477.908	260.62
478.127	292.62
478.346	275.62
478.564	271.62
478.783	264.62
479.002	278.62
479.22	293.62
479.439	281.62
479.658	296.62
479.876	298.62
480.095	288.62
480.313	310.62
480.532	312.62
480.751	292.62
480.969	303.62
481.188	277.62
481.406	278.62
481.624	269.62
481.843	275.62
482.061	280.62
482.28	261.62
482.498	273.62
482.717	274.62
482.935	273.62
483.153	274.62
483.372	259.62
483.59	263.62
483.808	264.62
484.027	276.62
484.245	273.62
484.463	276.62
484.681	273.62
484.9	257.62
485.118	281.62
485.336	277.62
485.554	295.62
485.772	273.62
485.99	288.62
486.209	293.62
486.427	286.62
486.645	275.62
486.863	279.62
487.081	295.62
487.299	283.62
487.517	281.62
487.735	272.62
487.953	275.62
488.171	308.62
488.389	291.62
488.607	293.62
488.825	263.62
489.043	285.62
489.261	292.62
489.479	279.62
489.696	281.62
489.914	277.62
490.132	283.62
490.35	287.62
490.568	290.62
490.786	289.62
491.003	292.62
491.221	288.62
491.439	293.62
491.657	287.62
491.874	287.62
492.092	268.62
492.31	297.62
492.527	303.62
492.745	294.62
492.963	302.62
493.18	288.62
493.398	287.62
493.615	287.62
493.833	288.62
494.05	279.62
494.268	271.62
494.485	309.62
494.703	297.62
494.92	314.62
495.138	298.62
495.355	293.62
495.573	293.62
495.79	291.62
496.008	304.62
496.225	300.62
496.442	323.62
496.66	321.62
496.877	306.62
497.094	319.62
497.312	319.62
497.529	318.62
497.746	323.62
497.963	326.62
498.181	334.62
498.398	354.62
498.615	382.62
498.832	401.62
499.049	427.62
499.267	450.62
499.484	496.62
499.701	543.62
499.918	593.62
500.135	680.62
500.352	780.62
500.569	820.62
500.786	810.62
501.003	747.62
501.22	653.62
501.437	580.62
501.654	511.62
501.871	448.62
502.088	433.62
502.305	409.62
502.522	398.62
502.739	391.62
502.956	357.62
503.172	358.62
