Data from 0.5MCu(NO3)2.Standard.Lamp.E10.CV._HRD10591_16-04-21-753.txt Node
Date: Mon Jul 22 16:04:21 EDT 2019
User: cochatt
Spectrometer: HR+D1059
Trigger mode: 1
Integration Time (sec): 1.000000E-1
Scans to average: 1
Electric dark correction enabled: true
Nonlinearity correction enabled: false
Boxcar width: 0
XAxis mode: Wavelengths
Number of Pixels in Spectrum: 2048
>>>>>Begin Spectral Data<<<<<
223.165	-17.31
223.4	-17.31
223.635	-17.31
223.869	-25.31
224.104	-22.31
224.338	-11.31
224.573	1.69
224.808	-24.31
225.042	-0.31
225.277	3.69
225.511	1.69
225.746	6.69
225.98	3.69
226.215	10.69
226.449	11.69
226.683	2.69
226.918	16.69
227.152	41.69
227.387	34.69
227.621	29.69
227.856	46.69
228.09	55.69
228.324	47.69
228.559	67.69
228.793	65.69
229.027	77.69
229.262	80.69
229.496	73.69
229.73	76.69
229.964	82.69
230.199	99.69
230.433	85.69
230.667	95.69
230.901	89.69
231.136	94.69
231.37	93.69
231.604	93.69
231.838	88.69
232.072	74.69
232.306	94.69
232.541	101.69
232.775	78.69
233.009	100.69
233.243	89.69
233.477	89.69
233.711	93.69
233.945	100.69
234.179	101.69
234.413	90.69
234.647	89.69
234.881	97.69
235.115	99.69
235.349	105.69
235.583	98.69
235.817	97.69
236.051	103.69
236.285	89.69
236.519	78.69
236.753	106.69
236.987	99.69
237.221	98.69
237.455	100.69
237.689	83.69
237.922	81.69
238.156	89.69
238.39	86.69
238.624	98.69
238.858	107.69
239.091	104.69
239.325	91.69
239.559	108.69
239.793	104.69
240.027	97.69
240.26	96.69
240.494	105.69
240.728	96.69
240.961	88.69
241.195	113.69
241.429	110.69
241.662	92.69
241.896	113.69
242.13	95.69
242.363	96.69
242.597	98.69
242.83	96.69
243.064	104.69
243.298	111.69
243.531	91.69
243.765	102.69
243.998	107.69
244.232	112.69
244.465	101.69
244.699	119.69
244.932	98.69
245.166	120.69
245.399	108.69
245.633	121.69
245.866	85.69
246.099	112.69
246.333	108.69
246.566	120.69
246.8	111.69
247.033	96.69
247.266	101.69
247.5	117.69
247.733	111.69
247.966	123.69
248.2	109.69
248.433	120.69
248.666	115.69
248.899	113.69
249.133	121.69
249.366	141.69
249.599	120.69
249.832	115.69
250.066	103.69
250.299	137.69
250.532	114.69
250.765	140.69
250.998	136.69
251.231	120.69
251.465	123.69
251.698	118.69
251.931	122.69
252.164	128.69
252.397	122.69
252.63	120.69
252.863	128.69
253.096	115.69
253.329	127.69
253.562	136.69
253.795	110.69
254.028	123.69
254.261	118.69
254.494	121.69
254.727	132.69
254.96	129.69
255.193	128.69
255.426	129.69
255.659	131.69
255.892	147.69
256.124	131.69
256.357	133.69
256.59	131.69
256.823	131.69
257.056	137.69
257.289	135.69
257.521	128.69
257.754	137.69
257.987	128.69
258.22	133.69
258.452	117.69
258.685	126.69
258.918	124.69
259.151	142.69
259.383	151.69
259.616	130.69
259.849	133.69
260.081	138.69
260.314	140.69
260.547	135.69
260.779	140.69
261.012	131.69
261.244	127.69
261.477	143.69
261.71	145.69
261.942	166.69
262.175	135.69
262.407	151.69
262.64	155.69
262.872	153.69
263.105	140.69
263.337	147.69
263.57	138.69
263.802	151.69
264.035	140.69
264.267	154.69
264.499	153.69
264.732	159.69
264.964	145.69
265.197	146.69
265.429	144.69
265.661	152.69
265.894	160.69
266.126	142.69
266.358	168.69
266.591	129.69
266.823	151.69
267.055	141.69
267.287	140.69
267.52	151.69
267.752	155.69
267.984	156.69
268.216	150.69
268.448	142.69
268.681	153.69
268.913	146.69
269.145	160.69
269.377	157.69
269.609	151.69
269.841	154.69
270.073	159.69
270.306	156.69
270.538	163.69
270.77	148.69
271.002	159.69
271.234	165.69
271.466	152.69
271.698	161.69
271.93	157.69
272.162	156.69
272.394	145.69
272.626	166.69
272.858	164.69
273.09	177.69
273.322	152.69
273.553	156.69
273.785	168.69
274.017	175.69
274.249	179.69
274.481	159.69
274.713	179.69
274.945	173.69
275.176	153.69
275.408	159.69
275.64	169.69
275.872	175.69
276.104	191.69
276.335	175.69
276.567	183.69
276.799	190.69
277.031	162.69
277.262	189.69
277.494	150.69
277.726	175.69
277.957	181.69
278.189	179.69
278.421	179.69
278.652	182.69
278.884	183.69
279.115	176.69
279.347	164.69
279.579	164.69
279.81	182.69
280.042	184.69
280.273	191.69
280.505	185.69
280.736	192.69
280.968	179.69
281.199	187.69
281.431	188.69
281.662	191.69
281.894	191.69
282.125	177.69
282.356	191.69
282.588	191.69
282.819	197.69
283.051	188.69
283.282	194.69
283.513	203.69
283.745	197.69
283.976	201.69
284.207	196.69
284.439	181.69
284.67	183.69
284.901	188.69
285.132	192.69
285.364	202.69
285.595	198.69
285.826	194.69
286.057	201.69
286.288	195.69
286.52	179.69
286.751	191.69
286.982	207.69
287.213	199.69
287.444	206.69
287.675	213.69
287.906	204.69
288.138	202.69
288.369	196.69
288.6	212.69
288.831	203.69
289.062	220.69
289.293	191.69
289.524	197.69
289.755	195.69
289.986	194.69
290.217	220.69
290.448	210.69
290.679	203.69
290.91	220.69
291.141	217.69
291.371	213.69
291.602	220.69
291.833	231.69
292.064	216.69
292.295	200.69
292.526	209.69
292.757	210.69
292.987	213.69
293.218	214.69
293.449	209.69
293.68	208.69
293.91	213.69
294.141	213.69
294.372	212.69
294.603	211.69
294.833	202.69
295.064	208.69
295.295	203.69
295.525	213.69
295.756	222.69
295.987	202.69
296.217	219.69
296.448	216.69
296.679	210.69
296.909	223.69
297.14	214.69
297.37	233.69
297.601	217.69
297.831	227.69
298.062	219.69
298.292	221.69
298.523	234.69
298.753	243.69
298.984	237.69
299.214	215.69
299.445	241.69
299.675	228.69
299.905	235.69
300.136	226.69
300.366	210.69
300.597	228.69
300.827	236.69
301.057	242.69
301.288	241.69
301.518	239.69
301.748	245.69
301.979	241.69
302.209	241.69
302.439	248.69
302.669	226.69
302.9	255.69
303.13	244.69
303.36	229.69
303.59	239.69
303.82	225.69
304.051	240.69
304.281	244.69
304.511	244.69
304.741	221.69
304.971	233.69
305.201	212.69
305.431	224.69
305.661	205.69
305.891	232.69
306.121	233.69
306.352	226.69
306.582	231.69
306.812	222.69
307.042	231.69
307.272	234.69
307.502	234.69
307.731	226.69
307.961	231.69
308.191	229.69
308.421	225.69
308.651	251.69
308.881	212.69
309.111	227.69
309.341	223.69
309.571	245.69
309.8	225.69
310.03	224.69
310.26	231.69
310.49	229.69
310.72	220.69
310.949	242.69
311.179	245.69
311.409	227.69
311.639	241.69
311.868	237.69
312.098	223.69
312.328	240.69
312.557	232.69
312.787	243.69
313.017	247.69
313.246	227.69
313.476	236.69
313.706	242.69
313.935	239.69
314.165	239.69
314.394	242.69
314.624	250.69
314.853	256.69
315.083	219.69
315.312	235.69
315.542	240.69
315.771	253.69
316.001	257.69
316.23	256.69
316.46	234.69
316.689	235.69
316.919	235.69
317.148	240.69
317.377	234.69
317.607	264.69
317.836	250.69
318.065	252.69
318.295	243.69
318.524	240.69
318.753	230.69
318.983	241.69
319.212	234.69
319.441	248.69
319.67	241.69
319.9	238.69
320.129	244.69
320.358	245.69
320.587	232.69
320.816	240.69
321.046	248.69
321.275	240.69
321.504	246.69
321.733	234.69
321.962	227.69
322.191	264.69
322.42	251.69
322.649	257.69
322.878	239.69
323.108	244.69
323.337	227.69
323.566	258.69
323.795	268.69
324.024	244.69
324.253	251.69
324.482	245.69
324.71	249.69
324.939	258.69
325.168	251.69
325.397	249.69
325.626	243.69
325.855	257.69
326.084	267.69
326.313	255.69
326.542	280.69
326.77	257.69
326.999	273.69
327.228	267.69
327.457	267.69
327.686	256.69
327.914	262.69
328.143	264.69
328.372	252.69
328.6	255.69
328.829	257.69
329.058	261.69
329.287	260.69
329.515	245.69
329.744	264.69
329.972	253.69
330.201	269.69
330.43	265.69
330.658	260.69
330.887	259.69
331.115	280.69
331.344	270.69
331.572	256.69
331.801	287.69
332.03	266.69
332.258	289.69
332.486	281.69
332.715	310.69
332.943	303.69
333.172	311.69
333.4	333.69
333.629	342.69
333.857	343.69
334.085	352.69
334.314	337.69
334.542	318.69
334.771	330.69
334.999	314.69
335.227	315.69
335.455	308.69
335.684	313.69
335.912	293.69
336.14	313.69
336.369	298.69
336.597	308.69
336.825	314.69
337.053	303.69
337.281	306.69
337.51	283.69
337.738	309.69
337.966	287.69
338.194	297.69
338.422	275.69
338.65	268.69
338.878	281.69
339.106	267.69
339.334	279.69
339.562	276.69
339.79	271.69
340.018	264.69
340.246	278.69
340.474	260.69
340.702	270.69
340.93	280.69
341.158	267.69
341.386	272.69
341.614	281.69
341.842	273.69
342.07	264.69
342.298	254.69
342.526	254.69
342.754	267.69
342.981	269.69
343.209	282.69
343.437	286.69
343.665	286.69
343.893	304.69
344.12	333.69
344.348	326.69
344.576	312.69
344.804	286.69
345.031	281.69
345.259	282.69
345.487	261.69
345.714	260.69
345.942	275.69
346.17	265.69
346.397	282.69
346.625	266.69
346.853	248.69
347.08	257.69
347.308	265.69
347.535	266.69
347.763	277.69
347.99	266.69
348.218	251.69
348.445	260.69
348.673	268.69
348.9	264.69
349.128	275.69
349.355	266.69
349.583	266.69
349.81	263.69
350.037	279.69
350.265	272.69
350.492	242.69
350.72	251.69
350.947	259.69
351.174	263.69
351.402	255.69
351.629	254.69
351.856	245.69
352.083	258.69
352.311	235.69
352.538	261.69
352.765	247.69
352.992	253.69
353.22	243.69
353.447	245.69
353.674	255.69
353.901	256.69
354.128	242.69
354.355	243.69
354.583	232.69
354.81	255.69
355.037	265.69
355.264	259.69
355.491	269.69
355.718	261.69
355.945	262.69
356.172	258.69
356.399	236.69
356.626	252.69
356.853	236.69
357.08	255.69
357.307	246.69
357.534	240.69
357.761	265.69
357.988	265.69
358.215	252.69
358.441	224.69
358.668	251.69
358.895	257.69
359.122	264.69
359.349	232.69
359.576	265.69
359.802	239.69
360.029	241.69
360.256	248.69
360.483	259.69
360.709	242.69
360.936	260.69
361.163	249.69
361.39	254.69
361.616	244.69
361.843	236.69
362.07	210.69
362.296	260.69
362.523	264.69
362.749	248.69
362.976	245.69
363.203	239.69
363.429	269.69
363.656	251.69
363.882	234.69
364.109	256.69
364.335	231.69
364.562	259.69
364.788	241.69
365.015	236.69
365.241	225.69
365.468	247.69
365.694	260.69
365.92	223.69
366.147	249.69
366.373	247.69
366.599	240.69
366.826	235.69
367.052	267.69
367.278	240.69
367.505	257.69
367.731	257.69
367.957	236.69
368.184	239.69
368.41	263.69
368.636	248.69
368.862	265.69
369.089	244.69
369.315	248.69
369.541	258.69
369.767	275.69
369.993	255.69
370.219	240.69
370.445	265.69
370.672	249.69
370.898	265.69
371.124	269.69
371.35	271.69
371.576	286.69
371.802	271.69
372.028	262.69
372.254	268.69
372.48	259.69
372.706	283.69
372.932	275.69
373.158	271.69
373.384	274.69
373.61	281.69
373.835	260.69
374.061	267.69
374.287	279.69
374.513	275.69
374.739	289.69
374.965	289.69
375.191	292.69
375.416	295.69
375.642	276.69
375.868	282.69
376.094	268.69
376.319	266.69
376.545	273.69
376.771	267.69
376.997	252.69
377.222	275.69
377.448	267.69
377.674	288.69
377.899	266.69
378.125	266.69
378.35	250.69
378.576	258.69
378.802	241.69
379.027	265.69
379.253	265.69
379.478	272.69
379.704	267.69
379.929	270.69
380.155	264.69
380.38	271.69
380.606	254.69
380.831	273.69
381.057	271.69
381.282	261.69
381.507	268.69
381.733	239.69
381.958	255.69
382.184	283.69
382.409	277.69
382.634	265.69
382.86	286.69
383.085	285.69
383.31	271.69
383.535	279.69
383.761	279.69
383.986	286.69
384.211	300.69
384.436	288.69
384.662	327.69
384.887	287.69
385.112	321.69
385.337	322.69
385.562	319.69
385.787	310.69
386.013	314.69
386.238	311.69
386.463	318.69
386.688	308.69
386.913	311.69
387.138	296.69
387.363	309.69
387.588	307.69
387.813	296.69
388.038	300.69
388.263	311.69
388.488	305.69
388.713	310.69
388.938	305.69
389.163	293.69
389.387	299.69
389.612	296.69
389.837	285.69
390.062	296.69
390.287	296.69
390.512	275.69
390.736	304.69
390.961	280.69
391.186	313.69
391.411	303.69
391.636	337.69
391.86	331.69
392.085	323.69
392.31	331.69
392.534	305.69
392.759	320.69
392.984	313.69
393.208	325.69
393.433	297.69
393.658	330.69
393.882	307.69
394.107	324.69
394.331	311.69
394.556	309.69
394.78	321.69
395.005	338.69
395.229	321.69
395.454	323.69
395.678	321.69
395.903	328.69
396.127	335.69
396.352	318.69
396.576	304.69
396.801	312.69
397.025	313.69
397.249	308.69
397.474	325.69
397.698	361.69
397.922	330.69
398.147	329.69
398.371	322.69
398.595	338.69
398.82	346.69
399.044	379.69
399.268	409.69
399.492	480.69
399.717	543.69
399.941	516.69
400.165	462.69
400.389	417.69
400.613	395.69
400.837	367.69
401.062	362.69
401.286	344.69
401.51	358.69
401.734	356.69
401.958	354.69
402.182	346.69
402.406	376.69
402.63	389.69
402.854	363.69
403.078	392.69
403.302	397.69
403.526	398.69
403.75	400.69
403.974	396.69
404.198	438.69
404.422	414.69
404.645	417.69
404.869	408.69
405.093	394.69
405.317	409.69
405.541	388.69
405.765	386.69
405.988	379.69
406.212	362.69
406.436	396.69
406.66	370.69
406.883	381.69
407.107	408.69
407.331	431.69
407.555	432.69
407.778	444.69
408.002	426.69
408.226	409.69
408.449	416.69
408.673	401.69
408.896	405.69
409.12	397.69
409.344	395.69
409.567	398.69
409.791	414.69
410.014	404.69
410.238	401.69
410.461	409.69
410.685	389.69
410.908	359.69
411.132	389.69
411.355	363.69
411.578	364.69
411.802	384.69
412.025	357.69
412.249	377.69
412.472	374.69
412.695	351.69
412.919	352.69
413.142	345.69
413.365	348.69
413.589	360.69
413.812	358.69
414.035	351.69
414.258	350.69
414.482	353.69
414.705	363.69
414.928	352.69
415.151	362.69
415.374	353.69
415.597	363.69
415.821	346.69
416.044	347.69
416.267	337.69
416.49	352.69
416.713	337.69
416.936	331.69
417.159	355.69
417.382	352.69
417.605	348.69
417.828	356.69
418.051	360.69
418.274	340.69
418.497	341.69
418.72	361.69
418.943	364.69
419.166	383.69
419.389	399.69
419.611	373.69
419.834	379.69
420.057	372.69
420.28	364.69
420.503	362.69
420.726	339.69
420.948	354.69
421.171	359.69
421.394	375.69
421.617	349.69
421.839	350.69
422.062	332.69
422.285	341.69
422.507	359.69
422.73	347.69
422.953	361.69
423.175	337.69
423.398	381.69
423.621	385.69
423.843	380.69
424.066	377.69
424.288	383.69
424.511	385.69
424.733	361.69
424.956	359.69
425.178	336.69
425.401	353.69
425.623	356.69
425.846	345.69
426.068	342.69
426.291	320.69
426.513	331.69
426.735	328.69
426.958	325.69
427.18	329.69
427.402	317.69
427.625	321.69
427.847	317.69
428.069	319.69
428.292	311.69
428.514	319.69
428.736	325.69
428.958	321.69
429.181	313.69
429.403	318.69
429.625	313.69
429.847	308.69
430.069	297.69
430.292	292.69
430.514	312.69
430.736	308.69
430.958	306.69
431.18	306.69
431.402	312.69
431.624	316.69
431.846	316.69
432.068	299.69
432.29	313.69
432.512	320.69
432.734	322.69
432.956	312.69
433.178	321.69
433.4	314.69
433.622	314.69
433.844	332.69
434.066	320.69
434.287	307.69
434.509	314.69
434.731	355.69
434.953	357.69
435.175	351.69
435.397	342.69
435.618	331.69
435.84	304.69
436.062	324.69
436.284	317.69
436.505	317.69
436.727	330.69
436.949	314.69
437.17	322.69
437.392	322.69
437.614	331.69
437.835	291.69
438.057	307.69
438.278	315.69
438.5	309.69
438.721	300.69
438.943	315.69
439.165	292.69
439.386	296.69
439.608	310.69
439.829	312.69
440.05	294.69
440.272	329.69
440.493	325.69
440.715	329.69
440.936	337.69
441.158	322.69
441.379	328.69
441.6	363.69
441.822	358.69
442.043	359.69
442.264	336.69
442.486	343.69
442.707	338.69
442.928	341.69
443.149	346.69
443.371	357.69
443.592	333.69
443.813	328.69
444.034	351.69
444.255	358.69
444.476	373.69
444.698	377.69
444.919	405.69
445.14	528.69
445.361	435.69
445.582	354.69
445.803	335.69
446.024	337.69
446.245	309.69
446.466	320.69
446.687	307.69
446.908	333.69
447.129	325.69
447.35	313.69
447.571	307.69
447.792	286.69
448.013	309.69
448.234	297.69
448.455	299.69
448.675	288.69
448.896	302.69
449.117	283.69
449.338	306.69
449.559	286.69
449.779	289.69
450	282.69
450.221	281.69
450.442	304.69
450.662	328.69
450.883	287.69
451.104	307.69
451.324	282.69
451.545	299.69
451.766	284.69
451.986	311.69
452.207	297.69
452.428	305.69
452.648	307.69
452.869	296.69
453.089	307.69
453.31	291.69
453.53	299.69
453.751	304.69
453.971	282.69
454.192	268.69
454.412	261.69
454.633	298.69
454.853	282.69
455.073	275.69
455.294	300.69
455.514	289.69
455.734	257.69
455.955	270.69
456.175	276.69
456.395	281.69
456.616	287.69
456.836	278.69
457.056	275.69
457.276	265.69
457.497	273.69
457.717	289.69
457.937	272.69
458.157	278.69
458.377	289.69
458.598	290.69
458.818	276.69
459.038	296.69
459.258	317.69
459.478	334.69
459.698	315.69
459.918	336.69
460.138	341.69
460.358	376.69
460.578	371.69
460.798	374.69
461.018	376.69
461.238	363.69
461.458	377.69
461.678	358.69
461.898	368.69
462.118	353.69
462.338	394.69
462.558	407.69
462.777	409.69
462.997	446.69
463.217	484.69
463.437	496.69
463.657	447.69
463.876	438.69
464.096	428.69
464.316	427.69
464.536	452.69
464.755	427.69
464.975	406.69
465.195	383.69
465.414	356.69
465.634	337.69
465.854	342.69
466.073	318.69
466.293	312.69
466.512	315.69
466.732	309.69
466.951	315.69
467.171	300.69
467.391	319.69
467.61	314.69
467.829	310.69
468.049	316.69
468.268	309.69
468.488	294.69
468.707	284.69
468.927	290.69
469.146	301.69
469.365	291.69
469.585	310.69
469.804	300.69
470.023	336.69
470.243	321.69
470.462	312.69
470.681	315.69
470.901	332.69
471.12	309.69
471.339	317.69
471.558	317.69
471.777	292.69
471.997	327.69
472.216	296.69
472.435	297.69
472.654	284.69
472.873	312.69
473.092	292.69
473.311	308.69
473.53	289.69
473.749	296.69
473.968	305.69
474.187	303.69
474.406	300.69
474.625	302.69
474.844	307.69
475.063	294.69
475.282	292.69
475.501	293.69
475.72	309.69
475.939	312.69
476.158	320.69
476.377	319.69
476.596	296.69
476.814	305.69
477.033	319.69
477.252	314.69
477.471	315.69
477.69	327.69
477.908	329.69
478.127	347.69
478.346	329.69
478.564	373.69
478.783	362.69
479.002	365.69
479.22	374.69
479.439	380.69
479.658	357.69
479.876	359.69
480.095	360.69
480.313	374.69
480.532	409.69
480.751	399.69
480.969	362.69
481.188	356.69
481.406	354.69
481.624	343.69
481.843	342.69
482.061	356.69
482.28	349.69
482.498	341.69
482.717	327.69
482.935	337.69
483.153	326.69
483.372	325.69
483.59	336.69
483.808	335.69
484.027	356.69
484.245	361.69
484.463	336.69
484.681	345.69
484.9	333.69
485.118	339.69
485.336	355.69
485.554	359.69
485.772	369.69
485.99	377.69
486.209	360.69
486.427	360.69
486.645	371.69
486.863	371.69
487.081	389.69
487.299	365.69
487.517	377.69
487.735	374.69
487.953	368.69
488.171	359.69
488.389	351.69
488.607	355.69
488.825	360.69
489.043	360.69
489.261	363.69
489.479	347.69
489.696	366.69
489.914	357.69
490.132	360.69
490.35	349.69
490.568	387.69
490.786	363.69
491.003	374.69
491.221	352.69
491.439	353.69
491.657	368.69
491.874	367.69
492.092	375.69
492.31	352.69
492.527	367.69
492.745	344.69
492.963	356.69
493.18	352.69
493.398	376.69
493.615	373.69
493.833	375.69
494.05	369.69
494.268	383.69
494.485	364.69
494.703	370.69
494.92	381.69
495.138	374.69
495.355	370.69
495.573	371.69
495.79	376.69
496.008	389.69
496.225	387.69
496.442	384.69
496.66	387.69
496.877	389.69
497.094	377.69
497.312	391.69
497.529	396.69
497.746	402.69
497.963	418.69
498.181	450.69
498.398	461.69
498.615	462.69
498.832	489.69
499.049	544.69
499.267	588.69
499.484	642.69
499.701	717.69
499.918	747.69
500.135	889.69
500.352	1027.69
500.569	1082.69
500.786	1079.69
501.003	976.69
501.22	890.69
501.437	775.69
501.654	660.69
501.871	612.69
502.088	555.69
502.305	549.69
502.522	526.69
502.739	497.69
502.956	465.69
