Data from 0.5MCu(NO3)2.Standard.Lamp.E10.CV._HRD10591_16-05-51-754.txt Node
Date: Mon Jul 22 16:05:51 EDT 2019
User: cochatt
Spectrometer: HR+D1059
Trigger mode: 1
Integration Time (sec): 1.000000E-1
Scans to average: 1
Electric dark correction enabled: true
Nonlinearity correction enabled: false
Boxcar width: 0
XAxis mode: Wavelengths
Number of Pixels in Spectrum: 2048
>>>>>Begin Spectral Data<<<<<
223.165	-23.25
223.4	-23.25
223.635	-23.25
223.869	-22.25
224.104	-14.25
224.338	-16.25
224.573	-6.25
224.808	-11.25
225.042	-6.25
225.277	-4.25
225.511	12.75
225.746	-3.25
225.98	13.75
226.215	7.75
226.449	15.75
226.683	21.75
226.918	20.75
227.152	14.75
227.387	16.75
227.621	20.75
227.856	50.75
228.09	51.75
228.324	41.75
228.559	59.75
228.793	79.75
229.027	67.75
229.262	77.75
229.496	78.75
229.73	78.75
229.964	89.75
230.199	81.75
230.433	74.75
230.667	93.75
230.901	79.75
231.136	75.75
231.37	93.75
231.604	92.75
231.838	90.75
232.072	89.75
232.306	81.75
232.541	82.75
232.775	87.75
233.009	95.75
233.243	111.75
233.477	113.75
233.711	84.75
233.945	84.75
234.179	105.75
234.413	89.75
234.647	95.75
234.881	90.75
235.115	84.75
235.349	96.75
235.583	84.75
235.817	97.75
236.051	93.75
236.285	81.75
236.519	89.75
236.753	96.75
236.987	91.75
237.221	102.75
237.455	77.75
237.689	85.75
237.922	79.75
238.156	103.75
238.39	87.75
238.624	99.75
238.858	107.75
239.091	107.75
239.325	79.75
239.559	88.75
239.793	90.75
240.027	95.75
240.26	97.75
240.494	111.75
240.728	101.75
240.961	83.75
241.195	99.75
241.429	91.75
241.662	85.75
241.896	92.75
242.13	84.75
242.363	90.75
242.597	93.75
242.83	93.75
243.064	84.75
243.298	81.75
243.531	94.75
243.765	97.75
243.998	87.75
244.232	92.75
244.465	89.75
244.699	92.75
244.932	102.75
245.166	103.75
245.399	92.75
245.633	104.75
245.866	99.75
246.099	103.75
246.333	100.75
246.566	76.75
246.8	100.75
247.033	110.75
247.266	105.75
247.5	92.75
247.733	96.75
247.966	86.75
248.2	113.75
248.433	108.75
248.666	100.75
248.899	104.75
249.133	104.75
249.366	114.75
249.599	113.75
249.832	87.75
250.066	106.75
250.299	103.75
250.532	102.75
250.765	113.75
250.998	104.75
251.231	104.75
251.465	105.75
251.698	99.75
251.931	104.75
252.164	116.75
252.397	109.75
252.63	97.75
252.863	94.75
253.096	99.75
253.329	124.75
253.562	113.75
253.795	113.75
254.028	106.75
254.261	110.75
254.494	96.75
254.727	99.75
254.96	121.75
255.193	107.75
255.426	110.75
255.659	103.75
255.892	113.75
256.124	120.75
256.357	105.75
256.59	108.75
256.823	109.75
257.056	114.75
257.289	111.75
257.521	110.75
257.754	109.75
257.987	106.75
258.22	114.75
258.452	103.75
258.685	114.75
258.918	117.75
259.151	107.75
259.383	113.75
259.616	115.75
259.849	114.75
260.081	124.75
260.314	124.75
260.547	119.75
260.779	104.75
261.012	123.75
261.244	113.75
261.477	119.75
261.71	132.75
261.942	117.75
262.175	124.75
262.407	114.75
262.64	122.75
262.872	111.75
263.105	117.75
263.337	122.75
263.57	131.75
263.802	125.75
264.035	115.75
264.267	125.75
264.499	129.75
264.732	127.75
264.964	141.75
265.197	127.75
265.429	122.75
265.661	117.75
265.894	129.75
266.126	135.75
266.358	132.75
266.591	125.75
266.823	120.75
267.055	121.75
267.287	139.75
267.52	138.75
267.752	137.75
267.984	119.75
268.216	114.75
268.448	131.75
268.681	133.75
268.913	136.75
269.145	128.75
269.377	127.75
269.609	136.75
269.841	137.75
270.073	120.75
270.306	118.75
270.538	129.75
270.77	122.75
271.002	141.75
271.234	131.75
271.466	131.75
271.698	147.75
271.93	133.75
272.162	136.75
272.394	121.75
272.626	136.75
272.858	138.75
273.09	139.75
273.322	133.75
273.553	124.75
273.785	129.75
274.017	128.75
274.249	138.75
274.481	120.75
274.713	139.75
274.945	129.75
275.176	137.75
275.408	147.75
275.64	147.75
275.872	138.75
276.104	123.75
276.335	153.75
276.567	137.75
276.799	141.75
277.031	139.75
277.262	131.75
277.494	138.75
277.726	142.75
277.957	140.75
278.189	131.75
278.421	148.75
278.652	144.75
278.884	146.75
279.115	144.75
279.347	146.75
279.579	135.75
279.81	140.75
280.042	141.75
280.273	139.75
280.505	136.75
280.736	142.75
280.968	154.75
281.199	133.75
281.431	151.75
281.662	134.75
281.894	147.75
282.125	155.75
282.356	139.75
282.588	148.75
282.819	163.75
283.051	143.75
283.282	147.75
283.513	152.75
283.745	154.75
283.976	158.75
284.207	149.75
284.439	142.75
284.67	161.75
284.901	150.75
285.132	148.75
285.364	155.75
285.595	142.75
285.826	149.75
286.057	164.75
286.288	148.75
286.52	153.75
286.751	145.75
286.982	153.75
287.213	165.75
287.444	166.75
287.675	145.75
287.906	155.75
288.138	160.75
288.369	162.75
288.6	140.75
288.831	150.75
289.062	166.75
289.293	148.75
289.524	178.75
289.755	160.75
289.986	155.75
290.217	170.75
290.448	157.75
290.679	165.75
290.91	160.75
291.141	156.75
291.371	164.75
291.602	163.75
291.833	159.75
292.064	178.75
292.295	158.75
292.526	176.75
292.757	155.75
292.987	157.75
293.218	162.75
293.449	172.75
293.68	163.75
293.91	163.75
294.141	144.75
294.372	157.75
294.603	164.75
294.833	156.75
295.064	169.75
295.295	168.75
295.525	156.75
295.756	172.75
295.987	180.75
296.217	167.75
296.448	159.75
296.679	164.75
296.909	162.75
297.14	178.75
297.37	172.75
297.601	178.75
297.831	161.75
298.062	186.75
298.292	163.75
298.523	185.75
298.753	170.75
298.984	177.75
299.214	164.75
299.445	172.75
299.675	155.75
299.905	169.75
300.136	159.75
300.366	180.75
300.597	191.75
300.827	174.75
301.057	164.75
301.288	159.75
301.518	175.75
301.748	185.75
301.979	183.75
302.209	190.75
302.439	172.75
302.669	170.75
302.9	180.75
303.13	147.75
303.36	178.75
303.59	181.75
303.82	184.75
304.051	169.75
304.281	173.75
304.511	179.75
304.741	176.75
304.971	180.75
305.201	169.75
305.431	170.75
305.661	181.75
305.891	171.75
306.121	168.75
306.352	191.75
306.582	164.75
306.812	181.75
307.042	170.75
307.272	170.75
307.502	185.75
307.731	165.75
307.961	179.75
308.191	171.75
308.421	171.75
308.651	181.75
308.881	173.75
309.111	195.75
309.341	175.75
309.571	156.75
309.8	177.75
310.03	165.75
310.26	186.75
310.49	195.75
310.72	157.75
310.949	175.75
311.179	175.75
311.409	159.75
311.639	184.75
311.868	163.75
312.098	195.75
312.328	168.75
312.557	195.75
312.787	172.75
313.017	196.75
313.246	188.75
313.476	178.75
313.706	168.75
313.935	191.75
314.165	185.75
314.394	191.75
314.624	177.75
314.853	175.75
315.083	180.75
315.312	188.75
315.542	194.75
315.771	184.75
316.001	192.75
316.23	171.75
316.46	173.75
316.689	182.75
316.919	182.75
317.148	176.75
317.377	187.75
317.607	177.75
317.836	189.75
318.065	192.75
318.295	191.75
318.524	184.75
318.753	182.75
318.983	176.75
319.212	178.75
319.441	173.75
319.67	184.75
319.9	191.75
320.129	187.75
320.358	185.75
320.587	190.75
320.816	177.75
321.046	171.75
321.275	195.75
321.504	177.75
321.733	185.75
321.962	170.75
322.191	196.75
322.42	195.75
322.649	187.75
322.878	180.75
323.108	183.75
323.337	163.75
323.566	171.75
323.795	178.75
324.024	183.75
324.253	179.75
324.482	189.75
324.71	191.75
324.939	175.75
325.168	191.75
325.397	197.75
325.626	193.75
325.855	188.75
326.084	188.75
326.313	188.75
326.542	193.75
326.77	167.75
326.999	176.75
327.228	188.75
327.457	194.75
327.686	204.75
327.914	202.75
328.143	182.75
328.372	186.75
328.6	205.75
328.829	192.75
329.058	188.75
329.287	173.75
329.515	191.75
329.744	195.75
329.972	190.75
330.201	200.75
330.43	190.75
330.658	193.75
330.887	184.75
331.115	191.75
331.344	192.75
331.572	193.75
331.801	200.75
332.03	204.75
332.258	203.75
332.486	218.75
332.715	213.75
332.943	224.75
333.172	229.75
333.4	235.75
333.629	240.75
333.857	242.75
334.085	233.75
334.314	230.75
334.542	227.75
334.771	219.75
334.999	209.75
335.227	223.75
335.455	213.75
335.684	225.75
335.912	222.75
336.14	228.75
336.369	205.75
336.597	206.75
336.825	227.75
337.053	211.75
337.281	227.75
337.51	227.75
337.738	212.75
337.966	193.75
338.194	209.75
338.422	201.75
338.65	198.75
338.878	213.75
339.106	211.75
339.334	224.75
339.562	194.75
339.79	180.75
340.018	208.75
340.246	205.75
340.474	212.75
340.702	198.75
340.93	191.75
341.158	202.75
341.386	196.75
341.614	201.75
341.842	195.75
342.07	199.75
342.298	185.75
342.526	204.75
342.754	184.75
342.981	197.75
343.209	191.75
343.437	202.75
343.665	210.75
343.893	229.75
344.12	225.75
344.348	223.75
344.576	209.75
344.804	217.75
345.031	212.75
345.259	205.75
345.487	195.75
345.714	178.75
345.942	212.75
346.17	181.75
346.397	186.75
346.625	205.75
346.853	186.75
347.08	185.75
347.308	198.75
347.535	190.75
347.763	195.75
347.99	193.75
348.218	197.75
348.445	199.75
348.673	186.75
348.9	197.75
349.128	215.75
349.355	170.75
349.583	181.75
349.81	175.75
350.037	183.75
350.265	188.75
350.492	207.75
350.72	187.75
350.947	191.75
351.174	210.75
351.402	195.75
351.629	185.75
351.856	183.75
352.083	173.75
352.311	188.75
352.538	185.75
352.765	203.75
352.992	190.75
353.22	181.75
353.447	176.75
353.674	181.75
353.901	179.75
354.128	189.75
354.355	190.75
354.583	185.75
354.81	178.75
355.037	191.75
355.264	200.75
355.491	189.75
355.718	190.75
355.945	180.75
356.172	191.75
356.399	191.75
356.626	171.75
356.853	182.75
357.08	200.75
357.307	181.75
357.534	199.75
357.761	172.75
357.988	184.75
358.215	191.75
358.441	183.75
358.668	192.75
358.895	194.75
359.122	188.75
359.349	186.75
359.576	201.75
359.802	185.75
360.029	198.75
360.256	185.75
360.483	187.75
360.709	202.75
360.936	195.75
361.163	213.75
361.39	167.75
361.616	194.75
361.843	173.75
362.07	190.75
362.296	185.75
362.523	201.75
362.749	187.75
362.976	195.75
363.203	181.75
363.429	175.75
363.656	184.75
363.882	169.75
364.109	191.75
364.335	186.75
364.562	175.75
364.788	167.75
365.015	183.75
365.241	181.75
365.468	183.75
365.694	196.75
365.92	167.75
366.147	177.75
366.373	200.75
366.599	194.75
366.826	186.75
367.052	198.75
367.278	180.75
367.505	187.75
367.731	180.75
367.957	177.75
368.184	181.75
368.41	205.75
368.636	197.75
368.862	187.75
369.089	194.75
369.315	191.75
369.541	180.75
369.767	197.75
369.993	202.75
370.219	195.75
370.445	196.75
370.672	194.75
370.898	197.75
371.124	197.75
371.35	188.75
371.576	199.75
371.802	209.75
372.028	185.75
372.254	187.75
372.48	193.75
372.706	207.75
372.932	191.75
373.158	196.75
373.384	216.75
373.61	206.75
373.835	187.75
374.061	191.75
374.287	194.75
374.513	196.75
374.739	201.75
374.965	212.75
375.191	223.75
375.416	215.75
375.642	204.75
375.868	201.75
376.094	195.75
376.319	204.75
376.545	197.75
376.771	198.75
376.997	193.75
377.222	203.75
377.448	224.75
377.674	188.75
377.899	174.75
378.125	185.75
378.35	206.75
378.576	204.75
378.802	199.75
379.027	189.75
379.253	206.75
379.478	202.75
379.704	201.75
379.929	179.75
380.155	187.75
380.38	194.75
380.606	198.75
380.831	203.75
381.057	195.75
381.282	189.75
381.507	203.75
381.733	210.75
381.958	180.75
382.184	193.75
382.409	191.75
382.634	210.75
382.86	215.75
383.085	197.75
383.31	204.75
383.535	197.75
383.761	206.75
383.986	199.75
384.211	225.75
384.436	228.75
384.662	227.75
384.887	227.75
385.112	215.75
385.337	235.75
385.562	236.75
385.787	228.75
386.013	223.75
386.238	232.75
386.463	205.75
386.688	223.75
386.913	224.75
387.138	220.75
387.363	196.75
387.588	218.75
387.813	208.75
388.038	205.75
388.263	218.75
388.488	227.75
388.713	229.75
388.938	202.75
389.163	212.75
389.387	212.75
389.612	206.75
389.837	215.75
390.062	215.75
390.287	209.75
390.512	213.75
390.736	217.75
390.961	230.75
391.186	212.75
391.411	226.75
391.636	258.75
391.86	245.75
392.085	239.75
392.31	231.75
392.534	225.75
392.759	239.75
392.984	233.75
393.208	236.75
393.433	204.75
393.658	229.75
393.882	217.75
394.107	221.75
394.331	228.75
394.556	228.75
394.78	242.75
395.005	258.75
395.229	235.75
395.454	242.75
395.678	227.75
395.903	235.75
396.127	225.75
396.352	235.75
396.576	224.75
396.801	225.75
397.025	237.75
397.249	247.75
397.474	231.75
397.698	229.75
397.922	215.75
398.147	219.75
398.371	239.75
398.595	223.75
398.82	236.75
399.044	274.75
399.268	293.75
399.492	325.75
399.717	388.75
399.941	365.75
400.165	324.75
400.389	284.75
400.613	283.75
400.837	267.75
401.062	254.75
401.286	239.75
401.51	243.75
401.734	252.75
401.958	251.75
402.182	266.75
402.406	256.75
402.63	256.75
402.854	269.75
403.078	284.75
403.302	292.75
403.526	267.75
403.75	288.75
403.974	307.75
404.198	307.75
404.422	304.75
404.645	291.75
404.869	279.75
405.093	279.75
405.317	284.75
405.541	283.75
405.765	281.75
405.988	266.75
406.212	268.75
406.436	275.75
406.66	275.75
406.883	293.75
407.107	300.75
407.331	310.75
407.555	314.75
407.778	314.75
408.002	327.75
408.226	309.75
408.449	303.75
408.673	297.75
408.896	283.75
409.12	269.75
409.344	287.75
409.567	276.75
409.791	296.75
410.014	281.75
410.238	284.75
410.461	275.75
410.685	290.75
410.908	281.75
411.132	281.75
411.355	261.75
411.578	260.75
411.802	263.75
412.025	261.75
412.249	275.75
412.472	244.75
412.695	243.75
412.919	269.75
413.142	237.75
413.365	260.75
413.589	259.75
413.812	244.75
414.035	259.75
414.258	244.75
414.482	259.75
414.705	277.75
414.928	240.75
415.151	253.75
415.374	263.75
415.597	247.75
415.821	239.75
416.044	250.75
416.267	239.75
416.49	260.75
416.713	257.75
416.936	255.75
417.159	244.75
417.382	241.75
417.605	254.75
417.828	257.75
418.051	266.75
418.274	270.75
418.497	253.75
418.72	266.75
418.943	257.75
419.166	278.75
419.389	289.75
419.611	273.75
419.834	261.75
420.057	275.75
420.28	248.75
420.503	255.75
420.726	266.75
420.948	243.75
421.171	236.75
421.394	266.75
421.617	244.75
421.839	248.75
422.062	251.75
422.285	259.75
422.507	260.75
422.73	260.75
422.953	272.75
423.175	261.75
423.398	264.75
423.621	267.75
423.843	260.75
424.066	274.75
424.288	257.75
424.511	273.75
424.733	263.75
424.956	245.75
425.178	251.75
425.401	260.75
425.623	244.75
425.846	252.75
426.068	252.75
426.291	252.75
426.513	227.75
426.735	249.75
426.958	249.75
427.18	241.75
427.402	244.75
427.625	239.75
427.847	215.75
428.069	213.75
428.292	235.75
428.514	220.75
428.736	254.75
428.958	228.75
429.181	231.75
429.403	243.75
429.625	215.75
429.847	209.75
430.069	241.75
430.292	239.75
430.514	231.75
430.736	216.75
430.958	232.75
431.18	219.75
431.402	211.75
431.624	236.75
431.846	234.75
432.068	223.75
432.29	236.75
432.512	219.75
432.734	222.75
432.956	209.75
433.178	230.75
433.4	245.75
433.622	247.75
433.844	234.75
434.066	239.75
434.287	243.75
434.509	242.75
434.731	254.75
434.953	250.75
435.175	248.75
435.397	272.75
435.618	221.75
435.84	239.75
436.062	218.75
436.284	235.75
436.505	232.75
436.727	240.75
436.949	232.75
437.17	235.75
437.392	221.75
437.614	234.75
437.835	210.75
438.057	219.75
438.278	227.75
438.5	223.75
438.721	211.75
438.943	229.75
439.165	226.75
439.386	221.75
439.608	236.75
439.829	218.75
440.05	224.75
440.272	232.75
440.493	223.75
440.715	243.75
440.936	247.75
441.158	235.75
441.379	271.75
441.6	253.75
441.822	269.75
442.043	243.75
442.264	254.75
442.486	248.75
442.707	241.75
442.928	247.75
443.149	241.75
443.371	252.75
443.592	257.75
443.813	257.75
444.034	247.75
444.255	257.75
444.476	279.75
444.698	292.75
444.919	296.75
445.14	367.75
445.361	317.75
445.582	255.75
445.803	252.75
446.024	271.75
446.245	243.75
446.466	229.75
446.687	245.75
446.908	227.75
447.129	214.75
447.35	226.75
447.571	219.75
447.792	200.75
448.013	218.75
448.234	220.75
448.455	223.75
448.675	231.75
448.896	217.75
449.117	213.75
449.338	219.75
449.559	210.75
449.779	224.75
450	220.75
450.221	213.75
450.442	220.75
450.662	219.75
450.883	213.75
451.104	216.75
451.324	228.75
451.545	231.75
451.766	216.75
451.986	228.75
452.207	234.75
452.428	228.75
452.648	231.75
452.869	230.75
453.089	212.75
453.31	225.75
453.53	211.75
453.751	232.75
453.971	228.75
454.192	227.75
454.412	204.75
454.633	204.75
454.853	220.75
455.073	214.75
455.294	191.75
455.514	213.75
455.734	211.75
455.955	215.75
456.175	200.75
456.395	216.75
456.616	210.75
456.836	210.75
457.056	201.75
457.276	207.75
457.497	205.75
457.717	216.75
457.937	204.75
458.157	210.75
458.377	208.75
458.598	232.75
458.818	210.75
459.038	225.75
459.258	232.75
459.478	230.75
459.698	235.75
459.918	243.75
460.138	257.75
460.358	267.75
460.578	297.75
460.798	265.75
461.018	278.75
461.238	264.75
461.458	260.75
461.678	267.75
461.898	266.75
462.118	281.75
462.338	286.75
462.558	280.75
462.777	304.75
462.997	321.75
463.217	340.75
463.437	329.75
463.657	310.75
463.876	312.75
464.096	316.75
464.316	311.75
464.536	327.75
464.755	291.75
464.975	295.75
465.195	268.75
465.414	268.75
465.634	242.75
465.854	274.75
466.073	255.75
466.293	228.75
466.512	232.75
466.732	228.75
466.951	235.75
467.171	219.75
467.391	208.75
467.61	219.75
467.829	212.75
468.049	231.75
468.268	226.75
468.488	220.75
468.707	220.75
468.927	219.75
469.146	216.75
469.365	227.75
469.585	232.75
469.804	227.75
470.023	253.75
470.243	228.75
470.462	241.75
470.681	237.75
470.901	227.75
471.12	235.75
471.339	231.75
471.558	226.75
471.777	224.75
471.997	221.75
472.216	214.75
472.435	225.75
472.654	194.75
472.873	227.75
473.092	197.75
473.311	216.75
473.53	239.75
473.749	222.75
473.968	228.75
474.187	223.75
474.406	216.75
474.625	232.75
474.844	224.75
475.063	207.75
475.282	244.75
475.501	207.75
475.72	236.75
475.939	224.75
476.158	218.75
476.377	235.75
476.596	220.75
476.814	236.75
477.033	220.75
477.252	240.75
477.471	239.75
477.69	239.75
477.908	246.75
478.127	255.75
478.346	242.75
478.564	260.75
478.783	274.75
479.002	261.75
479.22	283.75
479.439	260.75
479.658	249.75
479.876	267.75
480.095	251.75
480.313	275.75
480.532	287.75
480.751	287.75
480.969	262.75
481.188	265.75
481.406	271.75
481.624	250.75
481.843	242.75
482.061	243.75
482.28	247.75
482.498	256.75
482.717	243.75
482.935	246.75
483.153	227.75
483.372	227.75
483.59	241.75
483.808	245.75
484.027	259.75
484.245	254.75
484.463	256.75
484.681	244.75
484.9	253.75
485.118	241.75
485.336	268.75
485.554	263.75
485.772	259.75
485.99	284.75
486.209	271.75
486.427	252.75
486.645	281.75
486.863	278.75
487.081	263.75
487.299	281.75
487.517	260.75
487.735	247.75
487.953	252.75
488.171	264.75
488.389	263.75
488.607	252.75
488.825	264.75
489.043	257.75
489.261	257.75
489.479	274.75
489.696	249.75
489.914	261.75
490.132	259.75
490.35	268.75
490.568	261.75
490.786	264.75
491.003	259.75
491.221	267.75
491.439	242.75
491.657	264.75
491.874	271.75
492.092	288.75
492.31	267.75
492.527	263.75
492.745	267.75
492.963	259.75
493.18	259.75
493.398	284.75
493.615	269.75
493.833	263.75
494.05	279.75
494.268	265.75
494.485	281.75
494.703	251.75
494.92	252.75
495.138	260.75
495.355	265.75
495.573	261.75
495.79	284.75
496.008	281.75
496.225	283.75
496.442	291.75
496.66	274.75
496.877	300.75
497.094	280.75
497.312	289.75
497.529	308.75
497.746	295.75
497.963	301.75
498.181	319.75
498.398	323.75
498.615	333.75
498.832	352.75
499.049	361.75
499.267	395.75
499.484	445.75
499.701	485.75
499.918	535.75
500.135	616.75
500.352	722.75
500.569	769.75
500.786	722.75
501.003	678.75
501.22	602.75
501.437	562.75
501.654	460.75
501.871	426.75
502.088	395.75
502.305	379.75
502.522	350.75
502.739	356.75
502.956	327.75
503.172	331.75
