Data from 0.5MCu(NO3)2.Standard.Lamp.E10.CV._HRD10591_16-06-08-754.txt Node
Date: Mon Jul 22 16:06:08 EDT 2019
User: cochatt
Spectrometer: HR+D1059
Trigger mode: 1
Integration Time (sec): 1.000000E-1
Scans to average: 1
Electric dark correction enabled: true
Nonlinearity correction enabled: false
Boxcar width: 0
XAxis mode: Wavelengths
Number of Pixels in Spectrum: 2048
>>>>>Begin Spectral Data<<<<<
223.165	-15.5
223.4	-15.5
223.635	-15.5
223.869	-11.5
224.104	-19.5
224.338	-6.5
224.573	-17.5
224.808	-10.5
225.042	-20.5
225.277	5.5
225.511	-0.5
225.746	17.5
225.98	-4.5
226.215	-0.5
226.449	23.5
226.683	-0.5
226.918	26.5
227.152	34.5
227.387	20.5
227.621	39.5
227.856	54.5
228.09	56.5
228.324	37.5
228.559	57.5
228.793	58.5
229.027	66.5
229.262	68.5
229.496	74.5
229.73	79.5
229.964	78.5
230.199	76.5
230.433	71.5
230.667	74.5
230.901	77.5
231.136	83.5
231.37	80.5
231.604	83.5
231.838	68.5
232.072	80.5
232.306	75.5
232.541	80.5
232.775	80.5
233.009	92.5
233.243	102.5
233.477	98.5
233.711	101.5
233.945	105.5
234.179	94.5
234.413	96.5
234.647	84.5
234.881	92.5
235.115	87.5
235.349	98.5
235.583	101.5
235.817	83.5
236.051	84.5
236.285	100.5
236.519	102.5
236.753	97.5
236.987	92.5
237.221	83.5
237.455	80.5
237.689	90.5
237.922	103.5
238.156	85.5
238.39	79.5
238.624	85.5
238.858	77.5
239.091	106.5
239.325	82.5
239.559	75.5
239.793	78.5
240.027	85.5
240.26	95.5
240.494	97.5
240.728	85.5
240.961	84.5
241.195	92.5
241.429	82.5
241.662	73.5
241.896	87.5
242.13	97.5
242.363	91.5
242.597	90.5
242.83	90.5
243.064	98.5
243.298	87.5
243.531	86.5
243.765	94.5
243.998	81.5
244.232	107.5
244.465	103.5
244.699	105.5
244.932	98.5
245.166	99.5
245.399	97.5
245.633	85.5
245.866	104.5
246.099	100.5
246.333	103.5
246.566	94.5
246.8	96.5
247.033	100.5
247.266	89.5
247.5	103.5
247.733	114.5
247.966	97.5
248.2	98.5
248.433	109.5
248.666	96.5
248.899	96.5
249.133	106.5
249.366	101.5
249.599	99.5
249.832	87.5
250.066	101.5
250.299	106.5
250.532	110.5
250.765	104.5
250.998	91.5
251.231	91.5
251.465	101.5
251.698	99.5
251.931	97.5
252.164	95.5
252.397	100.5
252.63	110.5
252.863	105.5
253.096	103.5
253.329	116.5
253.562	96.5
253.795	105.5
254.028	104.5
254.261	103.5
254.494	106.5
254.727	96.5
254.96	99.5
255.193	99.5
255.426	119.5
255.659	117.5
255.892	95.5
256.124	107.5
256.357	114.5
256.59	99.5
256.823	108.5
257.056	96.5
257.289	106.5
257.521	107.5
257.754	114.5
257.987	118.5
258.22	100.5
258.452	112.5
258.685	114.5
258.918	121.5
259.151	104.5
259.383	110.5
259.616	116.5
259.849	98.5
260.081	126.5
260.314	117.5
260.547	120.5
260.779	120.5
261.012	124.5
261.244	113.5
261.477	118.5
261.71	102.5
261.942	103.5
262.175	122.5
262.407	113.5
262.64	116.5
262.872	127.5
263.105	130.5
263.337	128.5
263.57	107.5
263.802	114.5
264.035	124.5
264.267	118.5
264.499	120.5
264.732	111.5
264.964	118.5
265.197	115.5
265.429	119.5
265.661	131.5
265.894	104.5
266.126	109.5
266.358	121.5
266.591	121.5
266.823	119.5
267.055	120.5
267.287	134.5
267.52	128.5
267.752	122.5
267.984	134.5
268.216	127.5
268.448	119.5
268.681	121.5
268.913	123.5
269.145	120.5
269.377	113.5
269.609	115.5
269.841	123.5
270.073	147.5
270.306	128.5
270.538	120.5
270.77	120.5
271.002	131.5
271.234	128.5
271.466	116.5
271.698	125.5
271.93	134.5
272.162	129.5
272.394	138.5
272.626	122.5
272.858	119.5
273.09	135.5
273.322	115.5
273.553	124.5
273.785	123.5
274.017	121.5
274.249	111.5
274.481	107.5
274.713	130.5
274.945	138.5
275.176	128.5
275.408	123.5
275.64	128.5
275.872	130.5
276.104	138.5
276.335	126.5
276.567	137.5
276.799	140.5
277.031	128.5
277.262	133.5
277.494	126.5
277.726	121.5
277.957	135.5
278.189	130.5
278.421	115.5
278.652	127.5
278.884	135.5
279.115	127.5
279.347	145.5
279.579	129.5
279.81	120.5
280.042	144.5
280.273	128.5
280.505	117.5
280.736	143.5
280.968	150.5
281.199	134.5
281.431	136.5
281.662	158.5
281.894	146.5
282.125	146.5
282.356	142.5
282.588	145.5
282.819	146.5
283.051	135.5
283.282	144.5
283.513	138.5
283.745	141.5
283.976	132.5
284.207	126.5
284.439	145.5
284.67	151.5
284.901	146.5
285.132	153.5
285.364	153.5
285.595	136.5
285.826	135.5
286.057	145.5
286.288	176.5
286.52	138.5
286.751	132.5
286.982	130.5
287.213	145.5
287.444	150.5
287.675	136.5
287.906	157.5
288.138	136.5
288.369	142.5
288.6	140.5
288.831	149.5
289.062	146.5
289.293	159.5
289.524	133.5
289.755	161.5
289.986	146.5
290.217	160.5
290.448	163.5
290.679	158.5
290.91	141.5
291.141	142.5
291.371	160.5
291.602	166.5
291.833	146.5
292.064	156.5
292.295	147.5
292.526	158.5
292.757	155.5
292.987	150.5
293.218	154.5
293.449	156.5
293.68	143.5
293.91	162.5
294.141	148.5
294.372	150.5
294.603	159.5
294.833	162.5
295.064	158.5
295.295	144.5
295.525	158.5
295.756	155.5
295.987	154.5
296.217	171.5
296.448	154.5
296.679	152.5
296.909	160.5
297.14	162.5
297.37	174.5
297.601	168.5
297.831	152.5
298.062	177.5
298.292	161.5
298.523	170.5
298.753	171.5
298.984	151.5
299.214	157.5
299.445	181.5
299.675	154.5
299.905	154.5
300.136	163.5
300.366	167.5
300.597	165.5
300.827	174.5
301.057	165.5
301.288	174.5
301.518	166.5
301.748	171.5
301.979	166.5
302.209	174.5
302.439	181.5
302.669	172.5
302.9	182.5
303.13	180.5
303.36	164.5
303.59	174.5
303.82	167.5
304.051	176.5
304.281	161.5
304.511	187.5
304.741	160.5
304.971	174.5
305.201	167.5
305.431	176.5
305.661	162.5
305.891	186.5
306.121	154.5
306.352	166.5
306.582	176.5
306.812	166.5
307.042	175.5
307.272	183.5
307.502	160.5
307.731	169.5
307.961	167.5
308.191	175.5
308.421	160.5
308.651	170.5
308.881	165.5
309.111	166.5
309.341	155.5
309.571	168.5
309.8	174.5
310.03	164.5
310.26	161.5
310.49	161.5
310.72	178.5
310.949	164.5
311.179	162.5
311.409	177.5
311.639	154.5
311.868	163.5
312.098	171.5
312.328	171.5
312.557	167.5
312.787	160.5
313.017	181.5
313.246	184.5
313.476	178.5
313.706	170.5
313.935	175.5
314.165	165.5
314.394	181.5
314.624	174.5
314.853	161.5
315.083	159.5
315.312	172.5
315.542	171.5
315.771	169.5
316.001	152.5
316.23	168.5
316.46	164.5
316.689	166.5
316.919	174.5
317.148	174.5
317.377	169.5
317.607	176.5
317.836	166.5
318.065	163.5
318.295	171.5
318.524	184.5
318.753	169.5
318.983	168.5
319.212	175.5
319.441	160.5
319.67	180.5
319.9	166.5
320.129	174.5
320.358	186.5
320.587	160.5
320.816	184.5
321.046	171.5
321.275	169.5
321.504	166.5
321.733	176.5
321.962	168.5
322.191	161.5
322.42	172.5
322.649	177.5
322.878	162.5
323.108	165.5
323.337	166.5
323.566	165.5
323.795	175.5
324.024	190.5
324.253	171.5
324.482	165.5
324.71	178.5
324.939	180.5
325.168	181.5
325.397	179.5
325.626	164.5
325.855	166.5
326.084	179.5
326.313	196.5
326.542	193.5
326.77	194.5
326.999	176.5
327.228	180.5
327.457	169.5
327.686	159.5
327.914	197.5
328.143	185.5
328.372	175.5
328.6	175.5
328.829	166.5
329.058	171.5
329.287	186.5
329.515	198.5
329.744	175.5
329.972	182.5
330.201	184.5
330.43	174.5
330.658	177.5
330.887	193.5
331.115	190.5
331.344	183.5
331.572	192.5
331.801	190.5
332.03	203.5
332.258	196.5
332.486	189.5
332.715	226.5
332.943	203.5
333.172	213.5
333.4	242.5
333.629	222.5
333.857	209.5
334.085	215.5
334.314	225.5
334.542	225.5
334.771	204.5
334.999	209.5
335.227	202.5
335.455	212.5
335.684	214.5
335.912	222.5
336.14	210.5
336.369	199.5
336.597	216.5
336.825	208.5
337.053	213.5
337.281	200.5
337.51	223.5
337.738	196.5
337.966	203.5
338.194	213.5
338.422	199.5
338.65	208.5
338.878	185.5
339.106	183.5
339.334	190.5
339.562	207.5
339.79	181.5
340.018	171.5
340.246	189.5
340.474	182.5
340.702	169.5
340.93	174.5
341.158	195.5
341.386	191.5
341.614	173.5
341.842	184.5
342.07	178.5
342.298	191.5
342.526	170.5
342.754	188.5
342.981	193.5
343.209	188.5
343.437	192.5
343.665	201.5
343.893	200.5
344.12	223.5
344.348	201.5
344.576	202.5
344.804	200.5
345.031	190.5
345.259	179.5
345.487	176.5
345.714	179.5
345.942	186.5
346.17	188.5
346.397	184.5
346.625	208.5
346.853	192.5
347.08	193.5
347.308	190.5
347.535	173.5
347.763	183.5
347.99	196.5
348.218	179.5
348.445	167.5
348.673	186.5
348.9	174.5
349.128	185.5
349.355	184.5
349.583	171.5
349.81	190.5
350.037	174.5
350.265	174.5
350.492	173.5
350.72	169.5
350.947	172.5
351.174	206.5
351.402	166.5
351.629	194.5
351.856	174.5
352.083	185.5
352.311	175.5
352.538	174.5
352.765	188.5
352.992	178.5
353.22	175.5
353.447	176.5
353.674	170.5
353.901	197.5
354.128	169.5
354.355	178.5
354.583	183.5
354.81	170.5
355.037	179.5
355.264	178.5
355.491	178.5
355.718	158.5
355.945	176.5
356.172	195.5
356.399	181.5
356.626	175.5
356.853	186.5
357.08	184.5
357.307	160.5
357.534	194.5
357.761	187.5
357.988	194.5
358.215	189.5
358.441	175.5
358.668	167.5
358.895	164.5
359.122	178.5
359.349	181.5
359.576	169.5
359.802	181.5
360.029	187.5
360.256	168.5
360.483	171.5
360.709	186.5
360.936	194.5
361.163	174.5
361.39	179.5
361.616	166.5
361.843	167.5
362.07	188.5
362.296	179.5
362.523	184.5
362.749	169.5
362.976	192.5
363.203	180.5
363.429	170.5
363.656	165.5
363.882	179.5
364.109	183.5
364.335	172.5
364.562	189.5
364.788	182.5
365.015	186.5
365.241	172.5
365.468	193.5
365.694	178.5
365.92	184.5
366.147	165.5
366.373	171.5
366.599	169.5
366.826	183.5
367.052	174.5
367.278	186.5
367.505	186.5
367.731	180.5
367.957	176.5
368.184	185.5
368.41	179.5
368.636	208.5
368.862	181.5
369.089	187.5
369.315	183.5
369.541	167.5
369.767	187.5
369.993	191.5
370.219	178.5
370.445	196.5
370.672	183.5
370.898	167.5
371.124	168.5
371.35	185.5
371.576	174.5
371.802	171.5
372.028	180.5
372.254	195.5
372.48	200.5
372.706	186.5
372.932	200.5
373.158	175.5
373.384	171.5
373.61	190.5
373.835	192.5
374.061	182.5
374.287	184.5
374.513	190.5
374.739	190.5
374.965	202.5
375.191	210.5
375.416	198.5
375.642	206.5
375.868	190.5
376.094	195.5
376.319	167.5
376.545	183.5
376.771	196.5
376.997	188.5
377.222	189.5
377.448	183.5
377.674	172.5
377.899	189.5
378.125	187.5
378.35	169.5
378.576	196.5
378.802	182.5
379.027	171.5
379.253	193.5
379.478	174.5
379.704	182.5
379.929	175.5
380.155	182.5
380.38	194.5
380.606	186.5
380.831	182.5
381.057	184.5
381.282	196.5
381.507	190.5
381.733	179.5
381.958	188.5
382.184	199.5
382.409	176.5
382.634	193.5
382.86	210.5
383.085	193.5
383.31	183.5
383.535	186.5
383.761	207.5
383.986	208.5
384.211	215.5
384.436	218.5
384.662	221.5
384.887	202.5
385.112	215.5
385.337	218.5
385.562	204.5
385.787	200.5
386.013	226.5
386.238	214.5
386.463	208.5
386.688	221.5
386.913	223.5
387.138	215.5
387.363	194.5
387.588	208.5
387.813	198.5
388.038	213.5
388.263	206.5
388.488	222.5
388.713	216.5
388.938	212.5
389.163	200.5
389.387	192.5
389.612	193.5
389.837	191.5
390.062	204.5
390.287	209.5
390.512	191.5
390.736	206.5
390.961	229.5
391.186	204.5
391.411	227.5
391.636	220.5
391.86	214.5
392.085	236.5
392.31	227.5
392.534	226.5
392.759	215.5
392.984	218.5
393.208	223.5
393.433	206.5
393.658	213.5
393.882	228.5
394.107	225.5
394.331	203.5
394.556	227.5
394.78	235.5
395.005	221.5
395.229	228.5
395.454	218.5
395.678	233.5
395.903	229.5
396.127	227.5
396.352	215.5
396.576	220.5
396.801	212.5
397.025	215.5
397.249	216.5
397.474	216.5
397.698	220.5
397.922	215.5
398.147	226.5
398.371	233.5
398.595	249.5
398.82	238.5
399.044	241.5
399.268	279.5
399.492	316.5
399.717	324.5
399.941	343.5
400.165	306.5
400.389	290.5
400.613	262.5
400.837	254.5
401.062	243.5
401.286	242.5
401.51	234.5
401.734	241.5
401.958	255.5
402.182	254.5
402.406	272.5
402.63	248.5
402.854	254.5
403.078	269.5
403.302	275.5
403.526	274.5
403.75	296.5
403.974	292.5
404.198	295.5
404.422	290.5
404.645	284.5
404.869	264.5
405.093	274.5
405.317	259.5
405.541	258.5
405.765	273.5
405.988	258.5
406.212	281.5
406.436	256.5
406.66	260.5
406.883	275.5
407.107	296.5
407.331	304.5
407.555	287.5
407.778	299.5
408.002	282.5
408.226	294.5
408.449	271.5
408.673	268.5
408.896	278.5
409.12	269.5
409.344	272.5
409.567	273.5
409.791	274.5
410.014	281.5
410.238	263.5
410.461	275.5
410.685	261.5
410.908	264.5
411.132	266.5
411.355	260.5
411.578	234.5
411.802	258.5
412.025	250.5
412.249	254.5
412.472	259.5
412.695	262.5
412.919	243.5
413.142	243.5
413.365	240.5
413.589	233.5
413.812	225.5
414.035	225.5
414.258	262.5
414.482	238.5
414.705	231.5
414.928	251.5
415.151	240.5
415.374	249.5
415.597	248.5
415.821	238.5
416.044	236.5
416.267	248.5
416.49	258.5
416.713	249.5
416.936	242.5
417.159	255.5
417.382	251.5
417.605	258.5
417.828	236.5
418.051	245.5
418.274	244.5
418.497	238.5
418.72	256.5
418.943	232.5
419.166	263.5
419.389	254.5
419.611	261.5
419.834	247.5
420.057	251.5
420.28	256.5
420.503	240.5
420.726	243.5
420.948	240.5
421.171	255.5
421.394	228.5
421.617	232.5
421.839	243.5
422.062	226.5
422.285	228.5
422.507	272.5
422.73	252.5
422.953	246.5
423.175	278.5
423.398	252.5
423.621	264.5
423.843	261.5
424.066	279.5
424.288	261.5
424.511	252.5
424.733	257.5
424.956	250.5
425.178	251.5
425.401	262.5
425.623	252.5
425.846	239.5
426.068	229.5
426.291	222.5
426.513	228.5
426.735	228.5
426.958	246.5
427.18	215.5
427.402	224.5
427.625	222.5
427.847	216.5
428.069	229.5
428.292	220.5
428.514	210.5
428.736	211.5
428.958	220.5
429.181	207.5
429.403	216.5
429.625	209.5
429.847	210.5
430.069	232.5
430.292	231.5
430.514	221.5
430.736	219.5
430.958	205.5
431.18	188.5
431.402	234.5
431.624	206.5
431.846	219.5
432.068	222.5
432.29	224.5
432.512	218.5
432.734	223.5
432.956	239.5
433.178	235.5
433.4	219.5
433.622	206.5
433.844	223.5
434.066	232.5
434.287	225.5
434.509	248.5
434.731	232.5
434.953	250.5
435.175	252.5
435.397	260.5
435.618	241.5
435.84	225.5
436.062	226.5
436.284	228.5
436.505	225.5
436.727	230.5
436.949	233.5
437.17	211.5
437.392	198.5
437.614	194.5
437.835	215.5
438.057	234.5
438.278	244.5
438.5	195.5
438.721	224.5
438.943	219.5
439.165	217.5
439.386	238.5
439.608	225.5
439.829	226.5
440.05	223.5
440.272	211.5
440.493	226.5
440.715	232.5
440.936	228.5
441.158	216.5
441.379	234.5
441.6	248.5
441.822	251.5
442.043	249.5
442.264	256.5
442.486	230.5
442.707	239.5
442.928	242.5
443.149	246.5
443.371	233.5
443.592	246.5
443.813	244.5
444.034	265.5
444.255	262.5
444.476	261.5
444.698	281.5
444.919	279.5
445.14	335.5
445.361	303.5
445.582	244.5
445.803	246.5
446.024	233.5
446.245	225.5
446.466	219.5
446.687	242.5
446.908	222.5
447.129	223.5
447.35	229.5
447.571	210.5
447.792	223.5
448.013	201.5
448.234	211.5
448.455	218.5
448.675	190.5
448.896	204.5
449.117	182.5
449.338	200.5
449.559	211.5
449.779	210.5
450	215.5
450.221	204.5
450.442	202.5
450.662	219.5
450.883	222.5
451.104	227.5
451.324	217.5
451.545	218.5
451.766	214.5
451.986	217.5
452.207	220.5
452.428	191.5
452.648	224.5
452.869	228.5
453.089	212.5
453.31	215.5
453.53	203.5
453.751	207.5
453.971	217.5
454.192	198.5
454.412	203.5
454.633	198.5
454.853	210.5
455.073	204.5
455.294	223.5
455.514	204.5
455.734	206.5
455.955	195.5
456.175	184.5
456.395	196.5
456.616	202.5
456.836	202.5
457.056	195.5
457.276	191.5
457.497	193.5
457.717	195.5
457.937	184.5
458.157	209.5
458.377	183.5
458.598	193.5
458.818	214.5
459.038	214.5
459.258	223.5
459.478	236.5
459.698	226.5
459.918	233.5
460.138	225.5
460.358	234.5
460.578	255.5
460.798	266.5
461.018	266.5
461.238	258.5
461.458	254.5
461.678	253.5
461.898	257.5
462.118	253.5
462.338	275.5
462.558	282.5
462.777	272.5
462.997	307.5
463.217	318.5
463.437	327.5
463.657	302.5
463.876	298.5
464.096	294.5
464.316	290.5
464.536	294.5
464.755	283.5
464.975	278.5
465.195	260.5
465.414	264.5
465.634	255.5
465.854	228.5
466.073	231.5
466.293	215.5
466.512	191.5
466.732	220.5
466.951	213.5
467.171	211.5
467.391	224.5
467.61	214.5
467.829	216.5
468.049	212.5
468.268	215.5
468.488	220.5
468.707	195.5
468.927	204.5
469.146	204.5
469.365	223.5
469.585	238.5
469.804	221.5
470.023	241.5
470.243	222.5
470.462	195.5
470.681	209.5
470.901	241.5
471.12	226.5
471.339	207.5
471.558	215.5
471.777	203.5
471.997	203.5
472.216	216.5
472.435	208.5
472.654	201.5
472.873	209.5
473.092	225.5
473.311	212.5
473.53	204.5
473.749	215.5
473.968	209.5
474.187	201.5
474.406	207.5
474.625	204.5
474.844	206.5
475.063	206.5
475.282	197.5
475.501	210.5
475.72	208.5
475.939	212.5
476.158	226.5
476.377	218.5
476.596	218.5
476.814	202.5
477.033	229.5
477.252	212.5
477.471	244.5
477.69	228.5
477.908	227.5
478.127	242.5
478.346	234.5
478.564	250.5
478.783	253.5
479.002	251.5
479.22	260.5
479.439	260.5
479.658	251.5
479.876	246.5
480.095	257.5
480.313	263.5
480.532	294.5
480.751	267.5
480.969	243.5
481.188	255.5
481.406	243.5
481.624	243.5
481.843	247.5
482.061	233.5
482.28	238.5
482.498	241.5
482.717	225.5
482.935	226.5
483.153	234.5
483.372	247.5
483.59	242.5
483.808	223.5
484.027	241.5
484.245	235.5
484.463	234.5
484.681	258.5
484.9	251.5
485.118	240.5
485.336	245.5
485.554	251.5
485.772	233.5
485.99	260.5
486.209	247.5
486.427	254.5
486.645	256.5
486.863	245.5
487.081	259.5
487.299	244.5
487.517	256.5
487.735	245.5
487.953	246.5
488.171	261.5
488.389	260.5
488.607	254.5
488.825	240.5
489.043	241.5
489.261	257.5
489.479	239.5
489.696	246.5
489.914	251.5
490.132	257.5
490.35	271.5
490.568	262.5
490.786	246.5
491.003	255.5
491.221	238.5
491.439	247.5
491.657	250.5
491.874	247.5
492.092	253.5
492.31	258.5
492.527	246.5
492.745	254.5
492.963	233.5
493.18	258.5
493.398	260.5
493.615	243.5
493.833	261.5
494.05	248.5
494.268	266.5
494.485	276.5
494.703	275.5
494.92	256.5
495.138	261.5
495.355	272.5
495.573	257.5
495.79	258.5
496.008	253.5
496.225	272.5
496.442	269.5
496.66	281.5
496.877	278.5
497.094	271.5
497.312	268.5
497.529	275.5
497.746	279.5
497.963	289.5
498.181	293.5
498.398	318.5
498.615	316.5
498.832	330.5
499.049	344.5
499.267	371.5
499.484	402.5
499.701	458.5
499.918	517.5
500.135	580.5
500.352	656.5
500.569	679.5
500.786	667.5
501.003	630.5
501.22	587.5
501.437	502.5
501.654	442.5
501.871	400.5
502.088	400.5
502.305	366.5
502.522	351.5
502.739	330.5
502.956	356.5
503.172	277.5
503.389	278.5
503.606	291.5
503.823	279.5
504.04	285.5
504.256	298.5
504.473	287.5
504.69	301.5
504.907	304.5
505.123	274.5
505.34	276.5
505.557	262.5
505.773	260.5
505.99	265.5
506.207	247.5
506.423	258.5
506.64	259.5
506.856	239.5
507.073	241.5
507.289	225.5
507.506	243.5
507.722	235.5
507.939	239.5
508.155	241.5
508.372	242.5
508.588	234.5
508.805	245.5
509.021	230.5
509.238	222.5
509.454	208.5
509.67	229.5
509.887	222.5
510.103	211.5
510.319	203.5
510.536	203.5
510.752	211.5
510.968	211.5
511.184	210.5
511.401	213.5
511.617	213.5
511.833	233.5
512.049	223.5
512.265	234.5
512.481	223.5
512.698	213.5
512.914	207.5
513.13	218.5
513.346	219.5
513.562	231.5
513.778	211.5
513.994	218.5
514.21	231.5
514.426	231.5
514.642	241.5
514.858	231.5
515.074	226.5
515.29	235.5
515.506	231.5
515.721	227.5
515.937	238.5
516.153	239.5
516.369	238.5
516.585	248.5
516.801	257.5
517.016	258.5
517.232	262.5
517.448	295.5
517.664	283.5
517.879	306.5
518.095	294.5
518.311	303.5
518.527	261.5
518.742	250.5
518.958	242.5
519.173	232.5
519.389	248.5
519.605	239.5
519.82	227.5
520.036	232.5
520.251	244.5
520.467	231.5
520.682	228.5
520.898	223.5
521.113	197.5
521.329	228.5
