Data from 0.5MCu(NO3)2.Standard.Lamp.E10.CV._HRD10591_16-06-10-753.txt Node
Date: Mon Jul 22 16:06:10 EDT 2019
User: cochatt
Spectrometer: HR+D1059
Trigger mode: 1
Integration Time (sec): 1.000000E-1
Scans to average: 1
Electric dark correction enabled: true
Nonlinearity correction enabled: false
Boxcar width: 0
XAxis mode: Wavelengths
Number of Pixels in Spectrum: 2048
>>>>>Begin Spectral Data<<<<<
223.165	-12.94
223.4	-12.94
223.635	-12.94
223.869	-12.94
224.104	-6.94
224.338	-7.94
224.573	-16.94
224.808	-19.94
225.042	-10.94
225.277	0.06
225.511	-4.94
225.746	6.06
225.98	13.06
226.215	12.06
226.449	8.06
226.683	7.06
226.918	24.06
227.152	23.06
227.387	39.06
227.621	36.06
227.856	34.06
228.09	51.06
228.324	41.06
228.559	37.06
228.793	60.06
229.027	82.06
229.262	71.06
229.496	76.06
229.73	60.06
229.964	81.06
230.199	90.06
230.433	73.06
230.667	81.06
230.901	83.06
231.136	82.06
231.37	82.06
231.604	96.06
231.838	88.06
232.072	82.06
232.306	90.06
232.541	79.06
232.775	74.06
233.009	76.06
233.243	87.06
233.477	85.06
233.711	73.06
233.945	91.06
234.179	80.06
234.413	101.06
234.647	92.06
234.881	97.06
235.115	77.06
235.349	97.06
235.583	72.06
235.817	89.06
236.051	92.06
236.285	96.06
236.519	92.06
236.753	93.06
236.987	91.06
237.221	79.06
237.455	71.06
237.689	93.06
237.922	86.06
238.156	69.06
238.39	82.06
238.624	84.06
238.858	100.06
239.091	98.06
239.325	75.06
239.559	75.06
239.793	82.06
240.027	94.06
240.26	81.06
240.494	82.06
240.728	86.06
240.961	76.06
241.195	85.06
241.429	99.06
241.662	98.06
241.896	107.06
242.13	89.06
242.363	90.06
242.597	103.06
242.83	87.06
243.064	106.06
243.298	98.06
243.531	83.06
243.765	91.06
243.998	80.06
244.232	104.06
244.465	96.06
244.699	86.06
244.932	92.06
245.166	84.06
245.399	94.06
245.633	96.06
245.866	85.06
246.099	85.06
246.333	85.06
246.566	94.06
246.8	100.06
247.033	95.06
247.266	99.06
247.5	98.06
247.733	101.06
247.966	107.06
248.2	87.06
248.433	96.06
248.666	94.06
248.899	100.06
249.133	106.06
249.366	89.06
249.599	108.06
249.832	93.06
250.066	105.06
250.299	108.06
250.532	94.06
250.765	102.06
250.998	96.06
251.231	108.06
251.465	102.06
251.698	102.06
251.931	112.06
252.164	118.06
252.397	98.06
252.63	102.06
252.863	119.06
253.096	107.06
253.329	100.06
253.562	99.06
253.795	113.06
254.028	112.06
254.261	104.06
254.494	106.06
254.727	117.06
254.96	106.06
255.193	95.06
255.426	101.06
255.659	108.06
255.892	114.06
256.124	111.06
256.357	117.06
256.59	127.06
256.823	115.06
257.056	111.06
257.289	96.06
257.521	129.06
257.754	113.06
257.987	98.06
258.22	95.06
258.452	121.06
258.685	109.06
258.918	109.06
259.151	126.06
259.383	106.06
259.616	112.06
259.849	114.06
260.081	116.06
260.314	118.06
260.547	111.06
260.779	107.06
261.012	115.06
261.244	111.06
261.477	116.06
261.71	94.06
261.942	98.06
262.175	127.06
262.407	126.06
262.64	111.06
262.872	107.06
263.105	111.06
263.337	117.06
263.57	120.06
263.802	114.06
264.035	116.06
264.267	111.06
264.499	111.06
264.732	137.06
264.964	125.06
265.197	109.06
265.429	134.06
265.661	116.06
265.894	117.06
266.126	126.06
266.358	123.06
266.591	118.06
266.823	122.06
267.055	113.06
267.287	132.06
267.52	128.06
267.752	117.06
267.984	123.06
268.216	131.06
268.448	133.06
268.681	114.06
268.913	134.06
269.145	136.06
269.377	117.06
269.609	126.06
269.841	120.06
270.073	127.06
270.306	122.06
270.538	123.06
270.77	123.06
271.002	122.06
271.234	122.06
271.466	137.06
271.698	109.06
271.93	117.06
272.162	128.06
272.394	135.06
272.626	120.06
272.858	124.06
273.09	124.06
273.322	136.06
273.553	127.06
273.785	132.06
274.017	119.06
274.249	123.06
274.481	120.06
274.713	128.06
274.945	140.06
275.176	137.06
275.408	141.06
275.64	134.06
275.872	133.06
276.104	133.06
276.335	138.06
276.567	137.06
276.799	134.06
277.031	140.06
277.262	140.06
277.494	137.06
277.726	138.06
277.957	132.06
278.189	162.06
278.421	138.06
278.652	127.06
278.884	143.06
279.115	140.06
279.347	148.06
279.579	121.06
279.81	138.06
280.042	139.06
280.273	154.06
280.505	131.06
280.736	137.06
280.968	131.06
281.199	125.06
281.431	144.06
281.662	139.06
281.894	143.06
282.125	148.06
282.356	149.06
282.588	143.06
282.819	145.06
283.051	143.06
283.282	155.06
283.513	150.06
283.745	155.06
283.976	158.06
284.207	153.06
284.439	143.06
284.67	147.06
284.901	140.06
285.132	151.06
285.364	163.06
285.595	151.06
285.826	158.06
286.057	161.06
286.288	149.06
286.52	155.06
286.751	157.06
286.982	136.06
287.213	146.06
287.444	135.06
287.675	170.06
287.906	156.06
288.138	159.06
288.369	151.06
288.6	158.06
288.831	146.06
289.062	162.06
289.293	151.06
289.524	154.06
289.755	159.06
289.986	159.06
290.217	152.06
290.448	144.06
290.679	153.06
290.91	165.06
291.141	148.06
291.371	169.06
291.602	154.06
291.833	163.06
292.064	154.06
292.295	164.06
292.526	156.06
292.757	158.06
292.987	167.06
293.218	153.06
293.449	141.06
293.68	160.06
293.91	180.06
294.141	160.06
294.372	152.06
294.603	154.06
294.833	168.06
295.064	169.06
295.295	156.06
295.525	150.06
295.756	164.06
295.987	156.06
296.217	181.06
296.448	157.06
296.679	171.06
296.909	163.06
297.14	149.06
297.37	164.06
297.601	172.06
297.831	179.06
298.062	175.06
298.292	166.06
298.523	191.06
298.753	200.06
298.984	169.06
299.214	175.06
299.445	171.06
299.675	169.06
299.905	183.06
300.136	198.06
300.366	187.06
300.597	167.06
300.827	181.06
301.057	166.06
301.288	159.06
301.518	161.06
301.748	180.06
301.979	177.06
302.209	186.06
302.439	170.06
302.669	176.06
302.9	162.06
303.13	177.06
303.36	183.06
303.59	173.06
303.82	159.06
304.051	188.06
304.281	181.06
304.511	175.06
304.741	180.06
304.971	172.06
305.201	167.06
305.431	171.06
305.661	164.06
305.891	168.06
306.121	187.06
306.352	189.06
306.582	169.06
306.812	164.06
307.042	183.06
307.272	174.06
307.502	172.06
307.731	168.06
307.961	172.06
308.191	185.06
308.421	186.06
308.651	174.06
308.881	181.06
309.111	180.06
309.341	156.06
309.571	173.06
309.8	175.06
310.03	179.06
310.26	175.06
310.49	193.06
310.72	169.06
310.949	181.06
311.179	179.06
311.409	169.06
311.639	162.06
311.868	196.06
312.098	195.06
312.328	179.06
312.557	183.06
312.787	180.06
313.017	172.06
313.246	185.06
313.476	168.06
313.706	187.06
313.935	177.06
314.165	182.06
314.394	200.06
314.624	168.06
314.853	172.06
315.083	195.06
315.312	181.06
315.542	185.06
315.771	197.06
316.001	191.06
316.23	178.06
316.46	180.06
316.689	185.06
316.919	179.06
317.148	179.06
317.377	181.06
317.607	167.06
317.836	183.06
318.065	171.06
318.295	181.06
318.524	161.06
318.753	179.06
318.983	171.06
319.212	188.06
319.441	175.06
319.67	176.06
319.9	178.06
320.129	197.06
320.358	180.06
320.587	177.06
320.816	178.06
321.046	196.06
321.275	170.06
321.504	171.06
321.733	171.06
321.962	196.06
322.191	168.06
322.42	179.06
322.649	166.06
322.878	183.06
323.108	179.06
323.337	176.06
323.566	178.06
323.795	179.06
324.024	170.06
324.253	185.06
324.482	168.06
324.71	180.06
324.939	183.06
325.168	188.06
325.397	192.06
325.626	195.06
325.855	188.06
326.084	192.06
326.313	183.06
326.542	199.06
326.77	198.06
326.999	203.06
327.228	193.06
327.457	186.06
327.686	188.06
327.914	178.06
328.143	183.06
328.372	190.06
328.6	184.06
328.829	206.06
329.058	168.06
329.287	191.06
329.515	199.06
329.744	190.06
329.972	192.06
330.201	198.06
330.43	189.06
330.658	188.06
330.887	209.06
331.115	199.06
331.344	204.06
331.572	202.06
331.801	203.06
332.03	196.06
332.258	210.06
332.486	210.06
332.715	214.06
332.943	223.06
333.172	216.06
333.4	244.06
333.629	254.06
333.857	251.06
334.085	227.06
334.314	235.06
334.542	221.06
334.771	221.06
334.999	215.06
335.227	218.06
335.455	223.06
335.684	217.06
335.912	213.06
336.14	206.06
336.369	224.06
336.597	225.06
336.825	208.06
337.053	218.06
337.281	215.06
337.51	197.06
337.738	206.06
337.966	203.06
338.194	215.06
338.422	210.06
338.65	206.06
338.878	202.06
339.106	209.06
339.334	200.06
339.562	202.06
339.79	206.06
340.018	197.06
340.246	189.06
340.474	203.06
340.702	182.06
340.93	191.06
341.158	212.06
341.386	195.06
341.614	191.06
341.842	184.06
342.07	197.06
342.298	175.06
342.526	188.06
342.754	187.06
342.981	195.06
343.209	170.06
343.437	213.06
343.665	228.06
343.893	218.06
344.12	242.06
344.348	222.06
344.576	201.06
344.804	195.06
345.031	199.06
345.259	203.06
345.487	183.06
345.714	186.06
345.942	187.06
346.17	180.06
346.397	195.06
346.625	194.06
346.853	195.06
347.08	197.06
347.308	181.06
347.535	199.06
347.763	197.06
347.99	194.06
348.218	210.06
348.445	196.06
348.673	196.06
348.9	185.06
349.128	183.06
349.355	184.06
349.583	172.06
349.81	202.06
350.037	174.06
350.265	197.06
350.492	180.06
350.72	202.06
350.947	188.06
351.174	194.06
351.402	176.06
351.629	180.06
351.856	171.06
352.083	191.06
352.311	188.06
352.538	187.06
352.765	175.06
352.992	178.06
353.22	170.06
353.447	203.06
353.674	196.06
353.901	183.06
354.128	188.06
354.355	183.06
354.583	171.06
354.81	194.06
355.037	179.06
355.264	182.06
355.491	203.06
355.718	206.06
355.945	204.06
356.172	200.06
356.399	176.06
356.626	185.06
356.853	184.06
357.08	195.06
357.307	173.06
357.534	200.06
357.761	189.06
357.988	196.06
358.215	191.06
358.441	190.06
358.668	184.06
358.895	185.06
359.122	194.06
359.349	183.06
359.576	184.06
359.802	179.06
360.029	180.06
360.256	173.06
360.483	184.06
360.709	170.06
360.936	191.06
361.163	189.06
361.39	185.06
361.616	179.06
361.843	199.06
362.07	181.06
362.296	179.06
362.523	184.06
362.749	189.06
362.976	182.06
363.203	193.06
363.429	177.06
363.656	178.06
363.882	182.06
364.109	184.06
364.335	195.06
364.562	179.06
364.788	191.06
365.015	183.06
365.241	192.06
365.468	187.06
365.694	183.06
365.92	176.06
366.147	193.06
366.373	176.06
366.599	204.06
366.826	199.06
367.052	203.06
367.278	178.06
367.505	186.06
367.731	195.06
367.957	186.06
368.184	187.06
368.41	181.06
368.636	188.06
368.862	193.06
369.089	175.06
369.315	190.06
369.541	189.06
369.767	194.06
369.993	202.06
370.219	179.06
370.445	202.06
370.672	201.06
370.898	190.06
371.124	192.06
371.35	205.06
371.576	199.06
371.802	195.06
372.028	191.06
372.254	199.06
372.48	194.06
372.706	203.06
372.932	192.06
373.158	203.06
373.384	203.06
373.61	198.06
373.835	206.06
374.061	181.06
374.287	209.06
374.513	180.06
374.739	196.06
374.965	212.06
375.191	202.06
375.416	218.06
375.642	216.06
375.868	200.06
376.094	216.06
376.319	208.06
376.545	211.06
376.771	212.06
376.997	197.06
377.222	194.06
377.448	200.06
377.674	200.06
377.899	186.06
378.125	180.06
378.35	187.06
378.576	192.06
378.802	196.06
379.027	199.06
379.253	180.06
379.478	199.06
379.704	205.06
379.929	209.06
380.155	196.06
380.38	196.06
380.606	195.06
380.831	207.06
381.057	217.06
381.282	192.06
381.507	184.06
381.733	188.06
381.958	192.06
382.184	185.06
382.409	187.06
382.634	205.06
382.86	209.06
383.085	211.06
383.31	207.06
383.535	211.06
383.761	225.06
383.986	222.06
384.211	220.06
384.436	223.06
384.662	215.06
384.887	215.06
385.112	211.06
385.337	214.06
385.562	214.06
385.787	224.06
386.013	245.06
386.238	211.06
386.463	216.06
386.688	210.06
386.913	216.06
387.138	229.06
387.363	228.06
387.588	230.06
387.813	217.06
388.038	232.06
388.263	210.06
388.488	216.06
388.713	214.06
388.938	209.06
389.163	211.06
389.387	224.06
389.612	221.06
389.837	224.06
390.062	203.06
390.287	216.06
390.512	216.06
390.736	209.06
390.961	234.06
391.186	221.06
391.411	221.06
391.636	217.06
391.86	244.06
392.085	247.06
392.31	244.06
392.534	222.06
392.759	222.06
392.984	228.06
393.208	240.06
393.433	224.06
393.658	236.06
393.882	232.06
394.107	228.06
394.331	240.06
394.556	246.06
394.78	226.06
395.005	239.06
395.229	223.06
395.454	245.06
395.678	245.06
395.903	245.06
396.127	229.06
396.352	225.06
396.576	212.06
396.801	228.06
397.025	228.06
397.249	222.06
397.474	234.06
397.698	232.06
397.922	251.06
398.147	257.06
398.371	247.06
398.595	266.06
398.82	263.06
399.044	281.06
399.268	312.06
399.492	334.06
399.717	364.06
399.941	356.06
400.165	316.06
400.389	303.06
400.613	274.06
400.837	257.06
401.062	259.06
401.286	267.06
401.51	241.06
401.734	263.06
401.958	253.06
402.182	269.06
402.406	283.06
402.63	264.06
402.854	265.06
403.078	261.06
403.302	290.06
403.526	295.06
403.75	287.06
403.974	296.06
404.198	313.06
404.422	286.06
404.645	279.06
404.869	298.06
405.093	300.06
405.317	290.06
405.541	290.06
405.765	274.06
405.988	292.06
406.212	257.06
406.436	266.06
406.66	303.06
406.883	298.06
407.107	277.06
407.331	295.06
407.555	328.06
407.778	306.06
408.002	303.06
408.226	315.06
408.449	294.06
408.673	293.06
408.896	280.06
409.12	280.06
409.344	289.06
409.567	303.06
409.791	290.06
410.014	289.06
410.238	278.06
410.461	289.06
410.685	282.06
410.908	285.06
411.132	283.06
411.355	274.06
411.578	265.06
411.802	249.06
412.025	272.06
412.249	275.06
412.472	250.06
412.695	260.06
412.919	248.06
413.142	247.06
413.365	248.06
413.589	276.06
413.812	260.06
414.035	239.06
414.258	243.06
414.482	232.06
414.705	259.06
414.928	252.06
415.151	255.06
415.374	259.06
415.597	249.06
415.821	241.06
416.044	252.06
416.267	263.06
416.49	252.06
416.713	256.06
416.936	235.06
417.159	272.06
417.382	251.06
417.605	265.06
417.828	249.06
418.051	277.06
418.274	241.06
418.497	247.06
418.72	272.06
418.943	267.06
419.166	281.06
419.389	276.06
419.611	279.06
419.834	268.06
420.057	255.06
420.28	268.06
420.503	239.06
420.726	243.06
420.948	254.06
421.171	265.06
421.394	249.06
421.617	251.06
421.839	264.06
422.062	261.06
422.285	253.06
422.507	260.06
422.73	279.06
422.953	273.06
423.175	288.06
423.398	270.06
423.621	273.06
423.843	283.06
424.066	286.06
424.288	289.06
424.511	275.06
424.733	261.06
424.956	267.06
425.178	234.06
425.401	230.06
425.623	259.06
425.846	261.06
426.068	251.06
426.291	249.06
426.513	233.06
426.735	230.06
426.958	230.06
427.18	222.06
427.402	223.06
427.625	248.06
427.847	231.06
428.069	241.06
428.292	235.06
428.514	233.06
428.736	223.06
428.958	229.06
429.181	223.06
429.403	233.06
429.625	233.06
429.847	226.06
430.069	216.06
430.292	224.06
430.514	231.06
430.736	234.06
430.958	229.06
431.18	217.06
431.402	220.06
431.624	223.06
431.846	219.06
432.068	228.06
432.29	239.06
432.512	220.06
432.734	235.06
432.956	222.06
433.178	236.06
433.4	245.06
433.622	243.06
433.844	243.06
434.066	240.06
434.287	226.06
434.509	251.06
434.731	246.06
434.953	267.06
435.175	267.06
435.397	257.06
435.618	246.06
435.84	225.06
436.062	244.06
436.284	227.06
436.505	213.06
436.727	220.06
436.949	239.06
437.17	236.06
437.392	237.06
437.614	241.06
437.835	219.06
438.057	234.06
438.278	213.06
438.5	220.06
438.721	224.06
438.943	231.06
439.165	211.06
439.386	228.06
439.608	237.06
439.829	224.06
440.05	233.06
440.272	225.06
440.493	241.06
440.715	256.06
440.936	243.06
441.158	245.06
441.379	248.06
441.6	252.06
441.822	248.06
442.043	243.06
442.264	239.06
442.486	257.06
442.707	249.06
442.928	249.06
443.149	258.06
443.371	266.06
443.592	249.06
443.813	245.06
444.034	257.06
444.255	272.06
444.476	273.06
444.698	300.06
444.919	296.06
445.14	369.06
445.361	308.06
445.582	255.06
445.803	255.06
446.024	256.06
446.245	247.06
446.466	240.06
446.687	229.06
446.908	241.06
447.129	218.06
447.35	239.06
447.571	211.06
447.792	216.06
448.013	226.06
448.234	235.06
448.455	232.06
448.675	216.06
448.896	218.06
449.117	214.06
449.338	210.06
449.559	219.06
449.779	218.06
450	212.06
450.221	211.06
450.442	228.06
450.662	207.06
450.883	226.06
451.104	232.06
451.324	234.06
451.545	220.06
451.766	240.06
451.986	212.06
452.207	221.06
452.428	225.06
452.648	230.06
452.869	210.06
453.089	218.06
453.31	214.06
453.53	206.06
453.751	212.06
453.971	200.06
454.192	211.06
454.412	207.06
454.633	217.06
454.853	194.06
455.073	208.06
455.294	210.06
455.514	202.06
455.734	211.06
455.955	204.06
456.175	205.06
456.395	218.06
456.616	197.06
456.836	221.06
457.056	214.06
457.276	203.06
457.497	204.06
457.717	208.06
457.937	207.06
458.157	190.06
458.377	201.06
458.598	214.06
458.818	223.06
459.038	214.06
459.258	234.06
459.478	227.06
459.698	235.06
459.918	240.06
460.138	267.06
460.358	270.06
460.578	284.06
460.798	266.06
461.018	276.06
461.238	263.06
461.458	244.06
461.678	271.06
461.898	273.06
462.118	262.06
462.338	292.06
462.558	285.06
462.777	296.06
462.997	321.06
463.217	345.06
463.437	352.06
463.657	314.06
463.876	305.06
464.096	326.06
464.316	312.06
464.536	312.06
464.755	300.06
464.975	280.06
465.195	278.06
465.414	260.06
465.634	253.06
465.854	261.06
466.073	244.06
466.293	231.06
466.512	220.06
466.732	232.06
466.951	223.06
467.171	221.06
467.391	229.06
467.61	219.06
467.829	216.06
468.049	225.06
468.268	220.06
468.488	210.06
468.707	235.06
468.927	220.06
469.146	217.06
469.365	216.06
469.585	239.06
469.804	233.06
470.023	243.06
470.243	225.06
470.462	253.06
470.681	252.06
470.901	241.06
471.12	243.06
471.339	233.06
471.558	227.06
471.777	241.06
471.997	229.06
472.216	224.06
472.435	213.06
472.654	213.06
472.873	213.06
473.092	230.06
473.311	222.06
473.53	210.06
473.749	233.06
473.968	231.06
474.187	225.06
474.406	226.06
474.625	239.06
474.844	233.06
475.063	220.06
475.282	219.06
475.501	223.06
475.72	219.06
475.939	219.06
476.158	217.06
476.377	218.06
476.596	224.06
476.814	230.06
477.033	215.06
477.252	248.06
477.471	252.06
477.69	253.06
477.908	225.06
478.127	236.06
478.346	267.06
478.564	267.06
478.783	270.06
479.002	274.06
479.22	262.06
479.439	258.06
479.658	259.06
479.876	256.06
480.095	280.06
480.313	273.06
480.532	285.06
480.751	285.06
480.969	273.06
481.188	250.06
481.406	253.06
481.624	265.06
481.843	237.06
482.061	234.06
482.28	243.06
482.498	261.06
482.717	236.06
482.935	239.06
483.153	242.06
483.372	231.06
483.59	238.06
483.808	243.06
484.027	248.06
484.245	263.06
484.463	247.06
484.681	249.06
484.9	254.06
485.118	275.06
485.336	256.06
485.554	259.06
485.772	276.06
485.99	259.06
486.209	278.06
486.427	272.06
486.645	265.06
486.863	270.06
487.081	255.06
487.299	281.06
487.517	264.06
487.735	267.06
487.953	281.06
488.171	253.06
488.389	235.06
488.607	244.06
488.825	250.06
489.043	241.06
489.261	247.06
489.479	266.06
489.696	267.06
489.914	230.06
490.132	273.06
490.35	271.06
490.568	251.06
490.786	278.06
491.003	276.06
491.221	265.06
491.439	255.06
491.657	254.06
491.874	260.06
492.092	267.06
492.31	265.06
492.527	263.06
492.745	273.06
492.963	269.06
493.18	268.06
493.398	260.06
493.615	279.06
493.833	272.06
494.05	279.06
494.268	255.06
494.485	277.06
494.703	277.06
494.92	279.06
495.138	272.06
495.355	274.06
495.573	275.06
495.79	272.06
496.008	283.06
496.225	264.06
496.442	247.06
496.66	293.06
496.877	291.06
497.094	284.06
497.312	297.06
497.529	283.06
497.746	296.06
497.963	297.06
498.181	296.06
498.398	338.06
498.615	335.06
498.832	371.06
499.049	379.06
499.267	403.06
499.484	443.06
499.701	494.06
499.918	528.06
500.135	603.06
500.352	674.06
500.569	739.06
500.786	719.06
501.003	684.06
501.22	605.06
501.437	515.06
501.654	460.06
501.871	436.06
502.088	388.06
502.305	379.06
502.522	348.06
502.739	348.06
502.956	338.06
503.172	305.06
503.389	313.06
