Data from 0.5MCu(NO3)2.Standard.Lamp.E10.CV._HRD10591_16-06-15-754.txt Node
Date: Mon Jul 22 16:06:15 EDT 2019
User: cochatt
Spectrometer: HR+D1059
Trigger mode: 1
Integration Time (sec): 1.000000E-1
Scans to average: 1
Electric dark correction enabled: true
Nonlinearity correction enabled: false
Boxcar width: 0
XAxis mode: Wavelengths
Number of Pixels in Spectrum: 2048
>>>>>Begin Spectral Data<<<<<
223.165	-10.75
223.4	-10.75
223.635	-10.75
223.869	-10.75
224.104	-12.75
224.338	-11.75
224.573	-16.75
224.808	1.25
225.042	-1.75
225.277	-4.75
225.511	6.25
225.746	-7.75
225.98	6.25
226.215	10.25
226.449	-0.75
226.683	10.25
226.918	18.25
227.152	25.25
227.387	34.25
227.621	48.25
227.856	40.25
228.09	42.25
228.324	56.25
228.559	46.25
228.793	46.25
229.027	69.25
229.262	75.25
229.496	73.25
229.73	86.25
229.964	91.25
230.199	80.25
230.433	83.25
230.667	76.25
230.901	91.25
231.136	78.25
231.37	89.25
231.604	106.25
231.838	99.25
232.072	80.25
232.306	83.25
232.541	77.25
232.775	99.25
233.009	110.25
233.243	95.25
233.477	86.25
233.711	99.25
233.945	102.25
234.179	91.25
234.413	94.25
234.647	90.25
234.881	89.25
235.115	95.25
235.349	104.25
235.583	93.25
235.817	102.25
236.051	90.25
236.285	81.25
236.519	94.25
236.753	97.25
236.987	82.25
237.221	88.25
237.455	81.25
237.689	83.25
237.922	105.25
238.156	103.25
238.39	99.25
238.624	80.25
238.858	93.25
239.091	79.25
239.325	95.25
239.559	84.25
239.793	93.25
240.027	95.25
240.26	86.25
240.494	92.25
240.728	94.25
240.961	102.25
241.195	92.25
241.429	94.25
241.662	106.25
241.896	86.25
242.13	77.25
242.363	88.25
242.597	97.25
242.83	123.25
243.064	87.25
243.298	82.25
243.531	84.25
243.765	94.25
243.998	107.25
244.232	85.25
244.465	92.25
244.699	93.25
244.932	104.25
245.166	98.25
245.399	96.25
245.633	95.25
245.866	104.25
246.099	87.25
246.333	98.25
246.566	107.25
246.8	100.25
247.033	103.25
247.266	108.25
247.5	94.25
247.733	103.25
247.966	98.25
248.2	111.25
248.433	100.25
248.666	102.25
248.899	101.25
249.133	114.25
249.366	94.25
249.599	93.25
249.832	120.25
250.066	110.25
250.299	108.25
250.532	99.25
250.765	105.25
250.998	116.25
251.231	94.25
251.465	106.25
251.698	110.25
251.931	83.25
252.164	116.25
252.397	106.25
252.63	118.25
252.863	120.25
253.096	119.25
253.329	108.25
253.562	112.25
253.795	102.25
254.028	123.25
254.261	92.25
254.494	104.25
254.727	121.25
254.96	123.25
255.193	112.25
255.426	120.25
255.659	125.25
255.892	109.25
256.124	122.25
256.357	118.25
256.59	126.25
256.823	108.25
257.056	115.25
257.289	111.25
257.521	125.25
257.754	114.25
257.987	102.25
258.22	126.25
258.452	109.25
258.685	97.25
258.918	120.25
259.151	114.25
259.383	107.25
259.616	121.25
259.849	124.25
260.081	115.25
260.314	118.25
260.547	105.25
260.779	118.25
261.012	123.25
261.244	116.25
261.477	114.25
261.71	105.25
261.942	118.25
262.175	95.25
262.407	122.25
262.64	122.25
262.872	120.25
263.105	116.25
263.337	119.25
263.57	127.25
263.802	128.25
264.035	112.25
264.267	114.25
264.499	118.25
264.732	131.25
264.964	120.25
265.197	116.25
265.429	132.25
265.661	143.25
265.894	123.25
266.126	140.25
266.358	112.25
266.591	120.25
266.823	128.25
267.055	131.25
267.287	119.25
267.52	132.25
267.752	123.25
267.984	114.25
268.216	114.25
268.448	127.25
268.681	121.25
268.913	139.25
269.145	121.25
269.377	135.25
269.609	134.25
269.841	136.25
270.073	126.25
270.306	125.25
270.538	125.25
270.77	126.25
271.002	120.25
271.234	125.25
271.466	122.25
271.698	125.25
271.93	134.25
272.162	133.25
272.394	131.25
272.626	121.25
272.858	134.25
273.09	134.25
273.322	151.25
273.553	130.25
273.785	136.25
274.017	124.25
274.249	119.25
274.481	142.25
274.713	134.25
274.945	134.25
275.176	140.25
275.408	125.25
275.64	132.25
275.872	153.25
276.104	150.25
276.335	135.25
276.567	134.25
276.799	143.25
277.031	128.25
277.262	155.25
277.494	147.25
277.726	138.25
277.957	138.25
278.189	128.25
278.421	123.25
278.652	122.25
278.884	144.25
279.115	137.25
279.347	135.25
279.579	152.25
279.81	134.25
280.042	136.25
280.273	137.25
280.505	148.25
280.736	145.25
280.968	131.25
281.199	138.25
281.431	126.25
281.662	144.25
281.894	148.25
282.125	145.25
282.356	139.25
282.588	141.25
282.819	154.25
283.051	138.25
283.282	142.25
283.513	156.25
283.745	154.25
283.976	143.25
284.207	156.25
284.439	145.25
284.67	139.25
284.901	154.25
285.132	157.25
285.364	135.25
285.595	147.25
285.826	150.25
286.057	144.25
286.288	163.25
286.52	156.25
286.751	161.25
286.982	146.25
287.213	145.25
287.444	157.25
287.675	162.25
287.906	148.25
288.138	175.25
288.369	151.25
288.6	158.25
288.831	145.25
289.062	147.25
289.293	165.25
289.524	145.25
289.755	152.25
289.986	169.25
290.217	154.25
290.448	159.25
290.679	153.25
290.91	152.25
291.141	162.25
291.371	156.25
291.602	162.25
291.833	157.25
292.064	165.25
292.295	152.25
292.526	144.25
292.757	163.25
292.987	160.25
293.218	148.25
293.449	156.25
293.68	169.25
293.91	159.25
294.141	150.25
294.372	157.25
294.603	163.25
294.833	158.25
295.064	152.25
295.295	154.25
295.525	138.25
295.756	156.25
295.987	160.25
296.217	160.25
296.448	165.25
296.679	172.25
296.909	160.25
297.14	150.25
297.37	172.25
297.601	164.25
297.831	162.25
298.062	162.25
298.292	176.25
298.523	172.25
298.753	177.25
298.984	169.25
299.214	167.25
299.445	162.25
299.675	172.25
299.905	157.25
300.136	164.25
300.366	168.25
300.597	174.25
300.827	172.25
301.057	181.25
301.288	160.25
301.518	170.25
301.748	178.25
301.979	178.25
302.209	163.25
302.439	165.25
302.669	175.25
302.9	190.25
303.13	176.25
303.36	174.25
303.59	176.25
303.82	174.25
304.051	171.25
304.281	174.25
304.511	184.25
304.741	184.25
304.971	154.25
305.201	165.25
305.431	156.25
305.661	182.25
305.891	169.25
306.121	163.25
306.352	170.25
306.582	175.25
306.812	171.25
307.042	168.25
307.272	165.25
307.502	180.25
307.731	183.25
307.961	180.25
308.191	175.25
308.421	164.25
308.651	186.25
308.881	174.25
309.111	157.25
309.341	175.25
309.571	154.25
309.8	153.25
310.03	182.25
310.26	180.25
310.49	182.25
310.72	167.25
310.949	173.25
311.179	174.25
311.409	174.25
311.639	168.25
311.868	173.25
312.098	172.25
312.328	175.25
312.557	167.25
312.787	167.25
313.017	179.25
313.246	178.25
313.476	175.25
313.706	171.25
313.935	182.25
314.165	186.25
314.394	176.25
314.624	172.25
314.853	187.25
315.083	187.25
315.312	170.25
315.542	179.25
315.771	181.25
316.001	176.25
316.23	184.25
316.46	167.25
316.689	174.25
316.919	183.25
317.148	180.25
317.377	179.25
317.607	172.25
317.836	180.25
318.065	178.25
318.295	168.25
318.524	186.25
318.753	176.25
318.983	177.25
319.212	167.25
319.441	165.25
319.67	189.25
319.9	169.25
320.129	179.25
320.358	173.25
320.587	171.25
320.816	183.25
321.046	172.25
321.275	178.25
321.504	163.25
321.733	179.25
321.962	181.25
322.191	176.25
322.42	171.25
322.649	173.25
322.878	192.25
323.108	160.25
323.337	186.25
323.566	193.25
323.795	172.25
324.024	182.25
324.253	186.25
324.482	180.25
324.71	189.25
324.939	178.25
325.168	183.25
325.397	191.25
325.626	184.25
325.855	180.25
326.084	181.25
326.313	188.25
326.542	183.25
326.77	187.25
326.999	166.25
327.228	182.25
327.457	179.25
327.686	183.25
327.914	199.25
328.143	179.25
328.372	194.25
328.6	172.25
328.829	179.25
329.058	190.25
329.287	180.25
329.515	190.25
329.744	191.25
329.972	199.25
330.201	183.25
330.43	173.25
330.658	176.25
330.887	189.25
331.115	186.25
331.344	174.25
331.572	183.25
331.801	193.25
332.03	186.25
332.258	190.25
332.486	204.25
332.715	206.25
332.943	226.25
333.172	221.25
333.4	239.25
333.629	219.25
333.857	234.25
334.085	228.25
334.314	229.25
334.542	210.25
334.771	233.25
334.999	206.25
335.227	195.25
335.455	204.25
335.684	222.25
335.912	227.25
336.14	211.25
336.369	210.25
336.597	184.25
336.825	199.25
337.053	220.25
337.281	206.25
337.51	188.25
337.738	214.25
337.966	206.25
338.194	197.25
338.422	207.25
338.65	194.25
338.878	194.25
339.106	207.25
339.334	174.25
339.562	198.25
339.79	191.25
340.018	194.25
340.246	188.25
340.474	182.25
340.702	183.25
340.93	191.25
341.158	187.25
341.386	197.25
341.614	182.25
341.842	198.25
342.07	195.25
342.298	183.25
342.526	193.25
342.754	188.25
342.981	205.25
343.209	203.25
343.437	204.25
343.665	195.25
343.893	219.25
344.12	218.25
344.348	217.25
344.576	212.25
344.804	210.25
345.031	194.25
345.259	201.25
345.487	190.25
345.714	197.25
345.942	204.25
346.17	185.25
346.397	191.25
346.625	176.25
346.853	176.25
347.08	182.25
347.308	190.25
347.535	189.25
347.763	175.25
347.99	180.25
348.218	199.25
348.445	193.25
348.673	200.25
348.9	196.25
349.128	171.25
349.355	185.25
349.583	176.25
349.81	185.25
350.037	180.25
350.265	175.25
350.492	171.25
350.72	159.25
350.947	178.25
351.174	176.25
351.402	175.25
351.629	166.25
351.856	173.25
352.083	174.25
352.311	189.25
352.538	188.25
352.765	189.25
352.992	174.25
353.22	179.25
353.447	194.25
353.674	194.25
353.901	169.25
354.128	167.25
354.355	173.25
354.583	192.25
354.81	178.25
355.037	191.25
355.264	175.25
355.491	170.25
355.718	173.25
355.945	180.25
356.172	171.25
356.399	160.25
356.626	174.25
356.853	199.25
357.08	182.25
357.307	190.25
357.534	179.25
357.761	179.25
357.988	187.25
358.215	190.25
358.441	177.25
358.668	183.25
358.895	174.25
359.122	163.25
359.349	173.25
359.576	179.25
359.802	178.25
360.029	168.25
360.256	190.25
360.483	182.25
360.709	189.25
360.936	198.25
361.163	183.25
361.39	167.25
361.616	183.25
361.843	188.25
362.07	175.25
362.296	165.25
362.523	180.25
362.749	175.25
362.976	168.25
363.203	164.25
363.429	193.25
363.656	192.25
363.882	184.25
364.109	191.25
364.335	172.25
364.562	188.25
364.788	170.25
365.015	178.25
365.241	190.25
365.468	184.25
365.694	178.25
365.92	184.25
366.147	170.25
366.373	186.25
366.599	188.25
366.826	170.25
367.052	164.25
367.278	168.25
367.505	188.25
367.731	179.25
367.957	181.25
368.184	181.25
368.41	189.25
368.636	194.25
368.862	185.25
369.089	172.25
369.315	197.25
369.541	187.25
369.767	188.25
369.993	182.25
370.219	185.25
370.445	196.25
370.672	202.25
370.898	182.25
371.124	190.25
371.35	196.25
371.576	186.25
371.802	184.25
372.028	181.25
372.254	186.25
372.48	191.25
372.706	200.25
372.932	199.25
373.158	196.25
373.384	193.25
373.61	207.25
373.835	183.25
374.061	202.25
374.287	177.25
374.513	192.25
374.739	197.25
374.965	210.25
375.191	191.25
375.416	214.25
375.642	203.25
375.868	204.25
376.094	204.25
376.319	201.25
376.545	190.25
376.771	188.25
376.997	212.25
377.222	190.25
377.448	188.25
377.674	188.25
377.899	162.25
378.125	176.25
378.35	187.25
378.576	190.25
378.802	194.25
379.027	189.25
379.253	189.25
379.478	187.25
379.704	173.25
379.929	195.25
380.155	192.25
380.38	182.25
380.606	165.25
380.831	191.25
381.057	187.25
381.282	185.25
381.507	187.25
381.733	187.25
381.958	195.25
382.184	192.25
382.409	199.25
382.634	199.25
382.86	193.25
383.085	187.25
383.31	206.25
383.535	202.25
383.761	204.25
383.986	216.25
384.211	200.25
384.436	207.25
384.662	219.25
384.887	226.25
385.112	221.25
385.337	217.25
385.562	223.25
385.787	224.25
386.013	214.25
386.238	224.25
386.463	211.25
386.688	220.25
386.913	215.25
387.138	222.25
387.363	210.25
387.588	214.25
387.813	220.25
388.038	218.25
388.263	205.25
388.488	213.25
388.713	209.25
388.938	197.25
389.163	210.25
389.387	223.25
389.612	202.25
389.837	200.25
390.062	212.25
390.287	204.25
390.512	208.25
390.736	217.25
390.961	218.25
391.186	226.25
391.411	222.25
391.636	220.25
391.86	240.25
392.085	226.25
392.31	235.25
392.534	242.25
392.759	222.25
392.984	214.25
393.208	218.25
393.433	208.25
393.658	214.25
393.882	237.25
394.107	219.25
394.331	205.25
394.556	237.25
394.78	216.25
395.005	236.25
395.229	212.25
395.454	231.25
395.678	212.25
395.903	223.25
396.127	231.25
396.352	210.25
396.576	212.25
396.801	222.25
397.025	200.25
397.249	235.25
397.474	222.25
397.698	217.25
397.922	214.25
398.147	246.25
398.371	234.25
398.595	231.25
398.82	230.25
399.044	270.25
399.268	279.25
399.492	318.25
399.717	351.25
399.941	342.25
400.165	283.25
400.389	298.25
400.613	262.25
400.837	262.25
401.062	256.25
401.286	259.25
401.51	266.25
401.734	259.25
401.958	247.25
402.182	239.25
402.406	250.25
402.63	249.25
402.854	264.25
403.078	264.25
403.302	278.25
403.526	288.25
403.75	289.25
403.974	294.25
404.198	284.25
404.422	286.25
404.645	292.25
404.869	264.25
405.093	277.25
405.317	277.25
405.541	265.25
405.765	261.25
405.988	275.25
406.212	274.25
406.436	291.25
406.66	278.25
406.883	281.25
407.107	310.25
407.331	290.25
407.555	310.25
407.778	308.25
408.002	308.25
408.226	279.25
408.449	298.25
408.673	258.25
408.896	285.25
409.12	262.25
409.344	268.25
409.567	271.25
409.791	286.25
410.014	289.25
410.238	271.25
410.461	283.25
410.685	276.25
410.908	256.25
411.132	250.25
411.355	262.25
411.578	242.25
411.802	244.25
412.025	258.25
412.249	255.25
412.472	262.25
412.695	248.25
412.919	229.25
413.142	239.25
413.365	230.25
413.589	233.25
413.812	247.25
414.035	244.25
414.258	247.25
414.482	235.25
414.705	272.25
414.928	261.25
415.151	251.25
415.374	258.25
415.597	276.25
415.821	253.25
416.044	236.25
416.267	240.25
416.49	244.25
416.713	234.25
416.936	258.25
417.159	238.25
417.382	244.25
417.605	227.25
417.828	242.25
418.051	266.25
418.274	259.25
418.497	238.25
418.72	252.25
418.943	266.25
419.166	270.25
419.389	277.25
419.611	263.25
419.834	270.25
420.057	247.25
420.28	245.25
420.503	235.25
420.726	251.25
420.948	246.25
421.171	237.25
421.394	233.25
421.617	253.25
421.839	230.25
422.062	252.25
422.285	253.25
422.507	253.25
422.73	248.25
422.953	260.25
423.175	265.25
423.398	265.25
423.621	244.25
423.843	259.25
424.066	249.25
424.288	267.25
424.511	266.25
424.733	247.25
424.956	251.25
425.178	239.25
425.401	254.25
425.623	229.25
425.846	239.25
426.068	246.25
426.291	216.25
426.513	233.25
426.735	235.25
426.958	239.25
427.18	229.25
427.402	225.25
427.625	227.25
427.847	222.25
428.069	212.25
428.292	221.25
428.514	221.25
428.736	212.25
428.958	213.25
429.181	211.25
429.403	227.25
429.625	219.25
429.847	202.25
430.069	224.25
430.292	206.25
430.514	225.25
430.736	222.25
430.958	231.25
431.18	235.25
431.402	216.25
431.624	218.25
431.846	235.25
432.068	226.25
432.29	225.25
432.512	212.25
432.734	220.25
432.956	223.25
433.178	213.25
433.4	218.25
433.622	234.25
433.844	237.25
434.066	248.25
434.287	252.25
434.509	235.25
434.731	235.25
434.953	250.25
435.175	243.25
435.397	240.25
435.618	255.25
435.84	246.25
436.062	229.25
436.284	233.25
436.505	233.25
436.727	225.25
436.949	218.25
437.17	222.25
437.392	216.25
437.614	210.25
437.835	218.25
438.057	215.25
438.278	216.25
438.5	212.25
438.721	235.25
438.943	238.25
439.165	218.25
439.386	218.25
439.608	230.25
439.829	228.25
440.05	230.25
440.272	237.25
440.493	242.25
440.715	227.25
440.936	243.25
441.158	237.25
441.379	228.25
441.6	247.25
441.822	267.25
442.043	257.25
442.264	248.25
442.486	250.25
442.707	248.25
442.928	230.25
443.149	251.25
443.371	232.25
443.592	242.25
443.813	258.25
444.034	247.25
444.255	272.25
444.476	270.25
444.698	267.25
444.919	292.25
445.14	377.25
445.361	302.25
445.582	246.25
445.803	259.25
446.024	232.25
446.245	233.25
446.466	247.25
446.687	213.25
446.908	218.25
447.129	224.25
447.35	229.25
447.571	210.25
447.792	206.25
448.013	223.25
448.234	201.25
448.455	219.25
448.675	215.25
448.896	222.25
449.117	220.25
449.338	209.25
449.559	217.25
449.779	202.25
450	207.25
450.221	215.25
450.442	209.25
450.662	207.25
450.883	227.25
451.104	208.25
451.324	211.25
451.545	218.25
451.766	223.25
451.986	217.25
452.207	216.25
452.428	210.25
452.648	219.25
452.869	206.25
453.089	221.25
453.31	192.25
453.53	206.25
453.751	217.25
453.971	212.25
454.192	223.25
454.412	192.25
454.633	204.25
454.853	204.25
455.073	190.25
455.294	208.25
455.514	207.25
455.734	210.25
455.955	202.25
456.175	205.25
456.395	206.25
456.616	198.25
456.836	203.25
457.056	197.25
457.276	207.25
457.497	212.25
457.717	197.25
457.937	197.25
458.157	204.25
458.377	208.25
458.598	203.25
458.818	205.25
459.038	228.25
459.258	223.25
459.478	228.25
459.698	236.25
459.918	247.25
460.138	231.25
460.358	239.25
460.578	262.25
460.798	260.25
461.018	255.25
461.238	246.25
461.458	254.25
461.678	246.25
461.898	277.25
462.118	245.25
462.338	289.25
462.558	273.25
462.777	275.25
462.997	310.25
463.217	327.25
463.437	336.25
463.657	308.25
463.876	312.25
464.096	290.25
464.316	316.25
464.536	299.25
464.755	298.25
464.975	270.25
465.195	278.25
465.414	268.25
465.634	255.25
465.854	242.25
466.073	226.25
466.293	229.25
466.512	229.25
466.732	215.25
466.951	222.25
467.171	214.25
467.391	217.25
467.61	221.25
467.829	230.25
468.049	235.25
468.268	212.25
468.488	231.25
468.707	215.25
468.927	203.25
469.146	216.25
469.365	222.25
469.585	261.25
469.804	219.25
470.023	227.25
470.243	211.25
470.462	219.25
470.681	231.25
470.901	225.25
471.12	232.25
471.339	216.25
471.558	212.25
471.777	215.25
471.997	232.25
472.216	228.25
472.435	205.25
472.654	211.25
472.873	232.25
473.092	207.25
473.311	206.25
473.53	207.25
473.749	216.25
473.968	212.25
474.187	208.25
474.406	226.25
474.625	206.25
474.844	218.25
475.063	212.25
475.282	210.25
475.501	218.25
475.72	220.25
475.939	204.25
476.158	222.25
476.377	255.25
476.596	205.25
476.814	237.25
477.033	228.25
477.252	234.25
477.471	231.25
477.69	235.25
477.908	244.25
478.127	248.25
478.346	266.25
478.564	244.25
478.783	262.25
479.002	255.25
479.22	263.25
479.439	254.25
479.658	263.25
479.876	244.25
480.095	237.25
480.313	279.25
480.532	275.25
480.751	283.25
480.969	263.25
481.188	236.25
481.406	260.25
481.624	235.25
481.843	250.25
482.061	236.25
482.28	249.25
482.498	242.25
482.717	232.25
482.935	240.25
483.153	240.25
483.372	245.25
483.59	250.25
483.808	244.25
484.027	242.25
484.245	250.25
484.463	231.25
484.681	245.25
484.9	243.25
485.118	249.25
485.336	256.25
485.554	245.25
485.772	259.25
485.99	252.25
486.209	253.25
486.427	255.25
486.645	253.25
486.863	276.25
487.081	245.25
487.299	247.25
487.517	260.25
487.735	243.25
487.953	261.25
488.171	249.25
488.389	244.25
488.607	259.25
488.825	257.25
489.043	263.25
489.261	248.25
489.479	260.25
489.696	260.25
489.914	264.25
490.132	261.25
490.35	247.25
490.568	247.25
490.786	261.25
491.003	247.25
491.221	244.25
491.439	246.25
491.657	258.25
491.874	243.25
492.092	237.25
492.31	264.25
492.527	274.25
492.745	266.25
492.963	254.25
493.18	245.25
493.398	256.25
493.615	267.25
493.833	252.25
494.05	248.25
494.268	262.25
494.485	273.25
494.703	258.25
494.92	265.25
495.138	248.25
495.355	256.25
495.573	264.25
495.79	259.25
496.008	281.25
496.225	250.25
496.442	258.25
496.66	274.25
496.877	285.25
497.094	295.25
497.312	279.25
497.529	259.25
497.746	294.25
497.963	298.25
498.181	310.25
498.398	306.25
498.615	309.25
498.832	336.25
499.049	352.25
499.267	373.25
499.484	417.25
499.701	474.25
499.918	492.25
500.135	575.25
500.352	677.25
500.569	711.25
500.786	670.25
501.003	629.25
501.22	582.25
501.437	506.25
501.654	432.25
501.871	406.25
502.088	379.25
502.305	360.25
502.522	340.25
502.739	321.25
502.956	323.25
503.172	323.25
