Data from 0.5MCu(NO3)2.Standard.Lamp.E10.CV._HRD10591_16-04-54-753.txt Node
Date: Mon Jul 22 16:04:54 EDT 2019
User: cochatt
Spectrometer: HR+D1059
Trigger mode: 1
Integration Time (sec): 1.000000E-1
Scans to average: 1
Electric dark correction enabled: true
Nonlinearity correction enabled: false
Boxcar width: 0
XAxis mode: Wavelengths
Number of Pixels in Spectrum: 2048
>>>>>Begin Spectral Data<<<<<
223.165	-22.69
223.4	-22.69
223.635	-22.69
223.869	-31.69
224.104	-14.69
224.338	-21.69
224.573	-11.69
224.808	-13.69
225.042	-13.69
225.277	1.31
225.511	-2.69
225.746	4.31
225.98	18.31
226.215	11.31
226.449	25.31
226.683	14.31
226.918	22.31
227.152	35.31
227.387	32.31
227.621	34.31
227.856	51.31
228.09	44.31
228.324	53.31
228.559	72.31
228.793	72.31
229.027	69.31
229.262	68.31
229.496	75.31
229.73	90.31
229.964	77.31
230.199	87.31
230.433	81.31
230.667	77.31
230.901	90.31
231.136	91.31
231.37	93.31
231.604	70.31
231.838	84.31
232.072	82.31
232.306	83.31
232.541	90.31
232.775	80.31
233.009	89.31
233.243	92.31
233.477	90.31
233.711	104.31
233.945	82.31
234.179	81.31
234.413	82.31
234.647	85.31
234.881	89.31
235.115	94.31
235.349	74.31
235.583	76.31
235.817	81.31
236.051	92.31
236.285	90.31
236.519	82.31
236.753	89.31
236.987	97.31
237.221	77.31
237.455	85.31
237.689	90.31
237.922	69.31
238.156	96.31
238.39	93.31
238.624	99.31
238.858	88.31
239.091	84.31
239.325	85.31
239.559	89.31
239.793	93.31
240.027	90.31
240.26	92.31
240.494	97.31
240.728	88.31
240.961	93.31
241.195	80.31
241.429	91.31
241.662	109.31
241.896	90.31
242.13	79.31
242.363	96.31
242.597	91.31
242.83	98.31
243.064	86.31
243.298	82.31
243.531	97.31
243.765	93.31
243.998	103.31
244.232	79.31
244.465	93.31
244.699	103.31
244.932	90.31
245.166	93.31
245.399	91.31
245.633	97.31
245.866	92.31
246.099	94.31
246.333	103.31
246.566	99.31
246.8	93.31
247.033	90.31
247.266	88.31
247.5	95.31
247.733	115.31
247.966	97.31
248.2	95.31
248.433	107.31
248.666	98.31
248.899	109.31
249.133	113.31
249.366	101.31
249.599	99.31
249.832	102.31
250.066	113.31
250.299	105.31
250.532	99.31
250.765	98.31
250.998	87.31
251.231	108.31
251.465	103.31
251.698	103.31
251.931	110.31
252.164	109.31
252.397	103.31
252.63	89.31
252.863	105.31
253.096	114.31
253.329	105.31
253.562	115.31
253.795	97.31
254.028	117.31
254.261	107.31
254.494	96.31
254.727	102.31
254.96	102.31
255.193	98.31
255.426	101.31
255.659	117.31
255.892	119.31
256.124	102.31
256.357	102.31
256.59	106.31
256.823	116.31
257.056	117.31
257.289	108.31
257.521	112.31
257.754	115.31
257.987	118.31
258.22	118.31
258.452	106.31
258.685	111.31
258.918	115.31
259.151	104.31
259.383	112.31
259.616	119.31
259.849	123.31
260.081	107.31
260.314	119.31
260.547	117.31
260.779	120.31
261.012	117.31
261.244	108.31
261.477	113.31
261.71	119.31
261.942	122.31
262.175	121.31
262.407	113.31
262.64	117.31
262.872	123.31
263.105	116.31
263.337	113.31
263.57	107.31
263.802	120.31
264.035	108.31
264.267	108.31
264.499	121.31
264.732	132.31
264.964	122.31
265.197	115.31
265.429	115.31
265.661	116.31
265.894	132.31
266.126	127.31
266.358	130.31
266.591	121.31
266.823	120.31
267.055	114.31
267.287	115.31
267.52	143.31
267.752	125.31
267.984	131.31
268.216	134.31
268.448	127.31
268.681	121.31
268.913	125.31
269.145	134.31
269.377	124.31
269.609	124.31
269.841	123.31
270.073	140.31
270.306	126.31
270.538	125.31
270.77	130.31
271.002	124.31
271.234	129.31
271.466	149.31
271.698	125.31
271.93	119.31
272.162	127.31
272.394	132.31
272.626	139.31
272.858	123.31
273.09	132.31
273.322	134.31
273.553	120.31
273.785	119.31
274.017	131.31
274.249	153.31
274.481	124.31
274.713	127.31
274.945	133.31
275.176	128.31
275.408	127.31
275.64	136.31
275.872	135.31
276.104	143.31
276.335	141.31
276.567	136.31
276.799	136.31
277.031	133.31
277.262	128.31
277.494	144.31
277.726	141.31
277.957	134.31
278.189	136.31
278.421	145.31
278.652	137.31
278.884	140.31
279.115	149.31
279.347	137.31
279.579	137.31
279.81	132.31
280.042	120.31
280.273	139.31
280.505	137.31
280.736	134.31
280.968	142.31
281.199	148.31
281.431	138.31
281.662	157.31
281.894	147.31
282.125	145.31
282.356	152.31
282.588	137.31
282.819	146.31
283.051	141.31
283.282	153.31
283.513	147.31
283.745	163.31
283.976	152.31
284.207	136.31
284.439	148.31
284.67	147.31
284.901	153.31
285.132	163.31
285.364	156.31
285.595	155.31
285.826	144.31
286.057	151.31
286.288	135.31
286.52	149.31
286.751	175.31
286.982	145.31
287.213	152.31
287.444	149.31
287.675	168.31
287.906	160.31
288.138	152.31
288.369	156.31
288.6	149.31
288.831	148.31
289.062	151.31
289.293	158.31
289.524	155.31
289.755	145.31
289.986	144.31
290.217	158.31
290.448	152.31
290.679	171.31
290.91	164.31
291.141	149.31
291.371	156.31
291.602	161.31
291.833	168.31
292.064	171.31
292.295	162.31
292.526	150.31
292.757	158.31
292.987	155.31
293.218	159.31
293.449	163.31
293.68	156.31
293.91	151.31
294.141	145.31
294.372	162.31
294.603	172.31
294.833	160.31
295.064	155.31
295.295	152.31
295.525	172.31
295.756	169.31
295.987	136.31
296.217	172.31
296.448	174.31
296.679	159.31
296.909	171.31
297.14	164.31
297.37	177.31
297.601	169.31
297.831	179.31
298.062	165.31
298.292	172.31
298.523	185.31
298.753	159.31
298.984	170.31
299.214	172.31
299.445	178.31
299.675	167.31
299.905	169.31
300.136	180.31
300.366	164.31
300.597	171.31
300.827	187.31
301.057	180.31
301.288	187.31
301.518	163.31
301.748	175.31
301.979	188.31
302.209	190.31
302.439	170.31
302.669	149.31
302.9	167.31
303.13	167.31
303.36	159.31
303.59	181.31
303.82	180.31
304.051	170.31
304.281	173.31
304.511	173.31
304.741	173.31
304.971	176.31
305.201	181.31
305.431	167.31
305.661	175.31
305.891	181.31
306.121	176.31
306.352	166.31
306.582	177.31
306.812	171.31
307.042	181.31
307.272	184.31
307.502	163.31
307.731	162.31
307.961	162.31
308.191	166.31
308.421	164.31
308.651	164.31
308.881	175.31
309.111	166.31
309.341	172.31
309.571	190.31
309.8	175.31
310.03	177.31
310.26	175.31
310.49	172.31
310.72	161.31
310.949	172.31
311.179	162.31
311.409	172.31
311.639	187.31
311.868	188.31
312.098	162.31
312.328	187.31
312.557	160.31
312.787	166.31
313.017	183.31
313.246	189.31
313.476	168.31
313.706	177.31
313.935	171.31
314.165	181.31
314.394	187.31
314.624	176.31
314.853	163.31
315.083	187.31
315.312	181.31
315.542	178.31
315.771	178.31
316.001	186.31
316.23	184.31
316.46	183.31
316.689	175.31
316.919	191.31
317.148	186.31
317.377	163.31
317.607	172.31
317.836	181.31
318.065	177.31
318.295	179.31
318.524	179.31
318.753	189.31
318.983	159.31
319.212	183.31
319.441	178.31
319.67	174.31
319.9	172.31
320.129	179.31
320.358	191.31
320.587	179.31
320.816	188.31
321.046	159.31
321.275	181.31
321.504	185.31
321.733	177.31
321.962	177.31
322.191	177.31
322.42	181.31
322.649	183.31
322.878	208.31
323.108	168.31
323.337	182.31
323.566	173.31
323.795	187.31
324.024	171.31
324.253	175.31
324.482	187.31
324.71	195.31
324.939	203.31
325.168	183.31
325.397	176.31
325.626	180.31
325.855	198.31
326.084	183.31
326.313	184.31
326.542	197.31
326.77	198.31
326.999	194.31
327.228	199.31
327.457	182.31
327.686	185.31
327.914	196.31
328.143	196.31
328.372	185.31
328.6	193.31
328.829	210.31
329.058	191.31
329.287	185.31
329.515	189.31
329.744	185.31
329.972	191.31
330.201	191.31
330.43	185.31
330.658	169.31
330.887	173.31
331.115	196.31
331.344	185.31
331.572	196.31
331.801	193.31
332.03	208.31
332.258	204.31
332.486	202.31
332.715	231.31
332.943	210.31
333.172	233.31
333.4	236.31
333.629	218.31
333.857	225.31
334.085	241.31
334.314	230.31
334.542	231.31
334.771	231.31
334.999	222.31
335.227	216.31
335.455	203.31
335.684	222.31
335.912	217.31
336.14	210.31
336.369	223.31
336.597	216.31
336.825	217.31
337.053	209.31
337.281	210.31
337.51	212.31
337.738	205.31
337.966	202.31
338.194	213.31
338.422	201.31
338.65	196.31
338.878	185.31
339.106	208.31
339.334	201.31
339.562	207.31
339.79	198.31
340.018	200.31
340.246	193.31
340.474	190.31
340.702	185.31
340.93	197.31
341.158	182.31
341.386	196.31
341.614	199.31
341.842	202.31
342.07	187.31
342.298	179.31
342.526	176.31
342.754	188.31
342.981	201.31
343.209	183.31
343.437	200.31
343.665	204.31
343.893	228.31
344.12	219.31
344.348	206.31
344.576	211.31
344.804	205.31
345.031	202.31
345.259	189.31
345.487	184.31
345.714	196.31
345.942	191.31
346.17	191.31
346.397	191.31
346.625	200.31
346.853	190.31
347.08	183.31
347.308	191.31
347.535	199.31
347.763	184.31
347.99	182.31
348.218	189.31
348.445	190.31
348.673	191.31
348.9	213.31
349.128	198.31
349.355	179.31
349.583	181.31
349.81	195.31
350.037	181.31
350.265	198.31
350.492	183.31
350.72	173.31
350.947	185.31
351.174	182.31
351.402	179.31
351.629	174.31
351.856	190.31
352.083	185.31
352.311	174.31
352.538	184.31
352.765	182.31
352.992	182.31
353.22	173.31
353.447	184.31
353.674	193.31
353.901	184.31
354.128	173.31
354.355	185.31
354.583	186.31
354.81	177.31
355.037	179.31
355.264	192.31
355.491	185.31
355.718	179.31
355.945	200.31
356.172	187.31
356.399	179.31
356.626	201.31
356.853	186.31
357.08	182.31
357.307	176.31
357.534	178.31
357.761	184.31
357.988	177.31
358.215	185.31
358.441	176.31
358.668	185.31
358.895	187.31
359.122	187.31
359.349	187.31
359.576	176.31
359.802	192.31
360.029	189.31
360.256	190.31
360.483	193.31
360.709	189.31
360.936	188.31
361.163	195.31
361.39	195.31
361.616	177.31
361.843	198.31
362.07	167.31
362.296	177.31
362.523	184.31
362.749	183.31
362.976	176.31
363.203	195.31
363.429	163.31
363.656	183.31
363.882	190.31
364.109	188.31
364.335	164.31
364.562	168.31
364.788	182.31
365.015	190.31
365.241	188.31
365.468	181.31
365.694	168.31
365.92	196.31
366.147	180.31
366.373	188.31
366.599	194.31
366.826	195.31
367.052	188.31
367.278	194.31
367.505	203.31
367.731	191.31
367.957	171.31
368.184	167.31
368.41	180.31
368.636	185.31
368.862	200.31
369.089	190.31
369.315	196.31
369.541	193.31
369.767	189.31
369.993	207.31
370.219	181.31
370.445	199.31
370.672	187.31
370.898	185.31
371.124	186.31
371.35	205.31
371.576	191.31
371.802	187.31
372.028	181.31
372.254	205.31
372.48	198.31
372.706	205.31
372.932	197.31
373.158	202.31
373.384	191.31
373.61	189.31
373.835	195.31
374.061	184.31
374.287	192.31
374.513	205.31
374.739	200.31
374.965	204.31
375.191	233.31
375.416	217.31
375.642	206.31
375.868	202.31
376.094	200.31
376.319	210.31
376.545	197.31
376.771	201.31
376.997	210.31
377.222	186.31
377.448	170.31
377.674	187.31
377.899	180.31
378.125	205.31
378.35	197.31
378.576	194.31
378.802	205.31
379.027	210.31
379.253	171.31
379.478	193.31
379.704	199.31
379.929	191.31
380.155	196.31
380.38	188.31
380.606	202.31
380.831	190.31
381.057	199.31
381.282	193.31
381.507	195.31
381.733	196.31
381.958	192.31
382.184	192.31
382.409	193.31
382.634	210.31
382.86	199.31
383.085	203.31
383.31	208.31
383.535	205.31
383.761	209.31
383.986	205.31
384.211	223.31
384.436	220.31
384.662	201.31
384.887	215.31
385.112	209.31
385.337	236.31
385.562	216.31
385.787	206.31
386.013	223.31
386.238	193.31
386.463	224.31
386.688	227.31
386.913	216.31
387.138	204.31
387.363	217.31
387.588	207.31
387.813	202.31
388.038	213.31
388.263	210.31
388.488	211.31
388.713	229.31
388.938	205.31
389.163	217.31
389.387	219.31
389.612	205.31
389.837	218.31
390.062	221.31
390.287	203.31
390.512	220.31
390.736	232.31
390.961	214.31
391.186	219.31
391.411	223.31
391.636	221.31
391.86	212.31
392.085	239.31
392.31	231.31
392.534	234.31
392.759	239.31
392.984	219.31
393.208	228.31
393.433	219.31
393.658	227.31
393.882	228.31
394.107	236.31
394.331	235.31
394.556	225.31
394.78	230.31
395.005	220.31
395.229	228.31
395.454	227.31
395.678	228.31
395.903	226.31
396.127	230.31
396.352	236.31
396.576	216.31
396.801	201.31
397.025	217.31
397.249	230.31
397.474	251.31
397.698	228.31
397.922	233.31
398.147	205.31
398.371	232.31
398.595	247.31
398.82	253.31
399.044	257.31
399.268	279.31
399.492	311.31
399.717	351.31
399.941	360.31
400.165	315.31
400.389	281.31
400.613	269.31
400.837	258.31
401.062	271.31
401.286	245.31
401.51	250.31
401.734	251.31
401.958	246.31
402.182	244.31
402.406	262.31
402.63	264.31
402.854	242.31
403.078	251.31
403.302	281.31
403.526	284.31
403.75	282.31
403.974	283.31
404.198	282.31
404.422	288.31
404.645	293.31
404.869	295.31
405.093	263.31
405.317	287.31
405.541	279.31
405.765	262.31
405.988	277.31
406.212	264.31
406.436	281.31
406.66	269.31
406.883	281.31
407.107	297.31
407.331	295.31
407.555	309.31
407.778	298.31
408.002	303.31
408.226	281.31
408.449	282.31
408.673	284.31
408.896	269.31
409.12	287.31
409.344	271.31
409.567	273.31
409.791	280.31
410.014	289.31
410.238	270.31
410.461	276.31
410.685	274.31
410.908	265.31
411.132	257.31
411.355	254.31
411.578	257.31
411.802	260.31
412.025	251.31
412.249	267.31
412.472	271.31
412.695	257.31
412.919	249.31
413.142	245.31
413.365	241.31
413.589	273.31
413.812	252.31
414.035	246.31
414.258	251.31
414.482	230.31
414.705	258.31
414.928	248.31
415.151	252.31
415.374	255.31
415.597	258.31
415.821	235.31
416.044	237.31
416.267	238.31
416.49	232.31
416.713	234.31
416.936	256.31
417.159	252.31
417.382	252.31
417.605	254.31
417.828	253.31
418.051	240.31
418.274	240.31
418.497	259.31
418.72	249.31
418.943	252.31
419.166	246.31
419.389	262.31
419.611	280.31
419.834	261.31
420.057	249.31
420.28	249.31
420.503	241.31
420.726	221.31
420.948	237.31
421.171	221.31
421.394	246.31
421.617	261.31
421.839	241.31
422.062	241.31
422.285	259.31
422.507	264.31
422.73	264.31
422.953	243.31
423.175	255.31
423.398	246.31
423.621	268.31
423.843	288.31
424.066	265.31
424.288	257.31
424.511	265.31
424.733	259.31
424.956	253.31
425.178	249.31
425.401	248.31
425.623	238.31
425.846	239.31
426.068	236.31
426.291	239.31
426.513	238.31
426.735	220.31
426.958	232.31
427.18	225.31
427.402	233.31
427.625	237.31
427.847	226.31
428.069	227.31
428.292	222.31
428.514	241.31
428.736	213.31
428.958	214.31
429.181	225.31
429.403	223.31
429.625	223.31
429.847	233.31
430.069	223.31
430.292	229.31
430.514	231.31
430.736	225.31
430.958	218.31
431.18	223.31
431.402	230.31
431.624	213.31
431.846	218.31
432.068	199.31
432.29	240.31
432.512	228.31
432.734	241.31
432.956	222.31
433.178	227.31
433.4	220.31
433.622	237.31
433.844	236.31
434.066	232.31
434.287	208.31
434.509	234.31
434.731	229.31
434.953	259.31
435.175	253.31
435.397	252.31
435.618	244.31
435.84	232.31
436.062	211.31
436.284	220.31
436.505	232.31
436.727	233.31
436.949	237.31
437.17	230.31
437.392	222.31
437.614	228.31
437.835	214.31
438.057	209.31
438.278	204.31
438.5	210.31
438.721	218.31
438.943	224.31
439.165	211.31
439.386	246.31
439.608	215.31
439.829	230.31
440.05	227.31
440.272	220.31
440.493	220.31
440.715	232.31
440.936	219.31
441.158	230.31
441.379	234.31
441.6	246.31
441.822	256.31
442.043	241.31
442.264	230.31
442.486	253.31
442.707	246.31
442.928	259.31
443.149	249.31
443.371	247.31
443.592	244.31
443.813	259.31
444.034	261.31
444.255	260.31
444.476	265.31
444.698	285.31
444.919	283.31
445.14	391.31
445.361	324.31
445.582	250.31
445.803	234.31
446.024	232.31
446.245	235.31
446.466	230.31
446.687	226.31
446.908	231.31
447.129	214.31
447.35	211.31
447.571	220.31
447.792	220.31
448.013	225.31
448.234	208.31
448.455	217.31
448.675	217.31
448.896	214.31
449.117	207.31
449.338	207.31
449.559	208.31
449.779	204.31
450	215.31
450.221	220.31
450.442	209.31
450.662	217.31
450.883	213.31
451.104	232.31
451.324	216.31
451.545	200.31
451.766	229.31
451.986	213.31
452.207	223.31
452.428	219.31
452.648	224.31
452.869	215.31
453.089	223.31
453.31	221.31
453.53	217.31
453.751	197.31
453.971	223.31
454.192	193.31
454.412	199.31
454.633	211.31
454.853	193.31
455.073	201.31
455.294	203.31
455.514	204.31
455.734	218.31
455.955	192.31
456.175	209.31
456.395	214.31
456.616	195.31
456.836	207.31
457.056	198.31
457.276	211.31
457.497	205.31
457.717	198.31
457.937	226.31
458.157	210.31
458.377	226.31
458.598	207.31
458.818	213.31
459.038	196.31
459.258	221.31
459.478	251.31
459.698	244.31
459.918	230.31
460.138	239.31
460.358	261.31
460.578	240.31
460.798	232.31
461.018	264.31
461.238	260.31
461.458	261.31
461.678	237.31
461.898	255.31
462.118	257.31
462.338	277.31
462.558	287.31
462.777	289.31
462.997	299.31
463.217	326.31
463.437	327.31
463.657	309.31
463.876	289.31
464.096	299.31
464.316	303.31
464.536	303.31
464.755	289.31
464.975	285.31
465.195	281.31
465.414	263.31
465.634	248.31
465.854	240.31
466.073	242.31
466.293	237.31
466.512	224.31
466.732	235.31
466.951	245.31
467.171	226.31
467.391	235.31
467.61	209.31
467.829	229.31
468.049	212.31
468.268	214.31
468.488	239.31
468.707	215.31
468.927	218.31
469.146	203.31
469.365	223.31
469.585	235.31
469.804	236.31
470.023	231.31
470.243	241.31
470.462	246.31
470.681	251.31
470.901	224.31
471.12	213.31
471.339	224.31
471.558	236.31
471.777	244.31
471.997	224.31
472.216	213.31
472.435	217.31
472.654	202.31
472.873	203.31
473.092	208.31
473.311	223.31
473.53	203.31
473.749	205.31
473.968	221.31
474.187	227.31
474.406	191.31
474.625	212.31
474.844	223.31
475.063	231.31
475.282	221.31
475.501	209.31
475.72	218.31
475.939	218.31
476.158	226.31
476.377	208.31
476.596	226.31
476.814	222.31
477.033	217.31
477.252	223.31
477.471	231.31
477.69	243.31
477.908	244.31
478.127	267.31
478.346	245.31
478.564	241.31
478.783	249.31
479.002	241.31
479.22	256.31
479.439	268.31
479.658	254.31
479.876	248.31
480.095	249.31
480.313	289.31
480.532	271.31
480.751	260.31
480.969	275.31
481.188	231.31
481.406	261.31
481.624	254.31
481.843	253.31
482.061	240.31
482.28	234.31
482.498	238.31
482.717	236.31
482.935	235.31
483.153	257.31
483.372	242.31
483.59	251.31
483.808	256.31
484.027	228.31
484.245	259.31
484.463	247.31
484.681	256.31
484.9	244.31
485.118	261.31
485.336	246.31
485.554	259.31
485.772	277.31
485.99	278.31
486.209	276.31
486.427	272.31
486.645	277.31
486.863	267.31
487.081	266.31
487.299	269.31
487.517	251.31
487.735	274.31
487.953	273.31
488.171	263.31
488.389	255.31
488.607	245.31
488.825	255.31
489.043	248.31
489.261	265.31
489.479	244.31
489.696	253.31
489.914	233.31
490.132	242.31
490.35	246.31
490.568	263.31
490.786	266.31
491.003	251.31
491.221	245.31
491.439	252.31
491.657	237.31
491.874	249.31
492.092	272.31
492.31	276.31
492.527	255.31
492.745	261.31
492.963	265.31
493.18	231.31
493.398	254.31
493.615	273.31
493.833	248.31
494.05	253.31
494.268	258.31
494.485	271.31
494.703	280.31
494.92	264.31
495.138	264.31
495.355	259.31
495.573	270.31
495.79	253.31
496.008	283.31
496.225	269.31
496.442	281.31
496.66	267.31
496.877	264.31
497.094	278.31
497.312	292.31
497.529	292.31
497.746	275.31
497.963	285.31
498.181	306.31
498.398	325.31
498.615	322.31
498.832	350.31
499.049	392.31
499.267	398.31
499.484	420.31
499.701	465.31
499.918	534.31
500.135	575.31
500.352	676.31
500.569	680.31
500.786	693.31
501.003	657.31
501.22	587.31
501.437	476.31
501.654	445.31
501.871	416.31
502.088	358.31
502.305	369.31
502.522	343.31
502.739	345.31
502.956	311.31
503.172	310.31
503.389	300.31
