Data from 0.5MCu(NO3)2.Standard.Lamp.E10.CV._HRD10591_16-04-29-753.txt Node
Date: Mon Jul 22 16:04:29 EDT 2019
User: cochatt
Spectrometer: HR+D1059
Trigger mode: 1
Integration Time (sec): 1.000000E-1
Scans to average: 1
Electric dark correction enabled: true
Nonlinearity correction enabled: false
Boxcar width: 0
XAxis mode: Wavelengths
Number of Pixels in Spectrum: 2048
>>>>>Begin Spectral Data<<<<<
223.165	-13.38
223.4	-13.38
223.635	-13.38
223.869	-19.38
224.104	-18.38
224.338	-7.38
224.573	-1.38
224.808	-13.38
225.042	-6.38
225.277	-17.38
225.511	-7.38
225.746	-4.38
225.98	24.62
226.215	4.62
226.449	14.62
226.683	28.62
226.918	18.62
227.152	17.62
227.387	32.62
227.621	32.62
227.856	48.62
228.09	50.62
228.324	35.62
228.559	53.62
228.793	66.62
229.027	55.62
229.262	66.62
229.496	63.62
229.73	88.62
229.964	70.62
230.199	85.62
230.433	75.62
230.667	78.62
230.901	89.62
231.136	84.62
231.37	76.62
231.604	79.62
231.838	76.62
232.072	79.62
232.306	98.62
232.541	81.62
232.775	89.62
233.009	93.62
233.243	101.62
233.477	81.62
233.711	90.62
233.945	97.62
234.179	89.62
234.413	77.62
234.647	90.62
234.881	95.62
235.115	104.62
235.349	78.62
235.583	89.62
235.817	103.62
236.051	93.62
236.285	72.62
236.519	88.62
236.753	79.62
236.987	94.62
237.221	82.62
237.455	69.62
237.689	88.62
237.922	88.62
238.156	95.62
238.39	85.62
238.624	91.62
238.858	84.62
239.091	83.62
239.325	87.62
239.559	93.62
239.793	96.62
240.027	80.62
240.26	80.62
240.494	85.62
240.728	88.62
240.961	96.62
241.195	82.62
241.429	94.62
241.662	93.62
241.896	89.62
242.13	80.62
242.363	92.62
242.597	96.62
242.83	92.62
243.064	94.62
243.298	84.62
243.531	95.62
243.765	79.62
243.998	82.62
244.232	91.62
244.465	118.62
244.699	95.62
244.932	89.62
245.166	104.62
245.399	109.62
245.633	90.62
245.866	109.62
246.099	92.62
246.333	95.62
246.566	86.62
246.8	90.62
247.033	87.62
247.266	85.62
247.5	92.62
247.733	98.62
247.966	87.62
248.2	112.62
248.433	97.62
248.666	92.62
248.899	83.62
249.133	95.62
249.366	94.62
249.599	101.62
249.832	107.62
250.066	100.62
250.299	101.62
250.532	105.62
250.765	107.62
250.998	114.62
251.231	102.62
251.465	101.62
251.698	97.62
251.931	107.62
252.164	105.62
252.397	88.62
252.63	100.62
252.863	120.62
253.096	105.62
253.329	112.62
253.562	115.62
253.795	96.62
254.028	96.62
254.261	105.62
254.494	116.62
254.727	100.62
254.96	85.62
255.193	112.62
255.426	115.62
255.659	95.62
255.892	108.62
256.124	106.62
256.357	120.62
256.59	114.62
256.823	110.62
257.056	120.62
257.289	122.62
257.521	104.62
257.754	97.62
257.987	115.62
258.22	98.62
258.452	128.62
258.685	116.62
258.918	102.62
259.151	116.62
259.383	121.62
259.616	110.62
259.849	120.62
260.081	108.62
260.314	122.62
260.547	107.62
260.779	110.62
261.012	116.62
261.244	112.62
261.477	113.62
261.71	115.62
261.942	116.62
262.175	89.62
262.407	129.62
262.64	122.62
262.872	126.62
263.105	114.62
263.337	111.62
263.57	122.62
263.802	119.62
264.035	125.62
264.267	122.62
264.499	109.62
264.732	127.62
264.964	119.62
265.197	133.62
265.429	103.62
265.661	123.62
265.894	130.62
266.126	130.62
266.358	121.62
266.591	126.62
266.823	126.62
267.055	117.62
267.287	104.62
267.52	124.62
267.752	117.62
267.984	124.62
268.216	118.62
268.448	128.62
268.681	103.62
268.913	128.62
269.145	120.62
269.377	117.62
269.609	119.62
269.841	126.62
270.073	121.62
270.306	132.62
270.538	128.62
270.77	130.62
271.002	122.62
271.234	122.62
271.466	111.62
271.698	138.62
271.93	125.62
272.162	122.62
272.394	125.62
272.626	120.62
272.858	119.62
273.09	122.62
273.322	138.62
273.553	124.62
273.785	138.62
274.017	109.62
274.249	132.62
274.481	129.62
274.713	128.62
274.945	143.62
275.176	124.62
275.408	133.62
275.64	130.62
275.872	132.62
276.104	145.62
276.335	136.62
276.567	131.62
276.799	132.62
277.031	123.62
277.262	136.62
277.494	130.62
277.726	134.62
277.957	144.62
278.189	143.62
278.421	127.62
278.652	141.62
278.884	146.62
279.115	146.62
279.347	134.62
279.579	131.62
279.81	121.62
280.042	137.62
280.273	146.62
280.505	138.62
280.736	136.62
280.968	136.62
281.199	142.62
281.431	137.62
281.662	145.62
281.894	146.62
282.125	142.62
282.356	128.62
282.588	151.62
282.819	130.62
283.051	142.62
283.282	143.62
283.513	140.62
283.745	152.62
283.976	141.62
284.207	150.62
284.439	130.62
284.67	138.62
284.901	150.62
285.132	150.62
285.364	152.62
285.595	151.62
285.826	153.62
286.057	150.62
286.288	154.62
286.52	143.62
286.751	135.62
286.982	138.62
287.213	139.62
287.444	142.62
287.675	161.62
287.906	160.62
288.138	157.62
288.369	137.62
288.6	157.62
288.831	146.62
289.062	146.62
289.293	162.62
289.524	148.62
289.755	144.62
289.986	158.62
290.217	150.62
290.448	156.62
290.679	152.62
290.91	150.62
291.141	145.62
291.371	167.62
291.602	161.62
291.833	163.62
292.064	144.62
292.295	156.62
292.526	166.62
292.757	156.62
292.987	158.62
293.218	158.62
293.449	170.62
293.68	148.62
293.91	162.62
294.141	166.62
294.372	147.62
294.603	157.62
294.833	150.62
295.064	152.62
295.295	164.62
295.525	164.62
295.756	168.62
295.987	161.62
296.217	157.62
296.448	152.62
296.679	158.62
296.909	162.62
297.14	171.62
297.37	176.62
297.601	182.62
297.831	145.62
298.062	161.62
298.292	176.62
298.523	153.62
298.753	175.62
298.984	165.62
299.214	166.62
299.445	165.62
299.675	159.62
299.905	162.62
300.136	176.62
300.366	159.62
300.597	176.62
300.827	170.62
301.057	197.62
301.288	167.62
301.518	181.62
301.748	172.62
301.979	184.62
302.209	180.62
302.439	189.62
302.669	174.62
302.9	156.62
303.13	165.62
303.36	180.62
303.59	164.62
303.82	172.62
304.051	178.62
304.281	177.62
304.511	180.62
304.741	167.62
304.971	178.62
305.201	169.62
305.431	170.62
305.661	174.62
305.891	170.62
306.121	183.62
306.352	184.62
306.582	166.62
306.812	160.62
307.042	160.62
307.272	169.62
307.502	166.62
307.731	152.62
307.961	170.62
308.191	167.62
308.421	175.62
308.651	176.62
308.881	159.62
309.111	176.62
309.341	172.62
309.571	176.62
309.8	158.62
310.03	178.62
310.26	187.62
310.49	166.62
310.72	168.62
310.949	181.62
311.179	170.62
311.409	176.62
311.639	169.62
311.868	163.62
312.098	176.62
312.328	169.62
312.557	174.62
312.787	165.62
313.017	177.62
313.246	181.62
313.476	185.62
313.706	168.62
313.935	190.62
314.165	185.62
314.394	160.62
314.624	154.62
314.853	193.62
315.083	169.62
315.312	172.62
315.542	172.62
315.771	174.62
316.001	173.62
316.23	176.62
316.46	175.62
316.689	174.62
316.919	175.62
317.148	172.62
317.377	165.62
317.607	169.62
317.836	175.62
318.065	180.62
318.295	179.62
318.524	175.62
318.753	172.62
318.983	161.62
319.212	168.62
319.441	165.62
319.67	174.62
319.9	168.62
320.129	167.62
320.358	177.62
320.587	160.62
320.816	172.62
321.046	175.62
321.275	171.62
321.504	175.62
321.733	188.62
321.962	176.62
322.191	172.62
322.42	184.62
322.649	194.62
322.878	181.62
323.108	172.62
323.337	185.62
323.566	174.62
323.795	182.62
324.024	186.62
324.253	167.62
324.482	169.62
324.71	181.62
324.939	185.62
325.168	180.62
325.397	170.62
325.626	175.62
325.855	183.62
326.084	183.62
326.313	193.62
326.542	206.62
326.77	190.62
326.999	187.62
327.228	187.62
327.457	181.62
327.686	184.62
327.914	188.62
328.143	193.62
328.372	178.62
328.6	179.62
328.829	192.62
329.058	179.62
329.287	168.62
329.515	182.62
329.744	180.62
329.972	184.62
330.201	179.62
330.43	187.62
330.658	195.62
330.887	191.62
331.115	206.62
331.344	186.62
331.572	197.62
331.801	200.62
332.03	215.62
332.258	206.62
332.486	198.62
332.715	210.62
332.943	232.62
333.172	228.62
333.4	227.62
333.629	228.62
333.857	217.62
334.085	257.62
334.314	228.62
334.542	238.62
334.771	209.62
334.999	225.62
335.227	221.62
335.455	219.62
335.684	222.62
335.912	201.62
336.14	206.62
336.369	191.62
336.597	204.62
336.825	207.62
337.053	190.62
337.281	217.62
337.51	201.62
337.738	202.62
337.966	208.62
338.194	189.62
338.422	185.62
338.65	179.62
338.878	207.62
339.106	192.62
339.334	194.62
339.562	180.62
339.79	188.62
340.018	193.62
340.246	160.62
340.474	204.62
340.702	182.62
340.93	176.62
341.158	191.62
341.386	205.62
341.614	198.62
341.842	166.62
342.07	190.62
342.298	193.62
342.526	194.62
342.754	188.62
342.981	172.62
343.209	183.62
343.437	209.62
343.665	200.62
343.893	224.62
344.12	217.62
344.348	220.62
344.576	193.62
344.804	217.62
345.031	178.62
345.259	204.62
345.487	174.62
345.714	189.62
345.942	201.62
346.17	186.62
346.397	190.62
346.625	193.62
346.853	194.62
347.08	186.62
347.308	201.62
347.535	176.62
347.763	188.62
347.99	185.62
348.218	205.62
348.445	198.62
348.673	194.62
348.9	193.62
349.128	189.62
349.355	172.62
349.583	190.62
349.81	191.62
350.037	174.62
350.265	163.62
350.492	188.62
350.72	174.62
350.947	189.62
351.174	177.62
351.402	182.62
351.629	187.62
351.856	185.62
352.083	191.62
352.311	191.62
352.538	170.62
352.765	186.62
352.992	180.62
353.22	186.62
353.447	177.62
353.674	181.62
353.901	176.62
354.128	174.62
354.355	183.62
354.583	181.62
354.81	173.62
355.037	185.62
355.264	184.62
355.491	208.62
355.718	174.62
355.945	187.62
356.172	188.62
356.399	186.62
356.626	181.62
356.853	187.62
357.08	189.62
357.307	185.62
357.534	192.62
357.761	167.62
357.988	179.62
358.215	181.62
358.441	197.62
358.668	182.62
358.895	180.62
359.122	195.62
359.349	176.62
359.576	174.62
359.802	174.62
360.029	176.62
360.256	184.62
360.483	174.62
360.709	186.62
360.936	181.62
361.163	182.62
361.39	188.62
361.616	174.62
361.843	176.62
362.07	175.62
362.296	160.62
362.523	170.62
362.749	176.62
362.976	193.62
363.203	202.62
363.429	184.62
363.656	193.62
363.882	191.62
364.109	169.62
364.335	178.62
364.562	172.62
364.788	189.62
365.015	180.62
365.241	197.62
365.468	182.62
365.694	182.62
365.92	176.62
366.147	168.62
366.373	178.62
366.599	166.62
366.826	191.62
367.052	184.62
367.278	181.62
367.505	182.62
367.731	189.62
367.957	175.62
368.184	168.62
368.41	160.62
368.636	170.62
368.862	183.62
369.089	181.62
369.315	185.62
369.541	177.62
369.767	186.62
369.993	184.62
370.219	194.62
370.445	183.62
370.672	198.62
370.898	172.62
371.124	186.62
371.35	179.62
371.576	194.62
371.802	192.62
372.028	174.62
372.254	199.62
372.48	185.62
372.706	196.62
372.932	186.62
373.158	199.62
373.384	185.62
373.61	195.62
373.835	176.62
374.061	193.62
374.287	194.62
374.513	184.62
374.739	187.62
374.965	209.62
375.191	210.62
375.416	212.62
375.642	201.62
375.868	199.62
376.094	201.62
376.319	199.62
376.545	186.62
376.771	184.62
376.997	187.62
377.222	184.62
377.448	184.62
377.674	175.62
377.899	188.62
378.125	200.62
378.35	188.62
378.576	187.62
378.802	184.62
379.027	180.62
379.253	184.62
379.478	187.62
379.704	185.62
379.929	196.62
380.155	194.62
380.38	187.62
380.606	170.62
380.831	194.62
381.057	192.62
381.282	173.62
381.507	194.62
381.733	190.62
381.958	193.62
382.184	199.62
382.409	183.62
382.634	200.62
382.86	198.62
383.085	204.62
383.31	206.62
383.535	204.62
383.761	195.62
383.986	205.62
384.211	222.62
384.436	196.62
384.662	210.62
384.887	207.62
385.112	212.62
385.337	214.62
385.562	206.62
385.787	205.62
386.013	209.62
386.238	212.62
386.463	213.62
386.688	211.62
386.913	206.62
387.138	193.62
387.363	212.62
387.588	212.62
387.813	219.62
388.038	211.62
388.263	202.62
388.488	209.62
388.713	226.62
388.938	212.62
389.163	209.62
389.387	213.62
389.612	200.62
389.837	193.62
390.062	201.62
390.287	212.62
390.512	205.62
390.736	221.62
390.961	216.62
391.186	224.62
391.411	212.62
391.636	216.62
391.86	236.62
392.085	228.62
392.31	236.62
392.534	220.62
392.759	222.62
392.984	228.62
393.208	228.62
393.433	218.62
393.658	225.62
393.882	220.62
394.107	208.62
394.331	200.62
394.556	209.62
394.78	213.62
395.005	224.62
395.229	215.62
395.454	205.62
395.678	224.62
395.903	217.62
396.127	220.62
396.352	214.62
396.576	204.62
396.801	226.62
397.025	220.62
397.249	212.62
397.474	242.62
397.698	229.62
397.922	216.62
398.147	223.62
398.371	243.62
398.595	231.62
398.82	248.62
399.044	223.62
399.268	275.62
399.492	318.62
399.717	376.62
399.941	365.62
400.165	317.62
400.389	267.62
400.613	255.62
400.837	245.62
401.062	252.62
401.286	232.62
401.51	247.62
401.734	252.62
401.958	231.62
402.182	246.62
402.406	249.62
402.63	253.62
402.854	266.62
403.078	254.62
403.302	294.62
403.526	281.62
403.75	271.62
403.974	282.62
404.198	301.62
404.422	274.62
404.645	272.62
404.869	273.62
405.093	276.62
405.317	264.62
405.541	257.62
405.765	268.62
405.988	265.62
406.212	256.62
406.436	274.62
406.66	295.62
406.883	263.62
407.107	290.62
407.331	303.62
407.555	314.62
407.778	304.62
408.002	319.62
408.226	295.62
408.449	300.62
408.673	281.62
408.896	278.62
409.12	277.62
409.344	281.62
409.567	270.62
409.791	263.62
410.014	276.62
410.238	277.62
410.461	270.62
410.685	266.62
410.908	268.62
411.132	272.62
411.355	256.62
411.578	281.62
411.802	262.62
412.025	249.62
412.249	265.62
412.472	248.62
412.695	238.62
412.919	226.62
413.142	246.62
413.365	253.62
413.589	247.62
413.812	258.62
414.035	252.62
414.258	245.62
414.482	245.62
414.705	255.62
414.928	247.62
415.151	242.62
415.374	233.62
415.597	238.62
415.821	242.62
416.044	221.62
416.267	250.62
416.49	252.62
416.713	244.62
416.936	243.62
417.159	255.62
417.382	236.62
417.605	243.62
417.828	234.62
418.051	256.62
418.274	242.62
418.497	242.62
418.72	259.62
418.943	247.62
419.166	267.62
419.389	282.62
419.611	254.62
419.834	257.62
420.057	257.62
420.28	258.62
420.503	259.62
420.726	243.62
420.948	254.62
421.171	252.62
421.394	238.62
421.617	248.62
421.839	229.62
422.062	249.62
422.285	227.62
422.507	256.62
422.73	248.62
422.953	242.62
423.175	252.62
423.398	243.62
423.621	250.62
423.843	266.62
424.066	259.62
424.288	268.62
424.511	252.62
424.733	264.62
424.956	240.62
425.178	267.62
425.401	241.62
425.623	257.62
425.846	256.62
426.068	242.62
426.291	233.62
426.513	224.62
426.735	233.62
426.958	233.62
427.18	247.62
427.402	254.62
427.625	232.62
427.847	215.62
428.069	227.62
428.292	226.62
428.514	226.62
428.736	229.62
428.958	217.62
429.181	223.62
429.403	220.62
429.625	222.62
429.847	213.62
430.069	218.62
430.292	222.62
430.514	234.62
430.736	233.62
430.958	224.62
431.18	228.62
431.402	231.62
431.624	220.62
431.846	221.62
432.068	240.62
432.29	242.62
432.512	218.62
432.734	232.62
432.956	227.62
433.178	231.62
433.4	220.62
433.622	215.62
433.844	223.62
434.066	250.62
434.287	236.62
434.509	236.62
434.731	240.62
434.953	257.62
435.175	273.62
435.397	248.62
435.618	244.62
435.84	216.62
436.062	233.62
436.284	222.62
436.505	234.62
436.727	246.62
436.949	218.62
437.17	218.62
437.392	227.62
437.614	222.62
437.835	210.62
438.057	221.62
438.278	209.62
438.5	200.62
438.721	220.62
438.943	233.62
439.165	206.62
439.386	202.62
439.608	236.62
439.829	212.62
440.05	232.62
440.272	222.62
440.493	231.62
440.715	230.62
440.936	233.62
441.158	245.62
441.379	242.62
441.6	234.62
441.822	261.62
442.043	244.62
442.264	243.62
442.486	250.62
442.707	246.62
442.928	233.62
443.149	241.62
443.371	245.62
443.592	256.62
443.813	242.62
444.034	263.62
444.255	264.62
444.476	262.62
444.698	284.62
444.919	305.62
445.14	400.62
445.361	312.62
445.582	260.62
445.803	246.62
446.024	232.62
446.245	223.62
446.466	225.62
446.687	215.62
446.908	232.62
447.129	207.62
447.35	225.62
447.571	217.62
447.792	237.62
448.013	214.62
448.234	212.62
448.455	216.62
448.675	217.62
448.896	213.62
449.117	205.62
449.338	214.62
449.559	211.62
449.779	212.62
450	215.62
450.221	210.62
450.442	217.62
450.662	224.62
450.883	207.62
451.104	216.62
451.324	237.62
451.545	222.62
451.766	227.62
451.986	209.62
452.207	207.62
452.428	223.62
452.648	210.62
452.869	210.62
453.089	206.62
453.31	209.62
453.53	204.62
453.751	213.62
453.971	219.62
454.192	212.62
454.412	197.62
454.633	180.62
454.853	204.62
455.073	206.62
455.294	202.62
455.514	204.62
455.734	192.62
455.955	217.62
456.175	201.62
456.395	205.62
456.616	188.62
456.836	218.62
457.056	188.62
457.276	185.62
457.497	201.62
457.717	198.62
457.937	195.62
458.157	213.62
458.377	216.62
458.598	209.62
458.818	217.62
459.038	213.62
459.258	229.62
459.478	229.62
459.698	218.62
459.918	253.62
460.138	265.62
460.358	239.62
460.578	244.62
460.798	266.62
461.018	248.62
461.238	272.62
461.458	273.62
461.678	254.62
461.898	277.62
462.118	272.62
462.338	289.62
462.558	270.62
462.777	292.62
462.997	298.62
463.217	334.62
463.437	348.62
463.657	332.62
463.876	297.62
464.096	296.62
464.316	324.62
464.536	309.62
464.755	294.62
464.975	266.62
465.195	261.62
465.414	263.62
465.634	254.62
465.854	244.62
466.073	220.62
466.293	240.62
466.512	227.62
466.732	214.62
466.951	218.62
467.171	207.62
467.391	229.62
467.61	217.62
467.829	216.62
468.049	213.62
468.268	213.62
468.488	211.62
468.707	208.62
468.927	222.62
469.146	217.62
469.365	201.62
469.585	222.62
469.804	221.62
470.023	228.62
470.243	218.62
470.462	236.62
470.681	238.62
470.901	244.62
471.12	226.62
471.339	212.62
471.558	219.62
471.777	220.62
471.997	209.62
472.216	232.62
472.435	213.62
472.654	210.62
472.873	218.62
473.092	212.62
473.311	205.62
473.53	194.62
473.749	225.62
473.968	211.62
474.187	211.62
474.406	215.62
474.625	228.62
474.844	210.62
475.063	215.62
475.282	212.62
475.501	215.62
475.72	204.62
475.939	214.62
476.158	235.62
476.377	223.62
476.596	216.62
476.814	231.62
477.033	228.62
477.252	229.62
477.471	228.62
477.69	223.62
477.908	267.62
478.127	245.62
478.346	261.62
478.564	275.62
478.783	220.62
479.002	254.62
479.22	275.62
479.439	238.62
479.658	261.62
479.876	244.62
480.095	252.62
480.313	282.62
480.532	277.62
480.751	259.62
480.969	256.62
481.188	243.62
481.406	241.62
481.624	247.62
481.843	233.62
482.061	238.62
482.28	240.62
482.498	220.62
482.717	243.62
482.935	232.62
483.153	236.62
483.372	231.62
483.59	231.62
483.808	248.62
484.027	249.62
484.245	244.62
484.463	236.62
484.681	256.62
484.9	259.62
485.118	275.62
485.336	255.62
485.554	257.62
485.772	258.62
485.99	269.62
486.209	266.62
486.427	254.62
486.645	247.62
486.863	270.62
487.081	257.62
487.299	274.62
487.517	273.62
487.735	269.62
487.953	279.62
488.171	256.62
488.389	242.62
488.607	248.62
488.825	232.62
489.043	233.62
489.261	258.62
489.479	270.62
489.696	266.62
489.914	257.62
490.132	254.62
490.35	237.62
490.568	251.62
490.786	255.62
491.003	256.62
491.221	252.62
491.439	252.62
491.657	265.62
491.874	258.62
492.092	255.62
492.31	276.62
492.527	268.62
492.745	265.62
492.963	264.62
493.18	269.62
493.398	268.62
493.615	260.62
493.833	253.62
494.05	268.62
494.268	246.62
494.485	264.62
494.703	245.62
494.92	263.62
495.138	267.62
495.355	270.62
495.573	248.62
495.79	258.62
496.008	271.62
496.225	267.62
496.442	262.62
496.66	274.62
496.877	296.62
497.094	282.62
497.312	282.62
497.529	301.62
497.746	296.62
497.963	292.62
498.181	297.62
498.398	318.62
498.615	326.62
498.832	326.62
499.049	381.62
499.267	414.62
499.484	436.62
499.701	452.62
499.918	520.62
500.135	602.62
500.352	661.62
500.569	717.62
500.786	692.62
501.003	643.62
501.22	608.62
501.437	523.62
501.654	452.62
501.871	408.62
502.088	373.62
502.305	383.62
502.522	341.62
502.739	340.62
502.956	341.62
503.172	329.62
503.389	297.62
