Data from 0.5MCu(NO3)2.Standard.Lamp.E10.CV._HRD10591_16-05-28-754.txt Node
Date: Mon Jul 22 16:05:28 EDT 2019
User: cochatt
Spectrometer: HR+D1059
Trigger mode: 1
Integration Time (sec): 1.000000E-1
Scans to average: 1
Electric dark correction enabled: true
Nonlinearity correction enabled: false
Boxcar width: 0
XAxis mode: Wavelengths
Number of Pixels in Spectrum: 2048
>>>>>Begin Spectral Data<<<<<
223.165	-11.44
223.4	-11.44
223.635	-11.44
223.869	-19.44
224.104	-14.44
224.338	-10.44
224.573	-13.44
224.808	-17.44
225.042	-4.44
225.277	-16.44
225.511	-7.44
225.746	-2.44
225.98	7.56
226.215	25.56
226.449	12.56
226.683	12.56
226.918	26.56
227.152	32.56
227.387	29.56
227.621	37.56
227.856	50.56
228.09	46.56
228.324	65.56
228.559	53.56
228.793	53.56
229.027	67.56
229.262	68.56
229.496	63.56
229.73	78.56
229.964	72.56
230.199	60.56
230.433	87.56
230.667	93.56
230.901	90.56
231.136	100.56
231.37	95.56
231.604	82.56
231.838	91.56
232.072	90.56
232.306	92.56
232.541	94.56
232.775	90.56
233.009	104.56
233.243	101.56
233.477	89.56
233.711	113.56
233.945	96.56
234.179	94.56
234.413	98.56
234.647	90.56
234.881	94.56
235.115	88.56
235.349	98.56
235.583	92.56
235.817	99.56
236.051	86.56
236.285	84.56
236.519	92.56
236.753	96.56
236.987	99.56
237.221	94.56
237.455	96.56
237.689	86.56
237.922	92.56
238.156	98.56
238.39	85.56
238.624	88.56
238.858	91.56
239.091	106.56
239.325	87.56
239.559	104.56
239.793	90.56
240.027	89.56
240.26	98.56
240.494	79.56
240.728	90.56
240.961	86.56
241.195	92.56
241.429	93.56
241.662	101.56
241.896	98.56
242.13	104.56
242.363	95.56
242.597	108.56
242.83	100.56
243.064	101.56
243.298	99.56
243.531	83.56
243.765	105.56
243.998	95.56
244.232	111.56
244.465	101.56
244.699	93.56
244.932	113.56
245.166	97.56
245.399	112.56
245.633	97.56
245.866	97.56
246.099	106.56
246.333	95.56
246.566	103.56
246.8	102.56
247.033	100.56
247.266	89.56
247.5	108.56
247.733	108.56
247.966	107.56
248.2	113.56
248.433	117.56
248.666	103.56
248.899	90.56
249.133	106.56
249.366	104.56
249.599	113.56
249.832	118.56
250.066	103.56
250.299	110.56
250.532	123.56
250.765	106.56
250.998	104.56
251.231	98.56
251.465	116.56
251.698	110.56
251.931	121.56
252.164	113.56
252.397	122.56
252.63	113.56
252.863	110.56
253.096	123.56
253.329	131.56
253.562	120.56
253.795	121.56
254.028	121.56
254.261	126.56
254.494	141.56
254.727	124.56
254.96	103.56
255.193	121.56
255.426	117.56
255.659	114.56
255.892	129.56
256.124	122.56
256.357	128.56
256.59	122.56
256.823	131.56
257.056	126.56
257.289	106.56
257.521	121.56
257.754	125.56
257.987	128.56
258.22	125.56
258.452	130.56
258.685	119.56
258.918	122.56
259.151	120.56
259.383	133.56
259.616	135.56
259.849	128.56
260.081	141.56
260.314	137.56
260.547	122.56
260.779	138.56
261.012	150.56
261.244	124.56
261.477	124.56
261.71	124.56
261.942	129.56
262.175	125.56
262.407	143.56
262.64	133.56
262.872	129.56
263.105	124.56
263.337	127.56
263.57	124.56
263.802	148.56
264.035	147.56
264.267	129.56
264.499	135.56
264.732	127.56
264.964	140.56
265.197	140.56
265.429	137.56
265.661	142.56
265.894	132.56
266.126	149.56
266.358	136.56
266.591	139.56
266.823	142.56
267.055	132.56
267.287	141.56
267.52	133.56
267.752	152.56
267.984	137.56
268.216	145.56
268.448	140.56
268.681	146.56
268.913	141.56
269.145	154.56
269.377	143.56
269.609	145.56
269.841	153.56
270.073	139.56
270.306	125.56
270.538	140.56
270.77	124.56
271.002	144.56
271.234	148.56
271.466	156.56
271.698	139.56
271.93	135.56
272.162	143.56
272.394	144.56
272.626	137.56
272.858	146.56
273.09	155.56
273.322	154.56
273.553	150.56
273.785	161.56
274.017	159.56
274.249	149.56
274.481	156.56
274.713	146.56
274.945	142.56
275.176	151.56
275.408	141.56
275.64	151.56
275.872	135.56
276.104	151.56
276.335	171.56
276.567	158.56
276.799	157.56
277.031	152.56
277.262	156.56
277.494	171.56
277.726	166.56
277.957	150.56
278.189	175.56
278.421	156.56
278.652	166.56
278.884	160.56
279.115	151.56
279.347	157.56
279.579	159.56
279.81	168.56
280.042	171.56
280.273	170.56
280.505	178.56
280.736	172.56
280.968	169.56
281.199	167.56
281.431	175.56
281.662	168.56
281.894	168.56
282.125	172.56
282.356	164.56
282.588	184.56
282.819	174.56
283.051	174.56
283.282	153.56
283.513	161.56
283.745	173.56
283.976	176.56
284.207	168.56
284.439	177.56
284.67	158.56
284.901	174.56
285.132	157.56
285.364	180.56
285.595	177.56
285.826	184.56
286.057	173.56
286.288	166.56
286.52	162.56
286.751	185.56
286.982	161.56
287.213	190.56
287.444	181.56
287.675	191.56
287.906	163.56
288.138	187.56
288.369	182.56
288.6	192.56
288.831	174.56
289.062	191.56
289.293	167.56
289.524	183.56
289.755	172.56
289.986	197.56
290.217	189.56
290.448	178.56
290.679	180.56
290.91	199.56
291.141	175.56
291.371	188.56
291.602	181.56
291.833	181.56
292.064	165.56
292.295	188.56
292.526	188.56
292.757	182.56
292.987	192.56
293.218	189.56
293.449	186.56
293.68	198.56
293.91	203.56
294.141	178.56
294.372	179.56
294.603	195.56
294.833	191.56
295.064	195.56
295.295	207.56
295.525	195.56
295.756	200.56
295.987	197.56
296.217	186.56
296.448	199.56
296.679	204.56
296.909	195.56
297.14	203.56
297.37	199.56
297.601	188.56
297.831	202.56
298.062	202.56
298.292	204.56
298.523	200.56
298.753	198.56
298.984	206.56
299.214	193.56
299.445	198.56
299.675	191.56
299.905	190.56
300.136	206.56
300.366	211.56
300.597	198.56
300.827	201.56
301.057	214.56
301.288	211.56
301.518	212.56
301.748	213.56
301.979	213.56
302.209	202.56
302.439	202.56
302.669	222.56
302.9	201.56
303.13	207.56
303.36	211.56
303.59	201.56
303.82	197.56
304.051	200.56
304.281	216.56
304.511	207.56
304.741	209.56
304.971	207.56
305.201	202.56
305.431	201.56
305.661	207.56
305.891	203.56
306.121	205.56
306.352	208.56
306.582	182.56
306.812	197.56
307.042	199.56
307.272	199.56
307.502	203.56
307.731	201.56
307.961	179.56
308.191	211.56
308.421	204.56
308.651	193.56
308.881	208.56
309.111	200.56
309.341	197.56
309.571	192.56
309.8	207.56
310.03	216.56
310.26	189.56
310.49	193.56
310.72	198.56
310.949	206.56
311.179	203.56
311.409	225.56
311.639	193.56
311.868	219.56
312.098	204.56
312.328	219.56
312.557	215.56
312.787	196.56
313.017	220.56
313.246	220.56
313.476	216.56
313.706	204.56
313.935	223.56
314.165	228.56
314.394	220.56
314.624	207.56
314.853	212.56
315.083	222.56
315.312	216.56
315.542	213.56
315.771	214.56
316.001	209.56
316.23	201.56
316.46	210.56
316.689	194.56
316.919	223.56
317.148	205.56
317.377	215.56
317.607	207.56
317.836	219.56
318.065	198.56
318.295	214.56
318.524	203.56
318.753	195.56
318.983	196.56
319.212	222.56
319.441	214.56
319.67	215.56
319.9	218.56
320.129	200.56
320.358	225.56
320.587	217.56
320.816	229.56
321.046	211.56
321.275	218.56
321.504	213.56
321.733	216.56
321.962	218.56
322.191	214.56
322.42	215.56
322.649	206.56
322.878	198.56
323.108	196.56
323.337	213.56
323.566	224.56
323.795	229.56
324.024	187.56
324.253	204.56
324.482	224.56
324.71	207.56
324.939	233.56
325.168	219.56
325.397	218.56
325.626	217.56
325.855	213.56
326.084	245.56
326.313	237.56
326.542	227.56
326.77	231.56
326.999	206.56
327.228	205.56
327.457	237.56
327.686	237.56
327.914	239.56
328.143	229.56
328.372	235.56
328.6	217.56
328.829	226.56
329.058	226.56
329.287	215.56
329.515	217.56
329.744	244.56
329.972	230.56
330.201	218.56
330.43	220.56
330.658	225.56
330.887	226.56
331.115	217.56
331.344	221.56
331.572	226.56
331.801	234.56
332.03	237.56
332.258	234.56
332.486	254.56
332.715	264.56
332.943	269.56
333.172	272.56
333.4	291.56
333.629	275.56
333.857	281.56
334.085	288.56
334.314	273.56
334.542	283.56
334.771	275.56
334.999	265.56
335.227	260.56
335.455	265.56
335.684	279.56
335.912	264.56
336.14	267.56
336.369	255.56
336.597	270.56
336.825	270.56
337.053	271.56
337.281	232.56
337.51	247.56
337.738	253.56
337.966	249.56
338.194	220.56
338.422	234.56
338.65	246.56
338.878	250.56
339.106	230.56
339.334	236.56
339.562	226.56
339.79	221.56
340.018	225.56
340.246	225.56
340.474	236.56
340.702	238.56
340.93	221.56
341.158	228.56
341.386	230.56
341.614	225.56
341.842	231.56
342.07	232.56
342.298	241.56
342.526	227.56
342.754	230.56
342.981	236.56
343.209	229.56
343.437	257.56
343.665	274.56
343.893	259.56
344.12	286.56
344.348	277.56
344.576	261.56
344.804	241.56
345.031	231.56
345.259	227.56
345.487	224.56
345.714	241.56
345.942	231.56
346.17	238.56
346.397	226.56
346.625	235.56
346.853	226.56
347.08	217.56
347.308	228.56
347.535	218.56
347.763	248.56
347.99	241.56
348.218	241.56
348.445	236.56
348.673	226.56
348.9	235.56
349.128	233.56
349.355	211.56
349.583	210.56
349.81	238.56
350.037	206.56
350.265	216.56
350.492	225.56
350.72	213.56
350.947	218.56
351.174	223.56
351.402	215.56
351.629	210.56
351.856	225.56
352.083	226.56
352.311	220.56
352.538	218.56
352.765	219.56
352.992	214.56
353.22	211.56
353.447	230.56
353.674	202.56
353.901	222.56
354.128	218.56
354.355	210.56
354.583	216.56
354.81	226.56
355.037	218.56
355.264	216.56
355.491	225.56
355.718	232.56
355.945	215.56
356.172	217.56
356.399	232.56
356.626	225.56
356.853	205.56
357.08	211.56
357.307	209.56
357.534	218.56
357.761	222.56
357.988	228.56
358.215	227.56
358.441	227.56
358.668	215.56
358.895	208.56
359.122	220.56
359.349	229.56
359.576	215.56
359.802	226.56
360.029	216.56
360.256	217.56
360.483	220.56
360.709	213.56
360.936	235.56
361.163	231.56
361.39	201.56
361.616	221.56
361.843	227.56
362.07	207.56
362.296	228.56
362.523	225.56
362.749	217.56
362.976	213.56
363.203	227.56
363.429	199.56
363.656	238.56
363.882	213.56
364.109	205.56
364.335	221.56
364.562	218.56
364.788	214.56
365.015	231.56
365.241	227.56
365.468	226.56
365.694	210.56
365.92	211.56
366.147	215.56
366.373	218.56
366.599	221.56
366.826	223.56
367.052	223.56
367.278	209.56
367.505	219.56
367.731	225.56
367.957	214.56
368.184	219.56
368.41	209.56
368.636	210.56
368.862	232.56
369.089	235.56
369.315	231.56
369.541	246.56
369.767	222.56
369.993	203.56
370.219	221.56
370.445	220.56
370.672	221.56
370.898	222.56
371.124	234.56
371.35	226.56
371.576	222.56
371.802	230.56
372.028	218.56
372.254	239.56
372.48	217.56
372.706	235.56
372.932	256.56
373.158	259.56
373.384	244.56
373.61	227.56
373.835	223.56
374.061	234.56
374.287	254.56
374.513	241.56
374.739	230.56
374.965	244.56
375.191	259.56
375.416	255.56
375.642	235.56
375.868	236.56
376.094	233.56
376.319	245.56
376.545	241.56
376.771	236.56
376.997	231.56
377.222	219.56
377.448	233.56
377.674	237.56
377.899	230.56
378.125	227.56
378.35	236.56
378.576	222.56
378.802	230.56
379.027	220.56
379.253	235.56
379.478	219.56
379.704	216.56
379.929	235.56
380.155	219.56
380.38	234.56
380.606	226.56
380.831	224.56
381.057	224.56
381.282	249.56
381.507	236.56
381.733	242.56
381.958	253.56
382.184	233.56
382.409	228.56
382.634	236.56
382.86	248.56
383.085	237.56
383.31	231.56
383.535	245.56
383.761	239.56
383.986	251.56
384.211	248.56
384.436	248.56
384.662	265.56
384.887	283.56
385.112	279.56
385.337	277.56
385.562	284.56
385.787	269.56
386.013	281.56
386.238	279.56
386.463	278.56
386.688	265.56
386.913	245.56
387.138	259.56
387.363	259.56
387.588	264.56
387.813	252.56
388.038	268.56
388.263	258.56
388.488	266.56
388.713	265.56
388.938	280.56
389.163	267.56
389.387	245.56
389.612	259.56
389.837	254.56
390.062	264.56
390.287	270.56
390.512	257.56
390.736	261.56
390.961	270.56
391.186	260.56
391.411	265.56
391.636	288.56
391.86	278.56
392.085	297.56
392.31	278.56
392.534	275.56
392.759	278.56
392.984	276.56
393.208	263.56
393.433	278.56
393.658	277.56
393.882	271.56
394.107	281.56
394.331	270.56
394.556	271.56
394.78	292.56
395.005	272.56
395.229	288.56
395.454	283.56
395.678	269.56
395.903	293.56
396.127	308.56
396.352	282.56
396.576	271.56
396.801	266.56
397.025	267.56
397.249	274.56
397.474	295.56
397.698	285.56
397.922	292.56
398.147	266.56
398.371	287.56
398.595	300.56
398.82	307.56
399.044	321.56
399.268	360.56
399.492	425.56
399.717	454.56
399.941	460.56
400.165	412.56
400.389	372.56
400.613	341.56
400.837	315.56
401.062	310.56
401.286	289.56
401.51	322.56
401.734	314.56
401.958	321.56
402.182	313.56
402.406	322.56
402.63	328.56
402.854	333.56
403.078	341.56
403.302	356.56
403.526	374.56
403.75	346.56
403.974	369.56
404.198	378.56
404.422	384.56
404.645	371.56
404.869	361.56
405.093	362.56
405.317	334.56
405.541	323.56
405.765	356.56
405.988	341.56
406.212	340.56
406.436	334.56
406.66	325.56
406.883	337.56
407.107	376.56
407.331	378.56
407.555	375.56
407.778	393.56
408.002	377.56
408.226	373.56
408.449	362.56
408.673	355.56
408.896	344.56
409.12	349.56
409.344	341.56
409.567	355.56
409.791	363.56
410.014	365.56
410.238	363.56
410.461	362.56
410.685	356.56
410.908	341.56
411.132	340.56
411.355	328.56
411.578	318.56
411.802	318.56
412.025	326.56
412.249	340.56
412.472	325.56
412.695	309.56
412.919	324.56
413.142	326.56
413.365	302.56
413.589	320.56
413.812	302.56
414.035	307.56
414.258	314.56
414.482	316.56
414.705	331.56
414.928	325.56
415.151	297.56
415.374	325.56
415.597	306.56
415.821	314.56
416.044	297.56
416.267	307.56
416.49	290.56
416.713	312.56
416.936	307.56
417.159	305.56
417.382	286.56
417.605	317.56
417.828	309.56
418.051	309.56
418.274	303.56
418.497	297.56
418.72	307.56
418.943	348.56
419.166	338.56
419.389	336.56
419.611	335.56
419.834	322.56
420.057	324.56
420.28	316.56
420.503	299.56
420.726	302.56
420.948	287.56
421.171	315.56
421.394	289.56
421.617	329.56
421.839	330.56
422.062	314.56
422.285	297.56
422.507	305.56
422.73	333.56
422.953	306.56
423.175	313.56
423.398	323.56
423.621	323.56
423.843	323.56
424.066	329.56
424.288	339.56
424.511	306.56
424.733	338.56
424.956	318.56
425.178	309.56
425.401	303.56
425.623	318.56
425.846	302.56
426.068	308.56
426.291	283.56
426.513	286.56
426.735	293.56
426.958	311.56
427.18	280.56
427.402	300.56
427.625	272.56
427.847	281.56
428.069	258.56
428.292	276.56
428.514	288.56
428.736	265.56
428.958	277.56
429.181	273.56
429.403	266.56
429.625	267.56
429.847	275.56
430.069	275.56
430.292	288.56
430.514	287.56
430.736	276.56
430.958	283.56
431.18	281.56
431.402	266.56
431.624	287.56
431.846	294.56
432.068	302.56
432.29	289.56
432.512	279.56
432.734	272.56
432.956	273.56
433.178	278.56
433.4	294.56
433.622	291.56
433.844	280.56
434.066	289.56
434.287	295.56
434.509	300.56
434.731	309.56
434.953	325.56
435.175	317.56
435.397	331.56
435.618	295.56
435.84	278.56
436.062	290.56
436.284	277.56
436.505	271.56
436.727	288.56
436.949	274.56
437.17	271.56
437.392	278.56
437.614	270.56
437.835	258.56
438.057	274.56
438.278	273.56
438.5	267.56
438.721	267.56
438.943	285.56
439.165	247.56
439.386	276.56
439.608	285.56
439.829	270.56
440.05	276.56
440.272	291.56
440.493	286.56
440.715	286.56
440.936	289.56
441.158	291.56
441.379	298.56
441.6	308.56
441.822	315.56
442.043	309.56
442.264	313.56
442.486	313.56
442.707	306.56
442.928	311.56
443.149	301.56
443.371	290.56
443.592	297.56
443.813	320.56
444.034	324.56
444.255	333.56
444.476	321.56
444.698	343.56
444.919	365.56
445.14	461.56
445.361	403.56
445.582	324.56
445.803	305.56
446.024	303.56
446.245	311.56
446.466	278.56
446.687	277.56
446.908	280.56
447.129	283.56
447.35	277.56
447.571	269.56
447.792	261.56
448.013	262.56
448.234	247.56
448.455	246.56
448.675	263.56
448.896	247.56
449.117	263.56
449.338	264.56
449.559	242.56
449.779	241.56
450	273.56
450.221	264.56
450.442	286.56
450.662	265.56
450.883	265.56
451.104	278.56
451.324	267.56
451.545	254.56
451.766	271.56
451.986	278.56
452.207	263.56
452.428	265.56
452.648	264.56
452.869	255.56
453.089	261.56
453.31	265.56
453.53	260.56
453.751	261.56
453.971	242.56
454.192	259.56
454.412	215.56
454.633	263.56
454.853	269.56
455.073	252.56
455.294	249.56
455.514	261.56
455.734	266.56
455.955	229.56
456.175	245.56
456.395	218.56
456.616	234.56
456.836	269.56
457.056	252.56
457.276	238.56
457.497	247.56
457.717	234.56
457.937	256.56
458.157	270.56
458.377	255.56
458.598	265.56
458.818	271.56
459.038	266.56
459.258	293.56
459.478	279.56
459.698	283.56
459.918	283.56
460.138	299.56
460.358	326.56
460.578	321.56
460.798	331.56
461.018	343.56
461.238	318.56
461.458	352.56
461.678	318.56
461.898	318.56
462.118	339.56
462.338	358.56
462.558	373.56
462.777	357.56
462.997	393.56
463.217	446.56
463.437	438.56
463.657	391.56
463.876	378.56
464.096	380.56
464.316	371.56
464.536	380.56
464.755	375.56
464.975	362.56
465.195	347.56
465.414	315.56
465.634	321.56
465.854	297.56
466.073	286.56
466.293	289.56
466.512	279.56
466.732	276.56
466.951	279.56
467.171	277.56
467.391	267.56
467.61	250.56
467.829	249.56
468.049	259.56
468.268	272.56
468.488	271.56
468.707	253.56
468.927	268.56
469.146	280.56
469.365	269.56
469.585	270.56
469.804	281.56
470.023	299.56
470.243	294.56
470.462	281.56
470.681	275.56
470.901	295.56
471.12	295.56
471.339	275.56
471.558	267.56
471.777	270.56
471.997	271.56
472.216	277.56
472.435	260.56
472.654	263.56
472.873	272.56
473.092	271.56
473.311	247.56
473.53	269.56
473.749	278.56
473.968	278.56
474.187	270.56
474.406	235.56
474.625	265.56
474.844	271.56
475.063	253.56
475.282	277.56
475.501	270.56
475.72	268.56
475.939	273.56
476.158	248.56
476.377	286.56
476.596	264.56
476.814	253.56
477.033	279.56
477.252	318.56
477.471	274.56
477.69	298.56
477.908	313.56
478.127	316.56
478.346	307.56
478.564	301.56
478.783	317.56
479.002	315.56
479.22	324.56
479.439	325.56
479.658	306.56
479.876	332.56
480.095	320.56
480.313	329.56
480.532	350.56
480.751	327.56
480.969	321.56
481.188	305.56
481.406	301.56
481.624	297.56
481.843	308.56
482.061	289.56
482.28	277.56
482.498	291.56
482.717	294.56
482.935	301.56
483.153	291.56
483.372	297.56
483.59	301.56
483.808	287.56
484.027	302.56
484.245	295.56
484.463	286.56
484.681	325.56
484.9	305.56
485.118	315.56
485.336	329.56
485.554	303.56
485.772	331.56
485.99	311.56
486.209	331.56
486.427	327.56
486.645	306.56
486.863	300.56
487.081	302.56
487.299	325.56
487.517	323.56
487.735	313.56
487.953	322.56
488.171	333.56
488.389	293.56
488.607	313.56
488.825	307.56
489.043	316.56
489.261	311.56
489.479	325.56
489.696	323.56
489.914	314.56
490.132	323.56
490.35	302.56
490.568	305.56
490.786	317.56
491.003	334.56
491.221	311.56
491.439	313.56
491.657	311.56
491.874	309.56
492.092	305.56
492.31	323.56
492.527	347.56
492.745	314.56
492.963	325.56
493.18	322.56
493.398	332.56
493.615	324.56
493.833	348.56
494.05	320.56
494.268	346.56
494.485	343.56
494.703	343.56
494.92	329.56
495.138	321.56
495.355	326.56
495.573	331.56
495.79	341.56
496.008	329.56
496.225	327.56
496.442	339.56
496.66	335.56
496.877	350.56
497.094	343.56
497.312	356.56
497.529	359.56
497.746	366.56
497.963	372.56
498.181	375.56
498.398	407.56
498.615	419.56
498.832	463.56
499.049	461.56
499.267	511.56
499.484	554.56
499.701	620.56
499.918	655.56
500.135	801.56
500.352	892.56
500.569	985.56
500.786	931.56
501.003	873.56
501.22	745.56
501.437	676.56
501.654	577.56
501.871	544.56
502.088	498.56
502.305	470.56
502.522	442.56
502.739	428.56
502.956	414.56
