Data from 0.5MCu(NO3)2.Standard.Lamp.E10.CV._HRD10591_16-06-12-753.txt Node
Date: Mon Jul 22 16:06:12 EDT 2019
User: cochatt
Spectrometer: HR+D1059
Trigger mode: 1
Integration Time (sec): 1.000000E-1
Scans to average: 1
Electric dark correction enabled: true
Nonlinearity correction enabled: false
Boxcar width: 0
XAxis mode: Wavelengths
Number of Pixels in Spectrum: 2048
>>>>>Begin Spectral Data<<<<<
223.165	-15.25
223.4	-15.25
223.635	-15.25
223.869	-19.25
224.104	-17.25
224.338	-18.25
224.573	-23.25
224.808	-5.25
225.042	-1.25
225.277	4.75
225.511	-9.25
225.746	21.75
225.98	1.75
226.215	12.75
226.449	9.75
226.683	12.75
226.918	24.75
227.152	20.75
227.387	29.75
227.621	30.75
227.856	37.75
228.09	40.75
228.324	44.75
228.559	46.75
228.793	45.75
229.027	66.75
229.262	62.75
229.496	79.75
229.73	72.75
229.964	77.75
230.199	78.75
230.433	72.75
230.667	87.75
230.901	69.75
231.136	79.75
231.37	96.75
231.604	87.75
231.838	87.75
232.072	69.75
232.306	81.75
232.541	95.75
232.775	89.75
233.009	95.75
233.243	78.75
233.477	80.75
233.711	92.75
233.945	87.75
234.179	79.75
234.413	86.75
234.647	86.75
234.881	77.75
235.115	79.75
235.349	87.75
235.583	91.75
235.817	91.75
236.051	81.75
236.285	78.75
236.519	89.75
236.753	89.75
236.987	73.75
237.221	79.75
237.455	80.75
237.689	81.75
237.922	76.75
238.156	95.75
238.39	80.75
238.624	83.75
238.858	89.75
239.091	83.75
239.325	89.75
239.559	85.75
239.793	100.75
240.027	90.75
240.26	92.75
240.494	87.75
240.728	80.75
240.961	81.75
241.195	95.75
241.429	90.75
241.662	89.75
241.896	90.75
242.13	80.75
242.363	91.75
242.597	80.75
242.83	84.75
243.064	79.75
243.298	84.75
243.531	96.75
243.765	79.75
243.998	79.75
244.232	92.75
244.465	85.75
244.699	90.75
244.932	98.75
245.166	102.75
245.399	81.75
245.633	99.75
245.866	95.75
246.099	94.75
246.333	98.75
246.566	82.75
246.8	101.75
247.033	84.75
247.266	92.75
247.5	82.75
247.733	92.75
247.966	97.75
248.2	105.75
248.433	101.75
248.666	99.75
248.899	96.75
249.133	100.75
249.366	101.75
249.599	92.75
249.832	94.75
250.066	102.75
250.299	103.75
250.532	98.75
250.765	100.75
250.998	97.75
251.231	105.75
251.465	109.75
251.698	106.75
251.931	101.75
252.164	89.75
252.397	96.75
252.63	112.75
252.863	105.75
253.096	101.75
253.329	94.75
253.562	104.75
253.795	117.75
254.028	110.75
254.261	112.75
254.494	113.75
254.727	108.75
254.96	88.75
255.193	92.75
255.426	106.75
255.659	113.75
255.892	119.75
256.124	116.75
256.357	102.75
256.59	102.75
256.823	88.75
257.056	120.75
257.289	116.75
257.521	101.75
257.754	94.75
257.987	89.75
258.22	94.75
258.452	108.75
258.685	115.75
258.918	111.75
259.151	100.75
259.383	124.75
259.616	112.75
259.849	99.75
260.081	116.75
260.314	114.75
260.547	117.75
260.779	121.75
261.012	101.75
261.244	131.75
261.477	109.75
261.71	108.75
261.942	113.75
262.175	103.75
262.407	118.75
262.64	118.75
262.872	124.75
263.105	113.75
263.337	111.75
263.57	108.75
263.802	116.75
264.035	127.75
264.267	122.75
264.499	114.75
264.732	116.75
264.964	122.75
265.197	114.75
265.429	109.75
265.661	113.75
265.894	129.75
266.126	117.75
266.358	113.75
266.591	104.75
266.823	115.75
267.055	120.75
267.287	114.75
267.52	118.75
267.752	116.75
267.984	121.75
268.216	116.75
268.448	114.75
268.681	132.75
268.913	122.75
269.145	116.75
269.377	126.75
269.609	123.75
269.841	115.75
270.073	126.75
270.306	112.75
270.538	125.75
270.77	128.75
271.002	120.75
271.234	130.75
271.466	115.75
271.698	112.75
271.93	121.75
272.162	109.75
272.394	112.75
272.626	129.75
272.858	128.75
273.09	122.75
273.322	132.75
273.553	117.75
273.785	122.75
274.017	116.75
274.249	133.75
274.481	129.75
274.713	137.75
274.945	122.75
275.176	125.75
275.408	131.75
275.64	137.75
275.872	122.75
276.104	133.75
276.335	128.75
276.567	136.75
276.799	127.75
277.031	127.75
277.262	126.75
277.494	131.75
277.726	118.75
277.957	130.75
278.189	125.75
278.421	137.75
278.652	128.75
278.884	155.75
279.115	126.75
279.347	130.75
279.579	125.75
279.81	144.75
280.042	139.75
280.273	130.75
280.505	121.75
280.736	136.75
280.968	138.75
281.199	141.75
281.431	126.75
281.662	129.75
281.894	132.75
282.125	153.75
282.356	151.75
282.588	140.75
282.819	148.75
283.051	123.75
283.282	148.75
283.513	144.75
283.745	128.75
283.976	143.75
284.207	142.75
284.439	132.75
284.67	151.75
284.901	137.75
285.132	149.75
285.364	156.75
285.595	160.75
285.826	156.75
286.057	148.75
286.288	147.75
286.52	139.75
286.751	153.75
286.982	158.75
287.213	154.75
287.444	154.75
287.675	161.75
287.906	154.75
288.138	150.75
288.369	138.75
288.6	150.75
288.831	141.75
289.062	159.75
289.293	152.75
289.524	151.75
289.755	149.75
289.986	150.75
290.217	157.75
290.448	156.75
290.679	149.75
290.91	152.75
291.141	160.75
291.371	138.75
291.602	161.75
291.833	154.75
292.064	142.75
292.295	156.75
292.526	142.75
292.757	157.75
292.987	153.75
293.218	150.75
293.449	159.75
293.68	144.75
293.91	155.75
294.141	165.75
294.372	160.75
294.603	157.75
294.833	142.75
295.064	155.75
295.295	164.75
295.525	163.75
295.756	159.75
295.987	149.75
296.217	153.75
296.448	162.75
296.679	146.75
296.909	163.75
297.14	148.75
297.37	161.75
297.601	161.75
297.831	155.75
298.062	156.75
298.292	154.75
298.523	153.75
298.753	172.75
298.984	154.75
299.214	160.75
299.445	164.75
299.675	162.75
299.905	164.75
300.136	166.75
300.366	162.75
300.597	159.75
300.827	164.75
301.057	157.75
301.288	176.75
301.518	187.75
301.748	177.75
301.979	160.75
302.209	158.75
302.439	176.75
302.669	173.75
302.9	170.75
303.13	158.75
303.36	179.75
303.59	164.75
303.82	191.75
304.051	169.75
304.281	164.75
304.511	171.75
304.741	181.75
304.971	173.75
305.201	155.75
305.431	159.75
305.661	161.75
305.891	165.75
306.121	165.75
306.352	165.75
306.582	155.75
306.812	147.75
307.042	161.75
307.272	175.75
307.502	167.75
307.731	165.75
307.961	174.75
308.191	140.75
308.421	149.75
308.651	153.75
308.881	159.75
309.111	159.75
309.341	156.75
309.571	175.75
309.8	164.75
310.03	172.75
310.26	164.75
310.49	161.75
310.72	154.75
310.949	168.75
311.179	146.75
311.409	162.75
311.639	162.75
311.868	173.75
312.098	158.75
312.328	156.75
312.557	165.75
312.787	171.75
313.017	172.75
313.246	188.75
313.476	189.75
313.706	158.75
313.935	195.75
314.165	169.75
314.394	157.75
314.624	165.75
314.853	184.75
315.083	166.75
315.312	176.75
315.542	177.75
315.771	167.75
316.001	172.75
316.23	149.75
316.46	162.75
316.689	180.75
316.919	179.75
317.148	173.75
317.377	182.75
317.607	158.75
317.836	156.75
318.065	167.75
318.295	167.75
318.524	167.75
318.753	158.75
318.983	161.75
319.212	167.75
319.441	174.75
319.67	165.75
319.9	169.75
320.129	158.75
320.358	177.75
320.587	154.75
320.816	163.75
321.046	160.75
321.275	161.75
321.504	156.75
321.733	185.75
321.962	170.75
322.191	190.75
322.42	167.75
322.649	162.75
322.878	168.75
323.108	167.75
323.337	177.75
323.566	166.75
323.795	188.75
324.024	170.75
324.253	173.75
324.482	161.75
324.71	157.75
324.939	166.75
325.168	159.75
325.397	166.75
325.626	186.75
325.855	184.75
326.084	186.75
326.313	180.75
326.542	186.75
326.77	166.75
326.999	189.75
327.228	195.75
327.457	190.75
327.686	189.75
327.914	188.75
328.143	179.75
328.372	192.75
328.6	185.75
328.829	164.75
329.058	188.75
329.287	185.75
329.515	189.75
329.744	186.75
329.972	189.75
330.201	162.75
330.43	181.75
330.658	180.75
330.887	187.75
331.115	183.75
331.344	192.75
331.572	200.75
331.801	202.75
332.03	214.75
332.258	178.75
332.486	189.75
332.715	219.75
332.943	233.75
333.172	221.75
333.4	229.75
333.629	227.75
333.857	236.75
334.085	222.75
334.314	224.75
334.542	206.75
334.771	217.75
334.999	204.75
335.227	215.75
335.455	208.75
335.684	220.75
335.912	201.75
336.14	202.75
336.369	202.75
336.597	202.75
336.825	191.75
337.053	201.75
337.281	201.75
337.51	200.75
337.738	204.75
337.966	191.75
338.194	183.75
338.422	186.75
338.65	186.75
338.878	206.75
339.106	182.75
339.334	193.75
339.562	178.75
339.79	200.75
340.018	189.75
340.246	202.75
340.474	189.75
340.702	194.75
340.93	194.75
341.158	188.75
341.386	195.75
341.614	196.75
341.842	194.75
342.07	194.75
342.298	181.75
342.526	174.75
342.754	186.75
342.981	183.75
343.209	207.75
343.437	212.75
343.665	209.75
343.893	208.75
344.12	232.75
344.348	196.75
344.576	204.75
344.804	202.75
345.031	202.75
345.259	186.75
345.487	194.75
345.714	181.75
345.942	188.75
346.17	173.75
346.397	182.75
346.625	194.75
346.853	191.75
347.08	180.75
347.308	188.75
347.535	185.75
347.763	184.75
347.99	170.75
348.218	193.75
348.445	181.75
348.673	183.75
348.9	182.75
349.128	185.75
349.355	161.75
349.583	177.75
349.81	185.75
350.037	179.75
350.265	173.75
350.492	169.75
350.72	175.75
350.947	165.75
351.174	172.75
351.402	194.75
351.629	195.75
351.856	178.75
352.083	178.75
352.311	169.75
352.538	176.75
352.765	174.75
352.992	185.75
353.22	183.75
353.447	176.75
353.674	180.75
353.901	192.75
354.128	160.75
354.355	172.75
354.583	162.75
354.81	164.75
355.037	181.75
355.264	172.75
355.491	172.75
355.718	184.75
355.945	191.75
356.172	170.75
356.399	187.75
356.626	192.75
356.853	167.75
357.08	177.75
357.307	191.75
357.534	193.75
357.761	183.75
357.988	170.75
358.215	184.75
358.441	182.75
358.668	179.75
358.895	175.75
359.122	163.75
359.349	169.75
359.576	175.75
359.802	174.75
360.029	172.75
360.256	177.75
360.483	172.75
360.709	161.75
360.936	174.75
361.163	186.75
361.39	168.75
361.616	181.75
361.843	163.75
362.07	185.75
362.296	180.75
362.523	177.75
362.749	168.75
362.976	180.75
363.203	169.75
363.429	165.75
363.656	168.75
363.882	172.75
364.109	174.75
364.335	168.75
364.562	165.75
364.788	165.75
365.015	174.75
365.241	174.75
365.468	176.75
365.694	192.75
365.92	167.75
366.147	173.75
366.373	181.75
366.599	169.75
366.826	185.75
367.052	187.75
367.278	164.75
367.505	173.75
367.731	172.75
367.957	170.75
368.184	164.75
368.41	182.75
368.636	180.75
368.862	196.75
369.089	177.75
369.315	174.75
369.541	192.75
369.767	180.75
369.993	192.75
370.219	188.75
370.445	178.75
370.672	186.75
370.898	173.75
371.124	192.75
371.35	188.75
371.576	192.75
371.802	183.75
372.028	193.75
372.254	178.75
372.48	195.75
372.706	198.75
372.932	190.75
373.158	190.75
373.384	177.75
373.61	172.75
373.835	188.75
374.061	187.75
374.287	196.75
374.513	201.75
374.739	190.75
374.965	196.75
375.191	196.75
375.416	201.75
375.642	205.75
375.868	207.75
376.094	204.75
376.319	178.75
376.545	175.75
376.771	190.75
376.997	183.75
377.222	179.75
377.448	185.75
377.674	204.75
377.899	188.75
378.125	184.75
378.35	182.75
378.576	190.75
378.802	180.75
379.027	178.75
379.253	185.75
379.478	184.75
379.704	173.75
379.929	183.75
380.155	176.75
380.38	176.75
380.606	172.75
380.831	197.75
381.057	187.75
381.282	164.75
381.507	183.75
381.733	189.75
381.958	183.75
382.184	193.75
382.409	186.75
382.634	176.75
382.86	191.75
383.085	202.75
383.31	185.75
383.535	194.75
383.761	208.75
383.986	200.75
384.211	183.75
384.436	202.75
384.662	228.75
384.887	221.75
385.112	208.75
385.337	204.75
385.562	213.75
385.787	208.75
386.013	228.75
386.238	224.75
386.463	227.75
386.688	211.75
386.913	191.75
387.138	202.75
387.363	217.75
387.588	214.75
387.813	206.75
388.038	209.75
388.263	205.75
388.488	213.75
388.713	218.75
388.938	215.75
389.163	190.75
389.387	208.75
389.612	210.75
389.837	191.75
390.062	197.75
390.287	210.75
390.512	203.75
390.736	202.75
390.961	200.75
391.186	219.75
391.411	209.75
391.636	217.75
391.86	222.75
392.085	245.75
392.31	227.75
392.534	220.75
392.759	208.75
392.984	205.75
393.208	202.75
393.433	218.75
393.658	218.75
393.882	210.75
394.107	221.75
394.331	223.75
394.556	204.75
394.78	223.75
395.005	225.75
395.229	214.75
395.454	226.75
395.678	248.75
395.903	221.75
396.127	212.75
396.352	194.75
396.576	206.75
396.801	208.75
397.025	227.75
397.249	221.75
397.474	227.75
397.698	224.75
397.922	229.75
398.147	214.75
398.371	223.75
398.595	227.75
398.82	246.75
399.044	252.75
399.268	279.75
399.492	302.75
399.717	348.75
399.941	349.75
400.165	289.75
400.389	287.75
400.613	240.75
400.837	231.75
401.062	253.75
401.286	261.75
401.51	269.75
401.734	253.75
401.958	233.75
402.182	264.75
402.406	266.75
402.63	246.75
402.854	262.75
403.078	267.75
403.302	262.75
403.526	270.75
403.75	271.75
403.974	299.75
404.198	278.75
404.422	286.75
404.645	281.75
404.869	289.75
405.093	279.75
405.317	278.75
405.541	268.75
405.765	257.75
405.988	238.75
406.212	259.75
406.436	274.75
406.66	282.75
406.883	265.75
407.107	280.75
407.331	301.75
407.555	295.75
407.778	300.75
408.002	297.75
408.226	284.75
408.449	288.75
408.673	270.75
408.896	260.75
409.12	269.75
409.344	302.75
409.567	274.75
409.791	267.75
410.014	260.75
410.238	245.75
410.461	253.75
410.685	266.75
410.908	252.75
411.132	256.75
411.355	238.75
411.578	261.75
411.802	248.75
412.025	254.75
412.249	258.75
412.472	257.75
412.695	255.75
412.919	245.75
413.142	261.75
413.365	260.75
413.589	250.75
413.812	241.75
414.035	236.75
414.258	243.75
414.482	238.75
414.705	255.75
414.928	224.75
415.151	241.75
415.374	252.75
415.597	281.75
415.821	244.75
416.044	247.75
416.267	240.75
416.49	230.75
416.713	239.75
416.936	232.75
417.159	242.75
417.382	254.75
417.605	257.75
417.828	251.75
418.051	241.75
418.274	254.75
418.497	252.75
418.72	256.75
418.943	236.75
419.166	266.75
419.389	274.75
419.611	267.75
419.834	264.75
420.057	234.75
420.28	222.75
420.503	257.75
420.726	234.75
420.948	242.75
421.171	239.75
421.394	260.75
421.617	222.75
421.839	250.75
422.062	253.75
422.285	254.75
422.507	244.75
422.73	246.75
422.953	240.75
423.175	254.75
423.398	274.75
423.621	256.75
423.843	266.75
424.066	252.75
424.288	248.75
424.511	246.75
424.733	240.75
424.956	236.75
425.178	242.75
425.401	249.75
425.623	264.75
425.846	252.75
426.068	236.75
426.291	228.75
426.513	231.75
426.735	224.75
426.958	218.75
427.18	209.75
427.402	226.75
427.625	219.75
427.847	226.75
428.069	231.75
428.292	218.75
428.514	216.75
428.736	205.75
428.958	224.75
429.181	221.75
429.403	218.75
429.625	215.75
429.847	218.75
430.069	213.75
430.292	219.75
430.514	226.75
430.736	225.75
430.958	213.75
431.18	211.75
431.402	225.75
431.624	225.75
431.846	220.75
432.068	215.75
432.29	237.75
432.512	237.75
432.734	215.75
432.956	221.75
433.178	213.75
433.4	216.75
433.622	222.75
433.844	245.75
434.066	237.75
434.287	215.75
434.509	234.75
434.731	229.75
434.953	254.75
435.175	243.75
435.397	236.75
435.618	244.75
435.84	224.75
436.062	211.75
436.284	221.75
436.505	206.75
436.727	236.75
436.949	218.75
437.17	221.75
437.392	212.75
437.614	215.75
437.835	209.75
438.057	225.75
438.278	218.75
438.5	212.75
438.721	208.75
438.943	220.75
439.165	207.75
439.386	210.75
439.608	214.75
439.829	215.75
440.05	223.75
440.272	227.75
440.493	205.75
440.715	232.75
440.936	245.75
441.158	238.75
441.379	241.75
441.6	250.75
441.822	252.75
442.043	255.75
442.264	234.75
442.486	243.75
442.707	224.75
442.928	242.75
443.149	228.75
443.371	221.75
443.592	248.75
443.813	252.75
444.034	253.75
444.255	264.75
444.476	261.75
444.698	276.75
444.919	292.75
445.14	371.75
445.361	295.75
445.582	242.75
445.803	222.75
446.024	220.75
446.245	224.75
446.466	231.75
446.687	214.75
446.908	206.75
447.129	227.75
447.35	220.75
447.571	211.75
447.792	208.75
448.013	209.75
448.234	218.75
448.455	217.75
448.675	216.75
448.896	209.75
449.117	220.75
449.338	202.75
449.559	208.75
449.779	193.75
450	222.75
450.221	195.75
450.442	182.75
450.662	197.75
450.883	222.75
451.104	215.75
451.324	221.75
451.545	219.75
451.766	214.75
451.986	217.75
452.207	206.75
452.428	208.75
452.648	218.75
452.869	197.75
453.089	217.75
453.31	201.75
453.53	200.75
453.751	202.75
453.971	213.75
454.192	219.75
454.412	200.75
454.633	195.75
454.853	193.75
455.073	192.75
455.294	199.75
455.514	197.75
455.734	212.75
455.955	200.75
456.175	216.75
456.395	195.75
456.616	209.75
456.836	188.75
457.056	195.75
457.276	208.75
457.497	205.75
457.717	199.75
457.937	194.75
458.157	198.75
458.377	191.75
458.598	202.75
458.818	209.75
459.038	223.75
459.258	241.75
459.478	225.75
459.698	219.75
459.918	217.75
460.138	233.75
460.358	255.75
460.578	260.75
460.798	256.75
461.018	248.75
461.238	253.75
461.458	259.75
461.678	246.75
461.898	255.75
462.118	265.75
462.338	278.75
462.558	257.75
462.777	289.75
462.997	313.75
463.217	337.75
463.437	336.75
463.657	291.75
463.876	296.75
464.096	288.75
464.316	279.75
464.536	325.75
464.755	293.75
464.975	285.75
465.195	253.75
465.414	247.75
465.634	239.75
465.854	242.75
466.073	227.75
466.293	204.75
466.512	210.75
466.732	228.75
466.951	226.75
467.171	245.75
467.391	237.75
467.61	228.75
467.829	213.75
468.049	218.75
468.268	228.75
468.488	216.75
468.707	215.75
468.927	225.75
469.146	221.75
469.365	215.75
469.585	208.75
469.804	223.75
470.023	223.75
470.243	226.75
470.462	242.75
470.681	249.75
470.901	226.75
471.12	239.75
471.339	220.75
471.558	224.75
471.777	208.75
471.997	231.75
472.216	220.75
472.435	226.75
472.654	212.75
472.873	220.75
473.092	202.75
473.311	216.75
473.53	218.75
473.749	212.75
473.968	215.75
474.187	217.75
474.406	198.75
474.625	220.75
474.844	212.75
475.063	188.75
475.282	212.75
475.501	203.75
475.72	227.75
475.939	202.75
476.158	228.75
476.377	203.75
476.596	212.75
476.814	218.75
477.033	217.75
477.252	220.75
477.471	214.75
477.69	210.75
477.908	224.75
478.127	243.75
478.346	237.75
478.564	233.75
478.783	258.75
479.002	250.75
479.22	243.75
479.439	265.75
479.658	252.75
479.876	236.75
480.095	257.75
480.313	259.75
480.532	276.75
480.751	278.75
480.969	263.75
481.188	246.75
481.406	241.75
481.624	229.75
481.843	239.75
482.061	214.75
482.28	231.75
482.498	240.75
482.717	220.75
482.935	229.75
483.153	231.75
483.372	222.75
483.59	241.75
483.808	226.75
484.027	242.75
484.245	245.75
484.463	237.75
484.681	262.75
484.9	249.75
485.118	240.75
485.336	252.75
485.554	239.75
485.772	241.75
485.99	259.75
486.209	237.75
486.427	255.75
486.645	256.75
486.863	253.75
487.081	252.75
487.299	266.75
487.517	234.75
487.735	255.75
487.953	242.75
488.171	247.75
488.389	248.75
488.607	238.75
488.825	245.75
489.043	240.75
489.261	260.75
489.479	250.75
489.696	245.75
489.914	249.75
490.132	252.75
490.35	233.75
490.568	254.75
490.786	251.75
491.003	265.75
491.221	252.75
491.439	245.75
491.657	264.75
491.874	251.75
492.092	236.75
492.31	246.75
492.527	261.75
492.745	252.75
492.963	259.75
493.18	248.75
493.398	238.75
493.615	263.75
493.833	273.75
494.05	248.75
494.268	272.75
494.485	271.75
494.703	258.75
494.92	267.75
495.138	259.75
495.355	273.75
495.573	259.75
495.79	276.75
496.008	284.75
496.225	248.75
496.442	256.75
496.66	270.75
496.877	278.75
497.094	292.75
497.312	274.75
497.529	266.75
497.746	289.75
497.963	300.75
498.181	278.75
498.398	316.75
498.615	303.75
498.832	348.75
499.049	382.75
499.267	370.75
499.484	431.75
499.701	468.75
499.918	516.75
500.135	569.75
500.352	674.75
500.569	725.75
500.786	702.75
501.003	633.75
501.22	586.75
501.437	521.75
501.654	438.75
501.871	390.75
502.088	374.75
502.305	384.75
502.522	343.75
502.739	337.75
502.956	317.75
503.172	301.75
503.389	285.75
503.606	284.75
