Data from 0.5MCu(NO3)2.Standard.Lamp.E10.CV._HRD10591_16-05-06-753.txt Node
Date: Mon Jul 22 16:05:06 EDT 2019
User: cochatt
Spectrometer: HR+D1059
Trigger mode: 1
Integration Time (sec): 1.000000E-1
Scans to average: 1
Electric dark correction enabled: true
Nonlinearity correction enabled: false
Boxcar width: 0
XAxis mode: Wavelengths
Number of Pixels in Spectrum: 2048
>>>>>Begin Spectral Data<<<<<
223.165	-22.44
223.4	-22.44
223.635	-22.44
223.869	-28.44
224.104	-8.44
224.338	-24.44
224.573	-22.44
224.808	-7.44
225.042	-11.44
225.277	-5.44
225.511	5.56
225.746	6.56
225.98	13.56
226.215	27.56
226.449	20.56
226.683	5.56
226.918	22.56
227.152	28.56
227.387	30.56
227.621	30.56
227.856	48.56
228.09	42.56
228.324	47.56
228.559	55.56
228.793	65.56
229.027	57.56
229.262	69.56
229.496	70.56
229.73	84.56
229.964	66.56
230.199	83.56
230.433	81.56
230.667	76.56
230.901	87.56
231.136	91.56
231.37	103.56
231.604	89.56
231.838	87.56
232.072	109.56
232.306	93.56
232.541	101.56
232.775	98.56
233.009	95.56
233.243	93.56
233.477	98.56
233.711	91.56
233.945	113.56
234.179	87.56
234.413	89.56
234.647	98.56
234.881	107.56
235.115	98.56
235.349	98.56
235.583	90.56
235.817	87.56
236.051	95.56
236.285	92.56
236.519	90.56
236.753	100.56
236.987	82.56
237.221	78.56
237.455	99.56
237.689	88.56
237.922	85.56
238.156	88.56
238.39	95.56
238.624	91.56
238.858	101.56
239.091	76.56
239.325	85.56
239.559	105.56
239.793	88.56
240.027	96.56
240.26	87.56
240.494	91.56
240.728	91.56
240.961	96.56
241.195	109.56
241.429	104.56
241.662	93.56
241.896	100.56
242.13	96.56
242.363	100.56
242.597	92.56
242.83	98.56
243.064	89.56
243.298	99.56
243.531	87.56
243.765	108.56
243.998	98.56
244.232	106.56
244.465	96.56
244.699	100.56
244.932	115.56
245.166	91.56
245.399	98.56
245.633	106.56
245.866	109.56
246.099	97.56
246.333	98.56
246.566	91.56
246.8	93.56
247.033	114.56
247.266	105.56
247.5	109.56
247.733	107.56
247.966	111.56
248.2	98.56
248.433	94.56
248.666	117.56
248.899	113.56
249.133	102.56
249.366	109.56
249.599	118.56
249.832	107.56
250.066	108.56
250.299	118.56
250.532	106.56
250.765	107.56
250.998	113.56
251.231	104.56
251.465	127.56
251.698	100.56
251.931	108.56
252.164	98.56
252.397	129.56
252.63	119.56
252.863	104.56
253.096	122.56
253.329	118.56
253.562	126.56
253.795	121.56
254.028	116.56
254.261	112.56
254.494	112.56
254.727	109.56
254.96	118.56
255.193	104.56
255.426	109.56
255.659	120.56
255.892	112.56
256.124	121.56
256.357	108.56
256.59	126.56
256.823	108.56
257.056	106.56
257.289	122.56
257.521	114.56
257.754	118.56
257.987	115.56
258.22	124.56
258.452	106.56
258.685	106.56
258.918	114.56
259.151	111.56
259.383	114.56
259.616	111.56
259.849	116.56
260.081	128.56
260.314	128.56
260.547	130.56
260.779	127.56
261.012	108.56
261.244	124.56
261.477	116.56
261.71	129.56
261.942	118.56
262.175	123.56
262.407	130.56
262.64	125.56
262.872	107.56
263.105	116.56
263.337	111.56
263.57	118.56
263.802	116.56
264.035	119.56
264.267	118.56
264.499	128.56
264.732	122.56
264.964	122.56
265.197	127.56
265.429	118.56
265.661	136.56
265.894	132.56
266.126	138.56
266.358	124.56
266.591	126.56
266.823	142.56
267.055	123.56
267.287	124.56
267.52	130.56
267.752	129.56
267.984	130.56
268.216	135.56
268.448	147.56
268.681	122.56
268.913	122.56
269.145	120.56
269.377	119.56
269.609	120.56
269.841	131.56
270.073	126.56
270.306	126.56
270.538	137.56
270.77	127.56
271.002	127.56
271.234	128.56
271.466	126.56
271.698	126.56
271.93	127.56
272.162	141.56
272.394	141.56
272.626	155.56
272.858	124.56
273.09	140.56
273.322	139.56
273.553	123.56
273.785	130.56
274.017	143.56
274.249	139.56
274.481	131.56
274.713	138.56
274.945	147.56
275.176	127.56
275.408	140.56
275.64	149.56
275.872	130.56
276.104	132.56
276.335	138.56
276.567	145.56
276.799	133.56
277.031	140.56
277.262	146.56
277.494	142.56
277.726	137.56
277.957	135.56
278.189	139.56
278.421	146.56
278.652	145.56
278.884	132.56
279.115	142.56
279.347	156.56
279.579	154.56
279.81	145.56
280.042	151.56
280.273	142.56
280.505	147.56
280.736	141.56
280.968	140.56
281.199	151.56
281.431	140.56
281.662	130.56
281.894	152.56
282.125	157.56
282.356	153.56
282.588	149.56
282.819	153.56
283.051	166.56
283.282	144.56
283.513	169.56
283.745	167.56
283.976	161.56
284.207	147.56
284.439	144.56
284.67	158.56
284.901	182.56
285.132	152.56
285.364	154.56
285.595	160.56
285.826	156.56
286.057	164.56
286.288	154.56
286.52	147.56
286.751	165.56
286.982	159.56
287.213	166.56
287.444	157.56
287.675	169.56
287.906	161.56
288.138	163.56
288.369	152.56
288.6	156.56
288.831	167.56
289.062	165.56
289.293	171.56
289.524	156.56
289.755	151.56
289.986	161.56
290.217	169.56
290.448	154.56
290.679	177.56
290.91	176.56
291.141	165.56
291.371	180.56
291.602	153.56
291.833	173.56
292.064	166.56
292.295	159.56
292.526	163.56
292.757	166.56
292.987	159.56
293.218	158.56
293.449	166.56
293.68	169.56
293.91	157.56
294.141	161.56
294.372	157.56
294.603	177.56
294.833	150.56
295.064	164.56
295.295	161.56
295.525	168.56
295.756	166.56
295.987	161.56
296.217	176.56
296.448	162.56
296.679	154.56
296.909	176.56
297.14	183.56
297.37	156.56
297.601	158.56
297.831	175.56
298.062	182.56
298.292	192.56
298.523	183.56
298.753	189.56
298.984	176.56
299.214	191.56
299.445	180.56
299.675	173.56
299.905	164.56
300.136	174.56
300.366	169.56
300.597	173.56
300.827	168.56
301.057	182.56
301.288	172.56
301.518	186.56
301.748	182.56
301.979	192.56
302.209	192.56
302.439	192.56
302.669	192.56
302.9	181.56
303.13	180.56
303.36	193.56
303.59	177.56
303.82	211.56
304.051	175.56
304.281	182.56
304.511	185.56
304.741	169.56
304.971	176.56
305.201	177.56
305.431	192.56
305.661	182.56
305.891	173.56
306.121	184.56
306.352	177.56
306.582	160.56
306.812	182.56
307.042	191.56
307.272	180.56
307.502	180.56
307.731	195.56
307.961	173.56
308.191	170.56
308.421	174.56
308.651	174.56
308.881	176.56
309.111	176.56
309.341	172.56
309.571	173.56
309.8	168.56
310.03	185.56
310.26	176.56
310.49	166.56
310.72	182.56
310.949	180.56
311.179	172.56
311.409	188.56
311.639	189.56
311.868	202.56
312.098	182.56
312.328	188.56
312.557	165.56
312.787	186.56
313.017	171.56
313.246	196.56
313.476	182.56
313.706	180.56
313.935	196.56
314.165	180.56
314.394	184.56
314.624	175.56
314.853	200.56
315.083	183.56
315.312	192.56
315.542	197.56
315.771	175.56
316.001	182.56
316.23	167.56
316.46	177.56
316.689	186.56
316.919	169.56
317.148	175.56
317.377	180.56
317.607	173.56
317.836	168.56
318.065	164.56
318.295	177.56
318.524	184.56
318.753	184.56
318.983	185.56
319.212	180.56
319.441	173.56
319.67	190.56
319.9	191.56
320.129	213.56
320.358	175.56
320.587	184.56
320.816	190.56
321.046	180.56
321.275	183.56
321.504	186.56
321.733	180.56
321.962	180.56
322.191	169.56
322.42	172.56
322.649	201.56
322.878	166.56
323.108	180.56
323.337	184.56
323.566	181.56
323.795	192.56
324.024	172.56
324.253	191.56
324.482	182.56
324.71	190.56
324.939	194.56
325.168	177.56
325.397	181.56
325.626	194.56
325.855	196.56
326.084	192.56
326.313	192.56
326.542	201.56
326.77	199.56
326.999	198.56
327.228	173.56
327.457	198.56
327.686	206.56
327.914	211.56
328.143	189.56
328.372	200.56
328.6	191.56
328.829	178.56
329.058	200.56
329.287	198.56
329.515	207.56
329.744	194.56
329.972	183.56
330.201	206.56
330.43	220.56
330.658	191.56
330.887	185.56
331.115	191.56
331.344	208.56
331.572	212.56
331.801	204.56
332.03	213.56
332.258	216.56
332.486	223.56
332.715	230.56
332.943	216.56
333.172	239.56
333.4	263.56
333.629	265.56
333.857	225.56
334.085	234.56
334.314	229.56
334.542	221.56
334.771	218.56
334.999	226.56
335.227	225.56
335.455	233.56
335.684	217.56
335.912	219.56
336.14	220.56
336.369	227.56
336.597	216.56
336.825	233.56
337.053	218.56
337.281	202.56
337.51	215.56
337.738	218.56
337.966	209.56
338.194	206.56
338.422	196.56
338.65	195.56
338.878	195.56
339.106	223.56
339.334	224.56
339.562	208.56
339.79	182.56
340.018	196.56
340.246	206.56
340.474	195.56
340.702	197.56
340.93	200.56
341.158	207.56
341.386	192.56
341.614	198.56
341.842	205.56
342.07	181.56
342.298	210.56
342.526	204.56
342.754	188.56
342.981	213.56
343.209	204.56
343.437	193.56
343.665	225.56
343.893	236.56
344.12	228.56
344.348	216.56
344.576	217.56
344.804	205.56
345.031	206.56
345.259	214.56
345.487	198.56
345.714	202.56
345.942	191.56
346.17	196.56
346.397	195.56
346.625	178.56
346.853	192.56
347.08	209.56
347.308	188.56
347.535	206.56
347.763	199.56
347.99	202.56
348.218	212.56
348.445	219.56
348.673	194.56
348.9	202.56
349.128	216.56
349.355	187.56
349.583	193.56
349.81	197.56
350.037	184.56
350.265	207.56
350.492	179.56
350.72	196.56
350.947	197.56
351.174	194.56
351.402	183.56
351.629	193.56
351.856	193.56
352.083	202.56
352.311	191.56
352.538	176.56
352.765	177.56
352.992	186.56
353.22	202.56
353.447	198.56
353.674	208.56
353.901	197.56
354.128	183.56
354.355	193.56
354.583	193.56
354.81	193.56
355.037	188.56
355.264	192.56
355.491	197.56
355.718	200.56
355.945	212.56
356.172	219.56
356.399	204.56
356.626	185.56
356.853	180.56
357.08	184.56
357.307	198.56
357.534	185.56
357.761	186.56
357.988	186.56
358.215	189.56
358.441	196.56
358.668	188.56
358.895	188.56
359.122	194.56
359.349	194.56
359.576	176.56
359.802	186.56
360.029	192.56
360.256	183.56
360.483	183.56
360.709	176.56
360.936	192.56
361.163	191.56
361.39	191.56
361.616	200.56
361.843	182.56
362.07	185.56
362.296	178.56
362.523	186.56
362.749	188.56
362.976	172.56
363.203	184.56
363.429	180.56
363.656	199.56
363.882	184.56
364.109	195.56
364.335	190.56
364.562	193.56
364.788	190.56
365.015	187.56
365.241	189.56
365.468	191.56
365.694	204.56
365.92	193.56
366.147	187.56
366.373	177.56
366.599	199.56
366.826	198.56
367.052	176.56
367.278	186.56
367.505	201.56
367.731	210.56
367.957	202.56
368.184	184.56
368.41	202.56
368.636	195.56
368.862	190.56
369.089	186.56
369.315	197.56
369.541	195.56
369.767	184.56
369.993	193.56
370.219	180.56
370.445	188.56
370.672	187.56
370.898	193.56
371.124	194.56
371.35	178.56
371.576	206.56
371.802	206.56
372.028	196.56
372.254	192.56
372.48	180.56
372.706	195.56
372.932	208.56
373.158	207.56
373.384	214.56
373.61	204.56
373.835	206.56
374.061	194.56
374.287	199.56
374.513	219.56
374.739	200.56
374.965	221.56
375.191	218.56
375.416	219.56
375.642	216.56
375.868	206.56
376.094	199.56
376.319	199.56
376.545	209.56
376.771	194.56
376.997	203.56
377.222	211.56
377.448	200.56
377.674	206.56
377.899	198.56
378.125	184.56
378.35	208.56
378.576	191.56
378.802	200.56
379.027	205.56
379.253	221.56
379.478	189.56
379.704	186.56
379.929	205.56
380.155	209.56
380.38	201.56
380.606	195.56
380.831	180.56
381.057	209.56
381.282	177.56
381.507	192.56
381.733	196.56
381.958	190.56
382.184	195.56
382.409	189.56
382.634	206.56
382.86	204.56
383.085	196.56
383.31	219.56
383.535	213.56
383.761	237.56
383.986	217.56
384.211	215.56
384.436	217.56
384.662	214.56
384.887	204.56
385.112	223.56
385.337	218.56
385.562	224.56
385.787	230.56
386.013	230.56
386.238	223.56
386.463	240.56
386.688	228.56
386.913	224.56
387.138	238.56
387.363	233.56
387.588	232.56
387.813	210.56
388.038	241.56
388.263	221.56
388.488	237.56
388.713	234.56
388.938	233.56
389.163	214.56
389.387	213.56
389.612	213.56
389.837	211.56
390.062	217.56
390.287	224.56
390.512	217.56
390.736	228.56
390.961	214.56
391.186	230.56
391.411	233.56
391.636	226.56
391.86	264.56
392.085	253.56
392.31	246.56
392.534	233.56
392.759	250.56
392.984	217.56
393.208	233.56
393.433	230.56
393.658	233.56
393.882	214.56
394.107	250.56
394.331	228.56
394.556	239.56
394.78	232.56
395.005	238.56
395.229	254.56
395.454	249.56
395.678	254.56
395.903	245.56
396.127	236.56
396.352	226.56
396.576	222.56
396.801	233.56
397.025	241.56
397.249	240.56
397.474	237.56
397.698	240.56
397.922	233.56
398.147	234.56
398.371	239.56
398.595	239.56
398.82	250.56
399.044	253.56
399.268	290.56
399.492	353.56
399.717	382.56
399.941	370.56
400.165	321.56
400.389	291.56
400.613	283.56
400.837	272.56
401.062	265.56
401.286	270.56
401.51	272.56
401.734	273.56
401.958	266.56
402.182	265.56
402.406	257.56
402.63	278.56
402.854	265.56
403.078	278.56
403.302	305.56
403.526	291.56
403.75	298.56
403.974	320.56
404.198	304.56
404.422	305.56
404.645	317.56
404.869	287.56
405.093	290.56
405.317	283.56
405.541	288.56
405.765	277.56
405.988	288.56
406.212	292.56
406.436	290.56
406.66	282.56
406.883	268.56
407.107	292.56
407.331	302.56
407.555	339.56
407.778	325.56
408.002	314.56
408.226	306.56
408.449	310.56
408.673	286.56
408.896	292.56
409.12	300.56
409.344	289.56
409.567	297.56
409.791	300.56
410.014	304.56
410.238	294.56
410.461	278.56
410.685	288.56
410.908	281.56
411.132	285.56
411.355	272.56
411.578	266.56
411.802	273.56
412.025	266.56
412.249	278.56
412.472	276.56
412.695	278.56
412.919	270.56
413.142	244.56
413.365	261.56
413.589	258.56
413.812	242.56
414.035	262.56
414.258	257.56
414.482	264.56
414.705	268.56
414.928	263.56
415.151	274.56
415.374	267.56
415.597	246.56
415.821	261.56
416.044	268.56
416.267	256.56
416.49	242.56
416.713	264.56
416.936	257.56
417.159	263.56
417.382	249.56
417.605	253.56
417.828	262.56
418.051	256.56
418.274	264.56
418.497	272.56
418.72	274.56
418.943	262.56
419.166	271.56
419.389	301.56
419.611	285.56
419.834	271.56
420.057	258.56
420.28	263.56
420.503	247.56
420.726	263.56
420.948	253.56
421.171	243.56
421.394	263.56
421.617	234.56
421.839	265.56
422.062	250.56
422.285	264.56
422.507	262.56
422.73	262.56
422.953	257.56
423.175	256.56
423.398	274.56
423.621	272.56
423.843	270.56
424.066	277.56
424.288	278.56
424.511	254.56
424.733	268.56
424.956	262.56
425.178	279.56
425.401	248.56
425.623	251.56
425.846	263.56
426.068	245.56
426.291	251.56
426.513	250.56
426.735	224.56
426.958	238.56
427.18	248.56
427.402	250.56
427.625	253.56
427.847	241.56
428.069	240.56
428.292	243.56
428.514	235.56
428.736	244.56
428.958	256.56
429.181	243.56
429.403	236.56
429.625	229.56
429.847	245.56
430.069	229.56
430.292	233.56
430.514	220.56
430.736	224.56
430.958	239.56
431.18	217.56
431.402	239.56
431.624	248.56
431.846	237.56
432.068	237.56
432.29	249.56
432.512	239.56
432.734	236.56
432.956	249.56
433.178	260.56
433.4	246.56
433.622	244.56
433.844	225.56
434.066	244.56
434.287	251.56
434.509	256.56
434.731	256.56
434.953	262.56
435.175	273.56
435.397	270.56
435.618	248.56
435.84	237.56
436.062	244.56
436.284	246.56
436.505	234.56
436.727	234.56
436.949	252.56
437.17	242.56
437.392	240.56
437.614	234.56
437.835	233.56
438.057	236.56
438.278	245.56
438.5	229.56
438.721	228.56
438.943	229.56
439.165	246.56
439.386	218.56
439.608	253.56
439.829	233.56
440.05	223.56
440.272	216.56
440.493	223.56
440.715	254.56
440.936	235.56
441.158	244.56
441.379	256.56
441.6	263.56
441.822	264.56
442.043	257.56
442.264	247.56
442.486	257.56
442.707	264.56
442.928	256.56
443.149	269.56
443.371	262.56
443.592	268.56
443.813	260.56
444.034	271.56
444.255	263.56
444.476	267.56
444.698	305.56
444.919	322.56
445.14	416.56
445.361	348.56
445.582	268.56
445.803	255.56
446.024	240.56
446.245	262.56
446.466	249.56
446.687	248.56
446.908	261.56
447.129	220.56
447.35	239.56
447.571	248.56
447.792	218.56
448.013	218.56
448.234	222.56
448.455	216.56
448.675	215.56
448.896	226.56
449.117	220.56
449.338	218.56
449.559	228.56
449.779	211.56
450	228.56
450.221	214.56
450.442	217.56
450.662	229.56
450.883	231.56
451.104	228.56
451.324	237.56
451.545	214.56
451.766	236.56
451.986	213.56
452.207	222.56
452.428	229.56
452.648	223.56
452.869	229.56
453.089	215.56
453.31	234.56
453.53	226.56
453.751	214.56
453.971	218.56
454.192	211.56
454.412	219.56
454.633	227.56
454.853	223.56
455.073	207.56
455.294	214.56
455.514	221.56
455.734	213.56
455.955	194.56
456.175	223.56
456.395	228.56
456.616	202.56
456.836	216.56
457.056	218.56
457.276	210.56
457.497	216.56
457.717	205.56
457.937	208.56
458.157	206.56
458.377	209.56
458.598	228.56
458.818	221.56
459.038	213.56
459.258	246.56
459.478	251.56
459.698	239.56
459.918	245.56
460.138	251.56
460.358	253.56
460.578	268.56
460.798	280.56
461.018	282.56
461.238	263.56
461.458	273.56
461.678	283.56
461.898	271.56
462.118	268.56
462.338	282.56
462.558	292.56
462.777	295.56
462.997	326.56
463.217	364.56
463.437	380.56
463.657	335.56
463.876	313.56
464.096	311.56
464.316	302.56
464.536	319.56
464.755	308.56
464.975	292.56
465.195	286.56
465.414	263.56
465.634	249.56
465.854	241.56
466.073	238.56
466.293	237.56
466.512	228.56
466.732	244.56
466.951	231.56
467.171	230.56
467.391	244.56
467.61	247.56
467.829	230.56
468.049	221.56
468.268	229.56
468.488	237.56
468.707	221.56
468.927	226.56
469.146	231.56
469.365	220.56
469.585	218.56
469.804	235.56
470.023	238.56
470.243	234.56
470.462	234.56
470.681	244.56
470.901	222.56
471.12	226.56
471.339	225.56
471.558	260.56
471.777	233.56
471.997	240.56
472.216	225.56
472.435	240.56
472.654	224.56
472.873	230.56
473.092	240.56
473.311	225.56
473.53	210.56
473.749	223.56
473.968	224.56
474.187	220.56
474.406	223.56
474.625	222.56
474.844	239.56
475.063	231.56
475.282	224.56
475.501	235.56
475.72	231.56
475.939	218.56
476.158	250.56
476.377	236.56
476.596	217.56
476.814	240.56
477.033	241.56
477.252	242.56
477.471	235.56
477.69	253.56
477.908	251.56
478.127	257.56
478.346	260.56
478.564	256.56
478.783	265.56
479.002	286.56
479.22	277.56
479.439	280.56
479.658	271.56
479.876	277.56
480.095	261.56
480.313	283.56
480.532	288.56
480.751	288.56
480.969	272.56
481.188	261.56
481.406	258.56
481.624	252.56
481.843	248.56
482.061	241.56
482.28	264.56
482.498	264.56
482.717	226.56
482.935	234.56
483.153	249.56
483.372	250.56
483.59	236.56
483.808	248.56
484.027	249.56
484.245	264.56
484.463	243.56
484.681	251.56
484.9	259.56
485.118	257.56
485.336	265.56
485.554	274.56
485.772	270.56
485.99	277.56
486.209	301.56
486.427	275.56
486.645	274.56
486.863	271.56
487.081	285.56
487.299	255.56
487.517	260.56
487.735	247.56
487.953	264.56
488.171	267.56
488.389	264.56
488.607	268.56
488.825	247.56
489.043	258.56
489.261	250.56
489.479	244.56
489.696	249.56
489.914	268.56
490.132	272.56
490.35	266.56
490.568	268.56
490.786	251.56
491.003	264.56
491.221	271.56
491.439	279.56
491.657	266.56
491.874	280.56
492.092	271.56
492.31	277.56
492.527	286.56
492.745	290.56
492.963	271.56
493.18	277.56
493.398	273.56
493.615	274.56
493.833	277.56
494.05	268.56
494.268	291.56
494.485	272.56
494.703	252.56
494.92	274.56
495.138	266.56
495.355	268.56
495.573	280.56
495.79	269.56
496.008	294.56
496.225	276.56
496.442	272.56
496.66	302.56
496.877	272.56
497.094	295.56
497.312	289.56
497.529	304.56
497.746	325.56
497.963	314.56
498.181	336.56
498.398	342.56
498.615	365.56
498.832	370.56
499.049	396.56
499.267	417.56
499.484	462.56
499.701	485.56
499.918	526.56
500.135	624.56
500.352	684.56
500.569	756.56
500.786	722.56
501.003	710.56
501.22	614.56
501.437	548.56
501.654	462.56
501.871	448.56
502.088	420.56
502.305	406.56
502.522	376.56
502.739	359.56
502.956	332.56
