Data from 0.5MCu(NO3)2.Standard.Lamp.E10.CV._HRD10591_16-06-09-753.txt Node
Date: Mon Jul 22 16:06:09 EDT 2019
User: cochatt
Spectrometer: HR+D1059
Trigger mode: 1
Integration Time (sec): 1.000000E-1
Scans to average: 1
Electric dark correction enabled: true
Nonlinearity correction enabled: false
Boxcar width: 0
XAxis mode: Wavelengths
Number of Pixels in Spectrum: 2048
>>>>>Begin Spectral Data<<<<<
223.165	-3.94
223.4	-3.94
223.635	-3.94
223.869	-19.94
224.104	-21.94
224.338	-6.94
224.573	-24.94
224.808	-9.94
225.042	4.06
225.277	-9.94
225.511	1.06
225.746	6.06
225.98	-3.94
226.215	5.06
226.449	20.06
226.683	21.06
226.918	24.06
227.152	20.06
227.387	27.06
227.621	42.06
227.856	47.06
228.09	45.06
228.324	55.06
228.559	62.06
228.793	65.06
229.027	69.06
229.262	65.06
229.496	81.06
229.73	79.06
229.964	71.06
230.199	57.06
230.433	100.06
230.667	96.06
230.901	86.06
231.136	89.06
231.37	76.06
231.604	90.06
231.838	93.06
232.072	79.06
232.306	85.06
232.541	86.06
232.775	104.06
233.009	82.06
233.243	88.06
233.477	89.06
233.711	86.06
233.945	83.06
234.179	111.06
234.413	80.06
234.647	90.06
234.881	89.06
235.115	83.06
235.349	98.06
235.583	89.06
235.817	92.06
236.051	100.06
236.285	79.06
236.519	81.06
236.753	96.06
236.987	95.06
237.221	95.06
237.455	93.06
237.689	89.06
237.922	93.06
238.156	84.06
238.39	90.06
238.624	84.06
238.858	95.06
239.091	100.06
239.325	87.06
239.559	96.06
239.793	81.06
240.027	87.06
240.26	77.06
240.494	86.06
240.728	101.06
240.961	99.06
241.195	87.06
241.429	101.06
241.662	93.06
241.896	95.06
242.13	96.06
242.363	89.06
242.597	97.06
242.83	88.06
243.064	94.06
243.298	92.06
243.531	99.06
243.765	85.06
243.998	105.06
244.232	98.06
244.465	83.06
244.699	95.06
244.932	88.06
245.166	93.06
245.399	95.06
245.633	91.06
245.866	101.06
246.099	98.06
246.333	98.06
246.566	97.06
246.8	111.06
247.033	110.06
247.266	93.06
247.5	108.06
247.733	105.06
247.966	101.06
248.2	103.06
248.433	104.06
248.666	93.06
248.899	89.06
249.133	118.06
249.366	110.06
249.599	106.06
249.832	109.06
250.066	90.06
250.299	111.06
250.532	104.06
250.765	105.06
250.998	102.06
251.231	100.06
251.465	113.06
251.698	95.06
251.931	115.06
252.164	103.06
252.397	113.06
252.63	130.06
252.863	106.06
253.096	108.06
253.329	111.06
253.562	115.06
253.795	116.06
254.028	89.06
254.261	101.06
254.494	102.06
254.727	112.06
254.96	110.06
255.193	97.06
255.426	102.06
255.659	110.06
255.892	112.06
256.124	106.06
256.357	107.06
256.59	121.06
256.823	113.06
257.056	107.06
257.289	101.06
257.521	117.06
257.754	125.06
257.987	113.06
258.22	100.06
258.452	124.06
258.685	113.06
258.918	115.06
259.151	109.06
259.383	121.06
259.616	113.06
259.849	113.06
260.081	131.06
260.314	125.06
260.547	136.06
260.779	121.06
261.012	129.06
261.244	104.06
261.477	109.06
261.71	130.06
261.942	122.06
262.175	136.06
262.407	116.06
262.64	122.06
262.872	120.06
263.105	117.06
263.337	121.06
263.57	124.06
263.802	125.06
264.035	121.06
264.267	117.06
264.499	128.06
264.732	121.06
264.964	121.06
265.197	119.06
265.429	129.06
265.661	129.06
265.894	132.06
266.126	121.06
266.358	122.06
266.591	125.06
266.823	127.06
267.055	123.06
267.287	124.06
267.52	125.06
267.752	124.06
267.984	138.06
268.216	130.06
268.448	125.06
268.681	125.06
268.913	131.06
269.145	129.06
269.377	122.06
269.609	111.06
269.841	133.06
270.073	128.06
270.306	143.06
270.538	118.06
270.77	127.06
271.002	124.06
271.234	139.06
271.466	140.06
271.698	118.06
271.93	129.06
272.162	137.06
272.394	133.06
272.626	132.06
272.858	149.06
273.09	139.06
273.322	135.06
273.553	133.06
273.785	134.06
274.017	135.06
274.249	128.06
274.481	125.06
274.713	124.06
274.945	139.06
275.176	129.06
275.408	126.06
275.64	135.06
275.872	133.06
276.104	151.06
276.335	155.06
276.567	152.06
276.799	140.06
277.031	141.06
277.262	153.06
277.494	146.06
277.726	154.06
277.957	133.06
278.189	130.06
278.421	127.06
278.652	144.06
278.884	141.06
279.115	149.06
279.347	140.06
279.579	154.06
279.81	157.06
280.042	135.06
280.273	142.06
280.505	148.06
280.736	144.06
280.968	150.06
281.199	149.06
281.431	133.06
281.662	153.06
281.894	158.06
282.125	142.06
282.356	138.06
282.588	148.06
282.819	154.06
283.051	146.06
283.282	139.06
283.513	146.06
283.745	142.06
283.976	131.06
284.207	161.06
284.439	143.06
284.67	143.06
284.901	146.06
285.132	132.06
285.364	162.06
285.595	149.06
285.826	153.06
286.057	141.06
286.288	162.06
286.52	150.06
286.751	167.06
286.982	159.06
287.213	144.06
287.444	169.06
287.675	152.06
287.906	161.06
288.138	154.06
288.369	160.06
288.6	165.06
288.831	167.06
289.062	158.06
289.293	150.06
289.524	157.06
289.755	164.06
289.986	149.06
290.217	168.06
290.448	165.06
290.679	160.06
290.91	151.06
291.141	166.06
291.371	162.06
291.602	153.06
291.833	157.06
292.064	170.06
292.295	150.06
292.526	155.06
292.757	164.06
292.987	151.06
293.218	155.06
293.449	163.06
293.68	149.06
293.91	155.06
294.141	152.06
294.372	148.06
294.603	161.06
294.833	161.06
295.064	163.06
295.295	170.06
295.525	181.06
295.756	168.06
295.987	173.06
296.217	166.06
296.448	160.06
296.679	158.06
296.909	153.06
297.14	175.06
297.37	172.06
297.601	179.06
297.831	156.06
298.062	167.06
298.292	174.06
298.523	174.06
298.753	172.06
298.984	182.06
299.214	173.06
299.445	162.06
299.675	164.06
299.905	169.06
300.136	181.06
300.366	165.06
300.597	175.06
300.827	180.06
301.057	180.06
301.288	166.06
301.518	177.06
301.748	183.06
301.979	180.06
302.209	170.06
302.439	181.06
302.669	181.06
302.9	180.06
303.13	172.06
303.36	171.06
303.59	175.06
303.82	175.06
304.051	181.06
304.281	178.06
304.511	165.06
304.741	173.06
304.971	174.06
305.201	156.06
305.431	162.06
305.661	177.06
305.891	170.06
306.121	150.06
306.352	179.06
306.582	163.06
306.812	171.06
307.042	178.06
307.272	161.06
307.502	181.06
307.731	177.06
307.961	172.06
308.191	171.06
308.421	164.06
308.651	181.06
308.881	184.06
309.111	166.06
309.341	174.06
309.571	188.06
309.8	184.06
310.03	157.06
310.26	163.06
310.49	178.06
310.72	174.06
310.949	167.06
311.179	177.06
311.409	175.06
311.639	179.06
311.868	175.06
312.098	174.06
312.328	180.06
312.557	167.06
312.787	168.06
313.017	199.06
313.246	191.06
313.476	183.06
313.706	191.06
313.935	192.06
314.165	181.06
314.394	172.06
314.624	187.06
314.853	169.06
315.083	172.06
315.312	191.06
315.542	185.06
315.771	171.06
316.001	194.06
316.23	168.06
316.46	180.06
316.689	179.06
316.919	191.06
317.148	183.06
317.377	195.06
317.607	170.06
317.836	193.06
318.065	166.06
318.295	185.06
318.524	173.06
318.753	175.06
318.983	193.06
319.212	191.06
319.441	187.06
319.67	186.06
319.9	180.06
320.129	200.06
320.358	186.06
320.587	180.06
320.816	178.06
321.046	167.06
321.275	180.06
321.504	171.06
321.733	182.06
321.962	166.06
322.191	161.06
322.42	179.06
322.649	171.06
322.878	195.06
323.108	190.06
323.337	173.06
323.566	186.06
323.795	168.06
324.024	164.06
324.253	170.06
324.482	181.06
324.71	171.06
324.939	181.06
325.168	197.06
325.397	167.06
325.626	189.06
325.855	194.06
326.084	186.06
326.313	185.06
326.542	182.06
326.77	179.06
326.999	186.06
327.228	181.06
327.457	185.06
327.686	190.06
327.914	203.06
328.143	195.06
328.372	205.06
328.6	178.06
328.829	176.06
329.058	190.06
329.287	197.06
329.515	183.06
329.744	202.06
329.972	187.06
330.201	185.06
330.43	193.06
330.658	177.06
330.887	188.06
331.115	186.06
331.344	205.06
331.572	206.06
331.801	198.06
332.03	190.06
332.258	188.06
332.486	222.06
332.715	232.06
332.943	223.06
333.172	234.06
333.4	224.06
333.629	246.06
333.857	249.06
334.085	236.06
334.314	215.06
334.542	229.06
334.771	218.06
334.999	226.06
335.227	217.06
335.455	221.06
335.684	226.06
335.912	243.06
336.14	230.06
336.369	235.06
336.597	235.06
336.825	214.06
337.053	222.06
337.281	218.06
337.51	225.06
337.738	190.06
337.966	218.06
338.194	209.06
338.422	196.06
338.65	222.06
338.878	212.06
339.106	191.06
339.334	192.06
339.562	203.06
339.79	198.06
340.018	205.06
340.246	213.06
340.474	196.06
340.702	189.06
340.93	188.06
341.158	193.06
341.386	190.06
341.614	203.06
341.842	198.06
342.07	173.06
342.298	196.06
342.526	180.06
342.754	213.06
342.981	210.06
343.209	193.06
343.437	204.06
343.665	222.06
343.893	234.06
344.12	239.06
344.348	222.06
344.576	214.06
344.804	196.06
345.031	195.06
345.259	211.06
345.487	185.06
345.714	186.06
345.942	174.06
346.17	190.06
346.397	196.06
346.625	202.06
346.853	201.06
347.08	196.06
347.308	193.06
347.535	188.06
347.763	209.06
347.99	198.06
348.218	196.06
348.445	192.06
348.673	190.06
348.9	183.06
349.128	191.06
349.355	187.06
349.583	197.06
349.81	183.06
350.037	174.06
350.265	177.06
350.492	183.06
350.72	185.06
350.947	175.06
351.174	203.06
351.402	172.06
351.629	193.06
351.856	193.06
352.083	185.06
352.311	178.06
352.538	187.06
352.765	178.06
352.992	192.06
353.22	167.06
353.447	188.06
353.674	191.06
353.901	187.06
354.128	190.06
354.355	190.06
354.583	187.06
354.81	194.06
355.037	193.06
355.264	182.06
355.491	206.06
355.718	191.06
355.945	205.06
356.172	198.06
356.399	191.06
356.626	197.06
356.853	198.06
357.08	183.06
357.307	180.06
357.534	173.06
357.761	174.06
357.988	197.06
358.215	196.06
358.441	178.06
358.668	192.06
358.895	201.06
359.122	185.06
359.349	177.06
359.576	199.06
359.802	178.06
360.029	171.06
360.256	184.06
360.483	199.06
360.709	173.06
360.936	201.06
361.163	179.06
361.39	188.06
361.616	187.06
361.843	186.06
362.07	175.06
362.296	177.06
362.523	198.06
362.749	178.06
362.976	177.06
363.203	181.06
363.429	176.06
363.656	166.06
363.882	185.06
364.109	181.06
364.335	185.06
364.562	182.06
364.788	179.06
365.015	171.06
365.241	183.06
365.468	189.06
365.694	167.06
365.92	175.06
366.147	191.06
366.373	190.06
366.599	186.06
366.826	193.06
367.052	189.06
367.278	180.06
367.505	189.06
367.731	191.06
367.957	185.06
368.184	184.06
368.41	195.06
368.636	177.06
368.862	193.06
369.089	209.06
369.315	181.06
369.541	189.06
369.767	193.06
369.993	194.06
370.219	190.06
370.445	197.06
370.672	202.06
370.898	184.06
371.124	207.06
371.35	211.06
371.576	203.06
371.802	195.06
372.028	196.06
372.254	202.06
372.48	194.06
372.706	199.06
372.932	198.06
373.158	195.06
373.384	201.06
373.61	199.06
373.835	197.06
374.061	193.06
374.287	206.06
374.513	199.06
374.739	191.06
374.965	211.06
375.191	219.06
375.416	223.06
375.642	224.06
375.868	213.06
376.094	213.06
376.319	208.06
376.545	184.06
376.771	194.06
376.997	211.06
377.222	193.06
377.448	203.06
377.674	178.06
377.899	182.06
378.125	208.06
378.35	202.06
378.576	190.06
378.802	183.06
379.027	194.06
379.253	194.06
379.478	207.06
379.704	202.06
379.929	203.06
380.155	192.06
380.38	185.06
380.606	193.06
380.831	182.06
381.057	204.06
381.282	201.06
381.507	197.06
381.733	195.06
381.958	184.06
382.184	207.06
382.409	211.06
382.634	202.06
382.86	200.06
383.085	204.06
383.31	210.06
383.535	205.06
383.761	211.06
383.986	228.06
384.211	220.06
384.436	235.06
384.662	223.06
384.887	231.06
385.112	230.06
385.337	231.06
385.562	224.06
385.787	229.06
386.013	218.06
386.238	212.06
386.463	222.06
386.688	223.06
386.913	235.06
387.138	208.06
387.363	210.06
387.588	226.06
387.813	215.06
388.038	227.06
388.263	226.06
388.488	214.06
388.713	222.06
388.938	219.06
389.163	211.06
389.387	229.06
389.612	216.06
389.837	222.06
390.062	197.06
390.287	207.06
390.512	221.06
390.736	208.06
390.961	225.06
391.186	213.06
391.411	236.06
391.636	245.06
391.86	226.06
392.085	253.06
392.31	233.06
392.534	243.06
392.759	227.06
392.984	218.06
393.208	213.06
393.433	246.06
393.658	235.06
393.882	239.06
394.107	219.06
394.331	252.06
394.556	212.06
394.78	219.06
395.005	234.06
395.229	232.06
395.454	233.06
395.678	227.06
395.903	247.06
396.127	232.06
396.352	236.06
396.576	225.06
396.801	238.06
397.025	241.06
397.249	225.06
397.474	237.06
397.698	260.06
397.922	222.06
398.147	238.06
398.371	246.06
398.595	257.06
398.82	243.06
399.044	266.06
399.268	286.06
399.492	334.06
399.717	382.06
399.941	354.06
400.165	307.06
400.389	309.06
400.613	281.06
400.837	274.06
401.062	259.06
401.286	267.06
401.51	246.06
401.734	260.06
401.958	272.06
402.182	252.06
402.406	272.06
402.63	265.06
402.854	269.06
403.078	270.06
403.302	281.06
403.526	278.06
403.75	295.06
403.974	306.06
404.198	301.06
404.422	287.06
404.645	285.06
404.869	281.06
405.093	289.06
405.317	265.06
405.541	281.06
405.765	285.06
405.988	269.06
406.212	271.06
406.436	282.06
406.66	298.06
406.883	291.06
407.107	307.06
407.331	319.06
407.555	319.06
407.778	308.06
408.002	307.06
408.226	307.06
408.449	292.06
408.673	279.06
408.896	264.06
409.12	289.06
409.344	312.06
409.567	292.06
409.791	273.06
410.014	302.06
410.238	293.06
410.461	295.06
410.685	279.06
410.908	279.06
411.132	274.06
411.355	262.06
411.578	284.06
411.802	271.06
412.025	265.06
412.249	259.06
412.472	267.06
412.695	241.06
412.919	228.06
413.142	259.06
413.365	273.06
413.589	265.06
413.812	251.06
414.035	258.06
414.258	236.06
414.482	263.06
414.705	253.06
414.928	253.06
415.151	276.06
415.374	266.06
415.597	253.06
415.821	254.06
416.044	261.06
416.267	251.06
416.49	251.06
416.713	266.06
416.936	248.06
417.159	261.06
417.382	251.06
417.605	247.06
417.828	244.06
418.051	243.06
418.274	262.06
418.497	274.06
418.72	249.06
418.943	265.06
419.166	281.06
419.389	303.06
419.611	278.06
419.834	293.06
420.057	257.06
420.28	265.06
420.503	261.06
420.726	245.06
420.948	247.06
421.171	262.06
421.394	255.06
421.617	270.06
421.839	278.06
422.062	254.06
422.285	264.06
422.507	253.06
422.73	251.06
422.953	265.06
423.175	266.06
423.398	263.06
423.621	285.06
423.843	300.06
424.066	259.06
424.288	273.06
424.511	256.06
424.733	257.06
424.956	255.06
425.178	262.06
425.401	246.06
425.623	243.06
425.846	245.06
426.068	247.06
426.291	269.06
426.513	231.06
426.735	261.06
426.958	251.06
427.18	233.06
427.402	234.06
427.625	273.06
427.847	238.06
428.069	243.06
428.292	234.06
428.514	224.06
428.736	213.06
428.958	217.06
429.181	218.06
429.403	221.06
429.625	241.06
429.847	227.06
430.069	234.06
430.292	225.06
430.514	231.06
430.736	230.06
430.958	228.06
431.18	229.06
431.402	227.06
431.624	235.06
431.846	228.06
432.068	242.06
432.29	232.06
432.512	245.06
432.734	245.06
432.956	249.06
433.178	231.06
433.4	235.06
433.622	242.06
433.844	236.06
434.066	238.06
434.287	244.06
434.509	238.06
434.731	236.06
434.953	258.06
435.175	273.06
435.397	251.06
435.618	245.06
435.84	241.06
436.062	224.06
436.284	245.06
436.505	211.06
436.727	237.06
436.949	231.06
437.17	238.06
437.392	214.06
437.614	224.06
437.835	249.06
438.057	223.06
438.278	234.06
438.5	245.06
438.721	238.06
438.943	244.06
439.165	233.06
439.386	235.06
439.608	254.06
439.829	221.06
440.05	239.06
440.272	250.06
440.493	232.06
440.715	236.06
440.936	217.06
441.158	244.06
441.379	273.06
441.6	249.06
441.822	263.06
442.043	278.06
442.264	250.06
442.486	229.06
442.707	245.06
442.928	271.06
443.149	244.06
443.371	241.06
443.592	245.06
443.813	234.06
444.034	261.06
444.255	262.06
444.476	273.06
444.698	305.06
444.919	310.06
445.14	370.06
445.361	311.06
445.582	263.06
445.803	248.06
446.024	251.06
446.245	248.06
446.466	213.06
446.687	223.06
446.908	226.06
447.129	235.06
447.35	226.06
447.571	225.06
447.792	216.06
448.013	222.06
448.234	225.06
448.455	215.06
448.675	221.06
448.896	202.06
449.117	211.06
449.338	223.06
449.559	233.06
449.779	217.06
450	219.06
450.221	227.06
450.442	231.06
450.662	229.06
450.883	220.06
451.104	204.06
451.324	226.06
451.545	219.06
451.766	225.06
451.986	219.06
452.207	204.06
452.428	223.06
452.648	224.06
452.869	205.06
453.089	220.06
453.31	217.06
453.53	217.06
453.751	216.06
453.971	216.06
454.192	203.06
454.412	205.06
454.633	199.06
454.853	201.06
455.073	215.06
455.294	215.06
455.514	222.06
455.734	198.06
455.955	205.06
456.175	209.06
456.395	211.06
456.616	211.06
456.836	212.06
457.056	219.06
457.276	203.06
457.497	198.06
457.717	217.06
457.937	206.06
458.157	197.06
458.377	207.06
458.598	225.06
458.818	234.06
459.038	233.06
459.258	218.06
459.478	242.06
459.698	227.06
459.918	232.06
460.138	257.06
460.358	269.06
460.578	282.06
460.798	255.06
461.018	289.06
461.238	266.06
461.458	264.06
461.678	261.06
461.898	267.06
462.118	268.06
462.338	299.06
462.558	286.06
462.777	311.06
462.997	315.06
463.217	346.06
463.437	353.06
463.657	327.06
463.876	294.06
464.096	309.06
464.316	313.06
464.536	315.06
464.755	311.06
464.975	291.06
465.195	271.06
465.414	258.06
465.634	267.06
465.854	249.06
466.073	251.06
466.293	220.06
466.512	233.06
466.732	243.06
466.951	236.06
467.171	242.06
467.391	241.06
467.61	225.06
467.829	227.06
468.049	247.06
468.268	222.06
468.488	216.06
468.707	224.06
468.927	203.06
469.146	223.06
469.365	255.06
469.585	226.06
469.804	228.06
470.023	235.06
470.243	227.06
470.462	241.06
470.681	261.06
470.901	249.06
471.12	237.06
471.339	229.06
471.558	227.06
471.777	208.06
471.997	229.06
472.216	225.06
472.435	226.06
472.654	218.06
472.873	232.06
473.092	233.06
473.311	225.06
473.53	246.06
473.749	216.06
473.968	222.06
474.187	225.06
474.406	211.06
474.625	230.06
474.844	220.06
475.063	235.06
475.282	217.06
475.501	212.06
475.72	214.06
475.939	227.06
476.158	217.06
476.377	219.06
476.596	235.06
476.814	217.06
477.033	213.06
477.252	240.06
477.471	253.06
477.69	238.06
477.908	229.06
478.127	257.06
478.346	245.06
478.564	263.06
478.783	242.06
479.002	266.06
479.22	280.06
479.439	273.06
479.658	255.06
479.876	254.06
480.095	254.06
480.313	275.06
480.532	278.06
480.751	297.06
480.969	257.06
481.188	266.06
481.406	259.06
481.624	250.06
481.843	258.06
482.061	241.06
482.28	239.06
482.498	239.06
482.717	259.06
482.935	254.06
483.153	257.06
483.372	238.06
483.59	246.06
483.808	239.06
484.027	243.06
484.245	262.06
484.463	260.06
484.681	275.06
484.9	252.06
485.118	263.06
485.336	257.06
485.554	261.06
485.772	277.06
485.99	270.06
486.209	267.06
486.427	276.06
486.645	254.06
486.863	279.06
487.081	258.06
487.299	264.06
487.517	269.06
487.735	261.06
487.953	243.06
488.171	254.06
488.389	277.06
488.607	254.06
488.825	254.06
489.043	258.06
489.261	260.06
489.479	248.06
489.696	271.06
489.914	266.06
490.132	262.06
490.35	275.06
490.568	259.06
490.786	271.06
491.003	264.06
491.221	270.06
491.439	259.06
491.657	255.06
491.874	270.06
492.092	277.06
492.31	266.06
492.527	265.06
492.745	267.06
492.963	267.06
493.18	265.06
493.398	270.06
493.615	291.06
493.833	282.06
494.05	270.06
494.268	258.06
494.485	270.06
494.703	270.06
494.92	275.06
495.138	275.06
495.355	265.06
495.573	295.06
495.79	272.06
496.008	284.06
496.225	267.06
496.442	288.06
496.66	283.06
496.877	281.06
497.094	278.06
497.312	295.06
497.529	289.06
497.746	307.06
497.963	294.06
498.181	300.06
498.398	321.06
498.615	330.06
498.832	343.06
499.049	393.06
499.267	406.06
499.484	433.06
499.701	501.06
499.918	535.06
500.135	602.06
500.352	711.06
500.569	729.06
500.786	724.06
501.003	663.06
501.22	609.06
501.437	523.06
501.654	454.06
501.871	421.06
502.088	409.06
502.305	379.06
502.522	377.06
502.739	350.06
502.956	330.06
503.172	330.06
503.389	318.06
