Data from 0.5MCu(NO3)2.Standard.Lamp.E10.CV._HRD10591_16-05-15-753.txt Node
Date: Mon Jul 22 16:05:15 EDT 2019
User: cochatt
Spectrometer: HR+D1059
Trigger mode: 1
Integration Time (sec): 1.000000E-1
Scans to average: 1
Electric dark correction enabled: true
Nonlinearity correction enabled: false
Boxcar width: 0
XAxis mode: Wavelengths
Number of Pixels in Spectrum: 2048
>>>>>Begin Spectral Data<<<<<
223.165	-6.88
223.4	-6.88
223.635	-6.88
223.869	-25.88
224.104	-18.88
224.338	-13.88
224.573	-17.88
224.808	-11.88
225.042	-0.88
225.277	2.12
225.511	-4.88
225.746	7.12
225.98	21.12
226.215	14.12
226.449	6.12
226.683	19.12
226.918	13.12
227.152	18.12
227.387	38.12
227.621	57.12
227.856	44.12
228.09	37.12
228.324	46.12
228.559	58.12
228.793	66.12
229.027	68.12
229.262	74.12
229.496	85.12
229.73	78.12
229.964	82.12
230.199	81.12
230.433	94.12
230.667	86.12
230.901	88.12
231.136	82.12
231.37	97.12
231.604	88.12
231.838	99.12
232.072	84.12
232.306	97.12
232.541	92.12
232.775	88.12
233.009	93.12
233.243	108.12
233.477	98.12
233.711	101.12
233.945	79.12
234.179	97.12
234.413	93.12
234.647	91.12
234.881	92.12
235.115	92.12
235.349	97.12
235.583	103.12
235.817	87.12
236.051	89.12
236.285	93.12
236.519	94.12
236.753	92.12
236.987	93.12
237.221	101.12
237.455	109.12
237.689	82.12
237.922	94.12
238.156	94.12
238.39	98.12
238.624	96.12
238.858	103.12
239.091	105.12
239.325	92.12
239.559	99.12
239.793	105.12
240.027	93.12
240.26	107.12
240.494	98.12
240.728	98.12
240.961	89.12
241.195	103.12
241.429	105.12
241.662	101.12
241.896	96.12
242.13	87.12
242.363	114.12
242.597	97.12
242.83	97.12
243.064	96.12
243.298	97.12
243.531	96.12
243.765	102.12
243.998	109.12
244.232	97.12
244.465	106.12
244.699	108.12
244.932	95.12
245.166	106.12
245.399	114.12
245.633	91.12
245.866	108.12
246.099	120.12
246.333	100.12
246.566	94.12
246.8	104.12
247.033	104.12
247.266	112.12
247.5	98.12
247.733	113.12
247.966	104.12
248.2	110.12
248.433	96.12
248.666	111.12
248.899	118.12
249.133	107.12
249.366	102.12
249.599	116.12
249.832	116.12
250.066	105.12
250.299	109.12
250.532	104.12
250.765	102.12
250.998	109.12
251.231	105.12
251.465	124.12
251.698	107.12
251.931	112.12
252.164	122.12
252.397	110.12
252.63	112.12
252.863	118.12
253.096	118.12
253.329	125.12
253.562	118.12
253.795	116.12
254.028	110.12
254.261	122.12
254.494	114.12
254.727	120.12
254.96	123.12
255.193	112.12
255.426	110.12
255.659	108.12
255.892	139.12
256.124	125.12
256.357	135.12
256.59	116.12
256.823	123.12
257.056	128.12
257.289	123.12
257.521	118.12
257.754	120.12
257.987	121.12
258.22	124.12
258.452	128.12
258.685	121.12
258.918	132.12
259.151	116.12
259.383	116.12
259.616	123.12
259.849	121.12
260.081	135.12
260.314	112.12
260.547	125.12
260.779	124.12
261.012	137.12
261.244	140.12
261.477	140.12
261.71	138.12
261.942	131.12
262.175	136.12
262.407	142.12
262.64	124.12
262.872	135.12
263.105	132.12
263.337	126.12
263.57	125.12
263.802	142.12
264.035	140.12
264.267	145.12
264.499	146.12
264.732	142.12
264.964	139.12
265.197	143.12
265.429	140.12
265.661	145.12
265.894	142.12
266.126	146.12
266.358	119.12
266.591	145.12
266.823	141.12
267.055	149.12
267.287	136.12
267.52	128.12
267.752	131.12
267.984	143.12
268.216	156.12
268.448	141.12
268.681	140.12
268.913	142.12
269.145	130.12
269.377	128.12
269.609	161.12
269.841	138.12
270.073	148.12
270.306	134.12
270.538	143.12
270.77	165.12
271.002	166.12
271.234	153.12
271.466	150.12
271.698	144.12
271.93	145.12
272.162	144.12
272.394	138.12
272.626	147.12
272.858	160.12
273.09	155.12
273.322	146.12
273.553	135.12
273.785	155.12
274.017	151.12
274.249	149.12
274.481	162.12
274.713	152.12
274.945	170.12
275.176	166.12
275.408	162.12
275.64	151.12
275.872	164.12
276.104	161.12
276.335	152.12
276.567	160.12
276.799	163.12
277.031	165.12
277.262	160.12
277.494	145.12
277.726	156.12
277.957	170.12
278.189	171.12
278.421	146.12
278.652	171.12
278.884	147.12
279.115	164.12
279.347	154.12
279.579	169.12
279.81	168.12
280.042	154.12
280.273	157.12
280.505	177.12
280.736	164.12
280.968	153.12
281.199	167.12
281.431	173.12
281.662	163.12
281.894	164.12
282.125	177.12
282.356	173.12
282.588	166.12
282.819	174.12
283.051	158.12
283.282	177.12
283.513	175.12
283.745	172.12
283.976	165.12
284.207	166.12
284.439	170.12
284.67	142.12
284.901	179.12
285.132	169.12
285.364	176.12
285.595	190.12
285.826	196.12
286.057	168.12
286.288	173.12
286.52	168.12
286.751	176.12
286.982	166.12
287.213	188.12
287.444	172.12
287.675	172.12
287.906	166.12
288.138	172.12
288.369	179.12
288.6	180.12
288.831	177.12
289.062	194.12
289.293	182.12
289.524	170.12
289.755	197.12
289.986	179.12
290.217	186.12
290.448	190.12
290.679	183.12
290.91	196.12
291.141	180.12
291.371	177.12
291.602	184.12
291.833	188.12
292.064	203.12
292.295	183.12
292.526	192.12
292.757	166.12
292.987	180.12
293.218	193.12
293.449	181.12
293.68	195.12
293.91	193.12
294.141	198.12
294.372	196.12
294.603	193.12
294.833	189.12
295.064	197.12
295.295	200.12
295.525	194.12
295.756	190.12
295.987	188.12
296.217	185.12
296.448	199.12
296.679	180.12
296.909	192.12
297.14	204.12
297.37	214.12
297.601	202.12
297.831	205.12
298.062	196.12
298.292	194.12
298.523	202.12
298.753	220.12
298.984	204.12
299.214	192.12
299.445	195.12
299.675	184.12
299.905	185.12
300.136	188.12
300.366	206.12
300.597	206.12
300.827	211.12
301.057	204.12
301.288	210.12
301.518	210.12
301.748	209.12
301.979	209.12
302.209	224.12
302.439	199.12
302.669	219.12
302.9	211.12
303.13	188.12
303.36	202.12
303.59	184.12
303.82	213.12
304.051	216.12
304.281	212.12
304.511	206.12
304.741	217.12
304.971	220.12
305.201	204.12
305.431	190.12
305.661	218.12
305.891	199.12
306.121	205.12
306.352	207.12
306.582	197.12
306.812	187.12
307.042	187.12
307.272	192.12
307.502	217.12
307.731	198.12
307.961	199.12
308.191	196.12
308.421	194.12
308.651	203.12
308.881	204.12
309.111	198.12
309.341	193.12
309.571	189.12
309.8	203.12
310.03	191.12
310.26	193.12
310.49	213.12
310.72	197.12
310.949	197.12
311.179	195.12
311.409	203.12
311.639	224.12
311.868	200.12
312.098	215.12
312.328	202.12
312.557	203.12
312.787	211.12
313.017	208.12
313.246	215.12
313.476	217.12
313.706	211.12
313.935	192.12
314.165	206.12
314.394	218.12
314.624	219.12
314.853	227.12
315.083	219.12
315.312	219.12
315.542	221.12
315.771	209.12
316.001	206.12
316.23	231.12
316.46	185.12
316.689	228.12
316.919	208.12
317.148	194.12
317.377	226.12
317.607	206.12
317.836	233.12
318.065	225.12
318.295	190.12
318.524	197.12
318.753	208.12
318.983	209.12
319.212	217.12
319.441	204.12
319.67	215.12
319.9	216.12
320.129	211.12
320.358	219.12
320.587	214.12
320.816	208.12
321.046	228.12
321.275	216.12
321.504	218.12
321.733	217.12
321.962	215.12
322.191	228.12
322.42	226.12
322.649	219.12
322.878	226.12
323.108	218.12
323.337	208.12
323.566	217.12
323.795	221.12
324.024	229.12
324.253	226.12
324.482	206.12
324.71	210.12
324.939	214.12
325.168	212.12
325.397	224.12
325.626	221.12
325.855	220.12
326.084	232.12
326.313	229.12
326.542	224.12
326.77	234.12
326.999	217.12
327.228	231.12
327.457	218.12
327.686	222.12
327.914	225.12
328.143	225.12
328.372	232.12
328.6	237.12
328.829	224.12
329.058	242.12
329.287	231.12
329.515	246.12
329.744	230.12
329.972	227.12
330.201	225.12
330.43	235.12
330.658	208.12
330.887	235.12
331.115	249.12
331.344	242.12
331.572	234.12
331.801	247.12
332.03	237.12
332.258	262.12
332.486	246.12
332.715	275.12
332.943	278.12
333.172	286.12
333.4	289.12
333.629	309.12
333.857	293.12
334.085	295.12
334.314	288.12
334.542	289.12
334.771	270.12
334.999	272.12
335.227	266.12
335.455	268.12
335.684	270.12
335.912	263.12
336.14	262.12
336.369	249.12
336.597	259.12
336.825	270.12
337.053	266.12
337.281	244.12
337.51	251.12
337.738	261.12
337.966	256.12
338.194	235.12
338.422	237.12
338.65	258.12
338.878	241.12
339.106	243.12
339.334	247.12
339.562	241.12
339.79	230.12
340.018	230.12
340.246	220.12
340.474	225.12
340.702	222.12
340.93	245.12
341.158	240.12
341.386	233.12
341.614	243.12
341.842	242.12
342.07	239.12
342.298	233.12
342.526	230.12
342.754	232.12
342.981	241.12
343.209	221.12
343.437	246.12
343.665	260.12
343.893	276.12
344.12	289.12
344.348	265.12
344.576	263.12
344.804	249.12
345.031	252.12
345.259	233.12
345.487	214.12
345.714	235.12
345.942	219.12
346.17	240.12
346.397	237.12
346.625	235.12
346.853	217.12
347.08	228.12
347.308	242.12
347.535	233.12
347.763	237.12
347.99	226.12
348.218	248.12
348.445	229.12
348.673	214.12
348.9	229.12
349.128	204.12
349.355	231.12
349.583	229.12
349.81	228.12
350.037	214.12
350.265	218.12
350.492	232.12
350.72	232.12
350.947	216.12
351.174	233.12
351.402	225.12
351.629	222.12
351.856	227.12
352.083	222.12
352.311	212.12
352.538	220.12
352.765	222.12
352.992	214.12
353.22	221.12
353.447	221.12
353.674	201.12
353.901	222.12
354.128	228.12
354.355	235.12
354.583	222.12
354.81	205.12
355.037	227.12
355.264	230.12
355.491	225.12
355.718	218.12
355.945	230.12
356.172	225.12
356.399	218.12
356.626	226.12
356.853	220.12
357.08	214.12
357.307	229.12
357.534	227.12
357.761	218.12
357.988	222.12
358.215	218.12
358.441	240.12
358.668	235.12
358.895	224.12
359.122	214.12
359.349	234.12
359.576	226.12
359.802	224.12
360.029	218.12
360.256	228.12
360.483	224.12
360.709	222.12
360.936	231.12
361.163	212.12
361.39	223.12
361.616	222.12
361.843	224.12
362.07	223.12
362.296	219.12
362.523	196.12
362.749	217.12
362.976	214.12
363.203	223.12
363.429	227.12
363.656	220.12
363.882	212.12
364.109	205.12
364.335	213.12
364.562	224.12
364.788	231.12
365.015	221.12
365.241	210.12
365.468	211.12
365.694	198.12
365.92	211.12
366.147	221.12
366.373	232.12
366.599	221.12
366.826	212.12
367.052	207.12
367.278	203.12
367.505	219.12
367.731	210.12
367.957	238.12
368.184	224.12
368.41	219.12
368.636	214.12
368.862	218.12
369.089	222.12
369.315	216.12
369.541	223.12
369.767	260.12
369.993	228.12
370.219	218.12
370.445	232.12
370.672	237.12
370.898	218.12
371.124	242.12
371.35	240.12
371.576	220.12
371.802	240.12
372.028	235.12
372.254	229.12
372.48	239.12
372.706	248.12
372.932	242.12
373.158	244.12
373.384	217.12
373.61	226.12
373.835	226.12
374.061	257.12
374.287	231.12
374.513	242.12
374.739	254.12
374.965	243.12
375.191	263.12
375.416	253.12
375.642	256.12
375.868	258.12
376.094	243.12
376.319	250.12
376.545	233.12
376.771	231.12
376.997	246.12
377.222	243.12
377.448	241.12
377.674	224.12
377.899	230.12
378.125	220.12
378.35	224.12
378.576	230.12
378.802	209.12
379.027	218.12
379.253	233.12
379.478	229.12
379.704	228.12
379.929	240.12
380.155	230.12
380.38	219.12
380.606	231.12
380.831	235.12
381.057	199.12
381.282	228.12
381.507	225.12
381.733	232.12
381.958	236.12
382.184	249.12
382.409	224.12
382.634	257.12
382.86	244.12
383.085	256.12
383.31	225.12
383.535	230.12
383.761	246.12
383.986	259.12
384.211	274.12
384.436	271.12
384.662	248.12
384.887	272.12
385.112	252.12
385.337	274.12
385.562	276.12
385.787	276.12
386.013	283.12
386.238	270.12
386.463	285.12
386.688	270.12
386.913	269.12
387.138	268.12
387.363	255.12
387.588	266.12
387.813	276.12
388.038	252.12
388.263	266.12
388.488	273.12
388.713	285.12
388.938	257.12
389.163	239.12
389.387	248.12
389.612	257.12
389.837	262.12
390.062	240.12
390.287	258.12
390.512	250.12
390.736	281.12
390.961	255.12
391.186	272.12
391.411	281.12
391.636	280.12
391.86	285.12
392.085	299.12
392.31	298.12
392.534	294.12
392.759	284.12
392.984	274.12
393.208	277.12
393.433	281.12
393.658	281.12
393.882	282.12
394.107	275.12
394.331	305.12
394.556	281.12
394.78	295.12
395.005	284.12
395.229	293.12
395.454	269.12
395.678	287.12
395.903	267.12
396.127	278.12
396.352	285.12
396.576	261.12
396.801	269.12
397.025	269.12
397.249	281.12
397.474	310.12
397.698	280.12
397.922	294.12
398.147	286.12
398.371	290.12
398.595	317.12
398.82	312.12
399.044	343.12
399.268	371.12
399.492	420.12
399.717	479.12
399.941	456.12
400.165	403.12
400.389	383.12
400.613	332.12
400.837	314.12
401.062	311.12
401.286	315.12
401.51	308.12
401.734	309.12
401.958	313.12
402.182	334.12
402.406	335.12
402.63	335.12
402.854	360.12
403.078	341.12
403.302	356.12
403.526	375.12
403.75	370.12
403.974	380.12
404.198	366.12
404.422	358.12
404.645	374.12
404.869	352.12
405.093	360.12
405.317	355.12
405.541	337.12
405.765	341.12
405.988	341.12
406.212	340.12
406.436	344.12
406.66	353.12
406.883	335.12
407.107	389.12
407.331	384.12
407.555	415.12
407.778	414.12
408.002	387.12
408.226	364.12
408.449	357.12
408.673	343.12
408.896	321.12
409.12	366.12
409.344	355.12
409.567	369.12
409.791	363.12
410.014	361.12
410.238	359.12
410.461	355.12
410.685	326.12
410.908	336.12
411.132	345.12
411.355	348.12
411.578	348.12
411.802	321.12
412.025	340.12
412.249	341.12
412.472	328.12
412.695	331.12
412.919	304.12
413.142	320.12
413.365	320.12
413.589	332.12
413.812	321.12
414.035	298.12
414.258	312.12
414.482	328.12
414.705	328.12
414.928	313.12
415.151	322.12
415.374	323.12
415.597	306.12
415.821	314.12
416.044	310.12
416.267	308.12
416.49	312.12
416.713	290.12
416.936	310.12
417.159	298.12
417.382	321.12
417.605	310.12
417.828	322.12
418.051	317.12
418.274	318.12
418.497	318.12
418.72	317.12
418.943	319.12
419.166	325.12
419.389	327.12
419.611	337.12
419.834	327.12
420.057	344.12
420.28	298.12
420.503	299.12
420.726	307.12
420.948	302.12
421.171	312.12
421.394	318.12
421.617	337.12
421.839	321.12
422.062	304.12
422.285	298.12
422.507	304.12
422.73	332.12
422.953	322.12
423.175	327.12
423.398	331.12
423.621	357.12
423.843	346.12
424.066	340.12
424.288	337.12
424.511	323.12
424.733	331.12
424.956	337.12
425.178	316.12
425.401	311.12
425.623	321.12
425.846	293.12
426.068	306.12
426.291	308.12
426.513	297.12
426.735	296.12
426.958	314.12
427.18	307.12
427.402	299.12
427.625	286.12
427.847	288.12
428.069	305.12
428.292	285.12
428.514	280.12
428.736	289.12
428.958	288.12
429.181	280.12
429.403	265.12
429.625	262.12
429.847	276.12
430.069	251.12
430.292	272.12
430.514	272.12
430.736	292.12
430.958	267.12
431.18	282.12
431.402	286.12
431.624	289.12
431.846	284.12
432.068	283.12
432.29	288.12
432.512	272.12
432.734	283.12
432.956	290.12
433.178	292.12
433.4	292.12
433.622	286.12
433.844	295.12
434.066	284.12
434.287	291.12
434.509	303.12
434.731	309.12
434.953	314.12
435.175	332.12
435.397	304.12
435.618	292.12
435.84	304.12
436.062	319.12
436.284	293.12
436.505	269.12
436.727	285.12
436.949	265.12
437.17	275.12
437.392	295.12
437.614	273.12
437.835	247.12
438.057	285.12
438.278	268.12
438.5	264.12
438.721	274.12
438.943	269.12
439.165	277.12
439.386	279.12
439.608	281.12
439.829	290.12
440.05	301.12
440.272	273.12
440.493	266.12
440.715	274.12
440.936	292.12
441.158	293.12
441.379	306.12
441.6	319.12
441.822	320.12
442.043	332.12
442.264	296.12
442.486	288.12
442.707	287.12
442.928	315.12
443.149	327.12
443.371	308.12
443.592	299.12
443.813	312.12
444.034	299.12
444.255	333.12
444.476	343.12
444.698	340.12
444.919	373.12
445.14	507.12
445.361	406.12
445.582	334.12
445.803	313.12
446.024	296.12
446.245	306.12
446.466	292.12
446.687	288.12
446.908	278.12
447.129	250.12
447.35	272.12
447.571	276.12
447.792	278.12
448.013	274.12
448.234	254.12
448.455	251.12
448.675	260.12
448.896	257.12
449.117	259.12
449.338	257.12
449.559	246.12
449.779	258.12
450	274.12
450.221	252.12
450.442	276.12
450.662	275.12
450.883	274.12
451.104	245.12
451.324	286.12
451.545	260.12
451.766	285.12
451.986	276.12
452.207	274.12
452.428	262.12
452.648	244.12
452.869	268.12
453.089	255.12
453.31	284.12
453.53	258.12
453.751	264.12
453.971	241.12
454.192	259.12
454.412	257.12
454.633	265.12
454.853	281.12
455.073	262.12
455.294	261.12
455.514	259.12
455.734	243.12
455.955	242.12
456.175	242.12
456.395	234.12
456.616	249.12
456.836	246.12
457.056	248.12
457.276	246.12
457.497	253.12
457.717	244.12
457.937	241.12
458.157	237.12
458.377	256.12
458.598	252.12
458.818	251.12
459.038	276.12
459.258	269.12
459.478	288.12
459.698	285.12
459.918	288.12
460.138	310.12
460.358	317.12
460.578	340.12
460.798	320.12
461.018	338.12
461.238	322.12
461.458	339.12
461.678	329.12
461.898	310.12
462.118	316.12
462.338	340.12
462.558	364.12
462.777	348.12
462.997	392.12
463.217	431.12
463.437	438.12
463.657	390.12
463.876	397.12
464.096	385.12
464.316	384.12
464.536	393.12
464.755	390.12
464.975	357.12
465.195	332.12
465.414	323.12
465.634	308.12
465.854	301.12
466.073	306.12
466.293	296.12
466.512	290.12
466.732	285.12
466.951	292.12
467.171	272.12
467.391	289.12
467.61	268.12
467.829	274.12
468.049	294.12
468.268	279.12
468.488	246.12
468.707	259.12
468.927	268.12
469.146	259.12
469.365	285.12
469.585	268.12
469.804	262.12
470.023	288.12
470.243	286.12
470.462	278.12
470.681	292.12
470.901	284.12
471.12	289.12
471.339	296.12
471.558	278.12
471.777	270.12
471.997	260.12
472.216	267.12
472.435	272.12
472.654	276.12
472.873	266.12
473.092	258.12
473.311	250.12
473.53	266.12
473.749	270.12
473.968	273.12
474.187	249.12
474.406	260.12
474.625	264.12
474.844	264.12
475.063	290.12
475.282	258.12
475.501	262.12
475.72	278.12
475.939	253.12
476.158	275.12
476.377	261.12
476.596	273.12
476.814	275.12
477.033	278.12
477.252	287.12
477.471	292.12
477.69	277.12
477.908	299.12
478.127	292.12
478.346	310.12
478.564	316.12
478.783	322.12
479.002	307.12
479.22	334.12
479.439	338.12
479.658	313.12
479.876	317.12
480.095	330.12
480.313	344.12
480.532	356.12
480.751	352.12
480.969	326.12
481.188	323.12
481.406	317.12
481.624	308.12
481.843	299.12
482.061	313.12
482.28	301.12
482.498	298.12
482.717	299.12
482.935	291.12
483.153	285.12
483.372	293.12
483.59	289.12
483.808	295.12
484.027	314.12
484.245	315.12
484.463	312.12
484.681	338.12
484.9	318.12
485.118	331.12
485.336	318.12
485.554	333.12
485.772	345.12
485.99	315.12
486.209	323.12
486.427	318.12
486.645	328.12
486.863	351.12
487.081	335.12
487.299	322.12
487.517	317.12
487.735	322.12
487.953	322.12
488.171	317.12
488.389	313.12
488.607	317.12
488.825	297.12
489.043	313.12
489.261	303.12
489.479	323.12
489.696	314.12
489.914	317.12
490.132	341.12
490.35	327.12
490.568	316.12
490.786	304.12
491.003	324.12
491.221	325.12
491.439	314.12
491.657	298.12
491.874	325.12
492.092	320.12
492.31	318.12
492.527	320.12
492.745	322.12
492.963	313.12
493.18	320.12
493.398	328.12
493.615	326.12
493.833	327.12
494.05	311.12
494.268	334.12
494.485	326.12
494.703	331.12
494.92	334.12
495.138	340.12
495.355	324.12
495.573	341.12
495.79	337.12
496.008	334.12
496.225	337.12
496.442	356.12
496.66	361.12
496.877	337.12
497.094	352.12
497.312	357.12
497.529	373.12
497.746	384.12
497.963	387.12
498.181	395.12
498.398	411.12
498.615	412.12
498.832	428.12
499.049	466.12
499.267	503.12
499.484	576.12
499.701	619.12
499.918	676.12
500.135	795.12
500.352	941.12
500.569	971.12
500.786	935.12
501.003	858.12
501.22	782.12
501.437	680.12
501.654	594.12
501.871	553.12
502.088	508.12
502.305	480.12
502.522	463.12
502.739	458.12
502.956	427.12
