Data from 0.5MCu(NO3)2.Standard.Lamp.E10.CV._HRD10591_16-06-18-753.txt Node
Date: Mon Jul 22 16:06:18 EDT 2019
User: cochatt
Spectrometer: HR+D1059
Trigger mode: 1
Integration Time (sec): 1.000000E-1
Scans to average: 1
Electric dark correction enabled: true
Nonlinearity correction enabled: false
Boxcar width: 0
XAxis mode: Wavelengths
Number of Pixels in Spectrum: 2048
>>>>>Begin Spectral Data<<<<<
223.165	-16.25
223.4	-16.25
223.635	-16.25
223.869	-17.25
224.104	-23.25
224.338	-8.25
224.573	-17.25
224.808	-24.25
225.042	7.75
225.277	-3.25
225.511	8.75
225.746	1.75
225.98	1.75
226.215	2.75
226.449	7.75
226.683	22.75
226.918	17.75
227.152	38.75
227.387	42.75
227.621	35.75
227.856	51.75
228.09	52.75
228.324	57.75
228.559	48.75
228.793	81.75
229.027	81.75
229.262	75.75
229.496	78.75
229.73	69.75
229.964	89.75
230.199	81.75
230.433	84.75
230.667	99.75
230.901	83.75
231.136	87.75
231.37	86.75
231.604	84.75
231.838	86.75
232.072	87.75
232.306	88.75
232.541	87.75
232.775	109.75
233.009	90.75
233.243	109.75
233.477	105.75
233.711	88.75
233.945	86.75
234.179	92.75
234.413	86.75
234.647	97.75
234.881	97.75
235.115	84.75
235.349	84.75
235.583	90.75
235.817	99.75
236.051	85.75
236.285	97.75
236.519	73.75
236.753	94.75
236.987	89.75
237.221	93.75
237.455	88.75
237.689	96.75
237.922	86.75
238.156	99.75
238.39	91.75
238.624	87.75
238.858	97.75
239.091	99.75
239.325	93.75
239.559	82.75
239.793	106.75
240.027	101.75
240.26	81.75
240.494	99.75
240.728	79.75
240.961	79.75
241.195	82.75
241.429	93.75
241.662	94.75
241.896	94.75
242.13	104.75
242.363	99.75
242.597	94.75
242.83	92.75
243.064	100.75
243.298	86.75
243.531	100.75
243.765	94.75
243.998	92.75
244.232	94.75
244.465	83.75
244.699	102.75
244.932	117.75
245.166	107.75
245.399	110.75
245.633	84.75
245.866	108.75
246.099	96.75
246.333	95.75
246.566	94.75
246.8	100.75
247.033	101.75
247.266	109.75
247.5	107.75
247.733	89.75
247.966	108.75
248.2	108.75
248.433	96.75
248.666	97.75
248.899	96.75
249.133	100.75
249.366	102.75
249.599	129.75
249.832	123.75
250.066	117.75
250.299	105.75
250.532	115.75
250.765	115.75
250.998	90.75
251.231	108.75
251.465	102.75
251.698	115.75
251.931	107.75
252.164	112.75
252.397	97.75
252.63	107.75
252.863	116.75
253.096	112.75
253.329	96.75
253.562	112.75
253.795	105.75
254.028	106.75
254.261	101.75
254.494	106.75
254.727	128.75
254.96	87.75
255.193	117.75
255.426	122.75
255.659	110.75
255.892	111.75
256.124	105.75
256.357	92.75
256.59	112.75
256.823	112.75
257.056	105.75
257.289	111.75
257.521	113.75
257.754	108.75
257.987	97.75
258.22	123.75
258.452	111.75
258.685	108.75
258.918	125.75
259.151	120.75
259.383	118.75
259.616	108.75
259.849	117.75
260.081	120.75
260.314	112.75
260.547	101.75
260.779	121.75
261.012	128.75
261.244	106.75
261.477	131.75
261.71	104.75
261.942	129.75
262.175	109.75
262.407	112.75
262.64	109.75
262.872	116.75
263.105	117.75
263.337	132.75
263.57	124.75
263.802	117.75
264.035	116.75
264.267	119.75
264.499	125.75
264.732	123.75
264.964	121.75
265.197	130.75
265.429	121.75
265.661	129.75
265.894	149.75
266.126	126.75
266.358	125.75
266.591	137.75
266.823	122.75
267.055	109.75
267.287	140.75
267.52	117.75
267.752	117.75
267.984	135.75
268.216	124.75
268.448	126.75
268.681	113.75
268.913	127.75
269.145	121.75
269.377	133.75
269.609	126.75
269.841	129.75
270.073	126.75
270.306	129.75
270.538	140.75
270.77	135.75
271.002	129.75
271.234	125.75
271.466	134.75
271.698	129.75
271.93	124.75
272.162	138.75
272.394	127.75
272.626	137.75
272.858	136.75
273.09	119.75
273.322	147.75
273.553	129.75
273.785	127.75
274.017	130.75
274.249	131.75
274.481	143.75
274.713	149.75
274.945	141.75
275.176	142.75
275.408	149.75
275.64	142.75
275.872	136.75
276.104	155.75
276.335	131.75
276.567	145.75
276.799	141.75
277.031	153.75
277.262	135.75
277.494	135.75
277.726	137.75
277.957	144.75
278.189	138.75
278.421	136.75
278.652	154.75
278.884	139.75
279.115	141.75
279.347	152.75
279.579	131.75
279.81	148.75
280.042	169.75
280.273	137.75
280.505	133.75
280.736	135.75
280.968	141.75
281.199	143.75
281.431	150.75
281.662	136.75
281.894	143.75
282.125	136.75
282.356	155.75
282.588	142.75
282.819	145.75
283.051	157.75
283.282	142.75
283.513	153.75
283.745	139.75
283.976	143.75
284.207	157.75
284.439	138.75
284.67	167.75
284.901	155.75
285.132	171.75
285.364	164.75
285.595	158.75
285.826	162.75
286.057	156.75
286.288	161.75
286.52	159.75
286.751	168.75
286.982	163.75
287.213	168.75
287.444	133.75
287.675	151.75
287.906	151.75
288.138	155.75
288.369	160.75
288.6	149.75
288.831	161.75
289.062	156.75
289.293	157.75
289.524	158.75
289.755	164.75
289.986	160.75
290.217	156.75
290.448	145.75
290.679	161.75
290.91	160.75
291.141	158.75
291.371	167.75
291.602	160.75
291.833	152.75
292.064	152.75
292.295	168.75
292.526	165.75
292.757	175.75
292.987	184.75
293.218	170.75
293.449	172.75
293.68	171.75
293.91	159.75
294.141	156.75
294.372	165.75
294.603	168.75
294.833	154.75
295.064	169.75
295.295	183.75
295.525	174.75
295.756	169.75
295.987	168.75
296.217	162.75
296.448	169.75
296.679	159.75
296.909	164.75
297.14	167.75
297.37	166.75
297.601	183.75
297.831	176.75
298.062	171.75
298.292	165.75
298.523	170.75
298.753	167.75
298.984	172.75
299.214	181.75
299.445	186.75
299.675	173.75
299.905	181.75
300.136	183.75
300.366	187.75
300.597	173.75
300.827	177.75
301.057	171.75
301.288	183.75
301.518	193.75
301.748	176.75
301.979	179.75
302.209	183.75
302.439	164.75
302.669	173.75
302.9	181.75
303.13	158.75
303.36	154.75
303.59	184.75
303.82	176.75
304.051	163.75
304.281	161.75
304.511	176.75
304.741	186.75
304.971	167.75
305.201	179.75
305.431	172.75
305.661	183.75
305.891	170.75
306.121	172.75
306.352	161.75
306.582	187.75
306.812	175.75
307.042	159.75
307.272	179.75
307.502	170.75
307.731	175.75
307.961	168.75
308.191	181.75
308.421	187.75
308.651	173.75
308.881	190.75
309.111	182.75
309.341	179.75
309.571	191.75
309.8	166.75
310.03	171.75
310.26	175.75
310.49	173.75
310.72	167.75
310.949	173.75
311.179	183.75
311.409	168.75
311.639	186.75
311.868	158.75
312.098	171.75
312.328	191.75
312.557	182.75
312.787	171.75
313.017	181.75
313.246	172.75
313.476	170.75
313.706	180.75
313.935	190.75
314.165	199.75
314.394	189.75
314.624	180.75
314.853	189.75
315.083	184.75
315.312	192.75
315.542	193.75
315.771	183.75
316.001	183.75
316.23	168.75
316.46	169.75
316.689	172.75
316.919	185.75
317.148	193.75
317.377	183.75
317.607	167.75
317.836	169.75
318.065	182.75
318.295	176.75
318.524	184.75
318.753	186.75
318.983	189.75
319.212	197.75
319.441	187.75
319.67	202.75
319.9	189.75
320.129	201.75
320.358	208.75
320.587	173.75
320.816	183.75
321.046	183.75
321.275	186.75
321.504	183.75
321.733	196.75
321.962	176.75
322.191	188.75
322.42	200.75
322.649	185.75
322.878	192.75
323.108	165.75
323.337	174.75
323.566	178.75
323.795	177.75
324.024	187.75
324.253	180.75
324.482	176.75
324.71	177.75
324.939	181.75
325.168	183.75
325.397	193.75
325.626	196.75
325.855	190.75
326.084	192.75
326.313	191.75
326.542	191.75
326.77	193.75
326.999	187.75
327.228	203.75
327.457	205.75
327.686	193.75
327.914	205.75
328.143	195.75
328.372	190.75
328.6	183.75
328.829	189.75
329.058	176.75
329.287	177.75
329.515	174.75
329.744	200.75
329.972	208.75
330.201	184.75
330.43	212.75
330.658	201.75
330.887	210.75
331.115	204.75
331.344	198.75
331.572	185.75
331.801	194.75
332.03	204.75
332.258	203.75
332.486	224.75
332.715	210.75
332.943	216.75
333.172	236.75
333.4	227.75
333.629	259.75
333.857	252.75
334.085	240.75
334.314	233.75
334.542	232.75
334.771	217.75
334.999	213.75
335.227	212.75
335.455	227.75
335.684	221.75
335.912	228.75
336.14	215.75
336.369	214.75
336.597	199.75
336.825	224.75
337.053	226.75
337.281	216.75
337.51	208.75
337.738	207.75
337.966	202.75
338.194	222.75
338.422	195.75
338.65	207.75
338.878	213.75
339.106	192.75
339.334	201.75
339.562	206.75
339.79	192.75
340.018	204.75
340.246	207.75
340.474	187.75
340.702	183.75
340.93	205.75
341.158	204.75
341.386	182.75
341.614	205.75
341.842	199.75
342.07	207.75
342.298	189.75
342.526	188.75
342.754	179.75
342.981	203.75
343.209	201.75
343.437	201.75
343.665	215.75
343.893	240.75
344.12	231.75
344.348	221.75
344.576	212.75
344.804	203.75
345.031	207.75
345.259	196.75
345.487	196.75
345.714	200.75
345.942	212.75
346.17	195.75
346.397	200.75
346.625	175.75
346.853	181.75
347.08	190.75
347.308	187.75
347.535	198.75
347.763	184.75
347.99	193.75
348.218	195.75
348.445	206.75
348.673	201.75
348.9	199.75
349.128	203.75
349.355	189.75
349.583	187.75
349.81	208.75
350.037	193.75
350.265	197.75
350.492	189.75
350.72	182.75
350.947	174.75
351.174	188.75
351.402	191.75
351.629	213.75
351.856	199.75
352.083	179.75
352.311	186.75
352.538	175.75
352.765	177.75
352.992	185.75
353.22	183.75
353.447	174.75
353.674	188.75
353.901	190.75
354.128	204.75
354.355	172.75
354.583	197.75
354.81	194.75
355.037	189.75
355.264	200.75
355.491	187.75
355.718	199.75
355.945	192.75
356.172	199.75
356.399	193.75
356.626	173.75
356.853	189.75
357.08	197.75
357.307	193.75
357.534	183.75
357.761	182.75
357.988	198.75
358.215	189.75
358.441	195.75
358.668	183.75
358.895	178.75
359.122	175.75
359.349	200.75
359.576	190.75
359.802	187.75
360.029	200.75
360.256	207.75
360.483	198.75
360.709	209.75
360.936	196.75
361.163	173.75
361.39	191.75
361.616	197.75
361.843	188.75
362.07	208.75
362.296	189.75
362.523	185.75
362.749	182.75
362.976	176.75
363.203	183.75
363.429	191.75
363.656	194.75
363.882	190.75
364.109	188.75
364.335	200.75
364.562	192.75
364.788	183.75
365.015	179.75
365.241	183.75
365.468	188.75
365.694	182.75
365.92	165.75
366.147	184.75
366.373	167.75
366.599	179.75
366.826	187.75
367.052	196.75
367.278	181.75
367.505	179.75
367.731	192.75
367.957	188.75
368.184	191.75
368.41	187.75
368.636	190.75
368.862	177.75
369.089	180.75
369.315	193.75
369.541	202.75
369.767	192.75
369.993	197.75
370.219	190.75
370.445	182.75
370.672	185.75
370.898	181.75
371.124	188.75
371.35	206.75
371.576	203.75
371.802	193.75
372.028	180.75
372.254	208.75
372.48	212.75
372.706	206.75
372.932	209.75
373.158	219.75
373.384	203.75
373.61	199.75
373.835	192.75
374.061	204.75
374.287	200.75
374.513	201.75
374.739	199.75
374.965	203.75
375.191	212.75
375.416	208.75
375.642	207.75
375.868	215.75
376.094	220.75
376.319	200.75
376.545	209.75
376.771	174.75
376.997	191.75
377.222	207.75
377.448	184.75
377.674	194.75
377.899	191.75
378.125	200.75
378.35	197.75
378.576	184.75
378.802	190.75
379.027	199.75
379.253	200.75
379.478	188.75
379.704	203.75
379.929	193.75
380.155	179.75
380.38	195.75
380.606	189.75
380.831	199.75
381.057	172.75
381.282	192.75
381.507	195.75
381.733	192.75
381.958	203.75
382.184	201.75
382.409	200.75
382.634	189.75
382.86	189.75
383.085	200.75
383.31	202.75
383.535	212.75
383.761	204.75
383.986	223.75
384.211	222.75
384.436	222.75
384.662	223.75
384.887	229.75
385.112	214.75
385.337	229.75
385.562	224.75
385.787	211.75
386.013	220.75
386.238	220.75
386.463	219.75
386.688	225.75
386.913	208.75
387.138	201.75
387.363	231.75
387.588	207.75
387.813	218.75
388.038	221.75
388.263	221.75
388.488	235.75
388.713	208.75
388.938	213.75
389.163	207.75
389.387	209.75
389.612	208.75
389.837	220.75
390.062	213.75
390.287	225.75
390.512	217.75
390.736	206.75
390.961	231.75
391.186	238.75
391.411	235.75
391.636	243.75
391.86	232.75
392.085	261.75
392.31	233.75
392.534	232.75
392.759	228.75
392.984	247.75
393.208	210.75
393.433	233.75
393.658	245.75
393.882	216.75
394.107	231.75
394.331	225.75
394.556	226.75
394.78	227.75
395.005	246.75
395.229	230.75
395.454	223.75
395.678	226.75
395.903	228.75
396.127	230.75
396.352	223.75
396.576	215.75
396.801	215.75
397.025	235.75
397.249	230.75
397.474	235.75
397.698	219.75
397.922	238.75
398.147	253.75
398.371	245.75
398.595	252.75
398.82	236.75
399.044	264.75
399.268	287.75
399.492	341.75
399.717	368.75
399.941	348.75
400.165	308.75
400.389	292.75
400.613	279.75
400.837	259.75
401.062	256.75
401.286	234.75
401.51	250.75
401.734	253.75
401.958	248.75
402.182	246.75
402.406	278.75
402.63	271.75
402.854	263.75
403.078	272.75
403.302	285.75
403.526	292.75
403.75	277.75
403.974	279.75
404.198	281.75
404.422	311.75
404.645	291.75
404.869	295.75
405.093	305.75
405.317	291.75
405.541	281.75
405.765	296.75
405.988	288.75
406.212	275.75
406.436	266.75
406.66	291.75
406.883	298.75
407.107	297.75
407.331	305.75
407.555	318.75
407.778	318.75
408.002	291.75
408.226	289.75
408.449	287.75
408.673	265.75
408.896	283.75
409.12	286.75
409.344	280.75
409.567	269.75
409.791	286.75
410.014	283.75
410.238	297.75
410.461	291.75
410.685	277.75
410.908	263.75
411.132	275.75
411.355	255.75
411.578	260.75
411.802	267.75
412.025	255.75
412.249	259.75
412.472	261.75
412.695	271.75
412.919	262.75
413.142	259.75
413.365	262.75
413.589	261.75
413.812	257.75
414.035	243.75
414.258	257.75
414.482	263.75
414.705	253.75
414.928	251.75
415.151	256.75
415.374	244.75
415.597	241.75
415.821	255.75
416.044	260.75
416.267	232.75
416.49	247.75
416.713	237.75
416.936	255.75
417.159	240.75
417.382	236.75
417.605	251.75
417.828	239.75
418.051	261.75
418.274	263.75
418.497	263.75
418.72	252.75
418.943	249.75
419.166	278.75
419.389	299.75
419.611	267.75
419.834	281.75
420.057	267.75
420.28	248.75
420.503	241.75
420.726	252.75
420.948	267.75
421.171	247.75
421.394	254.75
421.617	241.75
421.839	259.75
422.062	236.75
422.285	257.75
422.507	271.75
422.73	266.75
422.953	265.75
423.175	256.75
423.398	263.75
423.621	266.75
423.843	263.75
424.066	276.75
424.288	279.75
424.511	281.75
424.733	265.75
424.956	258.75
425.178	263.75
425.401	262.75
425.623	270.75
425.846	264.75
426.068	250.75
426.291	240.75
426.513	221.75
426.735	224.75
426.958	234.75
427.18	234.75
427.402	230.75
427.625	244.75
427.847	224.75
428.069	237.75
428.292	228.75
428.514	226.75
428.736	235.75
428.958	241.75
429.181	237.75
429.403	228.75
429.625	228.75
429.847	228.75
430.069	233.75
430.292	220.75
430.514	224.75
430.736	212.75
430.958	230.75
431.18	216.75
431.402	231.75
431.624	237.75
431.846	235.75
432.068	233.75
432.29	225.75
432.512	230.75
432.734	240.75
432.956	232.75
433.178	238.75
433.4	221.75
433.622	235.75
433.844	224.75
434.066	246.75
434.287	240.75
434.509	234.75
434.731	244.75
434.953	248.75
435.175	263.75
435.397	258.75
435.618	247.75
435.84	246.75
436.062	219.75
436.284	224.75
436.505	225.75
436.727	234.75
436.949	233.75
437.17	233.75
437.392	234.75
437.614	233.75
437.835	223.75
438.057	230.75
438.278	221.75
438.5	212.75
438.721	220.75
438.943	225.75
439.165	223.75
439.386	235.75
439.608	244.75
439.829	227.75
440.05	232.75
440.272	218.75
440.493	228.75
440.715	223.75
440.936	239.75
441.158	244.75
441.379	253.75
441.6	260.75
441.822	248.75
442.043	267.75
442.264	236.75
442.486	239.75
442.707	250.75
442.928	239.75
443.149	259.75
443.371	274.75
443.592	257.75
443.813	268.75
444.034	270.75
444.255	284.75
444.476	271.75
444.698	290.75
444.919	302.75
445.14	361.75
445.361	313.75
445.582	265.75
445.803	251.75
446.024	244.75
446.245	263.75
446.466	246.75
446.687	229.75
446.908	247.75
447.129	228.75
447.35	237.75
447.571	225.75
447.792	208.75
448.013	222.75
448.234	218.75
448.455	193.75
448.675	221.75
448.896	219.75
449.117	222.75
449.338	228.75
449.559	237.75
449.779	197.75
450	215.75
450.221	213.75
450.442	224.75
450.662	214.75
450.883	232.75
451.104	220.75
451.324	247.75
451.545	224.75
451.766	234.75
451.986	234.75
452.207	214.75
452.428	225.75
452.648	228.75
452.869	216.75
453.089	211.75
453.31	205.75
453.53	214.75
453.751	217.75
453.971	222.75
454.192	216.75
454.412	192.75
454.633	205.75
454.853	206.75
455.073	193.75
455.294	209.75
455.514	208.75
455.734	206.75
455.955	220.75
456.175	209.75
456.395	212.75
456.616	204.75
456.836	211.75
457.056	203.75
457.276	198.75
457.497	212.75
457.717	199.75
457.937	203.75
458.157	207.75
458.377	196.75
458.598	234.75
458.818	241.75
459.038	219.75
459.258	247.75
459.478	243.75
459.698	225.75
459.918	247.75
460.138	250.75
460.358	267.75
460.578	267.75
460.798	251.75
461.018	279.75
461.238	271.75
461.458	265.75
461.678	261.75
461.898	269.75
462.118	283.75
462.338	269.75
462.558	288.75
462.777	288.75
462.997	305.75
463.217	368.75
463.437	349.75
463.657	320.75
463.876	315.75
464.096	317.75
464.316	299.75
464.536	311.75
464.755	299.75
464.975	287.75
465.195	282.75
465.414	278.75
465.634	249.75
465.854	251.75
466.073	248.75
466.293	245.75
466.512	231.75
466.732	237.75
466.951	224.75
467.171	230.75
467.391	219.75
467.61	217.75
467.829	220.75
468.049	232.75
468.268	228.75
468.488	228.75
468.707	220.75
468.927	229.75
469.146	215.75
469.365	234.75
469.585	215.75
469.804	222.75
470.023	254.75
470.243	245.75
470.462	232.75
470.681	247.75
470.901	248.75
471.12	255.75
471.339	236.75
471.558	227.75
471.777	227.75
471.997	230.75
472.216	217.75
472.435	222.75
472.654	223.75
472.873	217.75
473.092	226.75
473.311	221.75
473.53	209.75
473.749	224.75
473.968	208.75
474.187	207.75
474.406	225.75
474.625	217.75
474.844	206.75
475.063	217.75
475.282	230.75
475.501	229.75
475.72	232.75
475.939	230.75
476.158	241.75
476.377	239.75
476.596	226.75
476.814	232.75
477.033	221.75
477.252	236.75
477.471	222.75
477.69	235.75
477.908	231.75
478.127	252.75
478.346	264.75
478.564	259.75
478.783	242.75
479.002	262.75
479.22	263.75
479.439	256.75
479.658	263.75
479.876	248.75
480.095	262.75
480.313	272.75
480.532	296.75
480.751	287.75
480.969	259.75
481.188	257.75
481.406	246.75
481.624	250.75
481.843	247.75
482.061	244.75
482.28	244.75
482.498	234.75
482.717	238.75
482.935	253.75
483.153	237.75
483.372	237.75
483.59	253.75
483.808	249.75
484.027	235.75
484.245	260.75
484.463	262.75
484.681	266.75
484.9	256.75
485.118	275.75
485.336	253.75
485.554	235.75
485.772	266.75
485.99	270.75
486.209	265.75
486.427	262.75
486.645	266.75
486.863	256.75
487.081	234.75
487.299	243.75
487.517	270.75
487.735	256.75
487.953	258.75
488.171	254.75
488.389	263.75
488.607	259.75
488.825	269.75
489.043	244.75
489.261	254.75
489.479	254.75
489.696	243.75
489.914	261.75
490.132	271.75
490.35	255.75
490.568	255.75
490.786	261.75
491.003	256.75
491.221	255.75
491.439	247.75
491.657	249.75
491.874	268.75
492.092	268.75
492.31	251.75
492.527	277.75
492.745	264.75
492.963	268.75
493.18	267.75
493.398	258.75
493.615	265.75
493.833	264.75
494.05	261.75
494.268	265.75
494.485	268.75
494.703	237.75
494.92	253.75
495.138	262.75
495.355	271.75
495.573	269.75
495.79	277.75
496.008	277.75
496.225	266.75
496.442	277.75
496.66	288.75
496.877	266.75
497.094	280.75
497.312	284.75
497.529	279.75
497.746	311.75
497.963	298.75
498.181	300.75
498.398	321.75
498.615	329.75
498.832	375.75
499.049	391.75
499.267	420.75
499.484	425.75
499.701	480.75
499.918	523.75
500.135	581.75
500.352	690.75
500.569	723.75
500.786	691.75
501.003	644.75
501.22	589.75
501.437	526.75
501.654	472.75
501.871	427.75
502.088	393.75
502.305	381.75
502.522	362.75
502.739	334.75
502.956	323.75
503.172	313.75
