Data from 0.5MCu(NO3)2.Standard.Lamp.E10.CV._HRD10591_16-04-09-753.txt Node
Date: Mon Jul 22 16:04:09 EDT 2019
User: cochatt
Spectrometer: HR+D1059
Trigger mode: 1
Integration Time (sec): 1.000000E-1
Scans to average: 1
Electric dark correction enabled: true
Nonlinearity correction enabled: false
Boxcar width: 0
XAxis mode: Wavelengths
Number of Pixels in Spectrum: 2048
>>>>>Begin Spectral Data<<<<<
223.165	-11.25
223.4	-11.25
223.635	-11.25
223.869	-16.25
224.104	-13.25
224.338	-10.25
224.573	-13.25
224.808	-19.25
225.042	-12.25
225.277	-13.25
225.511	-11.25
225.746	6.75
225.98	21.75
226.215	15.75
226.449	12.75
226.683	12.75
226.918	24.75
227.152	25.75
227.387	35.75
227.621	43.75
227.856	49.75
228.09	38.75
228.324	50.75
228.559	31.75
228.793	50.75
229.027	65.75
229.262	67.75
229.496	85.75
229.73	89.75
229.964	81.75
230.199	80.75
230.433	83.75
230.667	90.75
230.901	83.75
231.136	91.75
231.37	95.75
231.604	100.75
231.838	117.75
232.072	80.75
232.306	94.75
232.541	91.75
232.775	87.75
233.009	104.75
233.243	103.75
233.477	96.75
233.711	95.75
233.945	101.75
234.179	89.75
234.413	103.75
234.647	95.75
234.881	90.75
235.115	97.75
235.349	88.75
235.583	84.75
235.817	98.75
236.051	103.75
236.285	104.75
236.519	90.75
236.753	85.75
236.987	80.75
237.221	100.75
237.455	79.75
237.689	96.75
237.922	106.75
238.156	88.75
238.39	84.75
238.624	95.75
238.858	92.75
239.091	87.75
239.325	91.75
239.559	92.75
239.793	103.75
240.027	104.75
240.26	97.75
240.494	98.75
240.728	84.75
240.961	105.75
241.195	95.75
241.429	94.75
241.662	103.75
241.896	91.75
242.13	89.75
242.363	95.75
242.597	88.75
242.83	91.75
243.064	105.75
243.298	98.75
243.531	107.75
243.765	104.75
243.998	114.75
244.232	96.75
244.465	102.75
244.699	105.75
244.932	106.75
245.166	108.75
245.399	112.75
245.633	98.75
245.866	110.75
246.099	102.75
246.333	110.75
246.566	104.75
246.8	100.75
247.033	111.75
247.266	100.75
247.5	99.75
247.733	98.75
247.966	112.75
248.2	126.75
248.433	120.75
248.666	106.75
248.899	112.75
249.133	101.75
249.366	100.75
249.599	104.75
249.832	111.75
250.066	117.75
250.299	116.75
250.532	107.75
250.765	130.75
250.998	123.75
251.231	130.75
251.465	116.75
251.698	117.75
251.931	119.75
252.164	108.75
252.397	114.75
252.63	114.75
252.863	122.75
253.096	122.75
253.329	119.75
253.562	123.75
253.795	118.75
254.028	115.75
254.261	116.75
254.494	131.75
254.727	120.75
254.96	114.75
255.193	115.75
255.426	117.75
255.659	110.75
255.892	118.75
256.124	105.75
256.357	128.75
256.59	123.75
256.823	113.75
257.056	127.75
257.289	126.75
257.521	117.75
257.754	118.75
257.987	118.75
258.22	135.75
258.452	132.75
258.685	129.75
258.918	111.75
259.151	124.75
259.383	126.75
259.616	130.75
259.849	126.75
260.081	129.75
260.314	119.75
260.547	126.75
260.779	126.75
261.012	143.75
261.244	136.75
261.477	137.75
261.71	139.75
261.942	121.75
262.175	125.75
262.407	138.75
262.64	154.75
262.872	127.75
263.105	138.75
263.337	134.75
263.57	146.75
263.802	145.75
264.035	143.75
264.267	155.75
264.499	141.75
264.732	143.75
264.964	145.75
265.197	131.75
265.429	134.75
265.661	138.75
265.894	140.75
266.126	133.75
266.358	139.75
266.591	137.75
266.823	141.75
267.055	136.75
267.287	150.75
267.52	134.75
267.752	148.75
267.984	126.75
268.216	146.75
268.448	141.75
268.681	149.75
268.913	145.75
269.145	141.75
269.377	143.75
269.609	150.75
269.841	153.75
270.073	160.75
270.306	133.75
270.538	146.75
270.77	144.75
271.002	145.75
271.234	140.75
271.466	142.75
271.698	146.75
271.93	165.75
272.162	154.75
272.394	152.75
272.626	146.75
272.858	155.75
273.09	141.75
273.322	161.75
273.553	160.75
273.785	150.75
274.017	152.75
274.249	159.75
274.481	135.75
274.713	149.75
274.945	153.75
275.176	173.75
275.408	177.75
275.64	159.75
275.872	162.75
276.104	175.75
276.335	147.75
276.567	156.75
276.799	166.75
277.031	156.75
277.262	162.75
277.494	163.75
277.726	176.75
277.957	160.75
278.189	161.75
278.421	163.75
278.652	153.75
278.884	168.75
279.115	155.75
279.347	170.75
279.579	185.75
279.81	158.75
280.042	160.75
280.273	180.75
280.505	170.75
280.736	170.75
280.968	167.75
281.199	161.75
281.431	177.75
281.662	168.75
281.894	180.75
282.125	162.75
282.356	186.75
282.588	165.75
282.819	158.75
283.051	171.75
283.282	169.75
283.513	166.75
283.745	175.75
283.976	176.75
284.207	168.75
284.439	182.75
284.67	161.75
284.901	188.75
285.132	188.75
285.364	191.75
285.595	175.75
285.826	188.75
286.057	162.75
286.288	177.75
286.52	184.75
286.751	185.75
286.982	208.75
287.213	177.75
287.444	190.75
287.675	196.75
287.906	188.75
288.138	194.75
288.369	209.75
288.6	196.75
288.831	183.75
289.062	194.75
289.293	201.75
289.524	182.75
289.755	182.75
289.986	180.75
290.217	178.75
290.448	180.75
290.679	185.75
290.91	198.75
291.141	177.75
291.371	204.75
291.602	191.75
291.833	195.75
292.064	194.75
292.295	198.75
292.526	201.75
292.757	203.75
292.987	198.75
293.218	192.75
293.449	182.75
293.68	183.75
293.91	193.75
294.141	188.75
294.372	204.75
294.603	206.75
294.833	190.75
295.064	196.75
295.295	208.75
295.525	191.75
295.756	207.75
295.987	210.75
296.217	197.75
296.448	211.75
296.679	195.75
296.909	193.75
297.14	215.75
297.37	207.75
297.601	204.75
297.831	213.75
298.062	211.75
298.292	227.75
298.523	192.75
298.753	211.75
298.984	199.75
299.214	211.75
299.445	208.75
299.675	191.75
299.905	218.75
300.136	220.75
300.366	210.75
300.597	212.75
300.827	215.75
301.057	222.75
301.288	229.75
301.518	218.75
301.748	217.75
301.979	229.75
302.209	223.75
302.439	217.75
302.669	199.75
302.9	222.75
303.13	212.75
303.36	214.75
303.59	204.75
303.82	212.75
304.051	225.75
304.281	212.75
304.511	208.75
304.741	216.75
304.971	223.75
305.201	221.75
305.431	215.75
305.661	210.75
305.891	217.75
306.121	223.75
306.352	204.75
306.582	214.75
306.812	200.75
307.042	211.75
307.272	204.75
307.502	217.75
307.731	210.75
307.961	204.75
308.191	224.75
308.421	219.75
308.651	210.75
308.881	217.75
309.111	210.75
309.341	193.75
309.571	219.75
309.8	222.75
310.03	208.75
310.26	198.75
310.49	228.75
310.72	205.75
310.949	197.75
311.179	203.75
311.409	221.75
311.639	226.75
311.868	226.75
312.098	213.75
312.328	212.75
312.557	218.75
312.787	227.75
313.017	219.75
313.246	219.75
313.476	212.75
313.706	217.75
313.935	223.75
314.165	234.75
314.394	222.75
314.624	229.75
314.853	234.75
315.083	229.75
315.312	234.75
315.542	218.75
315.771	232.75
316.001	227.75
316.23	230.75
316.46	207.75
316.689	217.75
316.919	206.75
317.148	212.75
317.377	219.75
317.607	231.75
317.836	225.75
318.065	228.75
318.295	219.75
318.524	219.75
318.753	228.75
318.983	231.75
319.212	209.75
319.441	229.75
319.67	217.75
319.9	229.75
320.129	228.75
320.358	230.75
320.587	218.75
320.816	227.75
321.046	203.75
321.275	223.75
321.504	219.75
321.733	216.75
321.962	223.75
322.191	227.75
322.42	218.75
322.649	236.75
322.878	223.75
323.108	209.75
323.337	220.75
323.566	227.75
323.795	232.75
324.024	220.75
324.253	220.75
324.482	216.75
324.71	231.75
324.939	230.75
325.168	235.75
325.397	224.75
325.626	238.75
325.855	234.75
326.084	241.75
326.313	242.75
326.542	263.75
326.77	250.75
326.999	240.75
327.228	240.75
327.457	231.75
327.686	252.75
327.914	232.75
328.143	231.75
328.372	243.75
328.6	263.75
328.829	235.75
329.058	240.75
329.287	234.75
329.515	242.75
329.744	233.75
329.972	233.75
330.201	253.75
330.43	240.75
330.658	258.75
330.887	258.75
331.115	244.75
331.344	249.75
331.572	250.75
331.801	244.75
332.03	267.75
332.258	254.75
332.486	250.75
332.715	289.75
332.943	291.75
333.172	305.75
333.4	325.75
333.629	293.75
333.857	314.75
334.085	305.75
334.314	291.75
334.542	305.75
334.771	278.75
334.999	306.75
335.227	292.75
335.455	292.75
335.684	282.75
335.912	266.75
336.14	280.75
336.369	268.75
336.597	281.75
336.825	278.75
337.053	281.75
337.281	267.75
337.51	269.75
337.738	260.75
337.966	256.75
338.194	256.75
338.422	259.75
338.65	267.75
338.878	258.75
339.106	261.75
339.334	269.75
339.562	249.75
339.79	242.75
340.018	240.75
340.246	249.75
340.474	237.75
340.702	248.75
340.93	255.75
341.158	234.75
341.386	262.75
341.614	268.75
341.842	247.75
342.07	247.75
342.298	238.75
342.526	248.75
342.754	219.75
342.981	250.75
343.209	254.75
343.437	263.75
343.665	271.75
343.893	292.75
344.12	300.75
344.348	274.75
344.576	269.75
344.804	271.75
345.031	254.75
345.259	251.75
345.487	240.75
345.714	242.75
345.942	258.75
346.17	256.75
346.397	255.75
346.625	235.75
346.853	253.75
347.08	264.75
347.308	244.75
347.535	231.75
347.763	258.75
347.99	238.75
348.218	254.75
348.445	233.75
348.673	248.75
348.9	239.75
349.128	241.75
349.355	241.75
349.583	222.75
349.81	232.75
350.037	227.75
350.265	241.75
350.492	233.75
350.72	233.75
350.947	243.75
351.174	247.75
351.402	242.75
351.629	241.75
351.856	243.75
352.083	232.75
352.311	220.75
352.538	235.75
352.765	242.75
352.992	242.75
353.22	233.75
353.447	226.75
353.674	228.75
353.901	228.75
354.128	231.75
354.355	230.75
354.583	225.75
354.81	238.75
355.037	243.75
355.264	227.75
355.491	233.75
355.718	230.75
355.945	230.75
356.172	223.75
356.399	221.75
356.626	226.75
356.853	257.75
357.08	226.75
357.307	227.75
357.534	230.75
357.761	233.75
357.988	226.75
358.215	240.75
358.441	231.75
358.668	230.75
358.895	240.75
359.122	237.75
359.349	217.75
359.576	241.75
359.802	222.75
360.029	233.75
360.256	249.75
360.483	238.75
360.709	230.75
360.936	243.75
361.163	244.75
361.39	243.75
361.616	256.75
361.843	227.75
362.07	223.75
362.296	202.75
362.523	234.75
362.749	245.75
362.976	238.75
363.203	226.75
363.429	231.75
363.656	228.75
363.882	224.75
364.109	235.75
364.335	252.75
364.562	224.75
364.788	228.75
365.015	229.75
365.241	244.75
365.468	230.75
365.694	232.75
365.92	224.75
366.147	225.75
366.373	231.75
366.599	242.75
366.826	230.75
367.052	231.75
367.278	217.75
367.505	232.75
367.731	229.75
367.957	240.75
368.184	246.75
368.41	238.75
368.636	219.75
368.862	222.75
369.089	236.75
369.315	250.75
369.541	227.75
369.767	255.75
369.993	238.75
370.219	233.75
370.445	216.75
370.672	261.75
370.898	252.75
371.124	233.75
371.35	239.75
371.576	240.75
371.802	239.75
372.028	246.75
372.254	261.75
372.48	251.75
372.706	254.75
372.932	259.75
373.158	243.75
373.384	249.75
373.61	243.75
373.835	250.75
374.061	243.75
374.287	254.75
374.513	244.75
374.739	257.75
374.965	261.75
375.191	264.75
375.416	275.75
375.642	264.75
375.868	276.75
376.094	246.75
376.319	240.75
376.545	259.75
376.771	254.75
376.997	234.75
377.222	226.75
377.448	242.75
377.674	247.75
377.899	258.75
378.125	249.75
378.35	237.75
378.576	248.75
378.802	259.75
379.027	240.75
379.253	240.75
379.478	241.75
379.704	240.75
379.929	245.75
380.155	213.75
380.38	227.75
380.606	242.75
380.831	241.75
381.057	236.75
381.282	247.75
381.507	241.75
381.733	258.75
381.958	238.75
382.184	227.75
382.409	254.75
382.634	238.75
382.86	263.75
383.085	262.75
383.31	259.75
383.535	268.75
383.761	270.75
383.986	263.75
384.211	287.75
384.436	277.75
384.662	284.75
384.887	292.75
385.112	280.75
385.337	292.75
385.562	286.75
385.787	283.75
386.013	291.75
386.238	284.75
386.463	278.75
386.688	281.75
386.913	258.75
387.138	279.75
387.363	275.75
387.588	287.75
387.813	252.75
388.038	268.75
388.263	265.75
388.488	279.75
388.713	273.75
388.938	270.75
389.163	278.75
389.387	286.75
389.612	271.75
389.837	274.75
390.062	256.75
390.287	275.75
390.512	281.75
390.736	268.75
390.961	282.75
391.186	278.75
391.411	291.75
391.636	284.75
391.86	297.75
392.085	314.75
392.31	292.75
392.534	300.75
392.759	293.75
392.984	294.75
393.208	284.75
393.433	277.75
393.658	295.75
393.882	296.75
394.107	306.75
394.331	324.75
394.556	301.75
394.78	305.75
395.005	292.75
395.229	308.75
395.454	290.75
395.678	304.75
395.903	313.75
396.127	318.75
396.352	308.75
396.576	293.75
396.801	266.75
397.025	294.75
397.249	309.75
397.474	292.75
397.698	291.75
397.922	310.75
398.147	291.75
398.371	309.75
398.595	323.75
398.82	345.75
399.044	333.75
399.268	387.75
399.492	424.75
399.717	528.75
399.941	496.75
400.165	435.75
400.389	382.75
400.613	351.75
400.837	340.75
401.062	347.75
401.286	332.75
401.51	332.75
401.734	324.75
401.958	312.75
402.182	336.75
402.406	344.75
402.63	331.75
402.854	349.75
403.078	366.75
403.302	375.75
403.526	376.75
403.75	386.75
403.974	393.75
404.198	381.75
404.422	378.75
404.645	398.75
404.869	390.75
405.093	371.75
405.317	355.75
405.541	368.75
405.765	360.75
405.988	351.75
406.212	347.75
406.436	375.75
406.66	378.75
406.883	380.75
407.107	403.75
407.331	419.75
407.555	448.75
407.778	408.75
408.002	415.75
408.226	396.75
408.449	390.75
408.673	368.75
408.896	370.75
409.12	373.75
409.344	378.75
409.567	358.75
409.791	375.75
410.014	375.75
410.238	370.75
410.461	392.75
410.685	361.75
410.908	358.75
411.132	346.75
411.355	355.75
411.578	325.75
411.802	346.75
412.025	329.75
412.249	348.75
412.472	347.75
412.695	344.75
412.919	329.75
413.142	327.75
413.365	332.75
413.589	318.75
413.812	331.75
414.035	334.75
414.258	318.75
414.482	319.75
414.705	343.75
414.928	331.75
415.151	323.75
415.374	313.75
415.597	338.75
415.821	325.75
416.044	320.75
416.267	312.75
416.49	319.75
416.713	331.75
416.936	339.75
417.159	352.75
417.382	315.75
417.605	327.75
417.828	336.75
418.051	353.75
418.274	316.75
418.497	310.75
418.72	331.75
418.943	356.75
419.166	343.75
419.389	366.75
419.611	373.75
419.834	357.75
420.057	354.75
420.28	336.75
420.503	329.75
420.726	332.75
420.948	310.75
421.171	314.75
421.394	321.75
421.617	331.75
421.839	331.75
422.062	333.75
422.285	315.75
422.507	330.75
422.73	341.75
422.953	338.75
423.175	354.75
423.398	339.75
423.621	324.75
423.843	366.75
424.066	374.75
424.288	348.75
424.511	344.75
424.733	335.75
424.956	327.75
425.178	356.75
425.401	355.75
425.623	332.75
425.846	312.75
426.068	315.75
426.291	306.75
426.513	312.75
426.735	320.75
426.958	310.75
427.18	280.75
427.402	304.75
427.625	299.75
427.847	287.75
428.069	305.75
428.292	302.75
428.514	281.75
428.736	283.75
428.958	309.75
429.181	302.75
429.403	312.75
429.625	302.75
429.847	294.75
430.069	280.75
430.292	294.75
430.514	280.75
430.736	283.75
430.958	274.75
431.18	291.75
431.402	286.75
431.624	294.75
431.846	289.75
432.068	319.75
432.29	298.75
432.512	325.75
432.734	292.75
432.956	310.75
433.178	293.75
433.4	299.75
433.622	296.75
433.844	308.75
434.066	313.75
434.287	317.75
434.509	325.75
434.731	329.75
434.953	333.75
435.175	339.75
435.397	327.75
435.618	302.75
435.84	306.75
436.062	291.75
436.284	292.75
436.505	298.75
436.727	300.75
436.949	287.75
437.17	293.75
437.392	276.75
437.614	268.75
437.835	287.75
438.057	281.75
438.278	296.75
438.5	276.75
438.721	286.75
438.943	296.75
439.165	278.75
439.386	305.75
439.608	295.75
439.829	282.75
440.05	294.75
440.272	293.75
440.493	303.75
440.715	304.75
440.936	307.75
441.158	322.75
441.379	307.75
441.6	329.75
441.822	326.75
442.043	326.75
442.264	350.75
442.486	320.75
442.707	332.75
442.928	330.75
443.149	328.75
443.371	309.75
443.592	326.75
443.813	345.75
444.034	330.75
444.255	354.75
444.476	357.75
444.698	377.75
444.919	410.75
445.14	511.75
445.361	420.75
445.582	354.75
445.803	310.75
446.024	307.75
446.245	318.75
446.466	306.75
446.687	287.75
446.908	304.75
447.129	291.75
447.35	300.75
447.571	293.75
447.792	274.75
448.013	293.75
448.234	271.75
448.455	264.75
448.675	286.75
448.896	273.75
449.117	277.75
449.338	282.75
449.559	290.75
449.779	272.75
450	270.75
450.221	282.75
450.442	276.75
450.662	268.75
450.883	270.75
451.104	276.75
451.324	278.75
451.545	278.75
451.766	274.75
451.986	275.75
452.207	293.75
452.428	286.75
452.648	289.75
452.869	283.75
453.089	280.75
453.31	289.75
453.53	260.75
453.751	282.75
453.971	267.75
454.192	255.75
454.412	267.75
454.633	271.75
454.853	280.75
455.073	274.75
455.294	253.75
455.514	258.75
455.734	256.75
455.955	270.75
456.175	257.75
456.395	258.75
456.616	247.75
456.836	261.75
457.056	247.75
457.276	255.75
457.497	258.75
457.717	247.75
457.937	269.75
458.157	270.75
458.377	274.75
458.598	269.75
458.818	276.75
459.038	272.75
459.258	288.75
459.478	306.75
459.698	309.75
459.918	320.75
460.138	329.75
460.358	345.75
460.578	337.75
460.798	353.75
461.018	337.75
461.238	341.75
461.458	354.75
461.678	345.75
461.898	361.75
462.118	346.75
462.338	353.75
462.558	369.75
462.777	390.75
462.997	428.75
463.217	476.75
463.437	481.75
463.657	422.75
463.876	394.75
464.096	393.75
464.316	396.75
464.536	418.75
464.755	394.75
464.975	366.75
465.195	354.75
465.414	355.75
465.634	312.75
465.854	316.75
466.073	314.75
466.293	308.75
466.512	299.75
466.732	294.75
466.951	291.75
467.171	305.75
467.391	276.75
467.61	295.75
467.829	293.75
468.049	291.75
468.268	273.75
468.488	267.75
468.707	279.75
468.927	279.75
469.146	272.75
469.365	278.75
469.585	299.75
469.804	282.75
470.023	315.75
470.243	299.75
470.462	321.75
470.681	294.75
470.901	312.75
471.12	299.75
471.339	305.75
471.558	304.75
471.777	303.75
471.997	288.75
472.216	268.75
472.435	276.75
472.654	258.75
472.873	272.75
473.092	268.75
473.311	270.75
473.53	251.75
473.749	281.75
473.968	266.75
474.187	268.75
474.406	276.75
474.625	271.75
474.844	284.75
475.063	289.75
475.282	284.75
475.501	276.75
475.72	284.75
475.939	284.75
476.158	283.75
476.377	269.75
476.596	282.75
476.814	283.75
477.033	295.75
477.252	290.75
477.471	302.75
477.69	298.75
477.908	315.75
478.127	315.75
478.346	331.75
478.564	320.75
478.783	326.75
479.002	345.75
479.22	337.75
479.439	336.75
479.658	335.75
479.876	327.75
480.095	338.75
480.313	353.75
480.532	376.75
480.751	366.75
480.969	346.75
481.188	322.75
481.406	327.75
481.624	318.75
481.843	310.75
482.061	314.75
482.28	330.75
482.498	308.75
482.717	297.75
482.935	332.75
483.153	316.75
483.372	306.75
483.59	322.75
483.808	317.75
484.027	335.75
484.245	318.75
484.463	343.75
484.681	335.75
484.9	335.75
485.118	336.75
485.336	314.75
485.554	336.75
485.772	330.75
485.99	348.75
486.209	355.75
486.427	327.75
486.645	343.75
486.863	345.75
487.081	337.75
487.299	358.75
487.517	345.75
487.735	346.75
487.953	341.75
488.171	331.75
488.389	331.75
488.607	329.75
488.825	319.75
489.043	317.75
489.261	319.75
489.479	323.75
489.696	320.75
489.914	316.75
490.132	340.75
490.35	346.75
490.568	335.75
490.786	340.75
491.003	350.75
491.221	321.75
491.439	325.75
491.657	329.75
491.874	342.75
492.092	306.75
492.31	321.75
492.527	333.75
492.745	339.75
492.963	328.75
493.18	340.75
493.398	327.75
493.615	355.75
493.833	342.75
494.05	339.75
494.268	342.75
494.485	346.75
494.703	381.75
494.92	346.75
495.138	349.75
495.355	337.75
495.573	372.75
495.79	360.75
496.008	366.75
496.225	338.75
496.442	352.75
496.66	373.75
496.877	339.75
497.094	357.75
497.312	379.75
497.529	383.75
497.746	378.75
497.963	384.75
498.181	408.75
498.398	424.75
498.615	448.75
498.832	468.75
499.049	515.75
499.267	542.75
499.484	605.75
499.701	647.75
499.918	732.75
500.135	856.75
500.352	991.75
500.569	1020.75
500.786	977.75
501.003	946.75
501.22	837.75
501.437	722.75
501.654	625.75
501.871	565.75
502.088	546.75
502.305	509.75
502.522	481.75
502.739	462.75
