Data from 0.5MCu(NO3)2.Standard.Lamp.E10.CV._HRD10591_16-03-43-753.txt Node
Date: Mon Jul 22 16:03:43 EDT 2019
User: cochatt
Spectrometer: HR+D1059
Trigger mode: 1
Integration Time (sec): 1.000000E-1
Scans to average: 1
Electric dark correction enabled: true
Nonlinearity correction enabled: false
Boxcar width: 0
XAxis mode: Wavelengths
Number of Pixels in Spectrum: 2048
>>>>>Begin Spectral Data<<<<<
223.165	-10.94
223.4	-10.94
223.635	-10.94
223.869	-8.94
224.104	-22.94
224.338	-14.94
224.573	-3.94
224.808	-9.94
225.042	4.06
225.277	-5.94
225.511	-24.94
225.746	6.06
225.98	4.06
226.215	7.06
226.449	11.06
226.683	16.06
226.918	21.06
227.152	33.06
227.387	40.06
227.621	38.06
227.856	38.06
228.09	45.06
228.324	65.06
228.559	62.06
228.793	72.06
229.027	67.06
229.262	73.06
229.496	69.06
229.73	74.06
229.964	83.06
230.199	90.06
230.433	80.06
230.667	108.06
230.901	84.06
231.136	84.06
231.37	95.06
231.604	79.06
231.838	94.06
232.072	95.06
232.306	90.06
232.541	94.06
232.775	102.06
233.009	100.06
233.243	88.06
233.477	104.06
233.711	100.06
233.945	90.06
234.179	91.06
234.413	103.06
234.647	92.06
234.881	99.06
235.115	102.06
235.349	85.06
235.583	103.06
235.817	87.06
236.051	106.06
236.285	98.06
236.519	86.06
236.753	88.06
236.987	87.06
237.221	86.06
237.455	77.06
237.689	100.06
237.922	103.06
238.156	86.06
238.39	102.06
238.624	92.06
238.858	92.06
239.091	88.06
239.325	91.06
239.559	92.06
239.793	98.06
240.027	88.06
240.26	102.06
240.494	88.06
240.728	95.06
240.961	84.06
241.195	84.06
241.429	88.06
241.662	99.06
241.896	89.06
242.13	83.06
242.363	101.06
242.597	97.06
242.83	118.06
243.064	122.06
243.298	95.06
243.531	106.06
243.765	100.06
243.998	90.06
244.232	120.06
244.465	102.06
244.699	94.06
244.932	98.06
245.166	107.06
245.399	120.06
245.633	95.06
245.866	102.06
246.099	100.06
246.333	108.06
246.566	97.06
246.8	108.06
247.033	100.06
247.266	118.06
247.5	106.06
247.733	118.06
247.966	109.06
248.2	109.06
248.433	106.06
248.666	106.06
248.899	111.06
249.133	116.06
249.366	103.06
249.599	115.06
249.832	112.06
250.066	114.06
250.299	115.06
250.532	117.06
250.765	120.06
250.998	125.06
251.231	120.06
251.465	123.06
251.698	114.06
251.931	111.06
252.164	119.06
252.397	111.06
252.63	124.06
252.863	128.06
253.096	115.06
253.329	120.06
253.562	123.06
253.795	117.06
254.028	106.06
254.261	124.06
254.494	128.06
254.727	107.06
254.96	120.06
255.193	119.06
255.426	98.06
255.659	128.06
255.892	130.06
256.124	120.06
256.357	124.06
256.59	110.06
256.823	118.06
257.056	132.06
257.289	122.06
257.521	132.06
257.754	114.06
257.987	109.06
258.22	121.06
258.452	124.06
258.685	119.06
258.918	121.06
259.151	127.06
259.383	130.06
259.616	130.06
259.849	134.06
260.081	129.06
260.314	130.06
260.547	117.06
260.779	125.06
261.012	143.06
261.244	138.06
261.477	125.06
261.71	129.06
261.942	125.06
262.175	141.06
262.407	125.06
262.64	133.06
262.872	142.06
263.105	145.06
263.337	128.06
263.57	134.06
263.802	132.06
264.035	128.06
264.267	136.06
264.499	141.06
264.732	136.06
264.964	149.06
265.197	150.06
265.429	127.06
265.661	142.06
265.894	153.06
266.126	134.06
266.358	140.06
266.591	141.06
266.823	136.06
267.055	147.06
267.287	140.06
267.52	135.06
267.752	142.06
267.984	131.06
268.216	132.06
268.448	150.06
268.681	120.06
268.913	145.06
269.145	125.06
269.377	142.06
269.609	138.06
269.841	137.06
270.073	150.06
270.306	148.06
270.538	153.06
270.77	138.06
271.002	140.06
271.234	142.06
271.466	157.06
271.698	160.06
271.93	152.06
272.162	156.06
272.394	143.06
272.626	152.06
272.858	150.06
273.09	137.06
273.322	138.06
273.553	138.06
273.785	137.06
274.017	149.06
274.249	152.06
274.481	148.06
274.713	142.06
274.945	141.06
275.176	150.06
275.408	149.06
275.64	146.06
275.872	148.06
276.104	156.06
276.335	174.06
276.567	159.06
276.799	141.06
277.031	167.06
277.262	155.06
277.494	153.06
277.726	148.06
277.957	138.06
278.189	150.06
278.421	142.06
278.652	157.06
278.884	148.06
279.115	162.06
279.347	160.06
279.579	160.06
279.81	162.06
280.042	146.06
280.273	163.06
280.505	152.06
280.736	153.06
280.968	150.06
281.199	152.06
281.431	168.06
281.662	158.06
281.894	161.06
282.125	152.06
282.356	171.06
282.588	160.06
282.819	158.06
283.051	173.06
283.282	166.06
283.513	175.06
283.745	155.06
283.976	156.06
284.207	159.06
284.439	166.06
284.67	158.06
284.901	168.06
285.132	176.06
285.364	186.06
285.595	171.06
285.826	172.06
286.057	164.06
286.288	174.06
286.52	169.06
286.751	168.06
286.982	182.06
287.213	194.06
287.444	168.06
287.675	179.06
287.906	171.06
288.138	185.06
288.369	190.06
288.6	179.06
288.831	175.06
289.062	173.06
289.293	178.06
289.524	183.06
289.755	175.06
289.986	185.06
290.217	180.06
290.448	192.06
290.679	176.06
290.91	184.06
291.141	177.06
291.371	181.06
291.602	186.06
291.833	174.06
292.064	184.06
292.295	176.06
292.526	185.06
292.757	189.06
292.987	188.06
293.218	183.06
293.449	180.06
293.68	193.06
293.91	169.06
294.141	194.06
294.372	181.06
294.603	187.06
294.833	193.06
295.064	186.06
295.295	182.06
295.525	195.06
295.756	190.06
295.987	178.06
296.217	188.06
296.448	174.06
296.679	183.06
296.909	181.06
297.14	202.06
297.37	190.06
297.601	188.06
297.831	219.06
298.062	189.06
298.292	198.06
298.523	203.06
298.753	199.06
298.984	196.06
299.214	218.06
299.445	202.06
299.675	188.06
299.905	194.06
300.136	194.06
300.366	196.06
300.597	192.06
300.827	197.06
301.057	203.06
301.288	204.06
301.518	188.06
301.748	207.06
301.979	205.06
302.209	211.06
302.439	204.06
302.669	203.06
302.9	202.06
303.13	206.06
303.36	194.06
303.59	202.06
303.82	202.06
304.051	195.06
304.281	207.06
304.511	202.06
304.741	212.06
304.971	202.06
305.201	195.06
305.431	205.06
305.661	205.06
305.891	207.06
306.121	201.06
306.352	215.06
306.582	188.06
306.812	196.06
307.042	201.06
307.272	206.06
307.502	192.06
307.731	200.06
307.961	191.06
308.191	187.06
308.421	200.06
308.651	207.06
308.881	206.06
309.111	202.06
309.341	198.06
309.571	196.06
309.8	197.06
310.03	207.06
310.26	212.06
310.49	203.06
310.72	204.06
310.949	191.06
311.179	191.06
311.409	203.06
311.639	203.06
311.868	205.06
312.098	192.06
312.328	210.06
312.557	200.06
312.787	200.06
313.017	188.06
313.246	211.06
313.476	211.06
313.706	202.06
313.935	215.06
314.165	208.06
314.394	220.06
314.624	217.06
314.853	203.06
315.083	199.06
315.312	204.06
315.542	201.06
315.771	221.06
316.001	191.06
316.23	194.06
316.46	208.06
316.689	198.06
316.919	203.06
317.148	208.06
317.377	215.06
317.607	213.06
317.836	207.06
318.065	191.06
318.295	200.06
318.524	194.06
318.753	203.06
318.983	208.06
319.212	192.06
319.441	206.06
319.67	197.06
319.9	211.06
320.129	209.06
320.358	213.06
320.587	206.06
320.816	215.06
321.046	188.06
321.275	225.06
321.504	203.06
321.733	203.06
321.962	199.06
322.191	211.06
322.42	210.06
322.649	214.06
322.878	202.06
323.108	204.06
323.337	193.06
323.566	204.06
323.795	213.06
324.024	235.06
324.253	194.06
324.482	203.06
324.71	202.06
324.939	222.06
325.168	221.06
325.397	221.06
325.626	216.06
325.855	199.06
326.084	214.06
326.313	225.06
326.542	219.06
326.77	223.06
326.999	207.06
327.228	230.06
327.457	234.06
327.686	210.06
327.914	208.06
328.143	217.06
328.372	232.06
328.6	234.06
328.829	212.06
329.058	206.06
329.287	206.06
329.515	216.06
329.744	220.06
329.972	220.06
330.201	214.06
330.43	230.06
330.658	204.06
330.887	217.06
331.115	220.06
331.344	235.06
331.572	247.06
331.801	226.06
332.03	238.06
332.258	242.06
332.486	250.06
332.715	250.06
332.943	255.06
333.172	279.06
333.4	293.06
333.629	284.06
333.857	277.06
334.085	274.06
334.314	282.06
334.542	285.06
334.771	252.06
334.999	271.06
335.227	260.06
335.455	254.06
335.684	235.06
335.912	262.06
336.14	261.06
336.369	247.06
336.597	254.06
336.825	257.06
337.053	271.06
337.281	272.06
337.51	242.06
337.738	245.06
337.966	226.06
338.194	253.06
338.422	230.06
338.65	228.06
338.878	229.06
339.106	232.06
339.334	243.06
339.562	208.06
339.79	221.06
340.018	226.06
340.246	206.06
340.474	208.06
340.702	226.06
340.93	211.06
341.158	222.06
341.386	223.06
341.614	230.06
341.842	214.06
342.07	220.06
342.298	227.06
342.526	222.06
342.754	215.06
342.981	216.06
343.209	213.06
343.437	230.06
343.665	235.06
343.893	278.06
344.12	264.06
344.348	265.06
344.576	244.06
344.804	239.06
345.031	225.06
345.259	226.06
345.487	221.06
345.714	220.06
345.942	219.06
346.17	228.06
346.397	214.06
346.625	210.06
346.853	222.06
347.08	214.06
347.308	231.06
347.535	238.06
347.763	222.06
347.99	236.06
348.218	223.06
348.445	223.06
348.673	220.06
348.9	230.06
349.128	216.06
349.355	198.06
349.583	216.06
349.81	214.06
350.037	199.06
350.265	205.06
350.492	221.06
350.72	224.06
350.947	219.06
351.174	206.06
351.402	210.06
351.629	205.06
351.856	215.06
352.083	205.06
352.311	220.06
352.538	214.06
352.765	206.06
352.992	212.06
353.22	221.06
353.447	207.06
353.674	205.06
353.901	218.06
354.128	208.06
354.355	220.06
354.583	219.06
354.81	219.06
355.037	220.06
355.264	215.06
355.491	208.06
355.718	238.06
355.945	211.06
356.172	197.06
356.399	207.06
356.626	213.06
356.853	194.06
357.08	226.06
357.307	206.06
357.534	215.06
357.761	215.06
357.988	218.06
358.215	200.06
358.441	210.06
358.668	212.06
358.895	208.06
359.122	213.06
359.349	212.06
359.576	229.06
359.802	207.06
360.029	210.06
360.256	211.06
360.483	225.06
360.709	219.06
360.936	204.06
361.163	229.06
361.39	211.06
361.616	203.06
361.843	218.06
362.07	205.06
362.296	207.06
362.523	197.06
362.749	203.06
362.976	222.06
363.203	204.06
363.429	217.06
363.656	203.06
363.882	207.06
364.109	235.06
364.335	217.06
364.562	222.06
364.788	203.06
365.015	184.06
365.241	206.06
365.468	208.06
365.694	210.06
365.92	212.06
366.147	203.06
366.373	208.06
366.599	208.06
366.826	205.06
367.052	203.06
367.278	213.06
367.505	200.06
367.731	204.06
367.957	215.06
368.184	226.06
368.41	199.06
368.636	208.06
368.862	207.06
369.089	192.06
369.315	214.06
369.541	218.06
369.767	216.06
369.993	229.06
370.219	223.06
370.445	219.06
370.672	218.06
370.898	212.06
371.124	212.06
371.35	227.06
371.576	228.06
371.802	217.06
372.028	223.06
372.254	220.06
372.48	219.06
372.706	235.06
372.932	239.06
373.158	228.06
373.384	227.06
373.61	222.06
373.835	226.06
374.061	226.06
374.287	233.06
374.513	227.06
374.739	242.06
374.965	230.06
375.191	242.06
375.416	244.06
375.642	231.06
375.868	234.06
376.094	229.06
376.319	231.06
376.545	215.06
376.771	235.06
376.997	221.06
377.222	219.06
377.448	214.06
377.674	205.06
377.899	223.06
378.125	216.06
378.35	225.06
378.576	215.06
378.802	226.06
379.027	230.06
379.253	213.06
379.478	219.06
379.704	214.06
379.929	212.06
380.155	235.06
380.38	222.06
380.606	214.06
380.831	206.06
381.057	220.06
381.282	218.06
381.507	215.06
381.733	228.06
381.958	219.06
382.184	219.06
382.409	235.06
382.634	221.06
382.86	219.06
383.085	236.06
383.31	238.06
383.535	237.06
383.761	253.06
383.986	233.06
384.211	233.06
384.436	252.06
384.662	252.06
384.887	251.06
385.112	265.06
385.337	253.06
385.562	244.06
385.787	278.06
386.013	257.06
386.238	279.06
386.463	264.06
386.688	237.06
386.913	246.06
387.138	252.06
387.363	260.06
387.588	250.06
387.813	246.06
388.038	244.06
388.263	246.06
388.488	249.06
388.713	244.06
388.938	240.06
389.163	245.06
389.387	226.06
389.612	237.06
389.837	244.06
390.062	252.06
390.287	248.06
390.512	257.06
390.736	248.06
390.961	256.06
391.186	265.06
391.411	266.06
391.636	284.06
391.86	278.06
392.085	294.06
392.31	275.06
392.534	265.06
392.759	280.06
392.984	264.06
393.208	261.06
393.433	282.06
393.658	247.06
393.882	270.06
394.107	266.06
394.331	264.06
394.556	282.06
394.78	276.06
395.005	266.06
395.229	264.06
395.454	274.06
395.678	284.06
395.903	272.06
396.127	260.06
396.352	260.06
396.576	250.06
396.801	256.06
397.025	260.06
397.249	261.06
397.474	286.06
397.698	276.06
397.922	286.06
398.147	260.06
398.371	266.06
398.595	288.06
398.82	293.06
399.044	301.06
399.268	352.06
399.492	376.06
399.717	436.06
399.941	424.06
400.165	399.06
400.389	336.06
400.613	318.06
400.837	295.06
401.062	301.06
401.286	288.06
401.51	278.06
401.734	293.06
401.958	294.06
402.182	293.06
402.406	315.06
402.63	307.06
402.854	311.06
403.078	322.06
403.302	325.06
403.526	342.06
403.75	342.06
403.974	343.06
404.198	347.06
404.422	325.06
404.645	341.06
404.869	345.06
405.093	320.06
405.317	334.06
405.541	334.06
405.765	327.06
405.988	318.06
406.212	325.06
406.436	333.06
406.66	323.06
406.883	315.06
407.107	352.06
407.331	355.06
407.555	376.06
407.778	378.06
408.002	361.06
408.226	347.06
408.449	345.06
408.673	327.06
408.896	326.06
409.12	312.06
409.344	340.06
409.567	354.06
409.791	353.06
410.014	343.06
410.238	331.06
410.461	333.06
410.685	341.06
410.908	324.06
411.132	318.06
411.355	301.06
411.578	319.06
411.802	320.06
412.025	312.06
412.249	320.06
412.472	318.06
412.695	302.06
412.919	298.06
413.142	285.06
413.365	279.06
413.589	292.06
413.812	291.06
414.035	299.06
414.258	294.06
414.482	288.06
414.705	285.06
414.928	285.06
415.151	303.06
415.374	292.06
415.597	280.06
415.821	296.06
416.044	313.06
416.267	294.06
416.49	274.06
416.713	279.06
416.936	308.06
417.159	297.06
417.382	285.06
417.605	266.06
417.828	284.06
418.051	294.06
418.274	308.06
418.497	295.06
418.72	312.06
418.943	313.06
419.166	335.06
419.389	335.06
419.611	341.06
419.834	318.06
420.057	308.06
420.28	304.06
420.503	282.06
420.726	298.06
420.948	307.06
421.171	320.06
421.394	298.06
421.617	293.06
421.839	303.06
422.062	290.06
422.285	284.06
422.507	300.06
422.73	286.06
422.953	310.06
423.175	316.06
423.398	330.06
423.621	329.06
423.843	294.06
424.066	319.06
424.288	302.06
424.511	312.06
424.733	327.06
424.956	306.06
425.178	284.06
425.401	291.06
425.623	296.06
425.846	296.06
426.068	291.06
426.291	284.06
426.513	281.06
426.735	282.06
426.958	270.06
427.18	272.06
427.402	262.06
427.625	272.06
427.847	268.06
428.069	261.06
428.292	286.06
428.514	276.06
428.736	252.06
428.958	259.06
429.181	250.06
429.403	274.06
429.625	268.06
429.847	263.06
430.069	250.06
430.292	261.06
430.514	268.06
430.736	241.06
430.958	244.06
431.18	258.06
431.402	250.06
431.624	251.06
431.846	270.06
432.068	272.06
432.29	283.06
432.512	272.06
432.734	290.06
432.956	284.06
433.178	263.06
433.4	272.06
433.622	271.06
433.844	276.06
434.066	276.06
434.287	287.06
434.509	284.06
434.731	283.06
434.953	262.06
435.175	310.06
435.397	304.06
435.618	278.06
435.84	282.06
436.062	288.06
436.284	278.06
436.505	260.06
436.727	278.06
436.949	287.06
437.17	271.06
437.392	253.06
437.614	258.06
437.835	268.06
438.057	258.06
438.278	260.06
438.5	250.06
438.721	267.06
438.943	260.06
439.165	252.06
439.386	269.06
439.608	277.06
439.829	256.06
440.05	261.06
440.272	287.06
440.493	282.06
440.715	295.06
440.936	278.06
441.158	288.06
441.379	272.06
441.6	290.06
441.822	309.06
442.043	316.06
442.264	303.06
442.486	287.06
442.707	281.06
442.928	297.06
443.149	316.06
443.371	293.06
443.592	294.06
443.813	299.06
444.034	293.06
444.255	285.06
444.476	338.06
444.698	338.06
444.919	344.06
445.14	470.06
445.361	396.06
445.582	299.06
445.803	260.06
446.024	280.06
446.245	270.06
446.466	277.06
446.687	276.06
446.908	274.06
447.129	280.06
447.35	271.06
447.571	250.06
447.792	251.06
448.013	248.06
448.234	249.06
448.455	257.06
448.675	249.06
448.896	264.06
449.117	245.06
449.338	243.06
449.559	254.06
449.779	260.06
450	234.06
450.221	244.06
450.442	269.06
450.662	262.06
450.883	259.06
451.104	268.06
451.324	260.06
451.545	258.06
451.766	244.06
451.986	243.06
452.207	258.06
452.428	260.06
452.648	243.06
452.869	249.06
453.089	268.06
453.31	246.06
453.53	249.06
453.751	231.06
453.971	236.06
454.192	260.06
454.412	245.06
454.633	258.06
454.853	230.06
455.073	231.06
455.294	248.06
455.514	227.06
455.734	239.06
455.955	227.06
456.175	236.06
456.395	245.06
456.616	219.06
456.836	243.06
457.056	258.06
457.276	239.06
457.497	252.06
457.717	246.06
457.937	237.06
458.157	238.06
458.377	232.06
458.598	268.06
458.818	261.06
459.038	242.06
459.258	272.06
459.478	278.06
459.698	280.06
459.918	272.06
460.138	283.06
460.358	328.06
460.578	318.06
460.798	336.06
461.018	323.06
461.238	307.06
461.458	302.06
461.678	310.06
461.898	311.06
462.118	292.06
462.338	339.06
462.558	323.06
462.777	330.06
462.997	373.06
463.217	404.06
463.437	421.06
463.657	370.06
463.876	351.06
464.096	340.06
464.316	363.06
464.536	390.06
464.755	360.06
464.975	335.06
465.195	327.06
465.414	306.06
465.634	280.06
465.854	266.06
466.073	282.06
466.293	284.06
466.512	265.06
466.732	252.06
466.951	274.06
467.171	274.06
467.391	268.06
467.61	274.06
467.829	263.06
468.049	262.06
468.268	255.06
468.488	253.06
468.707	258.06
468.927	257.06
469.146	269.06
469.365	279.06
469.585	258.06
469.804	276.06
470.023	256.06
470.243	266.06
470.462	269.06
470.681	276.06
470.901	299.06
471.12	278.06
471.339	251.06
471.558	262.06
471.777	255.06
471.997	243.06
472.216	265.06
472.435	246.06
472.654	243.06
472.873	254.06
473.092	237.06
473.311	262.06
473.53	243.06
473.749	247.06
473.968	249.06
474.187	262.06
474.406	242.06
474.625	266.06
474.844	254.06
475.063	263.06
475.282	260.06
475.501	247.06
475.72	242.06
475.939	256.06
476.158	260.06
476.377	278.06
476.596	276.06
476.814	266.06
477.033	285.06
477.252	268.06
477.471	264.06
477.69	275.06
477.908	287.06
478.127	285.06
478.346	298.06
478.564	293.06
478.783	301.06
479.002	305.06
479.22	319.06
479.439	302.06
479.658	306.06
479.876	306.06
480.095	310.06
480.313	323.06
480.532	326.06
480.751	322.06
480.969	310.06
481.188	303.06
481.406	316.06
481.624	292.06
481.843	287.06
482.061	280.06
482.28	270.06
482.498	289.06
482.717	285.06
482.935	276.06
483.153	278.06
483.372	290.06
483.59	284.06
483.808	303.06
484.027	304.06
484.245	283.06
484.463	301.06
484.681	311.06
484.9	303.06
485.118	304.06
485.336	296.06
485.554	310.06
485.772	306.06
485.99	326.06
486.209	313.06
486.427	316.06
486.645	318.06
486.863	310.06
487.081	293.06
487.299	290.06
487.517	290.06
487.735	323.06
487.953	301.06
488.171	306.06
488.389	310.06
488.607	309.06
488.825	303.06
489.043	301.06
489.261	299.06
489.479	294.06
489.696	314.06
489.914	301.06
490.132	319.06
490.35	320.06
490.568	296.06
490.786	302.06
491.003	300.06
491.221	293.06
491.439	306.06
491.657	299.06
491.874	282.06
492.092	328.06
492.31	303.06
492.527	316.06
492.745	316.06
492.963	322.06
493.18	310.06
493.398	322.06
493.615	306.06
493.833	307.06
494.05	318.06
494.268	322.06
494.485	319.06
494.703	306.06
494.92	328.06
495.138	315.06
495.355	304.06
495.573	314.06
495.79	326.06
496.008	333.06
496.225	324.06
496.442	314.06
496.66	308.06
496.877	331.06
497.094	357.06
497.312	333.06
497.529	342.06
497.746	353.06
497.963	378.06
498.181	375.06
498.398	372.06
498.615	416.06
498.832	410.06
499.049	463.06
499.267	491.06
499.484	523.06
499.701	584.06
499.918	631.06
500.135	718.06
500.352	857.06
500.569	883.06
500.786	886.06
501.003	813.06
501.22	719.06
501.437	611.06
501.654	570.06
501.871	522.06
502.088	467.06
502.305	440.06
502.522	426.06
502.739	442.06
502.956	366.06
