Data from 0.5MCu(NO3)2.Standard.Lamp.E10.CV._HRD10591_16-06-25-754.txt Node
Date: Mon Jul 22 16:06:25 EDT 2019
User: cochatt
Spectrometer: HR+D1059
Trigger mode: 1
Integration Time (sec): 1.000000E-1
Scans to average: 1
Electric dark correction enabled: true
Nonlinearity correction enabled: false
Boxcar width: 0
XAxis mode: Wavelengths
Number of Pixels in Spectrum: 2048
>>>>>Begin Spectral Data<<<<<
223.165	-19.25
223.4	-19.25
223.635	-19.25
223.869	-14.25
224.104	-20.25
224.338	-15.25
224.573	-25.25
224.808	-11.25
225.042	-15.25
225.277	-1.25
225.511	2.75
225.746	-0.25
225.98	11.75
226.215	22.75
226.449	17.75
226.683	9.75
226.918	26.75
227.152	30.75
227.387	36.75
227.621	54.75
227.856	43.75
228.09	62.75
228.324	52.75
228.559	64.75
228.793	55.75
229.027	61.75
229.262	63.75
229.496	67.75
229.73	70.75
229.964	71.75
230.199	67.75
230.433	85.75
230.667	87.75
230.901	73.75
231.136	79.75
231.37	74.75
231.604	76.75
231.838	85.75
232.072	88.75
232.306	97.75
232.541	78.75
232.775	93.75
233.009	82.75
233.243	105.75
233.477	90.75
233.711	86.75
233.945	88.75
234.179	89.75
234.413	80.75
234.647	99.75
234.881	92.75
235.115	101.75
235.349	89.75
235.583	103.75
235.817	84.75
236.051	97.75
236.285	98.75
236.519	82.75
236.753	96.75
236.987	97.75
237.221	85.75
237.455	100.75
237.689	81.75
237.922	84.75
238.156	107.75
238.39	98.75
238.624	94.75
238.858	86.75
239.091	97.75
239.325	74.75
239.559	83.75
239.793	100.75
240.027	73.75
240.26	100.75
240.494	97.75
240.728	80.75
240.961	96.75
241.195	99.75
241.429	106.75
241.662	90.75
241.896	79.75
242.13	88.75
242.363	99.75
242.597	98.75
242.83	99.75
243.064	96.75
243.298	84.75
243.531	98.75
243.765	98.75
243.998	99.75
244.232	87.75
244.465	97.75
244.699	98.75
244.932	91.75
245.166	90.75
245.399	92.75
245.633	100.75
245.866	100.75
246.099	93.75
246.333	87.75
246.566	107.75
246.8	110.75
247.033	102.75
247.266	96.75
247.5	97.75
247.733	106.75
247.966	108.75
248.2	111.75
248.433	106.75
248.666	101.75
248.899	100.75
249.133	106.75
249.366	119.75
249.599	116.75
249.832	119.75
250.066	104.75
250.299	106.75
250.532	103.75
250.765	123.75
250.998	113.75
251.231	113.75
251.465	111.75
251.698	103.75
251.931	100.75
252.164	113.75
252.397	99.75
252.63	108.75
252.863	99.75
253.096	116.75
253.329	111.75
253.562	106.75
253.795	110.75
254.028	124.75
254.261	111.75
254.494	115.75
254.727	106.75
254.96	101.75
255.193	119.75
255.426	128.75
255.659	114.75
255.892	121.75
256.124	113.75
256.357	99.75
256.59	98.75
256.823	117.75
257.056	110.75
257.289	116.75
257.521	129.75
257.754	125.75
257.987	114.75
258.22	128.75
258.452	117.75
258.685	126.75
258.918	109.75
259.151	121.75
259.383	123.75
259.616	124.75
259.849	125.75
260.081	134.75
260.314	114.75
260.547	117.75
260.779	137.75
261.012	133.75
261.244	120.75
261.477	131.75
261.71	117.75
261.942	121.75
262.175	127.75
262.407	131.75
262.64	122.75
262.872	126.75
263.105	152.75
263.337	123.75
263.57	140.75
263.802	130.75
264.035	112.75
264.267	124.75
264.499	123.75
264.732	127.75
264.964	128.75
265.197	127.75
265.429	120.75
265.661	126.75
265.894	122.75
266.126	134.75
266.358	140.75
266.591	141.75
266.823	130.75
267.055	132.75
267.287	136.75
267.52	126.75
267.752	137.75
267.984	129.75
268.216	121.75
268.448	141.75
268.681	136.75
268.913	142.75
269.145	126.75
269.377	129.75
269.609	132.75
269.841	129.75
270.073	131.75
270.306	130.75
270.538	138.75
270.77	137.75
271.002	131.75
271.234	129.75
271.466	132.75
271.698	146.75
271.93	130.75
272.162	139.75
272.394	130.75
272.626	141.75
272.858	151.75
273.09	155.75
273.322	137.75
273.553	151.75
273.785	148.75
274.017	144.75
274.249	138.75
274.481	142.75
274.713	150.75
274.945	154.75
275.176	140.75
275.408	139.75
275.64	152.75
275.872	128.75
276.104	153.75
276.335	145.75
276.567	148.75
276.799	151.75
277.031	157.75
277.262	151.75
277.494	153.75
277.726	154.75
277.957	125.75
278.189	155.75
278.421	132.75
278.652	146.75
278.884	144.75
279.115	159.75
279.347	138.75
279.579	132.75
279.81	152.75
280.042	152.75
280.273	145.75
280.505	155.75
280.736	151.75
280.968	152.75
281.199	168.75
281.431	166.75
281.662	151.75
281.894	160.75
282.125	152.75
282.356	142.75
282.588	168.75
282.819	155.75
283.051	151.75
283.282	155.75
283.513	164.75
283.745	155.75
283.976	158.75
284.207	170.75
284.439	156.75
284.67	165.75
284.901	174.75
285.132	176.75
285.364	172.75
285.595	167.75
285.826	156.75
286.057	171.75
286.288	159.75
286.52	167.75
286.751	165.75
286.982	171.75
287.213	171.75
287.444	167.75
287.675	176.75
287.906	162.75
288.138	179.75
288.369	174.75
288.6	157.75
288.831	194.75
289.062	163.75
289.293	178.75
289.524	163.75
289.755	166.75
289.986	178.75
290.217	180.75
290.448	174.75
290.679	181.75
290.91	175.75
291.141	172.75
291.371	164.75
291.602	176.75
291.833	182.75
292.064	174.75
292.295	197.75
292.526	189.75
292.757	183.75
292.987	194.75
293.218	167.75
293.449	175.75
293.68	184.75
293.91	194.75
294.141	186.75
294.372	186.75
294.603	187.75
294.833	179.75
295.064	179.75
295.295	168.75
295.525	174.75
295.756	185.75
295.987	186.75
296.217	190.75
296.448	181.75
296.679	178.75
296.909	186.75
297.14	176.75
297.37	188.75
297.601	190.75
297.831	208.75
298.062	185.75
298.292	184.75
298.523	200.75
298.753	199.75
298.984	193.75
299.214	204.75
299.445	195.75
299.675	207.75
299.905	190.75
300.136	198.75
300.366	180.75
300.597	201.75
300.827	193.75
301.057	207.75
301.288	220.75
301.518	187.75
301.748	185.75
301.979	195.75
302.209	191.75
302.439	216.75
302.669	202.75
302.9	180.75
303.13	194.75
303.36	192.75
303.59	201.75
303.82	186.75
304.051	206.75
304.281	205.75
304.511	201.75
304.741	186.75
304.971	200.75
305.201	191.75
305.431	199.75
305.661	224.75
305.891	197.75
306.121	181.75
306.352	190.75
306.582	186.75
306.812	173.75
307.042	189.75
307.272	183.75
307.502	188.75
307.731	199.75
307.961	194.75
308.191	177.75
308.421	198.75
308.651	202.75
308.881	179.75
309.111	186.75
309.341	196.75
309.571	179.75
309.8	198.75
310.03	208.75
310.26	203.75
310.49	186.75
310.72	199.75
310.949	184.75
311.179	207.75
311.409	207.75
311.639	201.75
311.868	207.75
312.098	185.75
312.328	209.75
312.557	201.75
312.787	188.75
313.017	194.75
313.246	203.75
313.476	193.75
313.706	198.75
313.935	203.75
314.165	199.75
314.394	183.75
314.624	201.75
314.853	209.75
315.083	186.75
315.312	202.75
315.542	208.75
315.771	195.75
316.001	186.75
316.23	195.75
316.46	213.75
316.689	215.75
316.919	196.75
317.148	211.75
317.377	205.75
317.607	207.75
317.836	187.75
318.065	202.75
318.295	190.75
318.524	179.75
318.753	197.75
318.983	196.75
319.212	196.75
319.441	202.75
319.67	214.75
319.9	224.75
320.129	192.75
320.358	201.75
320.587	197.75
320.816	208.75
321.046	194.75
321.275	194.75
321.504	198.75
321.733	195.75
321.962	219.75
322.191	194.75
322.42	196.75
322.649	218.75
322.878	198.75
323.108	178.75
323.337	203.75
323.566	208.75
323.795	195.75
324.024	189.75
324.253	213.75
324.482	203.75
324.71	197.75
324.939	218.75
325.168	208.75
325.397	205.75
325.626	214.75
325.855	203.75
326.084	224.75
326.313	211.75
326.542	224.75
326.77	231.75
326.999	233.75
327.228	212.75
327.457	211.75
327.686	214.75
327.914	231.75
328.143	225.75
328.372	232.75
328.6	229.75
328.829	207.75
329.058	209.75
329.287	197.75
329.515	225.75
329.744	216.75
329.972	231.75
330.201	217.75
330.43	226.75
330.658	228.75
330.887	216.75
331.115	220.75
331.344	222.75
331.572	225.75
331.801	226.75
332.03	219.75
332.258	236.75
332.486	259.75
332.715	246.75
332.943	274.75
333.172	270.75
333.4	287.75
333.629	269.75
333.857	295.75
334.085	276.75
334.314	269.75
334.542	267.75
334.771	254.75
334.999	252.75
335.227	249.75
335.455	270.75
335.684	254.75
335.912	254.75
336.14	238.75
336.369	243.75
336.597	263.75
336.825	237.75
337.053	225.75
337.281	247.75
337.51	238.75
337.738	230.75
337.966	228.75
338.194	248.75
338.422	224.75
338.65	231.75
338.878	226.75
339.106	233.75
339.334	230.75
339.562	229.75
339.79	212.75
340.018	232.75
340.246	219.75
340.474	209.75
340.702	214.75
340.93	223.75
341.158	209.75
341.386	230.75
341.614	228.75
341.842	208.75
342.07	215.75
342.298	223.75
342.526	224.75
342.754	209.75
342.981	222.75
343.209	209.75
343.437	234.75
343.665	239.75
343.893	268.75
344.12	280.75
344.348	258.75
344.576	240.75
344.804	240.75
345.031	231.75
345.259	230.75
345.487	228.75
345.714	224.75
345.942	199.75
346.17	234.75
346.397	208.75
346.625	227.75
346.853	216.75
347.08	220.75
347.308	219.75
347.535	223.75
347.763	231.75
347.99	230.75
348.218	234.75
348.445	218.75
348.673	211.75
348.9	225.75
349.128	212.75
349.355	215.75
349.583	218.75
349.81	196.75
350.037	220.75
350.265	199.75
350.492	224.75
350.72	224.75
350.947	214.75
351.174	206.75
351.402	215.75
351.629	204.75
351.856	192.75
352.083	207.75
352.311	201.75
352.538	217.75
352.765	212.75
352.992	203.75
353.22	216.75
353.447	209.75
353.674	213.75
353.901	205.75
354.128	213.75
354.355	212.75
354.583	230.75
354.81	210.75
355.037	209.75
355.264	231.75
355.491	210.75
355.718	210.75
355.945	216.75
356.172	206.75
356.399	231.75
356.626	205.75
356.853	211.75
357.08	218.75
357.307	199.75
357.534	210.75
357.761	211.75
357.988	200.75
358.215	206.75
358.441	197.75
358.668	215.75
358.895	205.75
359.122	219.75
359.349	217.75
359.576	201.75
359.802	209.75
360.029	206.75
360.256	216.75
360.483	201.75
360.709	206.75
360.936	210.75
361.163	201.75
361.39	214.75
361.616	194.75
361.843	201.75
362.07	218.75
362.296	214.75
362.523	212.75
362.749	212.75
362.976	209.75
363.203	213.75
363.429	195.75
363.656	202.75
363.882	203.75
364.109	225.75
364.335	203.75
364.562	204.75
364.788	197.75
365.015	209.75
365.241	193.75
365.468	210.75
365.694	212.75
365.92	222.75
366.147	205.75
366.373	214.75
366.599	202.75
366.826	214.75
367.052	190.75
367.278	187.75
367.505	193.75
367.731	210.75
367.957	204.75
368.184	207.75
368.41	196.75
368.636	222.75
368.862	210.75
369.089	204.75
369.315	217.75
369.541	202.75
369.767	202.75
369.993	212.75
370.219	210.75
370.445	207.75
370.672	229.75
370.898	211.75
371.124	225.75
371.35	232.75
371.576	236.75
371.802	227.75
372.028	215.75
372.254	193.75
372.48	233.75
372.706	237.75
372.932	229.75
373.158	236.75
373.384	216.75
373.61	206.75
373.835	215.75
374.061	213.75
374.287	239.75
374.513	224.75
374.739	250.75
374.965	236.75
375.191	264.75
375.416	226.75
375.642	247.75
375.868	228.75
376.094	219.75
376.319	216.75
376.545	207.75
376.771	209.75
376.997	231.75
377.222	239.75
377.448	224.75
377.674	206.75
377.899	224.75
378.125	234.75
378.35	215.75
378.576	216.75
378.802	215.75
379.027	223.75
379.253	233.75
379.478	224.75
379.704	224.75
379.929	209.75
380.155	229.75
380.38	214.75
380.606	222.75
380.831	194.75
381.057	214.75
381.282	226.75
381.507	229.75
381.733	226.75
381.958	208.75
382.184	224.75
382.409	230.75
382.634	217.75
382.86	222.75
383.085	218.75
383.31	241.75
383.535	238.75
383.761	255.75
383.986	254.75
384.211	234.75
384.436	231.75
384.662	274.75
384.887	274.75
385.112	247.75
385.337	248.75
385.562	256.75
385.787	254.75
386.013	262.75
386.238	259.75
386.463	252.75
386.688	272.75
386.913	241.75
387.138	230.75
387.363	256.75
387.588	248.75
387.813	259.75
388.038	245.75
388.263	246.75
388.488	255.75
388.713	260.75
388.938	258.75
389.163	236.75
389.387	245.75
389.612	246.75
389.837	240.75
390.062	249.75
390.287	241.75
390.512	264.75
390.736	249.75
390.961	245.75
391.186	250.75
391.411	262.75
391.636	266.75
391.86	274.75
392.085	281.75
392.31	264.75
392.534	271.75
392.759	282.75
392.984	272.75
393.208	265.75
393.433	258.75
393.658	241.75
393.882	245.75
394.107	274.75
394.331	261.75
394.556	262.75
394.78	273.75
395.005	268.75
395.229	263.75
395.454	274.75
395.678	283.75
395.903	251.75
396.127	272.75
396.352	286.75
396.576	259.75
396.801	253.75
397.025	274.75
397.249	271.75
397.474	274.75
397.698	261.75
397.922	273.75
398.147	261.75
398.371	263.75
398.595	278.75
398.82	307.75
399.044	306.75
399.268	342.75
399.492	382.75
399.717	432.75
399.941	436.75
400.165	370.75
400.389	335.75
400.613	309.75
400.837	310.75
401.062	312.75
401.286	286.75
401.51	306.75
401.734	299.75
401.958	292.75
402.182	307.75
402.406	321.75
402.63	329.75
402.854	339.75
403.078	316.75
403.302	332.75
403.526	343.75
403.75	339.75
403.974	345.75
404.198	351.75
404.422	338.75
404.645	348.75
404.869	339.75
405.093	344.75
405.317	328.75
405.541	331.75
405.765	331.75
405.988	324.75
406.212	316.75
406.436	322.75
406.66	352.75
406.883	345.75
407.107	355.75
407.331	374.75
407.555	398.75
407.778	403.75
408.002	351.75
408.226	350.75
408.449	328.75
408.673	327.75
408.896	334.75
409.12	357.75
409.344	343.75
409.567	335.75
409.791	340.75
410.014	326.75
410.238	312.75
410.461	312.75
410.685	339.75
410.908	332.75
411.132	327.75
411.355	308.75
411.578	302.75
411.802	312.75
412.025	298.75
412.249	304.75
412.472	308.75
412.695	304.75
412.919	299.75
413.142	314.75
413.365	297.75
413.589	281.75
413.812	295.75
414.035	307.75
414.258	273.75
414.482	291.75
414.705	300.75
414.928	312.75
415.151	329.75
415.374	286.75
415.597	274.75
415.821	284.75
416.044	287.75
416.267	319.75
416.49	311.75
416.713	290.75
416.936	279.75
417.159	291.75
417.382	291.75
417.605	296.75
417.828	303.75
418.051	304.75
418.274	307.75
418.497	305.75
418.72	316.75
418.943	314.75
419.166	317.75
419.389	323.75
419.611	330.75
419.834	307.75
420.057	302.75
420.28	297.75
420.503	293.75
420.726	285.75
420.948	285.75
421.171	296.75
421.394	308.75
421.617	302.75
421.839	288.75
422.062	310.75
422.285	290.75
422.507	296.75
422.73	311.75
422.953	305.75
423.175	303.75
423.398	326.75
423.621	305.75
423.843	316.75
424.066	294.75
424.288	338.75
424.511	310.75
424.733	316.75
424.956	314.75
425.178	294.75
425.401	302.75
425.623	288.75
425.846	282.75
426.068	296.75
426.291	270.75
426.513	288.75
426.735	273.75
426.958	282.75
427.18	260.75
427.402	277.75
427.625	285.75
427.847	287.75
428.069	265.75
428.292	268.75
428.514	263.75
428.736	254.75
428.958	257.75
429.181	253.75
429.403	259.75
429.625	257.75
429.847	257.75
430.069	255.75
430.292	260.75
430.514	262.75
430.736	247.75
430.958	264.75
431.18	257.75
431.402	263.75
431.624	231.75
431.846	259.75
432.068	263.75
432.29	261.75
432.512	260.75
432.734	270.75
432.956	242.75
433.178	270.75
433.4	283.75
433.622	274.75
433.844	279.75
434.066	270.75
434.287	267.75
434.509	287.75
434.731	296.75
434.953	320.75
435.175	314.75
435.397	295.75
435.618	290.75
435.84	282.75
436.062	255.75
436.284	260.75
436.505	276.75
436.727	284.75
436.949	284.75
437.17	267.75
437.392	266.75
437.614	258.75
437.835	269.75
438.057	274.75
438.278	242.75
438.5	262.75
438.721	260.75
438.943	269.75
439.165	255.75
439.386	257.75
439.608	257.75
439.829	263.75
440.05	271.75
440.272	276.75
440.493	300.75
440.715	278.75
440.936	283.75
441.158	286.75
441.379	298.75
441.6	296.75
441.822	305.75
442.043	315.75
442.264	283.75
442.486	297.75
442.707	277.75
442.928	296.75
443.149	281.75
443.371	311.75
443.592	289.75
443.813	287.75
444.034	278.75
444.255	283.75
444.476	342.75
444.698	336.75
444.919	347.75
445.14	416.75
445.361	360.75
445.582	304.75
445.803	290.75
446.024	269.75
446.245	286.75
446.466	286.75
446.687	281.75
446.908	268.75
447.129	263.75
447.35	262.75
447.571	264.75
447.792	268.75
448.013	241.75
448.234	277.75
448.455	259.75
448.675	227.75
448.896	251.75
449.117	257.75
449.338	230.75
449.559	242.75
449.779	259.75
450	262.75
450.221	259.75
450.442	242.75
450.662	256.75
450.883	258.75
451.104	256.75
451.324	258.75
451.545	266.75
451.766	244.75
451.986	258.75
452.207	259.75
452.428	258.75
452.648	258.75
452.869	245.75
453.089	233.75
453.31	230.75
453.53	250.75
453.751	248.75
453.971	254.75
454.192	249.75
454.412	232.75
454.633	225.75
454.853	239.75
455.073	231.75
455.294	244.75
455.514	233.75
455.734	214.75
455.955	254.75
456.175	227.75
456.395	236.75
456.616	236.75
456.836	246.75
457.056	225.75
457.276	233.75
457.497	228.75
457.717	219.75
457.937	231.75
458.157	237.75
458.377	224.75
458.598	240.75
458.818	238.75
459.038	254.75
459.258	273.75
459.478	274.75
459.698	275.75
459.918	294.75
460.138	282.75
460.358	315.75
460.578	302.75
460.798	301.75
461.018	294.75
461.238	311.75
461.458	314.75
461.678	310.75
461.898	326.75
462.118	302.75
462.338	315.75
462.558	319.75
462.777	334.75
462.997	368.75
463.217	410.75
463.437	410.75
463.657	387.75
463.876	356.75
464.096	358.75
464.316	353.75
464.536	367.75
464.755	350.75
464.975	323.75
465.195	329.75
465.414	316.75
465.634	296.75
465.854	273.75
466.073	270.75
466.293	280.75
466.512	247.75
466.732	250.75
466.951	262.75
467.171	262.75
467.391	255.75
467.61	268.75
467.829	267.75
468.049	261.75
468.268	251.75
468.488	257.75
468.707	239.75
468.927	243.75
469.146	250.75
469.365	241.75
469.585	264.75
469.804	268.75
470.023	271.75
470.243	262.75
470.462	268.75
470.681	270.75
470.901	284.75
471.12	275.75
471.339	292.75
471.558	262.75
471.777	264.75
471.997	259.75
472.216	273.75
472.435	256.75
472.654	258.75
472.873	254.75
473.092	244.75
473.311	249.75
473.53	234.75
473.749	241.75
473.968	250.75
474.187	248.75
474.406	234.75
474.625	251.75
474.844	254.75
475.063	266.75
475.282	272.75
475.501	254.75
475.72	250.75
475.939	257.75
476.158	255.75
476.377	255.75
476.596	238.75
476.814	288.75
477.033	254.75
477.252	263.75
477.471	273.75
477.69	264.75
477.908	281.75
478.127	299.75
478.346	287.75
478.564	306.75
478.783	280.75
479.002	282.75
479.22	308.75
479.439	293.75
479.658	287.75
479.876	292.75
480.095	305.75
480.313	315.75
480.532	330.75
480.751	332.75
480.969	310.75
481.188	316.75
481.406	297.75
481.624	304.75
481.843	278.75
482.061	282.75
482.28	290.75
482.498	282.75
482.717	281.75
482.935	274.75
483.153	282.75
483.372	289.75
483.59	292.75
483.808	281.75
484.027	288.75
484.245	300.75
484.463	303.75
484.681	319.75
484.9	311.75
485.118	307.75
485.336	295.75
485.554	304.75
485.772	308.75
485.99	308.75
486.209	299.75
486.427	312.75
486.645	295.75
486.863	304.75
487.081	307.75
487.299	302.75
487.517	304.75
487.735	305.75
487.953	300.75
488.171	316.75
488.389	319.75
488.607	290.75
488.825	302.75
489.043	277.75
489.261	300.75
489.479	304.75
489.696	310.75
489.914	287.75
490.132	307.75
490.35	271.75
490.568	287.75
490.786	306.75
491.003	300.75
491.221	293.75
491.439	311.75
491.657	314.75
491.874	316.75
492.092	300.75
492.31	304.75
492.527	310.75
492.745	313.75
492.963	307.75
493.18	313.75
493.398	320.75
493.615	316.75
493.833	299.75
494.05	307.75
494.268	304.75
494.485	336.75
494.703	321.75
494.92	331.75
495.138	296.75
495.355	327.75
495.573	311.75
495.79	312.75
496.008	329.75
496.225	312.75
496.442	314.75
496.66	332.75
496.877	338.75
497.094	338.75
497.312	326.75
497.529	360.75
497.746	345.75
497.963	355.75
498.181	380.75
498.398	388.75
498.615	382.75
498.832	424.75
499.049	464.75
499.267	477.75
499.484	544.75
499.701	595.75
499.918	629.75
500.135	736.75
500.352	859.75
500.569	874.75
500.786	872.75
501.003	818.75
501.22	717.75
501.437	625.75
501.654	555.75
501.871	524.75
502.088	466.75
502.305	436.75
502.522	402.75
502.739	420.75
502.956	401.75
503.172	378.75
