Data from 0.5MCu(NO3)2.Standard.Lamp.E10.CV._HRD10591_16-03-51-753.txt Node
Date: Mon Jul 22 16:03:51 EDT 2019
User: cochatt
Spectrometer: HR+D1059
Trigger mode: 1
Integration Time (sec): 1.000000E-1
Scans to average: 1
Electric dark correction enabled: true
Nonlinearity correction enabled: false
Boxcar width: 0
XAxis mode: Wavelengths
Number of Pixels in Spectrum: 2048
>>>>>Begin Spectral Data<<<<<
223.165	-12.38
223.4	-12.38
223.635	-12.38
223.869	-17.38
224.104	-21.38
224.338	2.62
224.573	-13.38
224.808	-18.38
225.042	-17.38
225.277	1.62
225.511	-10.38
225.746	6.62
225.98	16.62
226.215	5.62
226.449	15.62
226.683	12.62
226.918	24.62
227.152	24.62
227.387	29.62
227.621	40.62
227.856	44.62
228.09	44.62
228.324	40.62
228.559	54.62
228.793	62.62
229.027	69.62
229.262	75.62
229.496	68.62
229.73	62.62
229.964	74.62
230.199	90.62
230.433	90.62
230.667	86.62
230.901	83.62
231.136	87.62
231.37	100.62
231.604	92.62
231.838	82.62
232.072	93.62
232.306	100.62
232.541	84.62
232.775	97.62
233.009	106.62
233.243	99.62
233.477	99.62
233.711	95.62
233.945	94.62
234.179	79.62
234.413	90.62
234.647	106.62
234.881	97.62
235.115	87.62
235.349	85.62
235.583	94.62
235.817	82.62
236.051	99.62
236.285	99.62
236.519	89.62
236.753	92.62
236.987	97.62
237.221	97.62
237.455	91.62
237.689	85.62
237.922	88.62
238.156	95.62
238.39	86.62
238.624	101.62
238.858	93.62
239.091	92.62
239.325	89.62
239.559	87.62
239.793	89.62
240.027	93.62
240.26	91.62
240.494	78.62
240.728	90.62
240.961	84.62
241.195	96.62
241.429	103.62
241.662	95.62
241.896	86.62
242.13	111.62
242.363	92.62
242.597	105.62
242.83	96.62
243.064	101.62
243.298	106.62
243.531	85.62
243.765	98.62
243.998	115.62
244.232	112.62
244.465	90.62
244.699	98.62
244.932	83.62
245.166	96.62
245.399	102.62
245.633	117.62
245.866	87.62
246.099	102.62
246.333	103.62
246.566	95.62
246.8	111.62
247.033	111.62
247.266	100.62
247.5	109.62
247.733	109.62
247.966	110.62
248.2	98.62
248.433	103.62
248.666	95.62
248.899	110.62
249.133	110.62
249.366	108.62
249.599	117.62
249.832	104.62
250.066	122.62
250.299	109.62
250.532	103.62
250.765	116.62
250.998	106.62
251.231	111.62
251.465	111.62
251.698	115.62
251.931	107.62
252.164	103.62
252.397	100.62
252.63	107.62
252.863	117.62
253.096	116.62
253.329	118.62
253.562	116.62
253.795	96.62
254.028	123.62
254.261	124.62
254.494	110.62
254.727	114.62
254.96	118.62
255.193	125.62
255.426	116.62
255.659	99.62
255.892	131.62
256.124	107.62
256.357	120.62
256.59	109.62
256.823	114.62
257.056	116.62
257.289	117.62
257.521	110.62
257.754	107.62
257.987	108.62
258.22	107.62
258.452	124.62
258.685	127.62
258.918	128.62
259.151	126.62
259.383	122.62
259.616	115.62
259.849	118.62
260.081	133.62
260.314	129.62
260.547	118.62
260.779	131.62
261.012	121.62
261.244	126.62
261.477	129.62
261.71	127.62
261.942	132.62
262.175	119.62
262.407	127.62
262.64	133.62
262.872	115.62
263.105	120.62
263.337	134.62
263.57	136.62
263.802	131.62
264.035	125.62
264.267	124.62
264.499	126.62
264.732	151.62
264.964	121.62
265.197	132.62
265.429	135.62
265.661	132.62
265.894	142.62
266.126	147.62
266.358	134.62
266.591	134.62
266.823	129.62
267.055	131.62
267.287	142.62
267.52	124.62
267.752	144.62
267.984	141.62
268.216	152.62
268.448	148.62
268.681	131.62
268.913	142.62
269.145	148.62
269.377	130.62
269.609	142.62
269.841	143.62
270.073	130.62
270.306	138.62
270.538	142.62
270.77	141.62
271.002	135.62
271.234	138.62
271.466	141.62
271.698	123.62
271.93	136.62
272.162	137.62
272.394	140.62
272.626	148.62
272.858	135.62
273.09	124.62
273.322	139.62
273.553	132.62
273.785	136.62
274.017	148.62
274.249	146.62
274.481	150.62
274.713	141.62
274.945	143.62
275.176	157.62
275.408	152.62
275.64	158.62
275.872	145.62
276.104	146.62
276.335	130.62
276.567	151.62
276.799	142.62
277.031	153.62
277.262	158.62
277.494	153.62
277.726	158.62
277.957	163.62
278.189	141.62
278.421	142.62
278.652	157.62
278.884	143.62
279.115	156.62
279.347	156.62
279.579	149.62
279.81	154.62
280.042	147.62
280.273	159.62
280.505	154.62
280.736	151.62
280.968	166.62
281.199	162.62
281.431	155.62
281.662	145.62
281.894	161.62
282.125	145.62
282.356	171.62
282.588	168.62
282.819	159.62
283.051	158.62
283.282	156.62
283.513	158.62
283.745	165.62
283.976	150.62
284.207	135.62
284.439	175.62
284.67	162.62
284.901	168.62
285.132	175.62
285.364	170.62
285.595	160.62
285.826	165.62
286.057	158.62
286.288	168.62
286.52	159.62
286.751	162.62
286.982	160.62
287.213	169.62
287.444	178.62
287.675	184.62
287.906	188.62
288.138	180.62
288.369	173.62
288.6	172.62
288.831	160.62
289.062	163.62
289.293	168.62
289.524	179.62
289.755	171.62
289.986	172.62
290.217	173.62
290.448	171.62
290.679	183.62
290.91	184.62
291.141	179.62
291.371	181.62
291.602	174.62
291.833	172.62
292.064	169.62
292.295	196.62
292.526	178.62
292.757	171.62
292.987	188.62
293.218	156.62
293.449	165.62
293.68	190.62
293.91	184.62
294.141	178.62
294.372	178.62
294.603	193.62
294.833	196.62
295.064	186.62
295.295	191.62
295.525	179.62
295.756	187.62
295.987	179.62
296.217	183.62
296.448	185.62
296.679	173.62
296.909	157.62
297.14	197.62
297.37	190.62
297.601	191.62
297.831	184.62
298.062	186.62
298.292	200.62
298.523	199.62
298.753	192.62
298.984	195.62
299.214	196.62
299.445	191.62
299.675	176.62
299.905	184.62
300.136	208.62
300.366	195.62
300.597	193.62
300.827	199.62
301.057	200.62
301.288	203.62
301.518	199.62
301.748	190.62
301.979	191.62
302.209	199.62
302.439	196.62
302.669	194.62
302.9	185.62
303.13	188.62
303.36	190.62
303.59	173.62
303.82	191.62
304.051	193.62
304.281	190.62
304.511	197.62
304.741	191.62
304.971	183.62
305.201	195.62
305.431	182.62
305.661	198.62
305.891	197.62
306.121	187.62
306.352	198.62
306.582	203.62
306.812	175.62
307.042	194.62
307.272	180.62
307.502	192.62
307.731	183.62
307.961	176.62
308.191	206.62
308.421	177.62
308.651	187.62
308.881	176.62
309.111	175.62
309.341	180.62
309.571	173.62
309.8	177.62
310.03	178.62
310.26	184.62
310.49	179.62
310.72	180.62
310.949	190.62
311.179	196.62
311.409	190.62
311.639	190.62
311.868	183.62
312.098	195.62
312.328	213.62
312.557	214.62
312.787	186.62
313.017	188.62
313.246	195.62
313.476	192.62
313.706	189.62
313.935	192.62
314.165	207.62
314.394	223.62
314.624	189.62
314.853	201.62
315.083	212.62
315.312	183.62
315.542	192.62
315.771	198.62
316.001	189.62
316.23	194.62
316.46	190.62
316.689	217.62
316.919	196.62
317.148	191.62
317.377	188.62
317.607	174.62
317.836	198.62
318.065	191.62
318.295	204.62
318.524	203.62
318.753	200.62
318.983	201.62
319.212	191.62
319.441	207.62
319.67	206.62
319.9	184.62
320.129	208.62
320.358	193.62
320.587	195.62
320.816	208.62
321.046	199.62
321.275	192.62
321.504	206.62
321.733	194.62
321.962	198.62
322.191	205.62
322.42	191.62
322.649	195.62
322.878	209.62
323.108	184.62
323.337	200.62
323.566	205.62
323.795	206.62
324.024	200.62
324.253	190.62
324.482	211.62
324.71	195.62
324.939	188.62
325.168	218.62
325.397	206.62
325.626	202.62
325.855	212.62
326.084	198.62
326.313	227.62
326.542	200.62
326.77	222.62
326.999	230.62
327.228	217.62
327.457	223.62
327.686	211.62
327.914	226.62
328.143	204.62
328.372	194.62
328.6	208.62
328.829	218.62
329.058	218.62
329.287	228.62
329.515	214.62
329.744	215.62
329.972	223.62
330.201	212.62
330.43	214.62
330.658	217.62
330.887	205.62
331.115	214.62
331.344	226.62
331.572	211.62
331.801	233.62
332.03	240.62
332.258	238.62
332.486	232.62
332.715	266.62
332.943	244.62
333.172	280.62
333.4	244.62
333.629	277.62
333.857	263.62
334.085	260.62
334.314	246.62
334.542	264.62
334.771	254.62
334.999	261.62
335.227	256.62
335.455	269.62
335.684	251.62
335.912	249.62
336.14	237.62
336.369	238.62
336.597	235.62
336.825	217.62
337.053	256.62
337.281	234.62
337.51	228.62
337.738	233.62
337.966	218.62
338.194	235.62
338.422	219.62
338.65	221.62
338.878	216.62
339.106	244.62
339.334	226.62
339.562	215.62
339.79	216.62
340.018	217.62
340.246	208.62
340.474	208.62
340.702	226.62
340.93	218.62
341.158	213.62
341.386	231.62
341.614	226.62
341.842	222.62
342.07	204.62
342.298	199.62
342.526	198.62
342.754	210.62
342.981	226.62
343.209	214.62
343.437	235.62
343.665	231.62
343.893	230.62
344.12	279.62
344.348	256.62
344.576	237.62
344.804	232.62
345.031	228.62
345.259	212.62
345.487	230.62
345.714	206.62
345.942	212.62
346.17	202.62
346.397	211.62
346.625	218.62
346.853	195.62
347.08	217.62
347.308	224.62
347.535	215.62
347.763	214.62
347.99	216.62
348.218	228.62
348.445	206.62
348.673	243.62
348.9	212.62
349.128	200.62
349.355	201.62
349.583	215.62
349.81	232.62
350.037	202.62
350.265	198.62
350.492	207.62
350.72	211.62
350.947	186.62
351.174	192.62
351.402	218.62
351.629	202.62
351.856	208.62
352.083	184.62
352.311	213.62
352.538	188.62
352.765	190.62
352.992	198.62
353.22	208.62
353.447	206.62
353.674	195.62
353.901	222.62
354.128	219.62
354.355	207.62
354.583	210.62
354.81	207.62
355.037	219.62
355.264	221.62
355.491	199.62
355.718	203.62
355.945	207.62
356.172	216.62
356.399	207.62
356.626	206.62
356.853	206.62
357.08	215.62
357.307	207.62
357.534	207.62
357.761	190.62
357.988	200.62
358.215	213.62
358.441	191.62
358.668	196.62
358.895	213.62
359.122	209.62
359.349	218.62
359.576	199.62
359.802	199.62
360.029	218.62
360.256	201.62
360.483	215.62
360.709	217.62
360.936	206.62
361.163	213.62
361.39	207.62
361.616	196.62
361.843	205.62
362.07	203.62
362.296	205.62
362.523	200.62
362.749	213.62
362.976	204.62
363.203	184.62
363.429	192.62
363.656	200.62
363.882	203.62
364.109	222.62
364.335	199.62
364.562	205.62
364.788	200.62
365.015	205.62
365.241	218.62
365.468	211.62
365.694	208.62
365.92	184.62
366.147	196.62
366.373	195.62
366.599	214.62
366.826	219.62
367.052	209.62
367.278	207.62
367.505	201.62
367.731	202.62
367.957	196.62
368.184	215.62
368.41	202.62
368.636	213.62
368.862	214.62
369.089	194.62
369.315	191.62
369.541	208.62
369.767	213.62
369.993	197.62
370.219	198.62
370.445	192.62
370.672	212.62
370.898	213.62
371.124	219.62
371.35	228.62
371.576	228.62
371.802	215.62
372.028	200.62
372.254	209.62
372.48	209.62
372.706	224.62
372.932	230.62
373.158	228.62
373.384	232.62
373.61	226.62
373.835	212.62
374.061	221.62
374.287	214.62
374.513	220.62
374.739	217.62
374.965	229.62
375.191	231.62
375.416	230.62
375.642	239.62
375.868	226.62
376.094	236.62
376.319	220.62
376.545	216.62
376.771	209.62
376.997	201.62
377.222	219.62
377.448	226.62
377.674	203.62
377.899	237.62
378.125	204.62
378.35	208.62
378.576	214.62
378.802	211.62
379.027	202.62
379.253	217.62
379.478	210.62
379.704	219.62
379.929	211.62
380.155	192.62
380.38	209.62
380.606	200.62
380.831	202.62
381.057	235.62
381.282	215.62
381.507	217.62
381.733	214.62
381.958	206.62
382.184	216.62
382.409	228.62
382.634	211.62
382.86	203.62
383.085	216.62
383.31	239.62
383.535	235.62
383.761	221.62
383.986	242.62
384.211	239.62
384.436	236.62
384.662	241.62
384.887	258.62
385.112	250.62
385.337	232.62
385.562	246.62
385.787	250.62
386.013	256.62
386.238	238.62
386.463	250.62
386.688	247.62
386.913	255.62
387.138	258.62
387.363	246.62
387.588	246.62
387.813	244.62
388.038	231.62
388.263	248.62
388.488	235.62
388.713	233.62
388.938	247.62
389.163	228.62
389.387	231.62
389.612	230.62
389.837	242.62
390.062	231.62
390.287	247.62
390.512	226.62
390.736	247.62
390.961	223.62
391.186	244.62
391.411	259.62
391.636	267.62
391.86	265.62
392.085	277.62
392.31	280.62
392.534	269.62
392.759	261.62
392.984	258.62
393.208	262.62
393.433	262.62
393.658	269.62
393.882	257.62
394.107	248.62
394.331	252.62
394.556	269.62
394.78	261.62
395.005	245.62
395.229	262.62
395.454	277.62
395.678	279.62
395.903	272.62
396.127	267.62
396.352	240.62
396.576	244.62
396.801	255.62
397.025	254.62
397.249	267.62
397.474	260.62
397.698	273.62
397.922	273.62
398.147	270.62
398.371	278.62
398.595	279.62
398.82	292.62
399.044	288.62
399.268	326.62
399.492	383.62
399.717	411.62
399.941	415.62
400.165	362.62
400.389	324.62
400.613	325.62
400.837	292.62
401.062	287.62
401.286	278.62
401.51	283.62
401.734	278.62
401.958	298.62
402.182	278.62
402.406	290.62
402.63	284.62
402.854	314.62
403.078	306.62
403.302	301.62
403.526	339.62
403.75	307.62
403.974	336.62
404.198	337.62
404.422	330.62
404.645	345.62
404.869	314.62
405.093	325.62
405.317	302.62
405.541	325.62
405.765	318.62
405.988	295.62
406.212	312.62
406.436	327.62
406.66	351.62
406.883	320.62
407.107	330.62
407.331	354.62
407.555	370.62
407.778	371.62
408.002	330.62
408.226	335.62
408.449	334.62
408.673	325.62
408.896	301.62
409.12	323.62
409.344	345.62
409.567	340.62
409.791	347.62
410.014	310.62
410.238	326.62
410.461	326.62
410.685	323.62
410.908	315.62
411.132	299.62
411.355	292.62
411.578	300.62
411.802	300.62
412.025	292.62
412.249	298.62
412.472	290.62
412.695	311.62
412.919	282.62
413.142	282.62
413.365	300.62
413.589	298.62
413.812	300.62
414.035	295.62
414.258	297.62
414.482	292.62
414.705	298.62
414.928	304.62
415.151	299.62
415.374	296.62
415.597	293.62
415.821	278.62
416.044	264.62
416.267	283.62
416.49	268.62
416.713	258.62
416.936	277.62
417.159	287.62
417.382	283.62
417.605	287.62
417.828	286.62
418.051	291.62
418.274	279.62
418.497	298.62
418.72	287.62
418.943	294.62
419.166	320.62
419.389	335.62
419.611	316.62
419.834	320.62
420.057	286.62
420.28	298.62
420.503	280.62
420.726	269.62
420.948	274.62
421.171	280.62
421.394	287.62
421.617	272.62
421.839	296.62
422.062	279.62
422.285	278.62
422.507	294.62
422.73	301.62
422.953	294.62
423.175	288.62
423.398	284.62
423.621	293.62
423.843	318.62
424.066	316.62
424.288	308.62
424.511	318.62
424.733	318.62
424.956	303.62
425.178	305.62
425.401	288.62
425.623	278.62
425.846	269.62
426.068	264.62
426.291	290.62
426.513	260.62
426.735	280.62
426.958	268.62
427.18	244.62
427.402	263.62
427.625	272.62
427.847	264.62
428.069	263.62
428.292	247.62
428.514	266.62
428.736	244.62
428.958	288.62
429.181	255.62
429.403	265.62
429.625	246.62
429.847	251.62
430.069	255.62
430.292	277.62
430.514	249.62
430.736	252.62
430.958	271.62
431.18	276.62
431.402	267.62
431.624	251.62
431.846	247.62
432.068	261.62
432.29	253.62
432.512	253.62
432.734	259.62
432.956	235.62
433.178	258.62
433.4	260.62
433.622	250.62
433.844	250.62
434.066	267.62
434.287	262.62
434.509	265.62
434.731	271.62
434.953	282.62
435.175	294.62
435.397	287.62
435.618	280.62
435.84	276.62
436.062	274.62
436.284	263.62
436.505	250.62
436.727	267.62
436.949	252.62
437.17	246.62
437.392	249.62
437.614	263.62
437.835	259.62
438.057	243.62
438.278	262.62
438.5	263.62
438.721	245.62
438.943	228.62
439.165	256.62
439.386	246.62
439.608	262.62
439.829	259.62
440.05	261.62
440.272	264.62
440.493	275.62
440.715	262.62
440.936	279.62
441.158	269.62
441.379	270.62
441.6	279.62
441.822	291.62
442.043	302.62
442.264	285.62
442.486	282.62
442.707	292.62
442.928	280.62
443.149	287.62
443.371	288.62
443.592	287.62
443.813	278.62
444.034	281.62
444.255	299.62
444.476	311.62
444.698	328.62
444.919	340.62
445.14	447.62
445.361	342.62
445.582	303.62
445.803	281.62
446.024	253.62
446.245	260.62
446.466	280.62
446.687	249.62
446.908	239.62
447.129	264.62
447.35	256.62
447.571	251.62
447.792	240.62
448.013	254.62
448.234	257.62
448.455	258.62
448.675	232.62
448.896	234.62
449.117	236.62
449.338	257.62
449.559	231.62
449.779	246.62
450	244.62
450.221	238.62
450.442	245.62
450.662	246.62
450.883	247.62
451.104	258.62
451.324	251.62
451.545	228.62
451.766	254.62
451.986	260.62
452.207	262.62
452.428	247.62
452.648	245.62
452.869	213.62
453.089	235.62
453.31	238.62
453.53	244.62
453.751	248.62
453.971	236.62
454.192	239.62
454.412	231.62
454.633	233.62
454.853	221.62
455.073	236.62
455.294	231.62
455.514	250.62
455.734	229.62
455.955	229.62
456.175	231.62
456.395	240.62
456.616	216.62
456.836	224.62
457.056	224.62
457.276	237.62
457.497	216.62
457.717	225.62
457.937	231.62
458.157	235.62
458.377	236.62
458.598	240.62
458.818	242.62
459.038	247.62
459.258	251.62
459.478	264.62
459.698	276.62
459.918	293.62
460.138	281.62
460.358	299.62
460.578	300.62
460.798	303.62
461.018	309.62
461.238	296.62
461.458	310.62
461.678	298.62
461.898	277.62
462.118	292.62
462.338	308.62
462.558	335.62
462.777	321.62
462.997	363.62
463.217	377.62
463.437	392.62
463.657	372.62
463.876	348.62
464.096	350.62
464.316	329.62
464.536	350.62
464.755	349.62
464.975	318.62
465.195	302.62
465.414	317.62
465.634	282.62
465.854	272.62
466.073	269.62
466.293	262.62
466.512	279.62
466.732	252.62
466.951	259.62
467.171	244.62
467.391	259.62
467.61	272.62
467.829	251.62
468.049	238.62
468.268	248.62
468.488	241.62
468.707	227.62
468.927	239.62
469.146	249.62
469.365	258.62
469.585	247.62
469.804	250.62
470.023	267.62
470.243	263.62
470.462	262.62
470.681	252.62
470.901	243.62
471.12	264.62
471.339	255.62
471.558	265.62
471.777	271.62
471.997	262.62
472.216	256.62
472.435	244.62
472.654	235.62
472.873	252.62
473.092	239.62
473.311	226.62
473.53	232.62
473.749	244.62
473.968	212.62
474.187	249.62
474.406	228.62
474.625	244.62
474.844	221.62
475.063	248.62
475.282	246.62
475.501	236.62
475.72	231.62
475.939	237.62
476.158	258.62
476.377	242.62
476.596	258.62
476.814	246.62
477.033	243.62
477.252	271.62
477.471	262.62
477.69	266.62
477.908	271.62
478.127	271.62
478.346	272.62
478.564	285.62
478.783	281.62
479.002	270.62
479.22	288.62
479.439	298.62
479.658	293.62
479.876	310.62
480.095	292.62
480.313	300.62
480.532	319.62
480.751	304.62
480.969	301.62
481.188	277.62
481.406	292.62
481.624	281.62
481.843	288.62
482.061	271.62
482.28	255.62
482.498	276.62
482.717	273.62
482.935	271.62
483.153	284.62
483.372	278.62
483.59	282.62
483.808	288.62
484.027	286.62
484.245	270.62
484.463	288.62
484.681	281.62
484.9	282.62
485.118	280.62
485.336	276.62
485.554	295.62
485.772	303.62
485.99	309.62
486.209	303.62
486.427	315.62
486.645	302.62
486.863	315.62
487.081	319.62
487.299	309.62
487.517	310.62
487.735	270.62
487.953	294.62
488.171	302.62
488.389	295.62
488.607	285.62
488.825	290.62
489.043	288.62
489.261	282.62
489.479	280.62
489.696	287.62
489.914	287.62
490.132	319.62
490.35	296.62
490.568	290.62
490.786	290.62
491.003	295.62
491.221	276.62
491.439	288.62
491.657	296.62
491.874	295.62
492.092	317.62
492.31	301.62
492.527	289.62
492.745	278.62
492.963	293.62
493.18	295.62
493.398	293.62
493.615	309.62
493.833	313.62
494.05	283.62
494.268	318.62
494.485	293.62
494.703	306.62
494.92	306.62
495.138	316.62
495.355	311.62
495.573	321.62
495.79	307.62
496.008	308.62
496.225	325.62
496.442	318.62
496.66	313.62
496.877	312.62
497.094	305.62
497.312	319.62
497.529	322.62
497.746	325.62
497.963	329.62
498.181	342.62
498.398	372.62
498.615	400.62
498.832	397.62
499.049	421.62
499.267	455.62
499.484	523.62
499.701	557.62
499.918	617.62
500.135	710.62
500.352	823.62
500.569	844.62
500.786	812.62
501.003	798.62
501.22	675.62
501.437	603.62
501.654	530.62
501.871	483.62
502.088	448.62
502.305	448.62
502.522	407.62
502.739	400.62
502.956	376.62
503.172	370.62
