Data from 0.5MCu(NO3)2.Standard.Lamp.E10.CV._HRD10591_16-06-30-753.txt Node
Date: Mon Jul 22 16:06:30 EDT 2019
User: cochatt
Spectrometer: HR+D1059
Trigger mode: 1
Integration Time (sec): 1.000000E-1
Scans to average: 1
Electric dark correction enabled: true
Nonlinearity correction enabled: false
Boxcar width: 0
XAxis mode: Wavelengths
Number of Pixels in Spectrum: 2048
>>>>>Begin Spectral Data<<<<<
223.165	-8.44
223.4	-8.44
223.635	-8.44
223.869	-3.44
224.104	-12.44
224.338	-8.44
224.573	-5.44
224.808	-25.44
225.042	-8.44
225.277	-10.44
225.511	-14.44
225.746	2.56
225.98	22.56
226.215	-1.44
226.449	10.56
226.683	22.56
226.918	18.56
227.152	21.56
227.387	39.56
227.621	55.56
227.856	51.56
228.09	60.56
228.324	58.56
228.559	61.56
228.793	63.56
229.027	59.56
229.262	72.56
229.496	64.56
229.73	88.56
229.964	92.56
230.199	91.56
230.433	87.56
230.667	94.56
230.901	83.56
231.136	66.56
231.37	70.56
231.604	77.56
231.838	100.56
232.072	96.56
232.306	92.56
232.541	102.56
232.775	75.56
233.009	90.56
233.243	87.56
233.477	86.56
233.711	90.56
233.945	102.56
234.179	92.56
234.413	92.56
234.647	101.56
234.881	87.56
235.115	105.56
235.349	87.56
235.583	102.56
235.817	107.56
236.051	98.56
236.285	85.56
236.519	99.56
236.753	93.56
236.987	85.56
237.221	90.56
237.455	97.56
237.689	86.56
237.922	90.56
238.156	90.56
238.39	85.56
238.624	79.56
238.858	82.56
239.091	75.56
239.325	82.56
239.559	83.56
239.793	100.56
240.027	107.56
240.26	101.56
240.494	89.56
240.728	88.56
240.961	99.56
241.195	91.56
241.429	95.56
241.662	96.56
241.896	91.56
242.13	112.56
242.363	110.56
242.597	107.56
242.83	96.56
243.064	98.56
243.298	100.56
243.531	94.56
243.765	93.56
243.998	106.56
244.232	108.56
244.465	100.56
244.699	102.56
244.932	85.56
245.166	91.56
245.399	113.56
245.633	102.56
245.866	114.56
246.099	114.56
246.333	114.56
246.566	102.56
246.8	106.56
247.033	99.56
247.266	104.56
247.5	94.56
247.733	106.56
247.966	100.56
248.2	111.56
248.433	103.56
248.666	106.56
248.899	112.56
249.133	99.56
249.366	111.56
249.599	100.56
249.832	94.56
250.066	110.56
250.299	107.56
250.532	111.56
250.765	112.56
250.998	116.56
251.231	109.56
251.465	118.56
251.698	100.56
251.931	115.56
252.164	106.56
252.397	104.56
252.63	136.56
252.863	128.56
253.096	110.56
253.329	122.56
253.562	118.56
253.795	114.56
254.028	112.56
254.261	103.56
254.494	92.56
254.727	109.56
254.96	108.56
255.193	116.56
255.426	122.56
255.659	118.56
255.892	121.56
256.124	126.56
256.357	109.56
256.59	107.56
256.823	106.56
257.056	113.56
257.289	113.56
257.521	118.56
257.754	118.56
257.987	116.56
258.22	115.56
258.452	116.56
258.685	115.56
258.918	116.56
259.151	121.56
259.383	107.56
259.616	122.56
259.849	126.56
260.081	115.56
260.314	100.56
260.547	108.56
260.779	121.56
261.012	128.56
261.244	116.56
261.477	127.56
261.71	135.56
261.942	129.56
262.175	135.56
262.407	115.56
262.64	122.56
262.872	122.56
263.105	125.56
263.337	126.56
263.57	143.56
263.802	118.56
264.035	131.56
264.267	114.56
264.499	130.56
264.732	140.56
264.964	144.56
265.197	122.56
265.429	131.56
265.661	124.56
265.894	132.56
266.126	127.56
266.358	127.56
266.591	127.56
266.823	141.56
267.055	129.56
267.287	130.56
267.52	140.56
267.752	139.56
267.984	118.56
268.216	134.56
268.448	127.56
268.681	138.56
268.913	116.56
269.145	135.56
269.377	130.56
269.609	128.56
269.841	124.56
270.073	139.56
270.306	138.56
270.538	122.56
270.77	140.56
271.002	138.56
271.234	131.56
271.466	131.56
271.698	129.56
271.93	132.56
272.162	132.56
272.394	130.56
272.626	128.56
272.858	134.56
273.09	134.56
273.322	133.56
273.553	130.56
273.785	153.56
274.017	140.56
274.249	130.56
274.481	134.56
274.713	137.56
274.945	143.56
275.176	135.56
275.408	134.56
275.64	128.56
275.872	131.56
276.104	148.56
276.335	146.56
276.567	148.56
276.799	130.56
277.031	152.56
277.262	150.56
277.494	158.56
277.726	166.56
277.957	150.56
278.189	140.56
278.421	145.56
278.652	137.56
278.884	143.56
279.115	139.56
279.347	152.56
279.579	143.56
279.81	151.56
280.042	151.56
280.273	154.56
280.505	140.56
280.736	160.56
280.968	159.56
281.199	150.56
281.431	162.56
281.662	151.56
281.894	142.56
282.125	164.56
282.356	155.56
282.588	139.56
282.819	163.56
283.051	160.56
283.282	161.56
283.513	162.56
283.745	159.56
283.976	140.56
284.207	142.56
284.439	150.56
284.67	151.56
284.901	161.56
285.132	163.56
285.364	149.56
285.595	180.56
285.826	159.56
286.057	160.56
286.288	152.56
286.52	150.56
286.751	145.56
286.982	166.56
287.213	166.56
287.444	166.56
287.675	164.56
287.906	162.56
288.138	166.56
288.369	170.56
288.6	178.56
288.831	150.56
289.062	156.56
289.293	171.56
289.524	160.56
289.755	174.56
289.986	156.56
290.217	158.56
290.448	153.56
290.679	170.56
290.91	152.56
291.141	159.56
291.371	156.56
291.602	175.56
291.833	166.56
292.064	179.56
292.295	172.56
292.526	178.56
292.757	173.56
292.987	167.56
293.218	169.56
293.449	184.56
293.68	176.56
293.91	162.56
294.141	173.56
294.372	154.56
294.603	160.56
294.833	174.56
295.064	172.56
295.295	169.56
295.525	180.56
295.756	163.56
295.987	178.56
296.217	184.56
296.448	162.56
296.679	180.56
296.909	172.56
297.14	173.56
297.37	170.56
297.601	184.56
297.831	164.56
298.062	180.56
298.292	184.56
298.523	165.56
298.753	174.56
298.984	188.56
299.214	186.56
299.445	183.56
299.675	164.56
299.905	181.56
300.136	180.56
300.366	182.56
300.597	175.56
300.827	182.56
301.057	180.56
301.288	183.56
301.518	183.56
301.748	190.56
301.979	182.56
302.209	176.56
302.439	203.56
302.669	181.56
302.9	184.56
303.13	179.56
303.36	166.56
303.59	183.56
303.82	193.56
304.051	190.56
304.281	188.56
304.511	181.56
304.741	180.56
304.971	188.56
305.201	187.56
305.431	188.56
305.661	176.56
305.891	178.56
306.121	174.56
306.352	176.56
306.582	185.56
306.812	173.56
307.042	173.56
307.272	189.56
307.502	171.56
307.731	192.56
307.961	179.56
308.191	198.56
308.421	176.56
308.651	180.56
308.881	175.56
309.111	174.56
309.341	156.56
309.571	199.56
309.8	187.56
310.03	192.56
310.26	176.56
310.49	181.56
310.72	194.56
310.949	193.56
311.179	193.56
311.409	184.56
311.639	196.56
311.868	180.56
312.098	200.56
312.328	194.56
312.557	195.56
312.787	207.56
313.017	188.56
313.246	198.56
313.476	185.56
313.706	188.56
313.935	204.56
314.165	205.56
314.394	188.56
314.624	182.56
314.853	204.56
315.083	202.56
315.312	189.56
315.542	198.56
315.771	187.56
316.001	185.56
316.23	208.56
316.46	187.56
316.689	187.56
316.919	205.56
317.148	183.56
317.377	168.56
317.607	182.56
317.836	175.56
318.065	178.56
318.295	167.56
318.524	183.56
318.753	184.56
318.983	197.56
319.212	188.56
319.441	204.56
319.67	184.56
319.9	178.56
320.129	178.56
320.358	186.56
320.587	184.56
320.816	181.56
321.046	186.56
321.275	186.56
321.504	187.56
321.733	169.56
321.962	188.56
322.191	201.56
322.42	199.56
322.649	195.56
322.878	175.56
323.108	196.56
323.337	204.56
323.566	188.56
323.795	164.56
324.024	201.56
324.253	194.56
324.482	190.56
324.71	191.56
324.939	182.56
325.168	183.56
325.397	206.56
325.626	196.56
325.855	198.56
326.084	203.56
326.313	190.56
326.542	214.56
326.77	206.56
326.999	205.56
327.228	195.56
327.457	207.56
327.686	204.56
327.914	209.56
328.143	198.56
328.372	187.56
328.6	198.56
328.829	199.56
329.058	199.56
329.287	214.56
329.515	200.56
329.744	203.56
329.972	206.56
330.201	202.56
330.43	212.56
330.658	198.56
330.887	212.56
331.115	196.56
331.344	219.56
331.572	210.56
331.801	208.56
332.03	223.56
332.258	200.56
332.486	219.56
332.715	242.56
332.943	245.56
333.172	236.56
333.4	250.56
333.629	263.56
333.857	264.56
334.085	236.56
334.314	258.56
334.542	244.56
334.771	231.56
334.999	230.56
335.227	232.56
335.455	252.56
335.684	237.56
335.912	213.56
336.14	227.56
336.369	243.56
336.597	235.56
336.825	231.56
337.053	236.56
337.281	230.56
337.51	220.56
337.738	220.56
337.966	214.56
338.194	211.56
338.422	214.56
338.65	221.56
338.878	203.56
339.106	208.56
339.334	207.56
339.562	218.56
339.79	195.56
340.018	198.56
340.246	193.56
340.474	202.56
340.702	198.56
340.93	214.56
341.158	224.56
341.386	213.56
341.614	199.56
341.842	209.56
342.07	193.56
342.298	207.56
342.526	212.56
342.754	206.56
342.981	209.56
343.209	215.56
343.437	214.56
343.665	229.56
343.893	239.56
344.12	232.56
344.348	237.56
344.576	231.56
344.804	228.56
345.031	209.56
345.259	207.56
345.487	205.56
345.714	196.56
345.942	201.56
346.17	177.56
346.397	216.56
346.625	218.56
346.853	196.56
347.08	186.56
347.308	222.56
347.535	202.56
347.763	194.56
347.99	201.56
348.218	197.56
348.445	190.56
348.673	218.56
348.9	195.56
349.128	203.56
349.355	170.56
349.583	202.56
349.81	172.56
350.037	196.56
350.265	208.56
350.492	194.56
350.72	207.56
350.947	196.56
351.174	186.56
351.402	202.56
351.629	194.56
351.856	199.56
352.083	197.56
352.311	192.56
352.538	187.56
352.765	208.56
352.992	194.56
353.22	190.56
353.447	198.56
353.674	203.56
353.901	188.56
354.128	218.56
354.355	191.56
354.583	202.56
354.81	192.56
355.037	195.56
355.264	206.56
355.491	208.56
355.718	200.56
355.945	198.56
356.172	188.56
356.399	212.56
356.626	184.56
356.853	199.56
357.08	204.56
357.307	190.56
357.534	194.56
357.761	194.56
357.988	191.56
358.215	190.56
358.441	199.56
358.668	189.56
358.895	203.56
359.122	207.56
359.349	201.56
359.576	191.56
359.802	192.56
360.029	201.56
360.256	199.56
360.483	200.56
360.709	197.56
360.936	203.56
361.163	211.56
361.39	194.56
361.616	188.56
361.843	186.56
362.07	197.56
362.296	189.56
362.523	182.56
362.749	204.56
362.976	190.56
363.203	192.56
363.429	189.56
363.656	187.56
363.882	178.56
364.109	189.56
364.335	191.56
364.562	186.56
364.788	207.56
365.015	194.56
365.241	197.56
365.468	195.56
365.694	181.56
365.92	188.56
366.147	178.56
366.373	186.56
366.599	182.56
366.826	194.56
367.052	185.56
367.278	204.56
367.505	210.56
367.731	203.56
367.957	198.56
368.184	203.56
368.41	192.56
368.636	214.56
368.862	203.56
369.089	192.56
369.315	184.56
369.541	202.56
369.767	183.56
369.993	195.56
370.219	186.56
370.445	204.56
370.672	209.56
370.898	206.56
371.124	200.56
371.35	208.56
371.576	202.56
371.802	211.56
372.028	208.56
372.254	203.56
372.48	208.56
372.706	199.56
372.932	209.56
373.158	220.56
373.384	217.56
373.61	214.56
373.835	208.56
374.061	192.56
374.287	206.56
374.513	214.56
374.739	206.56
374.965	227.56
375.191	205.56
375.416	242.56
375.642	217.56
375.868	210.56
376.094	202.56
376.319	191.56
376.545	216.56
376.771	208.56
376.997	201.56
377.222	221.56
377.448	211.56
377.674	197.56
377.899	196.56
378.125	207.56
378.35	192.56
378.576	206.56
378.802	219.56
379.027	196.56
379.253	204.56
379.478	205.56
379.704	204.56
379.929	210.56
380.155	191.56
380.38	203.56
380.606	224.56
380.831	220.56
381.057	211.56
381.282	201.56
381.507	223.56
381.733	202.56
381.958	190.56
382.184	207.56
382.409	212.56
382.634	231.56
382.86	227.56
383.085	228.56
383.31	199.56
383.535	201.56
383.761	215.56
383.986	222.56
384.211	229.56
384.436	230.56
384.662	230.56
384.887	234.56
385.112	231.56
385.337	231.56
385.562	205.56
385.787	229.56
386.013	219.56
386.238	237.56
386.463	216.56
386.688	219.56
386.913	218.56
387.138	210.56
387.363	234.56
387.588	215.56
387.813	215.56
388.038	238.56
388.263	240.56
388.488	223.56
388.713	236.56
388.938	229.56
389.163	214.56
389.387	221.56
389.612	221.56
389.837	249.56
390.062	225.56
390.287	223.56
390.512	235.56
390.736	235.56
390.961	238.56
391.186	243.56
391.411	246.56
391.636	253.56
391.86	247.56
392.085	247.56
392.31	243.56
392.534	226.56
392.759	245.56
392.984	236.56
393.208	242.56
393.433	229.56
393.658	222.56
393.882	236.56
394.107	251.56
394.331	232.56
394.556	223.56
394.78	233.56
395.005	235.56
395.229	221.56
395.454	243.56
395.678	262.56
395.903	247.56
396.127	248.56
396.352	229.56
396.576	224.56
396.801	231.56
397.025	222.56
397.249	262.56
397.474	238.56
397.698	241.56
397.922	236.56
398.147	250.56
398.371	254.56
398.595	240.56
398.82	262.56
399.044	292.56
399.268	276.56
399.492	327.56
399.717	375.56
399.941	361.56
400.165	314.56
400.389	307.56
400.613	278.56
400.837	262.56
401.062	269.56
401.286	245.56
401.51	270.56
401.734	277.56
401.958	270.56
402.182	262.56
402.406	277.56
402.63	290.56
402.854	283.56
403.078	281.56
403.302	304.56
403.526	302.56
403.75	304.56
403.974	317.56
404.198	330.56
404.422	285.56
404.645	316.56
404.869	311.56
405.093	293.56
405.317	282.56
405.541	287.56
405.765	293.56
405.988	284.56
406.212	287.56
406.436	293.56
406.66	305.56
406.883	296.56
407.107	324.56
407.331	334.56
407.555	350.56
407.778	341.56
408.002	342.56
408.226	312.56
408.449	295.56
408.673	294.56
408.896	285.56
409.12	276.56
409.344	308.56
409.567	294.56
409.791	303.56
410.014	307.56
410.238	303.56
410.461	289.56
410.685	297.56
410.908	286.56
411.132	285.56
411.355	282.56
411.578	273.56
411.802	273.56
412.025	267.56
412.249	278.56
412.472	270.56
412.695	286.56
412.919	278.56
413.142	261.56
413.365	263.56
413.589	282.56
413.812	269.56
414.035	267.56
414.258	263.56
414.482	249.56
414.705	300.56
414.928	267.56
415.151	266.56
415.374	267.56
415.597	252.56
415.821	243.56
416.044	232.56
416.267	258.56
416.49	247.56
416.713	243.56
416.936	269.56
417.159	269.56
417.382	271.56
417.605	268.56
417.828	247.56
418.051	264.56
418.274	270.56
418.497	259.56
418.72	277.56
418.943	293.56
419.166	288.56
419.389	285.56
419.611	302.56
419.834	282.56
420.057	272.56
420.28	274.56
420.503	269.56
420.726	273.56
420.948	264.56
421.171	274.56
421.394	263.56
421.617	246.56
421.839	272.56
422.062	267.56
422.285	284.56
422.507	275.56
422.73	270.56
422.953	270.56
423.175	280.56
423.398	280.56
423.621	285.56
423.843	273.56
424.066	270.56
424.288	281.56
424.511	278.56
424.733	274.56
424.956	272.56
425.178	270.56
425.401	269.56
425.623	266.56
425.846	253.56
426.068	261.56
426.291	245.56
426.513	258.56
426.735	262.56
426.958	244.56
427.18	259.56
427.402	239.56
427.625	231.56
427.847	229.56
428.069	255.56
428.292	231.56
428.514	234.56
428.736	251.56
428.958	259.56
429.181	236.56
429.403	243.56
429.625	232.56
429.847	250.56
430.069	246.56
430.292	223.56
430.514	236.56
430.736	236.56
430.958	236.56
431.18	234.56
431.402	237.56
431.624	245.56
431.846	222.56
432.068	250.56
432.29	260.56
432.512	245.56
432.734	234.56
432.956	256.56
433.178	242.56
433.4	245.56
433.622	251.56
433.844	248.56
434.066	258.56
434.287	248.56
434.509	242.56
434.731	243.56
434.953	285.56
435.175	262.56
435.397	272.56
435.618	250.56
435.84	238.56
436.062	254.56
436.284	255.56
436.505	251.56
436.727	245.56
436.949	232.56
437.17	236.56
437.392	232.56
437.614	231.56
437.835	234.56
438.057	236.56
438.278	231.56
438.5	215.56
438.721	234.56
438.943	228.56
439.165	243.56
439.386	235.56
439.608	237.56
439.829	258.56
440.05	232.56
440.272	255.56
440.493	245.56
440.715	248.56
440.936	259.56
441.158	254.56
441.379	245.56
441.6	268.56
441.822	262.56
442.043	274.56
442.264	265.56
442.486	265.56
442.707	263.56
442.928	245.56
443.149	254.56
443.371	251.56
443.592	254.56
443.813	263.56
444.034	276.56
444.255	266.56
444.476	282.56
444.698	298.56
444.919	325.56
445.14	387.56
445.361	313.56
445.582	270.56
445.803	253.56
446.024	247.56
446.245	244.56
446.466	247.56
446.687	230.56
446.908	228.56
447.129	241.56
447.35	220.56
447.571	224.56
447.792	226.56
448.013	246.56
448.234	239.56
448.455	236.56
448.675	244.56
448.896	216.56
449.117	232.56
449.338	237.56
449.559	221.56
449.779	225.56
450	226.56
450.221	224.56
450.442	219.56
450.662	221.56
450.883	221.56
451.104	233.56
451.324	232.56
451.545	225.56
451.766	234.56
451.986	211.56
452.207	228.56
452.428	222.56
452.648	220.56
452.869	224.56
453.089	214.56
453.31	226.56
453.53	203.56
453.751	224.56
453.971	228.56
454.192	234.56
454.412	226.56
454.633	198.56
454.853	200.56
455.073	197.56
455.294	206.56
455.514	209.56
455.734	188.56
455.955	212.56
456.175	216.56
456.395	218.56
456.616	212.56
456.836	208.56
457.056	230.56
457.276	197.56
457.497	219.56
457.717	215.56
457.937	215.56
458.157	209.56
458.377	204.56
458.598	232.56
458.818	224.56
459.038	235.56
459.258	238.56
459.478	232.56
459.698	244.56
459.918	252.56
460.138	264.56
460.358	260.56
460.578	276.56
460.798	291.56
461.018	285.56
461.238	283.56
461.458	275.56
461.678	279.56
461.898	290.56
462.118	265.56
462.338	301.56
462.558	311.56
462.777	296.56
462.997	317.56
463.217	356.56
463.437	365.56
463.657	316.56
463.876	324.56
464.096	323.56
464.316	299.56
464.536	313.56
464.755	301.56
464.975	295.56
465.195	281.56
465.414	276.56
465.634	277.56
465.854	266.56
466.073	260.56
466.293	234.56
466.512	240.56
466.732	246.56
466.951	225.56
467.171	235.56
467.391	250.56
467.61	231.56
467.829	228.56
468.049	234.56
468.268	233.56
468.488	224.56
468.707	223.56
468.927	240.56
469.146	246.56
469.365	213.56
469.585	230.56
469.804	239.56
470.023	252.56
470.243	262.56
470.462	231.56
470.681	266.56
470.901	256.56
471.12	253.56
471.339	228.56
471.558	239.56
471.777	229.56
471.997	231.56
472.216	224.56
472.435	227.56
472.654	235.56
472.873	222.56
473.092	226.56
473.311	223.56
473.53	238.56
473.749	220.56
473.968	233.56
474.187	216.56
474.406	227.56
474.625	225.56
474.844	213.56
475.063	236.56
475.282	230.56
475.501	214.56
475.72	244.56
475.939	228.56
476.158	247.56
476.377	228.56
476.596	236.56
476.814	235.56
477.033	233.56
477.252	242.56
477.471	227.56
477.69	239.56
477.908	277.56
478.127	248.56
478.346	265.56
478.564	274.56
478.783	277.56
479.002	268.56
479.22	281.56
479.439	278.56
479.658	264.56
479.876	258.56
480.095	279.56
480.313	288.56
480.532	279.56
480.751	285.56
480.969	276.56
481.188	274.56
481.406	265.56
481.624	259.56
481.843	243.56
482.061	253.56
482.28	243.56
482.498	238.56
482.717	248.56
482.935	263.56
483.153	250.56
483.372	244.56
483.59	269.56
483.808	246.56
484.027	254.56
484.245	250.56
484.463	246.56
484.681	272.56
484.9	262.56
485.118	262.56
485.336	273.56
485.554	267.56
485.772	259.56
485.99	277.56
486.209	302.56
486.427	281.56
486.645	270.56
486.863	271.56
487.081	268.56
487.299	259.56
487.517	269.56
487.735	276.56
487.953	256.56
488.171	278.56
488.389	271.56
488.607	273.56
488.825	265.56
489.043	263.56
489.261	247.56
489.479	272.56
489.696	252.56
489.914	265.56
490.132	284.56
490.35	283.56
490.568	271.56
490.786	265.56
491.003	270.56
491.221	269.56
491.439	267.56
491.657	268.56
491.874	249.56
492.092	279.56
492.31	283.56
492.527	268.56
492.745	267.56
492.963	272.56
493.18	276.56
493.398	280.56
493.615	285.56
493.833	275.56
494.05	276.56
494.268	283.56
494.485	281.56
494.703	294.56
494.92	283.56
495.138	284.56
495.355	271.56
495.573	262.56
495.79	262.56
496.008	288.56
496.225	301.56
496.442	268.56
496.66	287.56
496.877	290.56
497.094	286.56
497.312	310.56
497.529	308.56
497.746	312.56
497.963	320.56
498.181	317.56
498.398	324.56
498.615	362.56
498.832	367.56
499.049	386.56
499.267	402.56
499.484	437.56
499.701	508.56
499.918	544.56
500.135	620.56
500.352	705.56
500.569	744.56
500.786	760.56
501.003	703.56
501.22	619.56
501.437	559.56
501.654	476.56
501.871	431.56
502.088	414.56
502.305	396.56
502.522	371.56
502.739	339.56
502.956	340.56
