Data from 0.5MCu(NO3)2.Standard.Lamp.E10.CV._HRD10591_16-04-55-753.txt Node
Date: Mon Jul 22 16:04:55 EDT 2019
User: cochatt
Spectrometer: HR+D1059
Trigger mode: 1
Integration Time (sec): 1.000000E-1
Scans to average: 1
Electric dark correction enabled: true
Nonlinearity correction enabled: false
Boxcar width: 0
XAxis mode: Wavelengths
Number of Pixels in Spectrum: 2048
>>>>>Begin Spectral Data<<<<<
223.165	-21.38
223.4	-21.38
223.635	-21.38
223.869	-31.38
224.104	-6.38
224.338	-1.38
224.573	-19.38
224.808	-18.38
225.042	-14.38
225.277	-0.38
225.511	9.62
225.746	-11.38
225.98	3.62
226.215	19.62
226.449	21.62
226.683	20.62
226.918	13.62
227.152	35.62
227.387	39.62
227.621	40.62
227.856	23.62
228.09	38.62
228.324	59.62
228.559	68.62
228.793	55.62
229.027	61.62
229.262	62.62
229.496	67.62
229.73	83.62
229.964	81.62
230.199	81.62
230.433	70.62
230.667	101.62
230.901	96.62
231.136	85.62
231.37	87.62
231.604	77.62
231.838	72.62
232.072	82.62
232.306	90.62
232.541	100.62
232.775	98.62
233.009	87.62
233.243	91.62
233.477	84.62
233.711	81.62
233.945	96.62
234.179	84.62
234.413	85.62
234.647	89.62
234.881	78.62
235.115	93.62
235.349	91.62
235.583	91.62
235.817	94.62
236.051	78.62
236.285	90.62
236.519	89.62
236.753	81.62
236.987	93.62
237.221	91.62
237.455	70.62
237.689	85.62
237.922	99.62
238.156	108.62
238.39	92.62
238.624	77.62
238.858	94.62
239.091	86.62
239.325	94.62
239.559	87.62
239.793	97.62
240.027	96.62
240.26	92.62
240.494	113.62
240.728	91.62
240.961	83.62
241.195	84.62
241.429	86.62
241.662	89.62
241.896	88.62
242.13	86.62
242.363	95.62
242.597	89.62
242.83	115.62
243.064	109.62
243.298	108.62
243.531	98.62
243.765	86.62
243.998	99.62
244.232	105.62
244.465	108.62
244.699	111.62
244.932	96.62
245.166	100.62
245.399	89.62
245.633	99.62
245.866	77.62
246.099	81.62
246.333	96.62
246.566	106.62
246.8	95.62
247.033	103.62
247.266	116.62
247.5	103.62
247.733	103.62
247.966	100.62
248.2	100.62
248.433	107.62
248.666	104.62
248.899	103.62
249.133	122.62
249.366	115.62
249.599	86.62
249.832	95.62
250.066	104.62
250.299	100.62
250.532	115.62
250.765	105.62
250.998	106.62
251.231	103.62
251.465	101.62
251.698	111.62
251.931	106.62
252.164	120.62
252.397	105.62
252.63	99.62
252.863	98.62
253.096	120.62
253.329	119.62
253.562	116.62
253.795	99.62
254.028	105.62
254.261	99.62
254.494	116.62
254.727	113.62
254.96	117.62
255.193	105.62
255.426	116.62
255.659	118.62
255.892	108.62
256.124	114.62
256.357	124.62
256.59	113.62
256.823	101.62
257.056	107.62
257.289	111.62
257.521	118.62
257.754	119.62
257.987	130.62
258.22	118.62
258.452	114.62
258.685	122.62
258.918	112.62
259.151	123.62
259.383	115.62
259.616	132.62
259.849	115.62
260.081	119.62
260.314	127.62
260.547	117.62
260.779	129.62
261.012	126.62
261.244	117.62
261.477	126.62
261.71	141.62
261.942	119.62
262.175	123.62
262.407	119.62
262.64	125.62
262.872	121.62
263.105	126.62
263.337	122.62
263.57	124.62
263.802	128.62
264.035	119.62
264.267	119.62
264.499	127.62
264.732	125.62
264.964	118.62
265.197	127.62
265.429	139.62
265.661	115.62
265.894	132.62
266.126	133.62
266.358	121.62
266.591	120.62
266.823	133.62
267.055	140.62
267.287	133.62
267.52	125.62
267.752	133.62
267.984	131.62
268.216	129.62
268.448	136.62
268.681	138.62
268.913	131.62
269.145	123.62
269.377	125.62
269.609	120.62
269.841	135.62
270.073	136.62
270.306	131.62
270.538	127.62
270.77	123.62
271.002	128.62
271.234	147.62
271.466	129.62
271.698	129.62
271.93	119.62
272.162	134.62
272.394	127.62
272.626	135.62
272.858	145.62
273.09	129.62
273.322	141.62
273.553	147.62
273.785	145.62
274.017	141.62
274.249	142.62
274.481	140.62
274.713	125.62
274.945	140.62
275.176	141.62
275.408	144.62
275.64	136.62
275.872	142.62
276.104	145.62
276.335	142.62
276.567	135.62
276.799	146.62
277.031	139.62
277.262	154.62
277.494	159.62
277.726	145.62
277.957	150.62
278.189	144.62
278.421	136.62
278.652	137.62
278.884	143.62
279.115	159.62
279.347	155.62
279.579	141.62
279.81	145.62
280.042	157.62
280.273	153.62
280.505	149.62
280.736	140.62
280.968	144.62
281.199	143.62
281.431	159.62
281.662	139.62
281.894	177.62
282.125	159.62
282.356	161.62
282.588	148.62
282.819	146.62
283.051	152.62
283.282	149.62
283.513	149.62
283.745	157.62
283.976	155.62
284.207	131.62
284.439	166.62
284.67	151.62
284.901	157.62
285.132	147.62
285.364	163.62
285.595	146.62
285.826	161.62
286.057	156.62
286.288	155.62
286.52	170.62
286.751	175.62
286.982	177.62
287.213	163.62
287.444	152.62
287.675	180.62
287.906	155.62
288.138	156.62
288.369	156.62
288.6	172.62
288.831	154.62
289.062	153.62
289.293	167.62
289.524	162.62
289.755	165.62
289.986	177.62
290.217	164.62
290.448	156.62
290.679	152.62
290.91	167.62
291.141	162.62
291.371	167.62
291.602	167.62
291.833	178.62
292.064	169.62
292.295	163.62
292.526	187.62
292.757	175.62
292.987	154.62
293.218	168.62
293.449	156.62
293.68	159.62
293.91	161.62
294.141	184.62
294.372	176.62
294.603	169.62
294.833	168.62
295.064	150.62
295.295	154.62
295.525	164.62
295.756	155.62
295.987	183.62
296.217	170.62
296.448	175.62
296.679	171.62
296.909	163.62
297.14	178.62
297.37	182.62
297.601	178.62
297.831	160.62
298.062	177.62
298.292	191.62
298.523	196.62
298.753	174.62
298.984	167.62
299.214	167.62
299.445	181.62
299.675	181.62
299.905	178.62
300.136	183.62
300.366	173.62
300.597	187.62
300.827	200.62
301.057	183.62
301.288	170.62
301.518	195.62
301.748	179.62
301.979	185.62
302.209	168.62
302.439	188.62
302.669	189.62
302.9	171.62
303.13	186.62
303.36	164.62
303.59	179.62
303.82	190.62
304.051	182.62
304.281	191.62
304.511	188.62
304.741	172.62
304.971	173.62
305.201	191.62
305.431	174.62
305.661	183.62
305.891	187.62
306.121	179.62
306.352	180.62
306.582	185.62
306.812	193.62
307.042	189.62
307.272	165.62
307.502	167.62
307.731	178.62
307.961	163.62
308.191	203.62
308.421	177.62
308.651	173.62
308.881	175.62
309.111	177.62
309.341	165.62
309.571	168.62
309.8	168.62
310.03	176.62
310.26	179.62
310.49	200.62
310.72	167.62
310.949	176.62
311.179	181.62
311.409	196.62
311.639	197.62
311.868	194.62
312.098	172.62
312.328	173.62
312.557	169.62
312.787	192.62
313.017	188.62
313.246	206.62
313.476	188.62
313.706	203.62
313.935	196.62
314.165	181.62
314.394	184.62
314.624	176.62
314.853	173.62
315.083	181.62
315.312	190.62
315.542	179.62
315.771	169.62
316.001	173.62
316.23	175.62
316.46	192.62
316.689	187.62
316.919	179.62
317.148	176.62
317.377	193.62
317.607	188.62
317.836	183.62
318.065	184.62
318.295	175.62
318.524	200.62
318.753	166.62
318.983	192.62
319.212	180.62
319.441	181.62
319.67	171.62
319.9	175.62
320.129	170.62
320.358	178.62
320.587	204.62
320.816	182.62
321.046	181.62
321.275	181.62
321.504	186.62
321.733	184.62
321.962	187.62
322.191	199.62
322.42	173.62
322.649	199.62
322.878	186.62
323.108	195.62
323.337	200.62
323.566	181.62
323.795	193.62
324.024	205.62
324.253	182.62
324.482	193.62
324.71	191.62
324.939	189.62
325.168	188.62
325.397	188.62
325.626	209.62
325.855	195.62
326.084	193.62
326.313	196.62
326.542	196.62
326.77	202.62
326.999	199.62
327.228	197.62
327.457	191.62
327.686	203.62
327.914	195.62
328.143	186.62
328.372	192.62
328.6	204.62
328.829	207.62
329.058	191.62
329.287	201.62
329.515	196.62
329.744	192.62
329.972	210.62
330.201	213.62
330.43	200.62
330.658	179.62
330.887	213.62
331.115	197.62
331.344	200.62
331.572	209.62
331.801	227.62
332.03	205.62
332.258	228.62
332.486	220.62
332.715	235.62
332.943	226.62
333.172	239.62
333.4	247.62
333.629	244.62
333.857	253.62
334.085	244.62
334.314	236.62
334.542	237.62
334.771	224.62
334.999	230.62
335.227	238.62
335.455	244.62
335.684	221.62
335.912	221.62
336.14	223.62
336.369	229.62
336.597	232.62
336.825	238.62
337.053	237.62
337.281	231.62
337.51	218.62
337.738	204.62
337.966	214.62
338.194	217.62
338.422	207.62
338.65	199.62
338.878	209.62
339.106	211.62
339.334	220.62
339.562	203.62
339.79	206.62
340.018	197.62
340.246	204.62
340.474	200.62
340.702	193.62
340.93	217.62
341.158	194.62
341.386	215.62
341.614	223.62
341.842	209.62
342.07	195.62
342.298	200.62
342.526	201.62
342.754	201.62
342.981	190.62
343.209	207.62
343.437	204.62
343.665	204.62
343.893	227.62
344.12	251.62
344.348	230.62
344.576	232.62
344.804	216.62
345.031	212.62
345.259	205.62
345.487	207.62
345.714	200.62
345.942	200.62
346.17	170.62
346.397	210.62
346.625	195.62
346.853	214.62
347.08	213.62
347.308	215.62
347.535	199.62
347.763	201.62
347.99	209.62
348.218	187.62
348.445	216.62
348.673	223.62
348.9	207.62
349.128	194.62
349.355	209.62
349.583	201.62
349.81	169.62
350.037	199.62
350.265	205.62
350.492	205.62
350.72	177.62
350.947	179.62
351.174	183.62
351.402	181.62
351.629	193.62
351.856	187.62
352.083	193.62
352.311	181.62
352.538	212.62
352.765	198.62
352.992	193.62
353.22	182.62
353.447	184.62
353.674	197.62
353.901	203.62
354.128	189.62
354.355	195.62
354.583	190.62
354.81	189.62
355.037	192.62
355.264	188.62
355.491	184.62
355.718	183.62
355.945	186.62
356.172	196.62
356.399	203.62
356.626	172.62
356.853	190.62
357.08	193.62
357.307	211.62
357.534	195.62
357.761	189.62
357.988	187.62
358.215	200.62
358.441	194.62
358.668	193.62
358.895	204.62
359.122	196.62
359.349	184.62
359.576	191.62
359.802	193.62
360.029	211.62
360.256	208.62
360.483	184.62
360.709	194.62
360.936	203.62
361.163	206.62
361.39	188.62
361.616	198.62
361.843	189.62
362.07	181.62
362.296	188.62
362.523	198.62
362.749	182.62
362.976	199.62
363.203	195.62
363.429	193.62
363.656	192.62
363.882	198.62
364.109	189.62
364.335	179.62
364.562	203.62
364.788	207.62
365.015	183.62
365.241	184.62
365.468	197.62
365.694	193.62
365.92	184.62
366.147	179.62
366.373	188.62
366.599	208.62
366.826	189.62
367.052	172.62
367.278	195.62
367.505	199.62
367.731	189.62
367.957	180.62
368.184	187.62
368.41	201.62
368.636	195.62
368.862	197.62
369.089	214.62
369.315	193.62
369.541	198.62
369.767	205.62
369.993	184.62
370.219	179.62
370.445	194.62
370.672	203.62
370.898	188.62
371.124	216.62
371.35	193.62
371.576	204.62
371.802	209.62
372.028	183.62
372.254	189.62
372.48	196.62
372.706	212.62
372.932	221.62
373.158	211.62
373.384	204.62
373.61	205.62
373.835	188.62
374.061	199.62
374.287	196.62
374.513	211.62
374.739	210.62
374.965	220.62
375.191	228.62
375.416	216.62
375.642	214.62
375.868	195.62
376.094	212.62
376.319	195.62
376.545	199.62
376.771	200.62
376.997	201.62
377.222	199.62
377.448	202.62
377.674	190.62
377.899	207.62
378.125	216.62
378.35	204.62
378.576	200.62
378.802	195.62
379.027	208.62
379.253	200.62
379.478	196.62
379.704	209.62
379.929	191.62
380.155	203.62
380.38	194.62
380.606	193.62
380.831	195.62
381.057	204.62
381.282	217.62
381.507	216.62
381.733	208.62
381.958	203.62
382.184	201.62
382.409	204.62
382.634	216.62
382.86	197.62
383.085	202.62
383.31	199.62
383.535	200.62
383.761	208.62
383.986	225.62
384.211	222.62
384.436	221.62
384.662	221.62
384.887	231.62
385.112	234.62
385.337	232.62
385.562	224.62
385.787	227.62
386.013	242.62
386.238	240.62
386.463	220.62
386.688	226.62
386.913	225.62
387.138	214.62
387.363	229.62
387.588	229.62
387.813	224.62
388.038	211.62
388.263	220.62
388.488	235.62
388.713	242.62
388.938	225.62
389.163	218.62
389.387	226.62
389.612	230.62
389.837	217.62
390.062	214.62
390.287	223.62
390.512	207.62
390.736	213.62
390.961	207.62
391.186	218.62
391.411	235.62
391.636	226.62
391.86	253.62
392.085	251.62
392.31	268.62
392.534	219.62
392.759	227.62
392.984	228.62
393.208	231.62
393.433	235.62
393.658	241.62
393.882	233.62
394.107	223.62
394.331	238.62
394.556	237.62
394.78	251.62
395.005	233.62
395.229	232.62
395.454	237.62
395.678	241.62
395.903	239.62
396.127	259.62
396.352	219.62
396.576	219.62
396.801	233.62
397.025	233.62
397.249	229.62
397.474	246.62
397.698	255.62
397.922	244.62
398.147	229.62
398.371	236.62
398.595	263.62
398.82	271.62
399.044	266.62
399.268	279.62
399.492	344.62
399.717	387.62
399.941	369.62
400.165	357.62
400.389	313.62
400.613	290.62
400.837	271.62
401.062	283.62
401.286	276.62
401.51	267.62
401.734	251.62
401.958	265.62
402.182	259.62
402.406	275.62
402.63	278.62
402.854	279.62
403.078	282.62
403.302	280.62
403.526	295.62
403.75	303.62
403.974	295.62
404.198	331.62
404.422	307.62
404.645	299.62
404.869	299.62
405.093	306.62
405.317	287.62
405.541	290.62
405.765	311.62
405.988	283.62
406.212	278.62
406.436	278.62
406.66	320.62
406.883	297.62
407.107	310.62
407.331	309.62
407.555	327.62
407.778	325.62
408.002	324.62
408.226	294.62
408.449	293.62
408.673	294.62
408.896	301.62
409.12	295.62
409.344	314.62
409.567	291.62
409.791	294.62
410.014	301.62
410.238	292.62
410.461	294.62
410.685	271.62
410.908	271.62
411.132	283.62
411.355	256.62
411.578	281.62
411.802	286.62
412.025	273.62
412.249	268.62
412.472	264.62
412.695	257.62
412.919	244.62
413.142	267.62
413.365	274.62
413.589	269.62
413.812	257.62
414.035	263.62
414.258	273.62
414.482	268.62
414.705	265.62
414.928	274.62
415.151	265.62
415.374	261.62
415.597	259.62
415.821	249.62
416.044	264.62
416.267	267.62
416.49	253.62
416.713	262.62
416.936	258.62
417.159	268.62
417.382	262.62
417.605	273.62
417.828	259.62
418.051	271.62
418.274	260.62
418.497	290.62
418.72	280.62
418.943	259.62
419.166	302.62
419.389	292.62
419.611	277.62
419.834	285.62
420.057	282.62
420.28	263.62
420.503	268.62
420.726	258.62
420.948	257.62
421.171	261.62
421.394	266.62
421.617	261.62
421.839	270.62
422.062	265.62
422.285	281.62
422.507	270.62
422.73	271.62
422.953	263.62
423.175	279.62
423.398	285.62
423.621	272.62
423.843	278.62
424.066	275.62
424.288	264.62
424.511	268.62
424.733	268.62
424.956	266.62
425.178	255.62
425.401	275.62
425.623	274.62
425.846	256.62
426.068	248.62
426.291	231.62
426.513	257.62
426.735	226.62
426.958	258.62
427.18	242.62
427.402	260.62
427.625	260.62
427.847	236.62
428.069	227.62
428.292	242.62
428.514	227.62
428.736	226.62
428.958	237.62
429.181	235.62
429.403	232.62
429.625	242.62
429.847	229.62
430.069	231.62
430.292	228.62
430.514	234.62
430.736	236.62
430.958	223.62
431.18	228.62
431.402	244.62
431.624	221.62
431.846	247.62
432.068	241.62
432.29	245.62
432.512	235.62
432.734	227.62
432.956	244.62
433.178	223.62
433.4	247.62
433.622	228.62
433.844	247.62
434.066	255.62
434.287	234.62
434.509	249.62
434.731	263.62
434.953	248.62
435.175	264.62
435.397	250.62
435.618	255.62
435.84	232.62
436.062	230.62
436.284	217.62
436.505	238.62
436.727	244.62
436.949	241.62
437.17	234.62
437.392	245.62
437.614	244.62
437.835	220.62
438.057	230.62
438.278	232.62
438.5	241.62
438.721	234.62
438.943	242.62
439.165	229.62
439.386	216.62
439.608	230.62
439.829	229.62
440.05	231.62
440.272	229.62
440.493	257.62
440.715	233.62
440.936	241.62
441.158	257.62
441.379	258.62
441.6	252.62
441.822	269.62
442.043	274.62
442.264	256.62
442.486	267.62
442.707	261.62
442.928	267.62
443.149	270.62
443.371	250.62
443.592	278.62
443.813	276.62
444.034	280.62
444.255	267.62
444.476	281.62
444.698	297.62
444.919	304.62
445.14	432.62
445.361	338.62
445.582	277.62
445.803	254.62
446.024	250.62
446.245	251.62
446.466	229.62
446.687	227.62
446.908	236.62
447.129	237.62
447.35	241.62
447.571	223.62
447.792	226.62
448.013	243.62
448.234	202.62
448.455	200.62
448.675	224.62
448.896	211.62
449.117	220.62
449.338	219.62
449.559	224.62
449.779	219.62
450	228.62
450.221	221.62
450.442	223.62
450.662	220.62
450.883	243.62
451.104	220.62
451.324	221.62
451.545	230.62
451.766	228.62
451.986	216.62
452.207	221.62
452.428	228.62
452.648	222.62
452.869	212.62
453.089	212.62
453.31	213.62
453.53	203.62
453.751	220.62
453.971	229.62
454.192	220.62
454.412	220.62
454.633	223.62
454.853	211.62
455.073	212.62
455.294	211.62
455.514	205.62
455.734	224.62
455.955	203.62
456.175	199.62
456.395	224.62
456.616	203.62
456.836	216.62
457.056	210.62
457.276	211.62
457.497	215.62
457.717	212.62
457.937	211.62
458.157	228.62
458.377	220.62
458.598	211.62
458.818	218.62
459.038	237.62
459.258	237.62
459.478	236.62
459.698	249.62
459.918	259.62
460.138	259.62
460.358	290.62
460.578	267.62
460.798	295.62
461.018	289.62
461.238	289.62
461.458	283.62
461.678	273.62
461.898	272.62
462.118	261.62
462.338	297.62
462.558	280.62
462.777	312.62
462.997	317.62
463.217	349.62
463.437	359.62
463.657	308.62
463.876	309.62
464.096	307.62
464.316	314.62
464.536	321.62
464.755	300.62
464.975	313.62
465.195	277.62
465.414	274.62
465.634	241.62
465.854	270.62
466.073	264.62
466.293	249.62
466.512	238.62
466.732	223.62
466.951	234.62
467.171	210.62
467.391	231.62
467.61	256.62
467.829	248.62
468.049	243.62
468.268	211.62
468.488	212.62
468.707	220.62
468.927	226.62
469.146	199.62
469.365	232.62
469.585	223.62
469.804	237.62
470.023	241.62
470.243	243.62
470.462	245.62
470.681	231.62
470.901	244.62
471.12	258.62
471.339	239.62
471.558	235.62
471.777	224.62
471.997	230.62
472.216	227.62
472.435	232.62
472.654	236.62
472.873	217.62
473.092	219.62
473.311	220.62
473.53	234.62
473.749	235.62
473.968	226.62
474.187	225.62
474.406	214.62
474.625	212.62
474.844	210.62
475.063	221.62
475.282	223.62
475.501	222.62
475.72	225.62
475.939	197.62
476.158	224.62
476.377	239.62
476.596	233.62
476.814	227.62
477.033	263.62
477.252	249.62
477.471	260.62
477.69	241.62
477.908	267.62
478.127	268.62
478.346	256.62
478.564	249.62
478.783	253.62
479.002	275.62
479.22	267.62
479.439	272.62
479.658	255.62
479.876	259.62
480.095	263.62
480.313	281.62
480.532	277.62
480.751	285.62
480.969	269.62
481.188	271.62
481.406	259.62
481.624	272.62
481.843	260.62
482.061	243.62
482.28	249.62
482.498	244.62
482.717	225.62
482.935	241.62
483.153	240.62
483.372	263.62
483.59	251.62
483.808	239.62
484.027	258.62
484.245	263.62
484.463	257.62
484.681	263.62
484.9	263.62
485.118	260.62
485.336	267.62
485.554	283.62
485.772	267.62
485.99	282.62
486.209	261.62
486.427	274.62
486.645	268.62
486.863	273.62
487.081	287.62
487.299	272.62
487.517	267.62
487.735	275.62
487.953	270.62
488.171	276.62
488.389	252.62
488.607	267.62
488.825	268.62
489.043	269.62
489.261	271.62
489.479	255.62
489.696	259.62
489.914	261.62
490.132	269.62
490.35	249.62
490.568	268.62
490.786	261.62
491.003	273.62
491.221	279.62
491.439	275.62
491.657	262.62
491.874	283.62
492.092	268.62
492.31	260.62
492.527	280.62
492.745	274.62
492.963	264.62
493.18	279.62
493.398	296.62
493.615	277.62
493.833	291.62
494.05	268.62
494.268	265.62
494.485	276.62
494.703	281.62
494.92	291.62
495.138	257.62
495.355	270.62
495.573	282.62
495.79	274.62
496.008	288.62
496.225	277.62
496.442	278.62
496.66	273.62
496.877	306.62
497.094	276.62
497.312	291.62
497.529	300.62
497.746	309.62
497.963	306.62
498.181	282.62
498.398	320.62
498.615	343.62
498.832	372.62
499.049	393.62
499.267	427.62
499.484	448.62
499.701	497.62
499.918	540.62
500.135	627.62
500.352	736.62
500.569	751.62
500.786	763.62
501.003	701.62
501.22	607.62
501.437	546.62
501.654	481.62
501.871	453.62
502.088	418.62
502.305	381.62
502.522	378.62
502.739	348.62
502.956	340.62
503.172	324.62
