Data from 0.5MCu(NO3)2.Standard.Lamp.E10.CV._HRD10591_16-05-23-753.txt Node
Date: Mon Jul 22 16:05:23 EDT 2019
User: cochatt
Spectrometer: HR+D1059
Trigger mode: 1
Integration Time (sec): 1.000000E-1
Scans to average: 1
Electric dark correction enabled: true
Nonlinearity correction enabled: false
Boxcar width: 0
XAxis mode: Wavelengths
Number of Pixels in Spectrum: 2048
>>>>>Begin Spectral Data<<<<<
223.165	-2.62
223.4	-2.62
223.635	-2.62
223.869	-23.62
224.104	-3.62
224.338	-24.62
224.573	-18.62
224.808	-11.62
225.042	-2.62
225.277	-5.62
225.511	-14.62
225.746	10.38
225.98	2.38
226.215	8.38
226.449	2.38
226.683	25.38
226.918	24.38
227.152	34.38
227.387	43.38
227.621	37.38
227.856	42.38
228.09	31.38
228.324	72.38
228.559	66.38
228.793	44.38
229.027	64.38
229.262	74.38
229.496	69.38
229.73	89.38
229.964	77.38
230.199	75.38
230.433	87.38
230.667	70.38
230.901	83.38
231.136	91.38
231.37	88.38
231.604	93.38
231.838	101.38
232.072	91.38
232.306	89.38
232.541	78.38
232.775	87.38
233.009	91.38
233.243	82.38
233.477	89.38
233.711	87.38
233.945	86.38
234.179	81.38
234.413	96.38
234.647	98.38
234.881	100.38
235.115	91.38
235.349	77.38
235.583	79.38
235.817	102.38
236.051	104.38
236.285	82.38
236.519	81.38
236.753	92.38
236.987	104.38
237.221	88.38
237.455	79.38
237.689	85.38
237.922	86.38
238.156	87.38
238.39	99.38
238.624	90.38
238.858	108.38
239.091	94.38
239.325	79.38
239.559	99.38
239.793	90.38
240.027	93.38
240.26	103.38
240.494	100.38
240.728	81.38
240.961	87.38
241.195	86.38
241.429	94.38
241.662	92.38
241.896	93.38
242.13	104.38
242.363	93.38
242.597	91.38
242.83	103.38
243.064	95.38
243.298	115.38
243.531	95.38
243.765	112.38
243.998	92.38
244.232	106.38
244.465	98.38
244.699	102.38
244.932	96.38
245.166	102.38
245.399	103.38
245.633	96.38
245.866	97.38
246.099	94.38
246.333	89.38
246.566	110.38
246.8	106.38
247.033	108.38
247.266	98.38
247.5	116.38
247.733	106.38
247.966	101.38
248.2	104.38
248.433	104.38
248.666	108.38
248.899	100.38
249.133	104.38
249.366	105.38
249.599	111.38
249.832	100.38
250.066	113.38
250.299	101.38
250.532	99.38
250.765	110.38
250.998	101.38
251.231	108.38
251.465	110.38
251.698	114.38
251.931	115.38
252.164	98.38
252.397	104.38
252.63	120.38
252.863	113.38
253.096	112.38
253.329	110.38
253.562	108.38
253.795	103.38
254.028	101.38
254.261	109.38
254.494	102.38
254.727	126.38
254.96	98.38
255.193	119.38
255.426	114.38
255.659	106.38
255.892	119.38
256.124	125.38
256.357	109.38
256.59	104.38
256.823	125.38
257.056	130.38
257.289	102.38
257.521	117.38
257.754	131.38
257.987	127.38
258.22	120.38
258.452	116.38
258.685	118.38
258.918	109.38
259.151	116.38
259.383	112.38
259.616	121.38
259.849	125.38
260.081	113.38
260.314	108.38
260.547	120.38
260.779	113.38
261.012	124.38
261.244	120.38
261.477	110.38
261.71	121.38
261.942	124.38
262.175	132.38
262.407	141.38
262.64	124.38
262.872	138.38
263.105	125.38
263.337	121.38
263.57	135.38
263.802	117.38
264.035	132.38
264.267	116.38
264.499	132.38
264.732	125.38
264.964	122.38
265.197	152.38
265.429	120.38
265.661	118.38
265.894	109.38
266.126	128.38
266.358	132.38
266.591	136.38
266.823	119.38
267.055	128.38
267.287	130.38
267.52	117.38
267.752	134.38
267.984	125.38
268.216	129.38
268.448	128.38
268.681	140.38
268.913	134.38
269.145	129.38
269.377	138.38
269.609	141.38
269.841	149.38
270.073	124.38
270.306	130.38
270.538	124.38
270.77	131.38
271.002	129.38
271.234	135.38
271.466	124.38
271.698	137.38
271.93	150.38
272.162	140.38
272.394	158.38
272.626	140.38
272.858	143.38
273.09	127.38
273.322	125.38
273.553	140.38
273.785	133.38
274.017	152.38
274.249	132.38
274.481	124.38
274.713	145.38
274.945	138.38
275.176	126.38
275.408	132.38
275.64	137.38
275.872	143.38
276.104	138.38
276.335	132.38
276.567	158.38
276.799	130.38
277.031	147.38
277.262	138.38
277.494	137.38
277.726	149.38
277.957	125.38
278.189	151.38
278.421	153.38
278.652	143.38
278.884	156.38
279.115	150.38
279.347	139.38
279.579	156.38
279.81	156.38
280.042	134.38
280.273	156.38
280.505	150.38
280.736	152.38
280.968	149.38
281.199	170.38
281.431	151.38
281.662	145.38
281.894	153.38
282.125	134.38
282.356	143.38
282.588	148.38
282.819	145.38
283.051	149.38
283.282	147.38
283.513	138.38
283.745	148.38
283.976	147.38
284.207	156.38
284.439	153.38
284.67	152.38
284.901	157.38
285.132	156.38
285.364	155.38
285.595	160.38
285.826	154.38
286.057	150.38
286.288	153.38
286.52	159.38
286.751	165.38
286.982	169.38
287.213	156.38
287.444	176.38
287.675	173.38
287.906	162.38
288.138	166.38
288.369	173.38
288.6	157.38
288.831	168.38
289.062	168.38
289.293	160.38
289.524	170.38
289.755	169.38
289.986	151.38
290.217	170.38
290.448	164.38
290.679	173.38
290.91	161.38
291.141	166.38
291.371	156.38
291.602	163.38
291.833	171.38
292.064	158.38
292.295	160.38
292.526	173.38
292.757	161.38
292.987	167.38
293.218	178.38
293.449	173.38
293.68	171.38
293.91	181.38
294.141	174.38
294.372	173.38
294.603	158.38
294.833	177.38
295.064	169.38
295.295	162.38
295.525	155.38
295.756	161.38
295.987	172.38
296.217	173.38
296.448	182.38
296.679	166.38
296.909	182.38
297.14	171.38
297.37	172.38
297.601	182.38
297.831	182.38
298.062	171.38
298.292	179.38
298.523	171.38
298.753	181.38
298.984	178.38
299.214	184.38
299.445	187.38
299.675	179.38
299.905	184.38
300.136	176.38
300.366	169.38
300.597	173.38
300.827	182.38
301.057	181.38
301.288	180.38
301.518	179.38
301.748	193.38
301.979	197.38
302.209	197.38
302.439	180.38
302.669	195.38
302.9	176.38
303.13	179.38
303.36	170.38
303.59	181.38
303.82	185.38
304.051	187.38
304.281	184.38
304.511	186.38
304.741	180.38
304.971	185.38
305.201	183.38
305.431	185.38
305.661	188.38
305.891	186.38
306.121	181.38
306.352	180.38
306.582	188.38
306.812	174.38
307.042	198.38
307.272	178.38
307.502	181.38
307.731	180.38
307.961	185.38
308.191	198.38
308.421	189.38
308.651	181.38
308.881	189.38
309.111	193.38
309.341	179.38
309.571	171.38
309.8	173.38
310.03	177.38
310.26	183.38
310.49	202.38
310.72	183.38
310.949	173.38
311.179	171.38
311.409	178.38
311.639	192.38
311.868	192.38
312.098	190.38
312.328	175.38
312.557	166.38
312.787	185.38
313.017	173.38
313.246	197.38
313.476	177.38
313.706	180.38
313.935	192.38
314.165	210.38
314.394	197.38
314.624	187.38
314.853	192.38
315.083	203.38
315.312	204.38
315.542	178.38
315.771	197.38
316.001	184.38
316.23	202.38
316.46	179.38
316.689	194.38
316.919	184.38
317.148	186.38
317.377	188.38
317.607	198.38
317.836	192.38
318.065	186.38
318.295	197.38
318.524	180.38
318.753	189.38
318.983	172.38
319.212	196.38
319.441	191.38
319.67	183.38
319.9	209.38
320.129	189.38
320.358	189.38
320.587	176.38
320.816	171.38
321.046	174.38
321.275	191.38
321.504	192.38
321.733	184.38
321.962	193.38
322.191	183.38
322.42	188.38
322.649	212.38
322.878	196.38
323.108	187.38
323.337	177.38
323.566	183.38
323.795	194.38
324.024	199.38
324.253	195.38
324.482	187.38
324.71	201.38
324.939	196.38
325.168	195.38
325.397	202.38
325.626	208.38
325.855	204.38
326.084	196.38
326.313	192.38
326.542	209.38
326.77	201.38
326.999	185.38
327.228	201.38
327.457	201.38
327.686	203.38
327.914	208.38
328.143	224.38
328.372	197.38
328.6	206.38
328.829	188.38
329.058	193.38
329.287	206.38
329.515	218.38
329.744	214.38
329.972	191.38
330.201	206.38
330.43	207.38
330.658	184.38
330.887	186.38
331.115	182.38
331.344	199.38
331.572	209.38
331.801	201.38
332.03	203.38
332.258	242.38
332.486	224.38
332.715	214.38
332.943	229.38
333.172	248.38
333.4	262.38
333.629	273.38
333.857	251.38
334.085	233.38
334.314	248.38
334.542	233.38
334.771	241.38
334.999	236.38
335.227	255.38
335.455	233.38
335.684	231.38
335.912	230.38
336.14	231.38
336.369	230.38
336.597	222.38
336.825	229.38
337.053	212.38
337.281	229.38
337.51	233.38
337.738	220.38
337.966	215.38
338.194	223.38
338.422	212.38
338.65	215.38
338.878	216.38
339.106	233.38
339.334	221.38
339.562	217.38
339.79	204.38
340.018	201.38
340.246	193.38
340.474	221.38
340.702	204.38
340.93	194.38
341.158	219.38
341.386	203.38
341.614	196.38
341.842	199.38
342.07	211.38
342.298	207.38
342.526	208.38
342.754	209.38
342.981	205.38
343.209	206.38
343.437	212.38
343.665	229.38
343.893	241.38
344.12	242.38
344.348	233.38
344.576	219.38
344.804	227.38
345.031	219.38
345.259	197.38
345.487	205.38
345.714	210.38
345.942	220.38
346.17	198.38
346.397	214.38
346.625	180.38
346.853	202.38
347.08	197.38
347.308	217.38
347.535	222.38
347.763	212.38
347.99	213.38
348.218	202.38
348.445	219.38
348.673	196.38
348.9	197.38
349.128	209.38
349.355	183.38
349.583	194.38
349.81	192.38
350.037	183.38
350.265	186.38
350.492	205.38
350.72	195.38
350.947	197.38
351.174	188.38
351.402	201.38
351.629	188.38
351.856	208.38
352.083	198.38
352.311	193.38
352.538	183.38
352.765	203.38
352.992	197.38
353.22	178.38
353.447	193.38
353.674	195.38
353.901	199.38
354.128	202.38
354.355	192.38
354.583	200.38
354.81	190.38
355.037	195.38
355.264	194.38
355.491	192.38
355.718	183.38
355.945	193.38
356.172	214.38
356.399	187.38
356.626	176.38
356.853	210.38
357.08	186.38
357.307	197.38
357.534	201.38
357.761	198.38
357.988	197.38
358.215	198.38
358.441	195.38
358.668	203.38
358.895	189.38
359.122	192.38
359.349	202.38
359.576	197.38
359.802	189.38
360.029	178.38
360.256	203.38
360.483	169.38
360.709	200.38
360.936	180.38
361.163	199.38
361.39	194.38
361.616	186.38
361.843	186.38
362.07	194.38
362.296	192.38
362.523	197.38
362.749	189.38
362.976	179.38
363.203	185.38
363.429	193.38
363.656	193.38
363.882	189.38
364.109	194.38
364.335	205.38
364.562	190.38
364.788	206.38
365.015	203.38
365.241	190.38
365.468	204.38
365.694	188.38
365.92	193.38
366.147	184.38
366.373	181.38
366.599	184.38
366.826	169.38
367.052	193.38
367.278	195.38
367.505	190.38
367.731	206.38
367.957	196.38
368.184	197.38
368.41	197.38
368.636	185.38
368.862	194.38
369.089	196.38
369.315	199.38
369.541	197.38
369.767	190.38
369.993	192.38
370.219	202.38
370.445	186.38
370.672	200.38
370.898	193.38
371.124	206.38
371.35	220.38
371.576	206.38
371.802	190.38
372.028	200.38
372.254	210.38
372.48	215.38
372.706	201.38
372.932	206.38
373.158	205.38
373.384	188.38
373.61	221.38
373.835	203.38
374.061	195.38
374.287	206.38
374.513	211.38
374.739	220.38
374.965	226.38
375.191	214.38
375.416	215.38
375.642	212.38
375.868	207.38
376.094	196.38
376.319	203.38
376.545	209.38
376.771	208.38
376.997	205.38
377.222	210.38
377.448	196.38
377.674	206.38
377.899	188.38
378.125	186.38
378.35	221.38
378.576	197.38
378.802	219.38
379.027	212.38
379.253	214.38
379.478	209.38
379.704	176.38
379.929	200.38
380.155	213.38
380.38	197.38
380.606	195.38
380.831	203.38
381.057	211.38
381.282	202.38
381.507	216.38
381.733	214.38
381.958	196.38
382.184	203.38
382.409	208.38
382.634	204.38
382.86	202.38
383.085	213.38
383.31	225.38
383.535	199.38
383.761	219.38
383.986	228.38
384.211	213.38
384.436	235.38
384.662	244.38
384.887	242.38
385.112	230.38
385.337	234.38
385.562	215.38
385.787	222.38
386.013	243.38
386.238	237.38
386.463	216.38
386.688	233.38
386.913	225.38
387.138	228.38
387.363	227.38
387.588	216.38
387.813	232.38
388.038	212.38
388.263	229.38
388.488	240.38
388.713	230.38
388.938	230.38
389.163	221.38
389.387	229.38
389.612	211.38
389.837	221.38
390.062	228.38
390.287	238.38
390.512	217.38
390.736	222.38
390.961	233.38
391.186	240.38
391.411	244.38
391.636	238.38
391.86	253.38
392.085	265.38
392.31	246.38
392.534	246.38
392.759	240.38
392.984	232.38
393.208	237.38
393.433	241.38
393.658	246.38
393.882	242.38
394.107	234.38
394.331	248.38
394.556	232.38
394.78	238.38
395.005	233.38
395.229	246.38
395.454	244.38
395.678	234.38
395.903	246.38
396.127	237.38
396.352	249.38
396.576	232.38
396.801	232.38
397.025	238.38
397.249	240.38
397.474	242.38
397.698	256.38
397.922	244.38
398.147	252.38
398.371	250.38
398.595	260.38
398.82	264.38
399.044	258.38
399.268	312.38
399.492	345.38
399.717	393.38
399.941	383.38
400.165	339.38
400.389	320.38
400.613	268.38
400.837	270.38
401.062	259.38
401.286	256.38
401.51	260.38
401.734	270.38
401.958	265.38
402.182	282.38
402.406	278.38
402.63	285.38
402.854	278.38
403.078	282.38
403.302	281.38
403.526	301.38
403.75	311.38
403.974	305.38
404.198	327.38
404.422	312.38
404.645	329.38
404.869	312.38
405.093	285.38
405.317	288.38
405.541	284.38
405.765	293.38
405.988	298.38
406.212	272.38
406.436	287.38
406.66	291.38
406.883	315.38
407.107	304.38
407.331	329.38
407.555	355.38
407.778	324.38
408.002	330.38
408.226	318.38
408.449	290.38
408.673	312.38
408.896	300.38
409.12	273.38
409.344	295.38
409.567	309.38
409.791	302.38
410.014	294.38
410.238	313.38
410.461	295.38
410.685	292.38
410.908	279.38
411.132	301.38
411.355	268.38
411.578	277.38
411.802	260.38
412.025	280.38
412.249	280.38
412.472	266.38
412.695	272.38
412.919	265.38
413.142	268.38
413.365	266.38
413.589	276.38
413.812	276.38
414.035	262.38
414.258	264.38
414.482	265.38
414.705	284.38
414.928	278.38
415.151	292.38
415.374	260.38
415.597	276.38
415.821	260.38
416.044	258.38
416.267	266.38
416.49	261.38
416.713	252.38
416.936	257.38
417.159	264.38
417.382	273.38
417.605	261.38
417.828	273.38
418.051	276.38
418.274	277.38
418.497	266.38
418.72	282.38
418.943	293.38
419.166	282.38
419.389	302.38
419.611	306.38
419.834	296.38
420.057	281.38
420.28	282.38
420.503	260.38
420.726	271.38
420.948	261.38
421.171	258.38
421.394	289.38
421.617	270.38
421.839	262.38
422.062	267.38
422.285	264.38
422.507	269.38
422.73	273.38
422.953	259.38
423.175	284.38
423.398	296.38
423.621	290.38
423.843	282.38
424.066	275.38
424.288	294.38
424.511	282.38
424.733	283.38
424.956	282.38
425.178	268.38
425.401	274.38
425.623	265.38
425.846	244.38
426.068	256.38
426.291	250.38
426.513	260.38
426.735	261.38
426.958	251.38
427.18	236.38
427.402	264.38
427.625	237.38
427.847	249.38
428.069	256.38
428.292	244.38
428.514	223.38
428.736	244.38
428.958	244.38
429.181	219.38
429.403	224.38
429.625	218.38
429.847	236.38
430.069	238.38
430.292	231.38
430.514	248.38
430.736	230.38
430.958	230.38
431.18	242.38
431.402	215.38
431.624	245.38
431.846	236.38
432.068	247.38
432.29	248.38
432.512	246.38
432.734	246.38
432.956	238.38
433.178	236.38
433.4	253.38
433.622	246.38
433.844	250.38
434.066	264.38
434.287	261.38
434.509	253.38
434.731	265.38
434.953	259.38
435.175	282.38
435.397	277.38
435.618	249.38
435.84	255.38
436.062	238.38
436.284	242.38
436.505	256.38
436.727	243.38
436.949	243.38
437.17	244.38
437.392	231.38
437.614	240.38
437.835	240.38
438.057	243.38
438.278	218.38
438.5	213.38
438.721	243.38
438.943	214.38
439.165	221.38
439.386	226.38
439.608	232.38
439.829	239.38
440.05	257.38
440.272	234.38
440.493	241.38
440.715	237.38
440.936	246.38
441.158	268.38
441.379	259.38
441.6	275.38
441.822	289.38
442.043	273.38
442.264	267.38
442.486	268.38
442.707	255.38
442.928	260.38
443.149	268.38
443.371	259.38
443.592	251.38
443.813	257.38
444.034	281.38
444.255	266.38
444.476	289.38
444.698	302.38
444.919	312.38
445.14	433.38
445.361	334.38
445.582	272.38
445.803	254.38
446.024	262.38
446.245	238.38
446.466	249.38
446.687	234.38
446.908	256.38
447.129	231.38
447.35	232.38
447.571	242.38
447.792	228.38
448.013	224.38
448.234	227.38
448.455	229.38
448.675	229.38
448.896	222.38
449.117	218.38
449.338	228.38
449.559	210.38
449.779	219.38
450	230.38
450.221	234.38
450.442	232.38
450.662	235.38
450.883	248.38
451.104	250.38
451.324	220.38
451.545	220.38
451.766	220.38
451.986	240.38
452.207	215.38
452.428	235.38
452.648	219.38
452.869	212.38
453.089	219.38
453.31	243.38
453.53	241.38
453.751	234.38
453.971	218.38
454.192	225.38
454.412	217.38
454.633	233.38
454.853	217.38
455.073	213.38
455.294	221.38
455.514	226.38
455.734	229.38
455.955	230.38
456.175	212.38
456.395	198.38
456.616	206.38
456.836	211.38
457.056	210.38
457.276	201.38
457.497	204.38
457.717	210.38
457.937	217.38
458.157	226.38
458.377	214.38
458.598	229.38
458.818	221.38
459.038	230.38
459.258	241.38
459.478	254.38
459.698	249.38
459.918	253.38
460.138	278.38
460.358	277.38
460.578	279.38
460.798	286.38
461.018	284.38
461.238	264.38
461.458	275.38
461.678	285.38
461.898	273.38
462.118	284.38
462.338	304.38
462.558	297.38
462.777	299.38
462.997	341.38
463.217	358.38
463.437	352.38
463.657	350.38
463.876	319.38
464.096	302.38
464.316	329.38
464.536	313.38
464.755	320.38
464.975	310.38
465.195	302.38
465.414	268.38
465.634	270.38
465.854	273.38
466.073	244.38
466.293	244.38
466.512	240.38
466.732	257.38
466.951	240.38
467.171	231.38
467.391	240.38
467.61	248.38
467.829	246.38
468.049	233.38
468.268	224.38
468.488	234.38
468.707	223.38
468.927	242.38
469.146	226.38
469.365	217.38
469.585	215.38
469.804	221.38
470.023	234.38
470.243	253.38
470.462	251.38
470.681	256.38
470.901	235.38
471.12	266.38
471.339	245.38
471.558	233.38
471.777	231.38
471.997	218.38
472.216	226.38
472.435	224.38
472.654	216.38
472.873	240.38
473.092	229.38
473.311	231.38
473.53	245.38
473.749	218.38
473.968	234.38
474.187	225.38
474.406	233.38
474.625	219.38
474.844	222.38
475.063	228.38
475.282	233.38
475.501	241.38
475.72	231.38
475.939	238.38
476.158	248.38
476.377	242.38
476.596	240.38
476.814	238.38
477.033	223.38
477.252	230.38
477.471	234.38
477.69	263.38
477.908	251.38
478.127	250.38
478.346	281.38
478.564	245.38
478.783	272.38
479.002	278.38
479.22	270.38
479.439	276.38
479.658	277.38
479.876	260.38
480.095	256.38
480.313	275.38
480.532	297.38
480.751	285.38
480.969	295.38
481.188	284.38
481.406	256.38
481.624	269.38
481.843	261.38
482.061	249.38
482.28	243.38
482.498	256.38
482.717	248.38
482.935	237.38
483.153	250.38
483.372	268.38
483.59	263.38
483.808	263.38
484.027	264.38
484.245	269.38
484.463	273.38
484.681	279.38
484.9	269.38
485.118	272.38
485.336	264.38
485.554	256.38
485.772	266.38
485.99	272.38
486.209	275.38
486.427	291.38
486.645	281.38
486.863	258.38
487.081	291.38
487.299	270.38
487.517	293.38
487.735	285.38
487.953	281.38
488.171	278.38
488.389	257.38
488.607	261.38
488.825	259.38
489.043	258.38
489.261	270.38
489.479	256.38
489.696	269.38
489.914	276.38
490.132	303.38
490.35	281.38
490.568	280.38
490.786	279.38
491.003	268.38
491.221	258.38
491.439	282.38
491.657	284.38
491.874	267.38
492.092	275.38
492.31	292.38
492.527	293.38
492.745	288.38
492.963	285.38
493.18	264.38
493.398	292.38
493.615	299.38
493.833	280.38
494.05	274.38
494.268	301.38
494.485	274.38
494.703	279.38
494.92	292.38
495.138	274.38
495.355	286.38
495.573	281.38
495.79	279.38
496.008	300.38
496.225	297.38
496.442	298.38
496.66	293.38
496.877	286.38
497.094	302.38
497.312	291.38
497.529	301.38
497.746	312.38
497.963	319.38
498.181	323.38
498.398	345.38
498.615	350.38
498.832	377.38
499.049	398.38
499.267	423.38
499.484	443.38
499.701	512.38
499.918	587.38
500.135	662.38
500.352	736.38
500.569	767.38
500.786	792.38
501.003	709.38
501.22	635.38
501.437	552.38
501.654	506.38
501.871	438.38
502.088	410.38
502.305	402.38
502.522	377.38
502.739	369.38
502.956	355.38
503.172	333.38
