Data from 0.5MCu(NO3)2.Standard.Lamp.E10.CV._HRD10591_16-05-30-753.txt Node
Date: Mon Jul 22 16:05:30 EDT 2019
User: cochatt
Spectrometer: HR+D1059
Trigger mode: 1
Integration Time (sec): 1.000000E-1
Scans to average: 1
Electric dark correction enabled: true
Nonlinearity correction enabled: false
Boxcar width: 0
XAxis mode: Wavelengths
Number of Pixels in Spectrum: 2048
>>>>>Begin Spectral Data<<<<<
223.165	-17.5
223.4	-17.5
223.635	-17.5
223.869	1.5
224.104	-20.5
224.338	-29.5
224.573	-7.5
224.808	-13.5
225.042	-11.5
225.277	-2.5
225.511	5.5
225.746	13.5
225.98	0.5
226.215	5.5
226.449	22.5
226.683	13.5
226.918	22.5
227.152	17.5
227.387	28.5
227.621	31.5
227.856	52.5
228.09	39.5
228.324	58.5
228.559	57.5
228.793	45.5
229.027	53.5
229.262	84.5
229.496	77.5
229.73	80.5
229.964	81.5
230.199	86.5
230.433	63.5
230.667	80.5
230.901	92.5
231.136	96.5
231.37	82.5
231.604	85.5
231.838	81.5
232.072	108.5
232.306	83.5
232.541	93.5
232.775	94.5
233.009	99.5
233.243	87.5
233.477	79.5
233.711	98.5
233.945	107.5
234.179	77.5
234.413	106.5
234.647	103.5
234.881	86.5
235.115	90.5
235.349	81.5
235.583	105.5
235.817	83.5
236.051	99.5
236.285	87.5
236.519	90.5
236.753	83.5
236.987	92.5
237.221	86.5
237.455	85.5
237.689	88.5
237.922	97.5
238.156	92.5
238.39	74.5
238.624	84.5
238.858	84.5
239.091	87.5
239.325	87.5
239.559	103.5
239.793	89.5
240.027	92.5
240.26	88.5
240.494	97.5
240.728	86.5
240.961	83.5
241.195	92.5
241.429	89.5
241.662	84.5
241.896	112.5
242.13	87.5
242.363	101.5
242.597	94.5
242.83	83.5
243.064	83.5
243.298	95.5
243.531	101.5
243.765	84.5
243.998	94.5
244.232	87.5
244.465	104.5
244.699	96.5
244.932	94.5
245.166	92.5
245.399	99.5
245.633	84.5
245.866	91.5
246.099	100.5
246.333	103.5
246.566	107.5
246.8	93.5
247.033	81.5
247.266	99.5
247.5	86.5
247.733	96.5
247.966	109.5
248.2	114.5
248.433	111.5
248.666	96.5
248.899	104.5
249.133	99.5
249.366	96.5
249.599	102.5
249.832	102.5
250.066	106.5
250.299	102.5
250.532	100.5
250.765	97.5
250.998	108.5
251.231	105.5
251.465	103.5
251.698	101.5
251.931	96.5
252.164	115.5
252.397	115.5
252.63	104.5
252.863	115.5
253.096	109.5
253.329	116.5
253.562	101.5
253.795	110.5
254.028	118.5
254.261	98.5
254.494	108.5
254.727	118.5
254.96	111.5
255.193	108.5
255.426	102.5
255.659	117.5
255.892	127.5
256.124	114.5
256.357	113.5
256.59	113.5
256.823	99.5
257.056	100.5
257.289	113.5
257.521	111.5
257.754	109.5
257.987	116.5
258.22	106.5
258.452	131.5
258.685	119.5
258.918	113.5
259.151	115.5
259.383	123.5
259.616	115.5
259.849	104.5
260.081	123.5
260.314	127.5
260.547	115.5
260.779	127.5
261.012	135.5
261.244	130.5
261.477	120.5
261.71	110.5
261.942	114.5
262.175	119.5
262.407	101.5
262.64	113.5
262.872	123.5
263.105	118.5
263.337	126.5
263.57	122.5
263.802	114.5
264.035	125.5
264.267	108.5
264.499	126.5
264.732	134.5
264.964	134.5
265.197	116.5
265.429	124.5
265.661	132.5
265.894	113.5
266.126	127.5
266.358	108.5
266.591	123.5
266.823	128.5
267.055	124.5
267.287	135.5
267.52	142.5
267.752	125.5
267.984	121.5
268.216	116.5
268.448	121.5
268.681	122.5
268.913	136.5
269.145	137.5
269.377	125.5
269.609	133.5
269.841	133.5
270.073	127.5
270.306	134.5
270.538	123.5
270.77	137.5
271.002	131.5
271.234	139.5
271.466	137.5
271.698	141.5
271.93	126.5
272.162	127.5
272.394	122.5
272.626	127.5
272.858	132.5
273.09	151.5
273.322	134.5
273.553	137.5
273.785	129.5
274.017	117.5
274.249	123.5
274.481	133.5
274.713	132.5
274.945	149.5
275.176	137.5
275.408	151.5
275.64	151.5
275.872	136.5
276.104	132.5
276.335	153.5
276.567	131.5
276.799	138.5
277.031	156.5
277.262	155.5
277.494	133.5
277.726	125.5
277.957	140.5
278.189	155.5
278.421	128.5
278.652	133.5
278.884	134.5
279.115	138.5
279.347	141.5
279.579	139.5
279.81	141.5
280.042	132.5
280.273	151.5
280.505	137.5
280.736	132.5
280.968	145.5
281.199	142.5
281.431	151.5
281.662	148.5
281.894	136.5
282.125	125.5
282.356	144.5
282.588	139.5
282.819	145.5
283.051	154.5
283.282	147.5
283.513	141.5
283.745	137.5
283.976	152.5
284.207	152.5
284.439	146.5
284.67	149.5
284.901	137.5
285.132	151.5
285.364	137.5
285.595	144.5
285.826	167.5
286.057	147.5
286.288	152.5
286.52	150.5
286.751	164.5
286.982	155.5
287.213	158.5
287.444	157.5
287.675	153.5
287.906	158.5
288.138	159.5
288.369	159.5
288.6	164.5
288.831	182.5
289.062	159.5
289.293	170.5
289.524	155.5
289.755	153.5
289.986	167.5
290.217	147.5
290.448	171.5
290.679	172.5
290.91	178.5
291.141	163.5
291.371	167.5
291.602	160.5
291.833	169.5
292.064	172.5
292.295	154.5
292.526	157.5
292.757	159.5
292.987	176.5
293.218	165.5
293.449	162.5
293.68	169.5
293.91	171.5
294.141	157.5
294.372	179.5
294.603	167.5
294.833	161.5
295.064	169.5
295.295	181.5
295.525	165.5
295.756	171.5
295.987	177.5
296.217	178.5
296.448	170.5
296.679	177.5
296.909	159.5
297.14	175.5
297.37	168.5
297.601	158.5
297.831	195.5
298.062	169.5
298.292	172.5
298.523	199.5
298.753	185.5
298.984	182.5
299.214	167.5
299.445	181.5
299.675	183.5
299.905	177.5
300.136	163.5
300.366	175.5
300.597	180.5
300.827	187.5
301.057	181.5
301.288	180.5
301.518	202.5
301.748	168.5
301.979	172.5
302.209	189.5
302.439	186.5
302.669	186.5
302.9	183.5
303.13	190.5
303.36	189.5
303.59	172.5
303.82	191.5
304.051	185.5
304.281	165.5
304.511	163.5
304.741	180.5
304.971	189.5
305.201	184.5
305.431	178.5
305.661	190.5
305.891	188.5
306.121	179.5
306.352	194.5
306.582	179.5
306.812	177.5
307.042	184.5
307.272	177.5
307.502	187.5
307.731	179.5
307.961	168.5
308.191	177.5
308.421	169.5
308.651	170.5
308.881	164.5
309.111	168.5
309.341	169.5
309.571	188.5
309.8	176.5
310.03	179.5
310.26	189.5
310.49	182.5
310.72	190.5
310.949	189.5
311.179	159.5
311.409	168.5
311.639	195.5
311.868	183.5
312.098	180.5
312.328	195.5
312.557	196.5
312.787	187.5
313.017	188.5
313.246	191.5
313.476	179.5
313.706	194.5
313.935	190.5
314.165	190.5
314.394	191.5
314.624	197.5
314.853	202.5
315.083	194.5
315.312	185.5
315.542	177.5
315.771	199.5
316.001	181.5
316.23	175.5
316.46	180.5
316.689	178.5
316.919	190.5
317.148	191.5
317.377	180.5
317.607	175.5
317.836	167.5
318.065	170.5
318.295	170.5
318.524	185.5
318.753	175.5
318.983	184.5
319.212	188.5
319.441	178.5
319.67	192.5
319.9	188.5
320.129	189.5
320.358	178.5
320.587	186.5
320.816	190.5
321.046	172.5
321.275	183.5
321.504	173.5
321.733	189.5
321.962	193.5
322.191	184.5
322.42	157.5
322.649	189.5
322.878	191.5
323.108	183.5
323.337	204.5
323.566	195.5
323.795	169.5
324.024	196.5
324.253	185.5
324.482	181.5
324.71	200.5
324.939	195.5
325.168	195.5
325.397	188.5
325.626	229.5
325.855	201.5
326.084	205.5
326.313	199.5
326.542	187.5
326.77	193.5
326.999	199.5
327.228	196.5
327.457	199.5
327.686	201.5
327.914	200.5
328.143	201.5
328.372	195.5
328.6	216.5
328.829	209.5
329.058	201.5
329.287	215.5
329.515	204.5
329.744	208.5
329.972	197.5
330.201	200.5
330.43	190.5
330.658	201.5
330.887	212.5
331.115	204.5
331.344	224.5
331.572	220.5
331.801	209.5
332.03	208.5
332.258	219.5
332.486	220.5
332.715	225.5
332.943	235.5
333.172	226.5
333.4	264.5
333.629	265.5
333.857	263.5
334.085	246.5
334.314	241.5
334.542	223.5
334.771	241.5
334.999	227.5
335.227	223.5
335.455	227.5
335.684	237.5
335.912	247.5
336.14	211.5
336.369	214.5
336.597	223.5
336.825	224.5
337.053	229.5
337.281	223.5
337.51	224.5
337.738	203.5
337.966	215.5
338.194	216.5
338.422	206.5
338.65	216.5
338.878	210.5
339.106	213.5
339.334	214.5
339.562	193.5
339.79	196.5
340.018	187.5
340.246	199.5
340.474	210.5
340.702	211.5
340.93	204.5
341.158	205.5
341.386	186.5
341.614	179.5
341.842	218.5
342.07	215.5
342.298	203.5
342.526	205.5
342.754	204.5
342.981	195.5
343.209	203.5
343.437	205.5
343.665	208.5
343.893	251.5
344.12	242.5
344.348	221.5
344.576	239.5
344.804	211.5
345.031	222.5
345.259	220.5
345.487	204.5
345.714	198.5
345.942	193.5
346.17	203.5
346.397	200.5
346.625	225.5
346.853	197.5
347.08	199.5
347.308	199.5
347.535	201.5
347.763	194.5
347.99	213.5
348.218	220.5
348.445	214.5
348.673	201.5
348.9	195.5
349.128	208.5
349.355	209.5
349.583	204.5
349.81	201.5
350.037	203.5
350.265	189.5
350.492	190.5
350.72	200.5
350.947	195.5
351.174	192.5
351.402	168.5
351.629	181.5
351.856	177.5
352.083	193.5
352.311	198.5
352.538	196.5
352.765	179.5
352.992	201.5
353.22	179.5
353.447	185.5
353.674	180.5
353.901	188.5
354.128	193.5
354.355	201.5
354.583	193.5
354.81	219.5
355.037	207.5
355.264	195.5
355.491	180.5
355.718	206.5
355.945	193.5
356.172	200.5
356.399	198.5
356.626	195.5
356.853	192.5
357.08	188.5
357.307	195.5
357.534	183.5
357.761	191.5
357.988	179.5
358.215	193.5
358.441	186.5
358.668	190.5
358.895	188.5
359.122	183.5
359.349	188.5
359.576	192.5
359.802	185.5
360.029	200.5
360.256	208.5
360.483	199.5
360.709	184.5
360.936	191.5
361.163	185.5
361.39	185.5
361.616	192.5
361.843	201.5
362.07	200.5
362.296	184.5
362.523	179.5
362.749	186.5
362.976	191.5
363.203	179.5
363.429	190.5
363.656	207.5
363.882	202.5
364.109	186.5
364.335	177.5
364.562	203.5
364.788	187.5
365.015	196.5
365.241	203.5
365.468	210.5
365.694	198.5
365.92	205.5
366.147	197.5
366.373	193.5
366.599	202.5
366.826	201.5
367.052	210.5
367.278	183.5
367.505	193.5
367.731	195.5
367.957	192.5
368.184	195.5
368.41	192.5
368.636	199.5
368.862	194.5
369.089	186.5
369.315	193.5
369.541	195.5
369.767	191.5
369.993	189.5
370.219	209.5
370.445	187.5
370.672	211.5
370.898	199.5
371.124	199.5
371.35	205.5
371.576	202.5
371.802	212.5
372.028	196.5
372.254	193.5
372.48	199.5
372.706	213.5
372.932	205.5
373.158	209.5
373.384	198.5
373.61	205.5
373.835	219.5
374.061	200.5
374.287	179.5
374.513	201.5
374.739	202.5
374.965	218.5
375.191	217.5
375.416	240.5
375.642	232.5
375.868	207.5
376.094	211.5
376.319	202.5
376.545	204.5
376.771	204.5
376.997	209.5
377.222	208.5
377.448	188.5
377.674	209.5
377.899	182.5
378.125	197.5
378.35	187.5
378.576	205.5
378.802	197.5
379.027	197.5
379.253	205.5
379.478	201.5
379.704	210.5
379.929	212.5
380.155	203.5
380.38	213.5
380.606	199.5
380.831	193.5
381.057	208.5
381.282	183.5
381.507	206.5
381.733	214.5
381.958	199.5
382.184	187.5
382.409	203.5
382.634	213.5
382.86	212.5
383.085	210.5
383.31	224.5
383.535	210.5
383.761	219.5
383.986	212.5
384.211	221.5
384.436	237.5
384.662	243.5
384.887	224.5
385.112	239.5
385.337	227.5
385.562	226.5
385.787	224.5
386.013	237.5
386.238	230.5
386.463	244.5
386.688	231.5
386.913	217.5
387.138	238.5
387.363	239.5
387.588	216.5
387.813	224.5
388.038	231.5
388.263	229.5
388.488	221.5
388.713	239.5
388.938	244.5
389.163	217.5
389.387	220.5
389.612	199.5
389.837	222.5
390.062	215.5
390.287	239.5
390.512	224.5
390.736	230.5
390.961	235.5
391.186	225.5
391.411	227.5
391.636	255.5
391.86	232.5
392.085	261.5
392.31	263.5
392.534	225.5
392.759	249.5
392.984	239.5
393.208	236.5
393.433	242.5
393.658	231.5
393.882	248.5
394.107	242.5
394.331	268.5
394.556	229.5
394.78	249.5
395.005	241.5
395.229	241.5
395.454	249.5
395.678	245.5
395.903	249.5
396.127	252.5
396.352	240.5
396.576	233.5
396.801	219.5
397.025	250.5
397.249	246.5
397.474	251.5
397.698	244.5
397.922	243.5
398.147	227.5
398.371	248.5
398.595	275.5
398.82	263.5
399.044	279.5
399.268	295.5
399.492	349.5
399.717	383.5
399.941	395.5
400.165	351.5
400.389	297.5
400.613	272.5
400.837	281.5
401.062	278.5
401.286	279.5
401.51	250.5
401.734	265.5
401.958	272.5
402.182	265.5
402.406	278.5
402.63	288.5
402.854	278.5
403.078	297.5
403.302	297.5
403.526	307.5
403.75	306.5
403.974	317.5
404.198	305.5
404.422	295.5
404.645	305.5
404.869	289.5
405.093	295.5
405.317	301.5
405.541	284.5
405.765	304.5
405.988	297.5
406.212	286.5
406.436	288.5
406.66	289.5
406.883	301.5
407.107	325.5
407.331	322.5
407.555	324.5
407.778	326.5
408.002	323.5
408.226	307.5
408.449	310.5
408.673	320.5
408.896	315.5
409.12	296.5
409.344	297.5
409.567	307.5
409.791	321.5
410.014	319.5
410.238	299.5
410.461	306.5
410.685	299.5
410.908	276.5
411.132	278.5
411.355	294.5
411.578	268.5
411.802	252.5
412.025	253.5
412.249	293.5
412.472	276.5
412.695	247.5
412.919	260.5
413.142	279.5
413.365	259.5
413.589	265.5
413.812	260.5
414.035	268.5
414.258	269.5
414.482	271.5
414.705	271.5
414.928	270.5
415.151	263.5
415.374	268.5
415.597	275.5
415.821	243.5
416.044	285.5
416.267	269.5
416.49	274.5
416.713	268.5
416.936	270.5
417.159	260.5
417.382	278.5
417.605	283.5
417.828	264.5
418.051	276.5
418.274	279.5
418.497	251.5
418.72	283.5
418.943	290.5
419.166	300.5
419.389	288.5
419.611	288.5
419.834	268.5
420.057	270.5
420.28	266.5
420.503	281.5
420.726	272.5
420.948	275.5
421.171	265.5
421.394	244.5
421.617	257.5
421.839	264.5
422.062	276.5
422.285	264.5
422.507	265.5
422.73	285.5
422.953	273.5
423.175	277.5
423.398	260.5
423.621	284.5
423.843	274.5
424.066	295.5
424.288	290.5
424.511	271.5
424.733	282.5
424.956	274.5
425.178	268.5
425.401	245.5
425.623	271.5
425.846	245.5
426.068	251.5
426.291	256.5
426.513	262.5
426.735	276.5
426.958	259.5
427.18	247.5
427.402	257.5
427.625	251.5
427.847	241.5
428.069	236.5
428.292	255.5
428.514	244.5
428.736	231.5
428.958	221.5
429.181	246.5
429.403	222.5
429.625	213.5
429.847	228.5
430.069	222.5
430.292	241.5
430.514	232.5
430.736	255.5
430.958	233.5
431.18	233.5
431.402	235.5
431.624	255.5
431.846	261.5
432.068	251.5
432.29	241.5
432.512	228.5
432.734	245.5
432.956	223.5
433.178	232.5
433.4	226.5
433.622	250.5
433.844	236.5
434.066	257.5
434.287	243.5
434.509	261.5
434.731	275.5
434.953	282.5
435.175	267.5
435.397	269.5
435.618	257.5
435.84	249.5
436.062	249.5
436.284	236.5
436.505	247.5
436.727	260.5
436.949	253.5
437.17	230.5
437.392	231.5
437.614	248.5
437.835	240.5
438.057	211.5
438.278	205.5
438.5	248.5
438.721	233.5
438.943	223.5
439.165	245.5
439.386	249.5
439.608	262.5
439.829	244.5
440.05	234.5
440.272	253.5
440.493	247.5
440.715	236.5
440.936	270.5
441.158	257.5
441.379	251.5
441.6	279.5
441.822	273.5
442.043	282.5
442.264	262.5
442.486	262.5
442.707	248.5
442.928	254.5
443.149	255.5
443.371	259.5
443.592	277.5
443.813	276.5
444.034	258.5
444.255	279.5
444.476	282.5
444.698	296.5
444.919	312.5
445.14	411.5
445.361	339.5
445.582	267.5
445.803	255.5
446.024	272.5
446.245	255.5
446.466	244.5
446.687	239.5
446.908	247.5
447.129	242.5
447.35	229.5
447.571	237.5
447.792	242.5
448.013	247.5
448.234	227.5
448.455	227.5
448.675	219.5
448.896	216.5
449.117	227.5
449.338	229.5
449.559	218.5
449.779	232.5
450	229.5
450.221	234.5
450.442	238.5
450.662	231.5
450.883	221.5
451.104	216.5
451.324	232.5
451.545	220.5
451.766	226.5
451.986	219.5
452.207	225.5
452.428	216.5
452.648	225.5
452.869	199.5
453.089	237.5
453.31	222.5
453.53	215.5
453.751	231.5
453.971	235.5
454.192	210.5
454.412	208.5
454.633	223.5
454.853	210.5
455.073	217.5
455.294	205.5
455.514	200.5
455.734	203.5
455.955	209.5
456.175	212.5
456.395	198.5
456.616	215.5
456.836	213.5
457.056	210.5
457.276	218.5
457.497	214.5
457.717	216.5
457.937	216.5
458.157	217.5
458.377	215.5
458.598	225.5
458.818	232.5
459.038	235.5
459.258	243.5
459.478	253.5
459.698	233.5
459.918	248.5
460.138	261.5
460.358	260.5
460.578	269.5
460.798	258.5
461.018	283.5
461.238	315.5
461.458	286.5
461.678	283.5
461.898	274.5
462.118	287.5
462.338	292.5
462.558	291.5
462.777	294.5
462.997	332.5
463.217	350.5
463.437	356.5
463.657	334.5
463.876	314.5
464.096	336.5
464.316	326.5
464.536	325.5
464.755	298.5
464.975	287.5
465.195	279.5
465.414	265.5
465.634	268.5
465.854	243.5
466.073	241.5
466.293	249.5
466.512	246.5
466.732	243.5
466.951	237.5
467.171	241.5
467.391	247.5
467.61	243.5
467.829	243.5
468.049	235.5
468.268	221.5
468.488	219.5
468.707	234.5
468.927	233.5
469.146	235.5
469.365	233.5
469.585	255.5
469.804	229.5
470.023	238.5
470.243	239.5
470.462	262.5
470.681	261.5
470.901	244.5
471.12	253.5
471.339	258.5
471.558	223.5
471.777	231.5
471.997	223.5
472.216	236.5
472.435	221.5
472.654	210.5
472.873	215.5
473.092	229.5
473.311	242.5
473.53	229.5
473.749	220.5
473.968	217.5
474.187	217.5
474.406	229.5
474.625	214.5
474.844	233.5
475.063	231.5
475.282	226.5
475.501	247.5
475.72	223.5
475.939	225.5
476.158	224.5
476.377	254.5
476.596	243.5
476.814	241.5
477.033	257.5
477.252	231.5
477.471	241.5
477.69	250.5
477.908	240.5
478.127	275.5
478.346	261.5
478.564	284.5
478.783	279.5
479.002	280.5
479.22	273.5
479.439	272.5
479.658	271.5
479.876	263.5
480.095	266.5
480.313	283.5
480.532	283.5
480.751	291.5
480.969	293.5
481.188	280.5
481.406	275.5
481.624	258.5
481.843	253.5
482.061	271.5
482.28	257.5
482.498	248.5
482.717	261.5
482.935	255.5
483.153	242.5
483.372	260.5
483.59	255.5
483.808	267.5
484.027	271.5
484.245	276.5
484.463	258.5
484.681	264.5
484.9	275.5
485.118	264.5
485.336	247.5
485.554	280.5
485.772	265.5
485.99	269.5
486.209	284.5
486.427	273.5
486.645	268.5
486.863	277.5
487.081	271.5
487.299	277.5
487.517	272.5
487.735	279.5
487.953	284.5
488.171	290.5
488.389	266.5
488.607	256.5
488.825	257.5
489.043	250.5
489.261	295.5
489.479	263.5
489.696	295.5
489.914	262.5
490.132	246.5
490.35	272.5
490.568	275.5
490.786	265.5
491.003	287.5
491.221	275.5
491.439	275.5
491.657	282.5
491.874	285.5
492.092	273.5
492.31	273.5
492.527	267.5
492.745	293.5
492.963	279.5
493.18	281.5
493.398	291.5
493.615	297.5
493.833	273.5
494.05	296.5
494.268	268.5
494.485	299.5
494.703	290.5
494.92	267.5
495.138	280.5
495.355	265.5
495.573	282.5
495.79	259.5
496.008	287.5
496.225	291.5
496.442	281.5
496.66	295.5
496.877	306.5
497.094	312.5
497.312	306.5
497.529	295.5
497.746	301.5
497.963	316.5
498.181	325.5
498.398	332.5
498.615	359.5
498.832	370.5
499.049	389.5
499.267	423.5
499.484	448.5
499.701	515.5
499.918	565.5
500.135	642.5
500.352	707.5
500.569	772.5
500.786	777.5
501.003	717.5
501.22	628.5
501.437	568.5
501.654	495.5
501.871	445.5
502.088	401.5
502.305	383.5
502.522	386.5
502.739	387.5
502.956	352.5
503.172	333.5
503.389	329.5
503.606	306.5
503.823	319.5
504.04	320.5
504.256	318.5
504.473	322.5
504.69	347.5
504.907	326.5
505.123	323.5
505.34	298.5
505.557	292.5
505.773	259.5
505.99	275.5
506.207	280.5
506.423	261.5
506.64	270.5
506.856	263.5
507.073	255.5
507.289	250.5
507.506	256.5
507.722	245.5
507.939	242.5
508.155	233.5
508.372	253.5
508.588	240.5
508.805	247.5
509.021	252.5
509.238	247.5
509.454	240.5
509.67	234.5
509.887	259.5
510.103	247.5
510.319	236.5
510.536	248.5
510.752	230.5
510.968	231.5
511.184	236.5
511.401	238.5
511.617	235.5
511.833	226.5
512.049	232.5
512.265	248.5
512.481	251.5
512.698	239.5
512.914	247.5
513.13	245.5
513.346	240.5
513.562	232.5
513.778	220.5
513.994	244.5
514.21	243.5
514.426	265.5
514.642	230.5
514.858	259.5
515.074	252.5
515.29	257.5
515.506	257.5
515.721	256.5
515.937	256.5
516.153	251.5
516.369	261.5
516.585	265.5
516.801	283.5
517.016	305.5
517.232	290.5
517.448	303.5
517.664	321.5
517.879	324.5
518.095	330.5
518.311	317.5
518.527	287.5
518.742	291.5
518.958	294.5
519.173	266.5
519.389	273.5
519.605	269.5
519.82	249.5
520.036	266.5
520.251	247.5
520.467	231.5
520.682	239.5
520.898	242.5
521.113	260.5
521.329	241.5
