Data from 0.5MCu(NO3)2.Standard.Lamp.E10.CV._HRD10591_16-06-11-754.txt Node
Date: Mon Jul 22 16:06:11 EDT 2019
User: cochatt
Spectrometer: HR+D1059
Trigger mode: 1
Integration Time (sec): 1.000000E-1
Scans to average: 1
Electric dark correction enabled: true
Nonlinearity correction enabled: false
Boxcar width: 0
XAxis mode: Wavelengths
Number of Pixels in Spectrum: 2048
>>>>>Begin Spectral Data<<<<<
223.165	-13.38
223.4	-13.38
223.635	-13.38
223.869	-13.38
224.104	-24.38
224.338	-24.38
224.573	-2.38
224.808	-17.38
225.042	-12.38
225.277	11.62
225.511	-5.38
225.746	-7.38
225.98	-0.38
226.215	19.62
226.449	17.62
226.683	19.62
226.918	18.62
227.152	33.62
227.387	34.62
227.621	43.62
227.856	54.62
228.09	67.62
228.324	50.62
228.559	59.62
228.793	65.62
229.027	78.62
229.262	85.62
229.496	79.62
229.73	83.62
229.964	76.62
230.199	81.62
230.433	81.62
230.667	89.62
230.901	94.62
231.136	93.62
231.37	86.62
231.604	87.62
231.838	94.62
232.072	96.62
232.306	99.62
232.541	95.62
232.775	94.62
233.009	88.62
233.243	89.62
233.477	98.62
233.711	91.62
233.945	94.62
234.179	91.62
234.413	89.62
234.647	91.62
234.881	97.62
235.115	99.62
235.349	92.62
235.583	95.62
235.817	104.62
236.051	97.62
236.285	86.62
236.519	92.62
236.753	96.62
236.987	92.62
237.221	99.62
237.455	112.62
237.689	95.62
237.922	98.62
238.156	91.62
238.39	94.62
238.624	90.62
238.858	76.62
239.091	91.62
239.325	94.62
239.559	102.62
239.793	89.62
240.027	83.62
240.26	94.62
240.494	86.62
240.728	107.62
240.961	98.62
241.195	82.62
241.429	97.62
241.662	119.62
241.896	98.62
242.13	104.62
242.363	98.62
242.597	108.62
242.83	93.62
243.064	107.62
243.298	78.62
243.531	98.62
243.765	104.62
243.998	92.62
244.232	104.62
244.465	114.62
244.699	98.62
244.932	106.62
245.166	112.62
245.399	100.62
245.633	105.62
245.866	97.62
246.099	96.62
246.333	99.62
246.566	106.62
246.8	100.62
247.033	104.62
247.266	110.62
247.5	93.62
247.733	84.62
247.966	109.62
248.2	97.62
248.433	113.62
248.666	99.62
248.899	107.62
249.133	102.62
249.366	100.62
249.599	96.62
249.832	93.62
250.066	123.62
250.299	103.62
250.532	105.62
250.765	118.62
250.998	99.62
251.231	102.62
251.465	111.62
251.698	115.62
251.931	113.62
252.164	95.62
252.397	106.62
252.63	111.62
252.863	111.62
253.096	96.62
253.329	110.62
253.562	107.62
253.795	107.62
254.028	106.62
254.261	123.62
254.494	121.62
254.727	114.62
254.96	99.62
255.193	114.62
255.426	121.62
255.659	108.62
255.892	119.62
256.124	123.62
256.357	122.62
256.59	113.62
256.823	124.62
257.056	121.62
257.289	106.62
257.521	118.62
257.754	112.62
257.987	121.62
258.22	112.62
258.452	111.62
258.685	114.62
258.918	111.62
259.151	119.62
259.383	121.62
259.616	130.62
259.849	121.62
260.081	118.62
260.314	125.62
260.547	109.62
260.779	113.62
261.012	105.62
261.244	110.62
261.477	132.62
261.71	113.62
261.942	127.62
262.175	127.62
262.407	111.62
262.64	119.62
262.872	120.62
263.105	126.62
263.337	131.62
263.57	133.62
263.802	138.62
264.035	134.62
264.267	124.62
264.499	110.62
264.732	133.62
264.964	121.62
265.197	108.62
265.429	135.62
265.661	124.62
265.894	125.62
266.126	127.62
266.358	129.62
266.591	107.62
266.823	119.62
267.055	149.62
267.287	131.62
267.52	125.62
267.752	137.62
267.984	133.62
268.216	145.62
268.448	138.62
268.681	129.62
268.913	123.62
269.145	137.62
269.377	126.62
269.609	124.62
269.841	129.62
270.073	132.62
270.306	125.62
270.538	123.62
270.77	127.62
271.002	133.62
271.234	111.62
271.466	137.62
271.698	141.62
271.93	151.62
272.162	137.62
272.394	139.62
272.626	116.62
272.858	138.62
273.09	137.62
273.322	147.62
273.553	109.62
273.785	138.62
274.017	127.62
274.249	149.62
274.481	146.62
274.713	146.62
274.945	141.62
275.176	134.62
275.408	148.62
275.64	133.62
275.872	145.62
276.104	137.62
276.335	148.62
276.567	134.62
276.799	140.62
277.031	139.62
277.262	138.62
277.494	150.62
277.726	139.62
277.957	135.62
278.189	137.62
278.421	146.62
278.652	143.62
278.884	137.62
279.115	133.62
279.347	138.62
279.579	149.62
279.81	144.62
280.042	157.62
280.273	167.62
280.505	139.62
280.736	148.62
280.968	154.62
281.199	173.62
281.431	154.62
281.662	171.62
281.894	161.62
282.125	150.62
282.356	151.62
282.588	136.62
282.819	151.62
283.051	145.62
283.282	155.62
283.513	155.62
283.745	153.62
283.976	154.62
284.207	154.62
284.439	147.62
284.67	160.62
284.901	166.62
285.132	160.62
285.364	152.62
285.595	170.62
285.826	146.62
286.057	166.62
286.288	160.62
286.52	155.62
286.751	165.62
286.982	161.62
287.213	149.62
287.444	168.62
287.675	165.62
287.906	158.62
288.138	153.62
288.369	169.62
288.6	166.62
288.831	159.62
289.062	156.62
289.293	177.62
289.524	155.62
289.755	161.62
289.986	162.62
290.217	165.62
290.448	172.62
290.679	165.62
290.91	174.62
291.141	157.62
291.371	167.62
291.602	167.62
291.833	160.62
292.064	166.62
292.295	162.62
292.526	148.62
292.757	159.62
292.987	169.62
293.218	158.62
293.449	166.62
293.68	161.62
293.91	168.62
294.141	167.62
294.372	155.62
294.603	187.62
294.833	168.62
295.064	158.62
295.295	167.62
295.525	161.62
295.756	185.62
295.987	163.62
296.217	179.62
296.448	159.62
296.679	172.62
296.909	161.62
297.14	177.62
297.37	166.62
297.601	169.62
297.831	180.62
298.062	173.62
298.292	173.62
298.523	179.62
298.753	176.62
298.984	186.62
299.214	176.62
299.445	173.62
299.675	176.62
299.905	183.62
300.136	174.62
300.366	174.62
300.597	179.62
300.827	171.62
301.057	170.62
301.288	193.62
301.518	176.62
301.748	177.62
301.979	168.62
302.209	171.62
302.439	175.62
302.669	178.62
302.9	179.62
303.13	177.62
303.36	179.62
303.59	186.62
303.82	179.62
304.051	170.62
304.281	183.62
304.511	188.62
304.741	169.62
304.971	190.62
305.201	179.62
305.431	178.62
305.661	177.62
305.891	191.62
306.121	194.62
306.352	176.62
306.582	177.62
306.812	182.62
307.042	166.62
307.272	165.62
307.502	175.62
307.731	181.62
307.961	169.62
308.191	166.62
308.421	177.62
308.651	171.62
308.881	168.62
309.111	185.62
309.341	168.62
309.571	193.62
309.8	176.62
310.03	170.62
310.26	170.62
310.49	175.62
310.72	170.62
310.949	171.62
311.179	169.62
311.409	173.62
311.639	183.62
311.868	183.62
312.098	170.62
312.328	174.62
312.557	189.62
312.787	175.62
313.017	179.62
313.246	185.62
313.476	176.62
313.706	207.62
313.935	170.62
314.165	193.62
314.394	173.62
314.624	193.62
314.853	204.62
315.083	202.62
315.312	198.62
315.542	182.62
315.771	185.62
316.001	188.62
316.23	168.62
316.46	181.62
316.689	183.62
316.919	170.62
317.148	191.62
317.377	185.62
317.607	170.62
317.836	179.62
318.065	186.62
318.295	166.62
318.524	189.62
318.753	160.62
318.983	177.62
319.212	194.62
319.441	166.62
319.67	189.62
319.9	187.62
320.129	176.62
320.358	181.62
320.587	171.62
320.816	178.62
321.046	177.62
321.275	198.62
321.504	190.62
321.733	167.62
321.962	192.62
322.191	178.62
322.42	202.62
322.649	182.62
322.878	178.62
323.108	178.62
323.337	193.62
323.566	174.62
323.795	194.62
324.024	187.62
324.253	172.62
324.482	185.62
324.71	190.62
324.939	180.62
325.168	189.62
325.397	192.62
325.626	198.62
325.855	198.62
326.084	205.62
326.313	193.62
326.542	205.62
326.77	190.62
326.999	205.62
327.228	200.62
327.457	196.62
327.686	188.62
327.914	194.62
328.143	199.62
328.372	195.62
328.6	192.62
328.829	187.62
329.058	194.62
329.287	205.62
329.515	196.62
329.744	188.62
329.972	193.62
330.201	199.62
330.43	202.62
330.658	171.62
330.887	196.62
331.115	196.62
331.344	203.62
331.572	204.62
331.801	204.62
332.03	212.62
332.258	210.62
332.486	215.62
332.715	203.62
332.943	216.62
333.172	236.62
333.4	224.62
333.629	238.62
333.857	248.62
334.085	232.62
334.314	223.62
334.542	238.62
334.771	209.62
334.999	217.62
335.227	226.62
335.455	230.62
335.684	229.62
335.912	218.62
336.14	209.62
336.369	220.62
336.597	231.62
336.825	214.62
337.053	202.62
337.281	207.62
337.51	212.62
337.738	197.62
337.966	210.62
338.194	206.62
338.422	205.62
338.65	196.62
338.878	187.62
339.106	192.62
339.334	203.62
339.562	197.62
339.79	211.62
340.018	195.62
340.246	198.62
340.474	202.62
340.702	188.62
340.93	200.62
341.158	202.62
341.386	206.62
341.614	189.62
341.842	201.62
342.07	195.62
342.298	195.62
342.526	199.62
342.754	203.62
342.981	196.62
343.209	189.62
343.437	208.62
343.665	226.62
343.893	225.62
344.12	214.62
344.348	240.62
344.576	215.62
344.804	217.62
345.031	211.62
345.259	201.62
345.487	201.62
345.714	190.62
345.942	185.62
346.17	191.62
346.397	181.62
346.625	211.62
346.853	197.62
347.08	182.62
347.308	192.62
347.535	205.62
347.763	198.62
347.99	194.62
348.218	213.62
348.445	205.62
348.673	193.62
348.9	193.62
349.128	183.62
349.355	185.62
349.583	198.62
349.81	205.62
350.037	182.62
350.265	183.62
350.492	194.62
350.72	188.62
350.947	200.62
351.174	181.62
351.402	188.62
351.629	181.62
351.856	202.62
352.083	190.62
352.311	195.62
352.538	170.62
352.765	178.62
352.992	185.62
353.22	186.62
353.447	195.62
353.674	174.62
353.901	172.62
354.128	177.62
354.355	185.62
354.583	190.62
354.81	191.62
355.037	191.62
355.264	191.62
355.491	202.62
355.718	185.62
355.945	174.62
356.172	197.62
356.399	185.62
356.626	189.62
356.853	195.62
357.08	201.62
357.307	181.62
357.534	191.62
357.761	198.62
357.988	189.62
358.215	202.62
358.441	189.62
358.668	183.62
358.895	184.62
359.122	181.62
359.349	178.62
359.576	186.62
359.802	182.62
360.029	190.62
360.256	189.62
360.483	183.62
360.709	198.62
360.936	185.62
361.163	197.62
361.39	181.62
361.616	186.62
361.843	192.62
362.07	175.62
362.296	185.62
362.523	179.62
362.749	195.62
362.976	178.62
363.203	191.62
363.429	212.62
363.656	193.62
363.882	201.62
364.109	194.62
364.335	190.62
364.562	160.62
364.788	178.62
365.015	173.62
365.241	187.62
365.468	184.62
365.694	184.62
365.92	178.62
366.147	193.62
366.373	179.62
366.599	194.62
366.826	192.62
367.052	189.62
367.278	189.62
367.505	190.62
367.731	193.62
367.957	193.62
368.184	179.62
368.41	204.62
368.636	175.62
368.862	194.62
369.089	183.62
369.315	186.62
369.541	198.62
369.767	197.62
369.993	203.62
370.219	202.62
370.445	190.62
370.672	206.62
370.898	186.62
371.124	183.62
371.35	183.62
371.576	195.62
371.802	206.62
372.028	182.62
372.254	203.62
372.48	191.62
372.706	202.62
372.932	207.62
373.158	181.62
373.384	194.62
373.61	184.62
373.835	179.62
374.061	201.62
374.287	194.62
374.513	202.62
374.739	201.62
374.965	217.62
375.191	227.62
375.416	218.62
375.642	209.62
375.868	209.62
376.094	214.62
376.319	202.62
376.545	205.62
376.771	203.62
376.997	200.62
377.222	209.62
377.448	198.62
377.674	198.62
377.899	188.62
378.125	192.62
378.35	209.62
378.576	196.62
378.802	213.62
379.027	176.62
379.253	198.62
379.478	181.62
379.704	187.62
379.929	191.62
380.155	205.62
380.38	202.62
380.606	201.62
380.831	188.62
381.057	216.62
381.282	192.62
381.507	192.62
381.733	193.62
381.958	193.62
382.184	196.62
382.409	201.62
382.634	200.62
382.86	198.62
383.085	207.62
383.31	202.62
383.535	214.62
383.761	205.62
383.986	210.62
384.211	210.62
384.436	213.62
384.662	237.62
384.887	209.62
385.112	232.62
385.337	223.62
385.562	227.62
385.787	209.62
386.013	223.62
386.238	221.62
386.463	217.62
386.688	215.62
386.913	202.62
387.138	211.62
387.363	219.62
387.588	207.62
387.813	212.62
388.038	228.62
388.263	208.62
388.488	216.62
388.713	217.62
388.938	210.62
389.163	213.62
389.387	211.62
389.612	207.62
389.837	225.62
390.062	223.62
390.287	225.62
390.512	227.62
390.736	222.62
390.961	211.62
391.186	232.62
391.411	221.62
391.636	234.62
391.86	237.62
392.085	227.62
392.31	225.62
392.534	233.62
392.759	226.62
392.984	216.62
393.208	225.62
393.433	224.62
393.658	245.62
393.882	240.62
394.107	235.62
394.331	225.62
394.556	226.62
394.78	240.62
395.005	229.62
395.229	234.62
395.454	233.62
395.678	246.62
395.903	233.62
396.127	233.62
396.352	222.62
396.576	219.62
396.801	234.62
397.025	228.62
397.249	229.62
397.474	215.62
397.698	229.62
397.922	240.62
398.147	222.62
398.371	219.62
398.595	227.62
398.82	251.62
399.044	252.62
399.268	287.62
399.492	326.62
399.717	377.62
399.941	353.62
400.165	320.62
400.389	274.62
400.613	275.62
400.837	258.62
401.062	238.62
401.286	261.62
401.51	259.62
401.734	238.62
401.958	267.62
402.182	250.62
402.406	267.62
402.63	245.62
402.854	270.62
403.078	268.62
403.302	288.62
403.526	282.62
403.75	303.62
403.974	287.62
404.198	299.62
404.422	302.62
404.645	293.62
404.869	283.62
405.093	280.62
405.317	282.62
405.541	287.62
405.765	271.62
405.988	275.62
406.212	260.62
406.436	281.62
406.66	300.62
406.883	284.62
407.107	291.62
407.331	317.62
407.555	321.62
407.778	298.62
408.002	300.62
408.226	304.62
408.449	278.62
408.673	273.62
408.896	286.62
409.12	287.62
409.344	266.62
409.567	272.62
409.791	275.62
410.014	283.62
410.238	269.62
410.461	261.62
410.685	273.62
410.908	280.62
411.132	266.62
411.355	256.62
411.578	261.62
411.802	251.62
412.025	267.62
412.249	275.62
412.472	265.62
412.695	273.62
412.919	265.62
413.142	255.62
413.365	255.62
413.589	260.62
413.812	239.62
414.035	259.62
414.258	246.62
414.482	241.62
414.705	255.62
414.928	265.62
415.151	269.62
415.374	254.62
415.597	250.62
415.821	251.62
416.044	243.62
416.267	261.62
416.49	238.62
416.713	240.62
416.936	249.62
417.159	234.62
417.382	242.62
417.605	241.62
417.828	255.62
418.051	240.62
418.274	247.62
418.497	263.62
418.72	252.62
418.943	266.62
419.166	264.62
419.389	276.62
419.611	280.62
419.834	280.62
420.057	236.62
420.28	246.62
420.503	250.62
420.726	269.62
420.948	245.62
421.171	248.62
421.394	250.62
421.617	243.62
421.839	262.62
422.062	271.62
422.285	234.62
422.507	263.62
422.73	267.62
422.953	264.62
423.175	251.62
423.398	239.62
423.621	248.62
423.843	261.62
424.066	266.62
424.288	272.62
424.511	276.62
424.733	263.62
424.956	267.62
425.178	253.62
425.401	256.62
425.623	250.62
425.846	249.62
426.068	240.62
426.291	253.62
426.513	236.62
426.735	248.62
426.958	237.62
427.18	231.62
427.402	239.62
427.625	234.62
427.847	235.62
428.069	229.62
428.292	226.62
428.514	219.62
428.736	208.62
428.958	238.62
429.181	229.62
429.403	229.62
429.625	225.62
429.847	213.62
430.069	214.62
430.292	224.62
430.514	230.62
430.736	222.62
430.958	239.62
431.18	239.62
431.402	217.62
431.624	237.62
431.846	246.62
432.068	238.62
432.29	228.62
432.512	225.62
432.734	238.62
432.956	209.62
433.178	226.62
433.4	224.62
433.622	252.62
433.844	236.62
434.066	247.62
434.287	246.62
434.509	230.62
434.731	229.62
434.953	248.62
435.175	247.62
435.397	254.62
435.618	250.62
435.84	225.62
436.062	227.62
436.284	239.62
436.505	232.62
436.727	222.62
436.949	233.62
437.17	231.62
437.392	230.62
437.614	245.62
437.835	217.62
438.057	233.62
438.278	229.62
438.5	224.62
438.721	228.62
438.943	234.62
439.165	241.62
439.386	239.62
439.608	205.62
439.829	236.62
440.05	216.62
440.272	225.62
440.493	234.62
440.715	221.62
440.936	245.62
441.158	249.62
441.379	258.62
441.6	250.62
441.822	276.62
442.043	276.62
442.264	239.62
442.486	271.62
442.707	257.62
442.928	240.62
443.149	247.62
443.371	251.62
443.592	235.62
443.813	237.62
444.034	263.62
444.255	245.62
444.476	289.62
444.698	283.62
444.919	290.62
445.14	365.62
445.361	323.62
445.582	253.62
445.803	252.62
446.024	235.62
446.245	247.62
446.466	241.62
446.687	223.62
446.908	247.62
447.129	237.62
447.35	230.62
447.571	216.62
447.792	226.62
448.013	214.62
448.234	232.62
448.455	226.62
448.675	215.62
448.896	223.62
449.117	213.62
449.338	204.62
449.559	207.62
449.779	198.62
450	206.62
450.221	209.62
450.442	203.62
450.662	217.62
450.883	226.62
451.104	224.62
451.324	229.62
451.545	220.62
451.766	233.62
451.986	230.62
452.207	221.62
452.428	238.62
452.648	224.62
452.869	202.62
453.089	200.62
453.31	231.62
453.53	209.62
453.751	227.62
453.971	206.62
454.192	211.62
454.412	221.62
454.633	210.62
454.853	204.62
455.073	216.62
455.294	198.62
455.514	204.62
455.734	204.62
455.955	200.62
456.175	210.62
456.395	197.62
456.616	200.62
456.836	197.62
457.056	200.62
457.276	181.62
457.497	208.62
457.717	214.62
457.937	201.62
458.157	189.62
458.377	200.62
458.598	218.62
458.818	213.62
459.038	231.62
459.258	231.62
459.478	221.62
459.698	251.62
459.918	246.62
460.138	252.62
460.358	257.62
460.578	266.62
460.798	234.62
461.018	266.62
461.238	255.62
461.458	241.62
461.678	289.62
461.898	264.62
462.118	271.62
462.338	265.62
462.558	269.62
462.777	295.62
462.997	322.62
463.217	354.62
463.437	359.62
463.657	322.62
463.876	290.62
464.096	300.62
464.316	310.62
464.536	305.62
464.755	303.62
464.975	260.62
465.195	293.62
465.414	262.62
465.634	244.62
465.854	248.62
466.073	216.62
466.293	240.62
466.512	234.62
466.732	230.62
466.951	233.62
467.171	214.62
467.391	228.62
467.61	225.62
467.829	221.62
468.049	221.62
468.268	232.62
468.488	210.62
468.707	218.62
468.927	214.62
469.146	216.62
469.365	219.62
469.585	202.62
469.804	227.62
470.023	226.62
470.243	234.62
470.462	231.62
470.681	235.62
470.901	249.62
471.12	245.62
471.339	243.62
471.558	230.62
471.777	214.62
471.997	221.62
472.216	227.62
472.435	215.62
472.654	218.62
472.873	203.62
473.092	224.62
473.311	235.62
473.53	223.62
473.749	224.62
473.968	225.62
474.187	219.62
474.406	219.62
474.625	220.62
474.844	217.62
475.063	219.62
475.282	229.62
475.501	240.62
475.72	226.62
475.939	221.62
476.158	225.62
476.377	212.62
476.596	225.62
476.814	239.62
477.033	242.62
477.252	210.62
477.471	243.62
477.69	220.62
477.908	258.62
478.127	268.62
478.346	240.62
478.564	262.62
478.783	261.62
479.002	268.62
479.22	255.62
479.439	256.62
479.658	268.62
479.876	250.62
480.095	265.62
480.313	275.62
480.532	275.62
480.751	281.62
480.969	258.62
481.188	270.62
481.406	242.62
481.624	246.62
481.843	251.62
482.061	245.62
482.28	253.62
482.498	249.62
482.717	236.62
482.935	234.62
483.153	252.62
483.372	232.62
483.59	245.62
483.808	238.62
484.027	244.62
484.245	269.62
484.463	233.62
484.681	252.62
484.9	255.62
485.118	248.62
485.336	261.62
485.554	241.62
485.772	273.62
485.99	269.62
486.209	275.62
486.427	273.62
486.645	246.62
486.863	255.62
487.081	261.62
487.299	249.62
487.517	249.62
487.735	246.62
487.953	257.62
488.171	269.62
488.389	263.62
488.607	252.62
488.825	237.62
489.043	257.62
489.261	252.62
489.479	265.62
489.696	245.62
489.914	253.62
490.132	250.62
490.35	256.62
490.568	268.62
490.786	261.62
491.003	267.62
491.221	262.62
491.439	262.62
491.657	258.62
491.874	268.62
492.092	272.62
492.31	277.62
492.527	272.62
492.745	261.62
492.963	270.62
493.18	274.62
493.398	266.62
493.615	259.62
493.833	257.62
494.05	263.62
494.268	254.62
494.485	269.62
494.703	277.62
494.92	270.62
495.138	275.62
495.355	274.62
495.573	267.62
495.79	263.62
496.008	283.62
496.225	254.62
496.442	270.62
496.66	290.62
496.877	270.62
497.094	281.62
497.312	273.62
497.529	293.62
497.746	279.62
497.963	298.62
498.181	310.62
498.398	304.62
498.615	349.62
498.832	362.62
499.049	391.62
499.267	395.62
499.484	431.62
499.701	483.62
499.918	509.62
500.135	585.62
500.352	674.62
500.569	715.62
500.786	709.62
501.003	651.62
501.22	558.62
501.437	523.62
501.654	443.62
501.871	418.62
502.088	387.62
502.305	379.62
502.522	341.62
502.739	327.62
502.956	330.62
503.172	328.62
