Data from 0.5MCu(NO3)2.Standard.Lamp.E10.CV._HRD10591_16-05-08-754.txt Node
Date: Mon Jul 22 16:05:08 EDT 2019
User: cochatt
Spectrometer: HR+D1059
Trigger mode: 1
Integration Time (sec): 1.000000E-1
Scans to average: 1
Electric dark correction enabled: true
Nonlinearity correction enabled: false
Boxcar width: 0
XAxis mode: Wavelengths
Number of Pixels in Spectrum: 2048
>>>>>Begin Spectral Data<<<<<
223.165	-24.06
223.4	-24.06
223.635	-24.06
223.869	-4.06
224.104	-12.06
224.338	-20.06
224.573	-4.06
224.808	-23.06
225.042	-13.06
225.277	-20.06
225.511	2.94
225.746	-2.06
225.98	12.94
226.215	-4.06
226.449	27.94
226.683	27.94
226.918	30.94
227.152	23.94
227.387	26.94
227.621	32.94
227.856	43.94
228.09	40.94
228.324	51.94
228.559	57.94
228.793	59.94
229.027	76.94
229.262	72.94
229.496	63.94
229.73	72.94
229.964	80.94
230.199	88.94
230.433	80.94
230.667	82.94
230.901	96.94
231.136	98.94
231.37	95.94
231.604	87.94
231.838	89.94
232.072	95.94
232.306	92.94
232.541	76.94
232.775	93.94
233.009	98.94
233.243	93.94
233.477	94.94
233.711	98.94
233.945	94.94
234.179	94.94
234.413	96.94
234.647	97.94
234.881	93.94
235.115	86.94
235.349	85.94
235.583	100.94
235.817	114.94
236.051	80.94
236.285	88.94
236.519	84.94
236.753	77.94
236.987	97.94
237.221	95.94
237.455	105.94
237.689	91.94
237.922	87.94
238.156	85.94
238.39	88.94
238.624	82.94
238.858	98.94
239.091	95.94
239.325	95.94
239.559	88.94
239.793	93.94
240.027	101.94
240.26	92.94
240.494	106.94
240.728	92.94
240.961	95.94
241.195	96.94
241.429	89.94
241.662	100.94
241.896	103.94
242.13	85.94
242.363	89.94
242.597	90.94
242.83	85.94
243.064	107.94
243.298	97.94
243.531	94.94
243.765	104.94
243.998	100.94
244.232	104.94
244.465	95.94
244.699	101.94
244.932	106.94
245.166	96.94
245.399	103.94
245.633	104.94
245.866	104.94
246.099	102.94
246.333	122.94
246.566	93.94
246.8	101.94
247.033	110.94
247.266	96.94
247.5	102.94
247.733	104.94
247.966	120.94
248.2	109.94
248.433	102.94
248.666	109.94
248.899	113.94
249.133	106.94
249.366	88.94
249.599	99.94
249.832	102.94
250.066	107.94
250.299	111.94
250.532	95.94
250.765	93.94
250.998	93.94
251.231	100.94
251.465	114.94
251.698	106.94
251.931	108.94
252.164	118.94
252.397	100.94
252.63	108.94
252.863	96.94
253.096	98.94
253.329	120.94
253.562	110.94
253.795	106.94
254.028	113.94
254.261	128.94
254.494	108.94
254.727	120.94
254.96	108.94
255.193	107.94
255.426	117.94
255.659	102.94
255.892	120.94
256.124	123.94
256.357	122.94
256.59	120.94
256.823	107.94
257.056	110.94
257.289	103.94
257.521	100.94
257.754	113.94
257.987	111.94
258.22	114.94
258.452	121.94
258.685	116.94
258.918	117.94
259.151	130.94
259.383	125.94
259.616	128.94
259.849	117.94
260.081	118.94
260.314	120.94
260.547	120.94
260.779	119.94
261.012	126.94
261.244	119.94
261.477	139.94
261.71	121.94
261.942	126.94
262.175	124.94
262.407	126.94
262.64	110.94
262.872	126.94
263.105	126.94
263.337	127.94
263.57	132.94
263.802	131.94
264.035	140.94
264.267	125.94
264.499	127.94
264.732	135.94
264.964	124.94
265.197	134.94
265.429	131.94
265.661	125.94
265.894	134.94
266.126	129.94
266.358	128.94
266.591	125.94
266.823	127.94
267.055	123.94
267.287	115.94
267.52	137.94
267.752	129.94
267.984	128.94
268.216	132.94
268.448	129.94
268.681	127.94
268.913	138.94
269.145	144.94
269.377	131.94
269.609	127.94
269.841	132.94
270.073	139.94
270.306	122.94
270.538	119.94
270.77	142.94
271.002	132.94
271.234	132.94
271.466	125.94
271.698	138.94
271.93	134.94
272.162	136.94
272.394	126.94
272.626	128.94
272.858	144.94
273.09	128.94
273.322	140.94
273.553	131.94
273.785	131.94
274.017	139.94
274.249	154.94
274.481	142.94
274.713	141.94
274.945	133.94
275.176	133.94
275.408	139.94
275.64	144.94
275.872	131.94
276.104	127.94
276.335	136.94
276.567	143.94
276.799	142.94
277.031	144.94
277.262	127.94
277.494	147.94
277.726	139.94
277.957	147.94
278.189	143.94
278.421	132.94
278.652	146.94
278.884	141.94
279.115	148.94
279.347	152.94
279.579	150.94
279.81	154.94
280.042	132.94
280.273	148.94
280.505	163.94
280.736	156.94
280.968	144.94
281.199	133.94
281.431	144.94
281.662	150.94
281.894	138.94
282.125	126.94
282.356	147.94
282.588	148.94
282.819	147.94
283.051	133.94
283.282	155.94
283.513	153.94
283.745	144.94
283.976	142.94
284.207	143.94
284.439	154.94
284.67	168.94
284.901	149.94
285.132	160.94
285.364	153.94
285.595	160.94
285.826	142.94
286.057	142.94
286.288	150.94
286.52	167.94
286.751	148.94
286.982	153.94
287.213	156.94
287.444	158.94
287.675	151.94
287.906	164.94
288.138	159.94
288.369	172.94
288.6	170.94
288.831	163.94
289.062	154.94
289.293	159.94
289.524	174.94
289.755	170.94
289.986	166.94
290.217	148.94
290.448	174.94
290.679	152.94
290.91	167.94
291.141	159.94
291.371	165.94
291.602	170.94
291.833	134.94
292.064	151.94
292.295	154.94
292.526	155.94
292.757	161.94
292.987	159.94
293.218	158.94
293.449	162.94
293.68	166.94
293.91	158.94
294.141	182.94
294.372	164.94
294.603	159.94
294.833	164.94
295.064	162.94
295.295	175.94
295.525	159.94
295.756	180.94
295.987	163.94
296.217	159.94
296.448	166.94
296.679	162.94
296.909	176.94
297.14	171.94
297.37	159.94
297.601	173.94
297.831	158.94
298.062	157.94
298.292	163.94
298.523	183.94
298.753	180.94
298.984	176.94
299.214	178.94
299.445	175.94
299.675	164.94
299.905	160.94
300.136	175.94
300.366	175.94
300.597	165.94
300.827	180.94
301.057	183.94
301.288	174.94
301.518	173.94
301.748	197.94
301.979	179.94
302.209	191.94
302.439	171.94
302.669	171.94
302.9	182.94
303.13	188.94
303.36	188.94
303.59	187.94
303.82	170.94
304.051	174.94
304.281	189.94
304.511	182.94
304.741	192.94
304.971	186.94
305.201	168.94
305.431	172.94
305.661	181.94
305.891	173.94
306.121	170.94
306.352	169.94
306.582	195.94
306.812	180.94
307.042	187.94
307.272	176.94
307.502	199.94
307.731	166.94
307.961	157.94
308.191	170.94
308.421	168.94
308.651	162.94
308.881	156.94
309.111	183.94
309.341	180.94
309.571	175.94
309.8	159.94
310.03	182.94
310.26	181.94
310.49	167.94
310.72	173.94
310.949	180.94
311.179	184.94
311.409	162.94
311.639	180.94
311.868	166.94
312.098	183.94
312.328	181.94
312.557	180.94
312.787	188.94
313.017	182.94
313.246	195.94
313.476	186.94
313.706	185.94
313.935	187.94
314.165	178.94
314.394	189.94
314.624	196.94
314.853	192.94
315.083	187.94
315.312	172.94
315.542	198.94
315.771	186.94
316.001	197.94
316.23	167.94
316.46	168.94
316.689	186.94
316.919	170.94
317.148	187.94
317.377	170.94
317.607	182.94
317.836	174.94
318.065	194.94
318.295	178.94
318.524	178.94
318.753	185.94
318.983	179.94
319.212	165.94
319.441	184.94
319.67	174.94
319.9	182.94
320.129	188.94
320.358	189.94
320.587	191.94
320.816	192.94
321.046	178.94
321.275	198.94
321.504	178.94
321.733	175.94
321.962	188.94
322.191	169.94
322.42	180.94
322.649	172.94
322.878	194.94
323.108	179.94
323.337	173.94
323.566	175.94
323.795	188.94
324.024	189.94
324.253	196.94
324.482	179.94
324.71	190.94
324.939	195.94
325.168	196.94
325.397	194.94
325.626	193.94
325.855	186.94
326.084	195.94
326.313	181.94
326.542	193.94
326.77	190.94
326.999	185.94
327.228	181.94
327.457	209.94
327.686	180.94
327.914	189.94
328.143	198.94
328.372	200.94
328.6	183.94
328.829	182.94
329.058	195.94
329.287	198.94
329.515	192.94
329.744	186.94
329.972	192.94
330.201	199.94
330.43	186.94
330.658	175.94
330.887	205.94
331.115	189.94
331.344	191.94
331.572	200.94
331.801	210.94
332.03	200.94
332.258	220.94
332.486	210.94
332.715	229.94
332.943	192.94
333.172	224.94
333.4	237.94
333.629	242.94
333.857	256.94
334.085	238.94
334.314	235.94
334.542	222.94
334.771	221.94
334.999	232.94
335.227	231.94
335.455	219.94
335.684	211.94
335.912	210.94
336.14	204.94
336.369	212.94
336.597	236.94
336.825	209.94
337.053	224.94
337.281	208.94
337.51	213.94
337.738	206.94
337.966	212.94
338.194	194.94
338.422	195.94
338.65	208.94
338.878	204.94
339.106	190.94
339.334	206.94
339.562	203.94
339.79	189.94
340.018	194.94
340.246	194.94
340.474	174.94
340.702	189.94
340.93	194.94
341.158	200.94
341.386	194.94
341.614	192.94
341.842	191.94
342.07	199.94
342.298	195.94
342.526	202.94
342.754	208.94
342.981	181.94
343.209	216.94
343.437	195.94
343.665	202.94
343.893	238.94
344.12	224.94
344.348	231.94
344.576	208.94
344.804	205.94
345.031	199.94
345.259	191.94
345.487	204.94
345.714	200.94
345.942	196.94
346.17	195.94
346.397	182.94
346.625	197.94
346.853	189.94
347.08	188.94
347.308	184.94
347.535	204.94
347.763	199.94
347.99	201.94
348.218	210.94
348.445	187.94
348.673	183.94
348.9	190.94
349.128	194.94
349.355	194.94
349.583	203.94
349.81	178.94
350.037	178.94
350.265	197.94
350.492	196.94
350.72	184.94
350.947	192.94
351.174	190.94
351.402	189.94
351.629	172.94
351.856	183.94
352.083	178.94
352.311	194.94
352.538	176.94
352.765	182.94
352.992	171.94
353.22	178.94
353.447	187.94
353.674	186.94
353.901	173.94
354.128	190.94
354.355	182.94
354.583	191.94
354.81	197.94
355.037	185.94
355.264	187.94
355.491	192.94
355.718	191.94
355.945	201.94
356.172	200.94
356.399	202.94
356.626	200.94
356.853	197.94
357.08	191.94
357.307	199.94
357.534	183.94
357.761	203.94
357.988	200.94
358.215	184.94
358.441	183.94
358.668	181.94
358.895	198.94
359.122	181.94
359.349	170.94
359.576	164.94
359.802	184.94
360.029	175.94
360.256	186.94
360.483	198.94
360.709	171.94
360.936	178.94
361.163	184.94
361.39	176.94
361.616	185.94
361.843	200.94
362.07	205.94
362.296	190.94
362.523	179.94
362.749	202.94
362.976	202.94
363.203	195.94
363.429	174.94
363.656	166.94
363.882	173.94
364.109	190.94
364.335	189.94
364.562	185.94
364.788	187.94
365.015	179.94
365.241	186.94
365.468	168.94
365.694	196.94
365.92	180.94
366.147	190.94
366.373	184.94
366.599	176.94
366.826	186.94
367.052	176.94
367.278	191.94
367.505	194.94
367.731	189.94
367.957	186.94
368.184	203.94
368.41	198.94
368.636	184.94
368.862	191.94
369.089	190.94
369.315	175.94
369.541	190.94
369.767	199.94
369.993	175.94
370.219	185.94
370.445	186.94
370.672	179.94
370.898	194.94
371.124	190.94
371.35	193.94
371.576	206.94
371.802	202.94
372.028	195.94
372.254	196.94
372.48	207.94
372.706	206.94
372.932	202.94
373.158	193.94
373.384	194.94
373.61	183.94
373.835	194.94
374.061	197.94
374.287	203.94
374.513	203.94
374.739	194.94
374.965	206.94
375.191	206.94
375.416	205.94
375.642	222.94
375.868	199.94
376.094	196.94
376.319	187.94
376.545	190.94
376.771	190.94
376.997	191.94
377.222	197.94
377.448	188.94
377.674	194.94
377.899	187.94
378.125	204.94
378.35	199.94
378.576	200.94
378.802	202.94
379.027	178.94
379.253	185.94
379.478	200.94
379.704	200.94
379.929	196.94
380.155	195.94
380.38	197.94
380.606	205.94
380.831	176.94
381.057	191.94
381.282	191.94
381.507	203.94
381.733	191.94
381.958	196.94
382.184	191.94
382.409	221.94
382.634	216.94
382.86	202.94
383.085	203.94
383.31	208.94
383.535	202.94
383.761	206.94
383.986	210.94
384.211	204.94
384.436	224.94
384.662	211.94
384.887	226.94
385.112	213.94
385.337	207.94
385.562	206.94
385.787	233.94
386.013	226.94
386.238	228.94
386.463	232.94
386.688	234.94
386.913	213.94
387.138	228.94
387.363	220.94
387.588	229.94
387.813	219.94
388.038	212.94
388.263	216.94
388.488	218.94
388.713	206.94
388.938	223.94
389.163	215.94
389.387	209.94
389.612	208.94
389.837	224.94
390.062	213.94
390.287	214.94
390.512	216.94
390.736	218.94
390.961	199.94
391.186	221.94
391.411	212.94
391.636	237.94
391.86	251.94
392.085	258.94
392.31	225.94
392.534	216.94
392.759	231.94
392.984	223.94
393.208	233.94
393.433	214.94
393.658	234.94
393.882	235.94
394.107	215.94
394.331	224.94
394.556	232.94
394.78	246.94
395.005	216.94
395.229	215.94
395.454	236.94
395.678	224.94
395.903	226.94
396.127	239.94
396.352	218.94
396.576	232.94
396.801	217.94
397.025	232.94
397.249	236.94
397.474	244.94
397.698	230.94
397.922	224.94
398.147	240.94
398.371	215.94
398.595	246.94
398.82	256.94
399.044	257.94
399.268	282.94
399.492	333.94
399.717	363.94
399.941	367.94
400.165	342.94
400.389	296.94
400.613	280.94
400.837	252.94
401.062	261.94
401.286	257.94
401.51	247.94
401.734	251.94
401.958	277.94
402.182	283.94
402.406	262.94
402.63	254.94
402.854	271.94
403.078	262.94
403.302	288.94
403.526	310.94
403.75	290.94
403.974	292.94
404.198	297.94
404.422	276.94
404.645	306.94
404.869	282.94
405.093	271.94
405.317	267.94
405.541	276.94
405.765	285.94
405.988	265.94
406.212	265.94
406.436	251.94
406.66	270.94
406.883	273.94
407.107	302.94
407.331	313.94
407.555	312.94
407.778	310.94
408.002	327.94
408.226	294.94
408.449	293.94
408.673	269.94
408.896	278.94
409.12	260.94
409.344	276.94
409.567	286.94
409.791	295.94
410.014	287.94
410.238	274.94
410.461	286.94
410.685	278.94
410.908	276.94
411.132	273.94
411.355	263.94
411.578	262.94
411.802	247.94
412.025	268.94
412.249	265.94
412.472	280.94
412.695	245.94
412.919	254.94
413.142	236.94
413.365	253.94
413.589	258.94
413.812	253.94
414.035	237.94
414.258	259.94
414.482	280.94
414.705	247.94
414.928	264.94
415.151	257.94
415.374	256.94
415.597	264.94
415.821	237.94
416.044	248.94
416.267	255.94
416.49	242.94
416.713	244.94
416.936	259.94
417.159	252.94
417.382	258.94
417.605	242.94
417.828	250.94
418.051	243.94
418.274	262.94
418.497	258.94
418.72	250.94
418.943	258.94
419.166	279.94
419.389	277.94
419.611	284.94
419.834	262.94
420.057	259.94
420.28	266.94
420.503	264.94
420.726	238.94
420.948	251.94
421.171	238.94
421.394	243.94
421.617	252.94
421.839	256.94
422.062	233.94
422.285	261.94
422.507	260.94
422.73	258.94
422.953	253.94
423.175	267.94
423.398	253.94
423.621	256.94
423.843	286.94
424.066	267.94
424.288	263.94
424.511	281.94
424.733	272.94
424.956	269.94
425.178	259.94
425.401	242.94
425.623	250.94
425.846	246.94
426.068	235.94
426.291	248.94
426.513	261.94
426.735	234.94
426.958	236.94
427.18	231.94
427.402	227.94
427.625	245.94
427.847	239.94
428.069	211.94
428.292	230.94
428.514	217.94
428.736	232.94
428.958	232.94
429.181	234.94
429.403	219.94
429.625	235.94
429.847	247.94
430.069	236.94
430.292	222.94
430.514	208.94
430.736	226.94
430.958	233.94
431.18	234.94
431.402	222.94
431.624	225.94
431.846	224.94
432.068	223.94
432.29	235.94
432.512	233.94
432.734	251.94
432.956	245.94
433.178	231.94
433.4	217.94
433.622	243.94
433.844	230.94
434.066	235.94
434.287	218.94
434.509	231.94
434.731	247.94
434.953	254.94
435.175	263.94
435.397	242.94
435.618	252.94
435.84	246.94
436.062	233.94
436.284	232.94
436.505	223.94
436.727	225.94
436.949	226.94
437.17	231.94
437.392	222.94
437.614	245.94
437.835	216.94
438.057	232.94
438.278	231.94
438.5	215.94
438.721	194.94
438.943	225.94
439.165	229.94
439.386	220.94
439.608	229.94
439.829	229.94
440.05	229.94
440.272	213.94
440.493	231.94
440.715	229.94
440.936	232.94
441.158	246.94
441.379	237.94
441.6	270.94
441.822	243.94
442.043	242.94
442.264	247.94
442.486	232.94
442.707	242.94
442.928	248.94
443.149	230.94
443.371	246.94
443.592	257.94
443.813	266.94
444.034	246.94
444.255	266.94
444.476	271.94
444.698	278.94
444.919	310.94
445.14	422.94
445.361	319.94
445.582	272.94
445.803	240.94
446.024	242.94
446.245	231.94
446.466	228.94
446.687	231.94
446.908	235.94
447.129	236.94
447.35	223.94
447.571	228.94
447.792	222.94
448.013	202.94
448.234	232.94
448.455	236.94
448.675	233.94
448.896	232.94
449.117	216.94
449.338	217.94
449.559	202.94
449.779	192.94
450	216.94
450.221	221.94
450.442	229.94
450.662	221.94
450.883	202.94
451.104	223.94
451.324	200.94
451.545	215.94
451.766	209.94
451.986	213.94
452.207	208.94
452.428	223.94
452.648	220.94
452.869	214.94
453.089	205.94
453.31	210.94
453.53	222.94
453.751	224.94
453.971	216.94
454.192	206.94
454.412	199.94
454.633	204.94
454.853	201.94
455.073	211.94
455.294	202.94
455.514	219.94
455.734	197.94
455.955	194.94
456.175	191.94
456.395	209.94
456.616	214.94
456.836	194.94
457.056	197.94
457.276	211.94
457.497	198.94
457.717	188.94
457.937	216.94
458.157	193.94
458.377	196.94
458.598	224.94
458.818	218.94
459.038	219.94
459.258	243.94
459.478	244.94
459.698	245.94
459.918	238.94
460.138	234.94
460.358	250.94
460.578	252.94
460.798	267.94
461.018	255.94
461.238	270.94
461.458	261.94
461.678	258.94
461.898	269.94
462.118	248.94
462.338	283.94
462.558	288.94
462.777	280.94
462.997	330.94
463.217	354.94
463.437	338.94
463.657	313.94
463.876	302.94
464.096	274.94
464.316	273.94
464.536	313.94
464.755	305.94
464.975	299.94
465.195	282.94
465.414	254.94
465.634	249.94
465.854	221.94
466.073	240.94
466.293	243.94
466.512	222.94
466.732	232.94
466.951	217.94
467.171	232.94
467.391	209.94
467.61	239.94
467.829	224.94
468.049	225.94
468.268	228.94
468.488	208.94
468.707	214.94
468.927	220.94
469.146	207.94
469.365	229.94
469.585	242.94
469.804	233.94
470.023	225.94
470.243	239.94
470.462	245.94
470.681	259.94
470.901	251.94
471.12	239.94
471.339	234.94
471.558	239.94
471.777	222.94
471.997	215.94
472.216	229.94
472.435	220.94
472.654	231.94
472.873	219.94
473.092	230.94
473.311	242.94
473.53	210.94
473.749	212.94
473.968	205.94
474.187	189.94
474.406	212.94
474.625	227.94
474.844	213.94
475.063	222.94
475.282	219.94
475.501	227.94
475.72	218.94
475.939	233.94
476.158	226.94
476.377	228.94
476.596	221.94
476.814	211.94
477.033	222.94
477.252	214.94
477.471	217.94
477.69	230.94
477.908	247.94
478.127	253.94
478.346	256.94
478.564	280.94
478.783	256.94
479.002	275.94
479.22	242.94
479.439	255.94
479.658	240.94
479.876	245.94
480.095	267.94
480.313	260.94
480.532	288.94
480.751	286.94
480.969	282.94
481.188	261.94
481.406	258.94
481.624	246.94
481.843	234.94
482.061	245.94
482.28	234.94
482.498	226.94
482.717	240.94
482.935	243.94
483.153	243.94
483.372	246.94
483.59	268.94
483.808	252.94
484.027	237.94
484.245	261.94
484.463	245.94
484.681	242.94
484.9	248.94
485.118	257.94
485.336	237.94
485.554	250.94
485.772	256.94
485.99	251.94
486.209	270.94
486.427	253.94
486.645	261.94
486.863	256.94
487.081	262.94
487.299	252.94
487.517	256.94
487.735	265.94
487.953	257.94
488.171	267.94
488.389	261.94
488.607	266.94
488.825	239.94
489.043	244.94
489.261	262.94
489.479	257.94
489.696	261.94
489.914	262.94
490.132	258.94
490.35	285.94
490.568	258.94
490.786	258.94
491.003	254.94
491.221	262.94
491.439	267.94
491.657	258.94
491.874	266.94
492.092	264.94
492.31	266.94
492.527	239.94
492.745	253.94
492.963	274.94
493.18	250.94
493.398	283.94
493.615	269.94
493.833	276.94
494.05	258.94
494.268	284.94
494.485	258.94
494.703	270.94
494.92	272.94
495.138	288.94
495.355	274.94
495.573	273.94
495.79	291.94
496.008	280.94
496.225	277.94
496.442	269.94
496.66	294.94
496.877	288.94
497.094	279.94
497.312	278.94
497.529	265.94
497.746	292.94
497.963	305.94
498.181	290.94
498.398	320.94
498.615	314.94
498.832	364.94
499.049	362.94
499.267	381.94
499.484	436.94
499.701	477.94
499.918	534.94
500.135	599.94
500.352	677.94
500.569	739.94
500.786	741.94
501.003	692.94
501.22	591.94
501.437	522.94
501.654	494.94
501.871	413.94
502.088	396.94
502.305	358.94
502.522	354.94
502.739	351.94
502.956	332.94
503.172	340.94
