Data from 0.5MCu(NO3)2.Standard.Lamp.E10.CV._HRD10591_16-04-45-753.txt Node
Date: Mon Jul 22 16:04:45 EDT 2019
User: cochatt
Spectrometer: HR+D1059
Trigger mode: 1
Integration Time (sec): 1.000000E-1
Scans to average: 1
Electric dark correction enabled: true
Nonlinearity correction enabled: false
Boxcar width: 0
XAxis mode: Wavelengths
Number of Pixels in Spectrum: 2048
>>>>>Begin Spectral Data<<<<<
223.165	-15.94
223.4	-15.94
223.635	-15.94
223.869	-24.94
224.104	-22.94
224.338	-18.94
224.573	-21.94
224.808	-14.94
225.042	7.06
225.277	-3.94
225.511	3.06
225.746	14.06
225.98	-0.94
226.215	1.06
226.449	10.06
226.683	25.06
226.918	31.06
227.152	33.06
227.387	26.06
227.621	39.06
227.856	49.06
228.09	43.06
228.324	53.06
228.559	39.06
228.793	63.06
229.027	76.06
229.262	76.06
229.496	69.06
229.73	82.06
229.964	101.06
230.199	77.06
230.433	82.06
230.667	79.06
230.901	87.06
231.136	67.06
231.37	85.06
231.604	98.06
231.838	89.06
232.072	81.06
232.306	88.06
232.541	85.06
232.775	87.06
233.009	84.06
233.243	85.06
233.477	103.06
233.711	97.06
233.945	103.06
234.179	103.06
234.413	92.06
234.647	93.06
234.881	99.06
235.115	103.06
235.349	99.06
235.583	92.06
235.817	77.06
236.051	95.06
236.285	79.06
236.519	92.06
236.753	98.06
236.987	101.06
237.221	101.06
237.455	80.06
237.689	97.06
237.922	101.06
238.156	99.06
238.39	106.06
238.624	81.06
238.858	94.06
239.091	95.06
239.325	95.06
239.559	96.06
239.793	99.06
240.027	88.06
240.26	82.06
240.494	92.06
240.728	83.06
240.961	88.06
241.195	103.06
241.429	103.06
241.662	89.06
241.896	93.06
242.13	102.06
242.363	95.06
242.597	92.06
242.83	82.06
243.064	96.06
243.298	101.06
243.531	90.06
243.765	104.06
243.998	90.06
244.232	88.06
244.465	93.06
244.699	93.06
244.932	95.06
245.166	109.06
245.399	108.06
245.633	105.06
245.866	110.06
246.099	93.06
246.333	104.06
246.566	95.06
246.8	89.06
247.033	117.06
247.266	101.06
247.5	103.06
247.733	95.06
247.966	111.06
248.2	108.06
248.433	108.06
248.666	91.06
248.899	107.06
249.133	104.06
249.366	118.06
249.599	110.06
249.832	115.06
250.066	100.06
250.299	113.06
250.532	123.06
250.765	111.06
250.998	117.06
251.231	106.06
251.465	121.06
251.698	114.06
251.931	111.06
252.164	124.06
252.397	101.06
252.63	123.06
252.863	98.06
253.096	120.06
253.329	108.06
253.562	130.06
253.795	111.06
254.028	109.06
254.261	99.06
254.494	112.06
254.727	116.06
254.96	111.06
255.193	114.06
255.426	119.06
255.659	112.06
255.892	119.06
256.124	108.06
256.357	106.06
256.59	117.06
256.823	114.06
257.056	113.06
257.289	114.06
257.521	103.06
257.754	125.06
257.987	131.06
258.22	126.06
258.452	130.06
258.685	123.06
258.918	117.06
259.151	126.06
259.383	123.06
259.616	134.06
259.849	125.06
260.081	119.06
260.314	127.06
260.547	129.06
260.779	120.06
261.012	120.06
261.244	127.06
261.477	144.06
261.71	128.06
261.942	133.06
262.175	134.06
262.407	135.06
262.64	124.06
262.872	130.06
263.105	131.06
263.337	133.06
263.57	129.06
263.802	126.06
264.035	129.06
264.267	128.06
264.499	135.06
264.732	123.06
264.964	130.06
265.197	148.06
265.429	139.06
265.661	135.06
265.894	139.06
266.126	144.06
266.358	145.06
266.591	114.06
266.823	127.06
267.055	124.06
267.287	135.06
267.52	149.06
267.752	133.06
267.984	147.06
268.216	129.06
268.448	144.06
268.681	147.06
268.913	144.06
269.145	141.06
269.377	146.06
269.609	131.06
269.841	148.06
270.073	141.06
270.306	141.06
270.538	145.06
270.77	148.06
271.002	141.06
271.234	129.06
271.466	147.06
271.698	142.06
271.93	135.06
272.162	153.06
272.394	139.06
272.626	137.06
272.858	142.06
273.09	134.06
273.322	145.06
273.553	154.06
273.785	145.06
274.017	137.06
274.249	147.06
274.481	155.06
274.713	154.06
274.945	145.06
275.176	155.06
275.408	140.06
275.64	154.06
275.872	143.06
276.104	156.06
276.335	163.06
276.567	163.06
276.799	140.06
277.031	145.06
277.262	145.06
277.494	152.06
277.726	147.06
277.957	160.06
278.189	155.06
278.421	157.06
278.652	157.06
278.884	154.06
279.115	142.06
279.347	175.06
279.579	149.06
279.81	158.06
280.042	149.06
280.273	163.06
280.505	157.06
280.736	168.06
280.968	153.06
281.199	152.06
281.431	165.06
281.662	168.06
281.894	169.06
282.125	156.06
282.356	159.06
282.588	169.06
282.819	166.06
283.051	168.06
283.282	162.06
283.513	165.06
283.745	161.06
283.976	178.06
284.207	180.06
284.439	185.06
284.67	167.06
284.901	170.06
285.132	166.06
285.364	168.06
285.595	176.06
285.826	172.06
286.057	172.06
286.288	172.06
286.52	177.06
286.751	158.06
286.982	183.06
287.213	162.06
287.444	161.06
287.675	165.06
287.906	154.06
288.138	179.06
288.369	181.06
288.6	180.06
288.831	192.06
289.062	198.06
289.293	177.06
289.524	165.06
289.755	179.06
289.986	201.06
290.217	173.06
290.448	166.06
290.679	170.06
290.91	170.06
291.141	190.06
291.371	183.06
291.602	185.06
291.833	193.06
292.064	171.06
292.295	186.06
292.526	183.06
292.757	185.06
292.987	185.06
293.218	175.06
293.449	176.06
293.68	189.06
293.91	188.06
294.141	183.06
294.372	172.06
294.603	182.06
294.833	191.06
295.064	183.06
295.295	190.06
295.525	189.06
295.756	200.06
295.987	175.06
296.217	186.06
296.448	183.06
296.679	189.06
296.909	184.06
297.14	181.06
297.37	202.06
297.601	196.06
297.831	193.06
298.062	190.06
298.292	203.06
298.523	197.06
298.753	212.06
298.984	186.06
299.214	192.06
299.445	196.06
299.675	187.06
299.905	204.06
300.136	195.06
300.366	200.06
300.597	202.06
300.827	191.06
301.057	198.06
301.288	190.06
301.518	206.06
301.748	194.06
301.979	191.06
302.209	208.06
302.439	197.06
302.669	202.06
302.9	195.06
303.13	194.06
303.36	192.06
303.59	211.06
303.82	193.06
304.051	205.06
304.281	191.06
304.511	197.06
304.741	198.06
304.971	204.06
305.201	204.06
305.431	201.06
305.661	184.06
305.891	183.06
306.121	181.06
306.352	200.06
306.582	198.06
306.812	198.06
307.042	212.06
307.272	191.06
307.502	201.06
307.731	188.06
307.961	200.06
308.191	190.06
308.421	209.06
308.651	199.06
308.881	198.06
309.111	200.06
309.341	203.06
309.571	207.06
309.8	199.06
310.03	214.06
310.26	189.06
310.49	209.06
310.72	192.06
310.949	197.06
311.179	189.06
311.409	215.06
311.639	196.06
311.868	208.06
312.098	212.06
312.328	213.06
312.557	227.06
312.787	211.06
313.017	187.06
313.246	208.06
313.476	220.06
313.706	204.06
313.935	217.06
314.165	178.06
314.394	187.06
314.624	218.06
314.853	210.06
315.083	200.06
315.312	192.06
315.542	216.06
315.771	202.06
316.001	206.06
316.23	193.06
316.46	199.06
316.689	216.06
316.919	203.06
317.148	217.06
317.377	212.06
317.607	205.06
317.836	216.06
318.065	210.06
318.295	193.06
318.524	209.06
318.753	204.06
318.983	203.06
319.212	209.06
319.441	203.06
319.67	212.06
319.9	197.06
320.129	207.06
320.358	216.06
320.587	196.06
320.816	207.06
321.046	208.06
321.275	208.06
321.504	203.06
321.733	199.06
321.962	208.06
322.191	211.06
322.42	205.06
322.649	193.06
322.878	194.06
323.108	208.06
323.337	212.06
323.566	208.06
323.795	211.06
324.024	217.06
324.253	224.06
324.482	209.06
324.71	226.06
324.939	216.06
325.168	217.06
325.397	209.06
325.626	200.06
325.855	228.06
326.084	228.06
326.313	215.06
326.542	232.06
326.77	227.06
326.999	232.06
327.228	212.06
327.457	225.06
327.686	221.06
327.914	227.06
328.143	224.06
328.372	212.06
328.6	225.06
328.829	209.06
329.058	215.06
329.287	238.06
329.515	215.06
329.744	221.06
329.972	228.06
330.201	224.06
330.43	210.06
330.658	219.06
330.887	216.06
331.115	237.06
331.344	215.06
331.572	229.06
331.801	236.06
332.03	236.06
332.258	230.06
332.486	233.06
332.715	241.06
332.943	281.06
333.172	276.06
333.4	281.06
333.629	283.06
333.857	273.06
334.085	284.06
334.314	277.06
334.542	248.06
334.771	257.06
334.999	256.06
335.227	259.06
335.455	252.06
335.684	257.06
335.912	250.06
336.14	257.06
336.369	223.06
336.597	264.06
336.825	249.06
337.053	262.06
337.281	250.06
337.51	247.06
337.738	228.06
337.966	241.06
338.194	251.06
338.422	234.06
338.65	228.06
338.878	235.06
339.106	224.06
339.334	217.06
339.562	239.06
339.79	210.06
340.018	225.06
340.246	229.06
340.474	241.06
340.702	238.06
340.93	220.06
341.158	220.06
341.386	242.06
341.614	216.06
341.842	216.06
342.07	214.06
342.298	216.06
342.526	229.06
342.754	229.06
342.981	224.06
343.209	230.06
343.437	228.06
343.665	256.06
343.893	269.06
344.12	289.06
344.348	248.06
344.576	250.06
344.804	216.06
345.031	229.06
345.259	213.06
345.487	225.06
345.714	225.06
345.942	223.06
346.17	228.06
346.397	236.06
346.625	225.06
346.853	230.06
347.08	225.06
347.308	218.06
347.535	215.06
347.763	212.06
347.99	223.06
348.218	247.06
348.445	212.06
348.673	219.06
348.9	234.06
349.128	231.06
349.355	208.06
349.583	220.06
349.81	211.06
350.037	222.06
350.265	216.06
350.492	224.06
350.72	209.06
350.947	224.06
351.174	213.06
351.402	208.06
351.629	211.06
351.856	218.06
352.083	219.06
352.311	215.06
352.538	213.06
352.765	204.06
352.992	229.06
353.22	215.06
353.447	200.06
353.674	217.06
353.901	229.06
354.128	222.06
354.355	232.06
354.583	217.06
354.81	215.06
355.037	208.06
355.264	205.06
355.491	232.06
355.718	210.06
355.945	216.06
356.172	196.06
356.399	216.06
356.626	208.06
356.853	207.06
357.08	212.06
357.307	211.06
357.534	195.06
357.761	214.06
357.988	211.06
358.215	218.06
358.441	209.06
358.668	226.06
358.895	199.06
359.122	219.06
359.349	213.06
359.576	201.06
359.802	234.06
360.029	195.06
360.256	212.06
360.483	214.06
360.709	215.06
360.936	216.06
361.163	207.06
361.39	198.06
361.616	202.06
361.843	203.06
362.07	214.06
362.296	212.06
362.523	204.06
362.749	217.06
362.976	210.06
363.203	218.06
363.429	210.06
363.656	207.06
363.882	208.06
364.109	224.06
364.335	228.06
364.562	213.06
364.788	214.06
365.015	210.06
365.241	225.06
365.468	216.06
365.694	197.06
365.92	206.06
366.147	203.06
366.373	197.06
366.599	203.06
366.826	202.06
367.052	213.06
367.278	216.06
367.505	216.06
367.731	209.06
367.957	213.06
368.184	198.06
368.41	202.06
368.636	213.06
368.862	207.06
369.089	222.06
369.315	213.06
369.541	220.06
369.767	211.06
369.993	208.06
370.219	229.06
370.445	235.06
370.672	215.06
370.898	220.06
371.124	223.06
371.35	232.06
371.576	225.06
371.802	228.06
372.028	229.06
372.254	222.06
372.48	227.06
372.706	227.06
372.932	231.06
373.158	233.06
373.384	228.06
373.61	229.06
373.835	252.06
374.061	218.06
374.287	215.06
374.513	243.06
374.739	229.06
374.965	237.06
375.191	232.06
375.416	241.06
375.642	251.06
375.868	243.06
376.094	232.06
376.319	221.06
376.545	240.06
376.771	225.06
376.997	227.06
377.222	228.06
377.448	229.06
377.674	226.06
377.899	217.06
378.125	204.06
378.35	229.06
378.576	221.06
378.802	225.06
379.027	217.06
379.253	236.06
379.478	217.06
379.704	224.06
379.929	221.06
380.155	215.06
380.38	214.06
380.606	215.06
380.831	247.06
381.057	230.06
381.282	224.06
381.507	227.06
381.733	208.06
381.958	228.06
382.184	230.06
382.409	234.06
382.634	228.06
382.86	231.06
383.085	233.06
383.31	245.06
383.535	231.06
383.761	234.06
383.986	238.06
384.211	267.06
384.436	244.06
384.662	252.06
384.887	260.06
385.112	260.06
385.337	244.06
385.562	256.06
385.787	255.06
386.013	283.06
386.238	264.06
386.463	283.06
386.688	242.06
386.913	257.06
387.138	239.06
387.363	253.06
387.588	243.06
387.813	256.06
388.038	255.06
388.263	248.06
388.488	275.06
388.713	263.06
388.938	259.06
389.163	252.06
389.387	261.06
389.612	255.06
389.837	245.06
390.062	240.06
390.287	249.06
390.512	252.06
390.736	266.06
390.961	271.06
391.186	254.06
391.411	263.06
391.636	262.06
391.86	287.06
392.085	291.06
392.31	293.06
392.534	280.06
392.759	259.06
392.984	258.06
393.208	269.06
393.433	250.06
393.658	262.06
393.882	259.06
394.107	264.06
394.331	283.06
394.556	296.06
394.78	290.06
395.005	273.06
395.229	282.06
395.454	292.06
395.678	294.06
395.903	283.06
396.127	264.06
396.352	276.06
396.576	273.06
396.801	255.06
397.025	254.06
397.249	260.06
397.474	292.06
397.698	272.06
397.922	282.06
398.147	279.06
398.371	291.06
398.595	283.06
398.82	295.06
399.044	325.06
399.268	343.06
399.492	399.06
399.717	459.06
399.941	439.06
400.165	398.06
400.389	355.06
400.613	327.06
400.837	312.06
401.062	325.06
401.286	295.06
401.51	277.06
401.734	292.06
401.958	296.06
402.182	337.06
402.406	308.06
402.63	313.06
402.854	308.06
403.078	321.06
403.302	352.06
403.526	347.06
403.75	354.06
403.974	362.06
404.198	365.06
404.422	340.06
404.645	368.06
404.869	344.06
405.093	348.06
405.317	331.06
405.541	321.06
405.765	310.06
405.988	315.06
406.212	315.06
406.436	343.06
406.66	319.06
406.883	349.06
407.107	369.06
407.331	362.06
407.555	381.06
407.778	383.06
408.002	364.06
408.226	361.06
408.449	338.06
408.673	332.06
408.896	333.06
409.12	325.06
409.344	328.06
409.567	333.06
409.791	334.06
410.014	343.06
410.238	333.06
410.461	341.06
410.685	333.06
410.908	315.06
411.132	322.06
411.355	316.06
411.578	332.06
411.802	297.06
412.025	321.06
412.249	312.06
412.472	321.06
412.695	296.06
412.919	307.06
413.142	300.06
413.365	305.06
413.589	284.06
413.812	292.06
414.035	315.06
414.258	321.06
414.482	322.06
414.705	308.06
414.928	299.06
415.151	283.06
415.374	285.06
415.597	322.06
415.821	317.06
416.044	291.06
416.267	313.06
416.49	279.06
416.713	298.06
416.936	297.06
417.159	303.06
417.382	305.06
417.605	292.06
417.828	304.06
418.051	304.06
418.274	288.06
418.497	303.06
418.72	331.06
418.943	300.06
419.166	315.06
419.389	335.06
419.611	334.06
419.834	340.06
420.057	310.06
420.28	312.06
420.503	294.06
420.726	315.06
420.948	299.06
421.171	298.06
421.394	303.06
421.617	308.06
421.839	313.06
422.062	297.06
422.285	288.06
422.507	311.06
422.73	305.06
422.953	299.06
423.175	310.06
423.398	315.06
423.621	314.06
423.843	312.06
424.066	322.06
424.288	317.06
424.511	321.06
424.733	303.06
424.956	292.06
425.178	301.06
425.401	292.06
425.623	296.06
425.846	292.06
426.068	284.06
426.291	287.06
426.513	281.06
426.735	272.06
426.958	295.06
427.18	283.06
427.402	278.06
427.625	269.06
427.847	266.06
428.069	286.06
428.292	279.06
428.514	280.06
428.736	294.06
428.958	261.06
429.181	277.06
429.403	279.06
429.625	278.06
429.847	279.06
430.069	258.06
430.292	253.06
430.514	279.06
430.736	261.06
430.958	257.06
431.18	257.06
431.402	268.06
431.624	267.06
431.846	268.06
432.068	281.06
432.29	255.06
432.512	273.06
432.734	294.06
432.956	260.06
433.178	281.06
433.4	273.06
433.622	268.06
433.844	292.06
434.066	276.06
434.287	278.06
434.509	308.06
434.731	300.06
434.953	284.06
435.175	298.06
435.397	299.06
435.618	288.06
435.84	283.06
436.062	276.06
436.284	272.06
436.505	250.06
436.727	276.06
436.949	273.06
437.17	268.06
437.392	263.06
437.614	276.06
437.835	261.06
438.057	248.06
438.278	270.06
438.5	263.06
438.721	284.06
438.943	269.06
439.165	247.06
439.386	277.06
439.608	260.06
439.829	268.06
440.05	259.06
440.272	277.06
440.493	261.06
440.715	279.06
440.936	298.06
441.158	269.06
441.379	276.06
441.6	309.06
441.822	314.06
442.043	318.06
442.264	300.06
442.486	281.06
442.707	300.06
442.928	288.06
443.149	297.06
443.371	296.06
443.592	305.06
443.813	303.06
444.034	300.06
444.255	319.06
444.476	307.06
444.698	347.06
444.919	356.06
445.14	458.06
445.361	375.06
445.582	306.06
445.803	284.06
446.024	278.06
446.245	286.06
446.466	281.06
446.687	274.06
446.908	275.06
447.129	271.06
447.35	283.06
447.571	273.06
447.792	254.06
448.013	266.06
448.234	257.06
448.455	256.06
448.675	269.06
448.896	265.06
449.117	248.06
449.338	250.06
449.559	264.06
449.779	245.06
450	263.06
450.221	265.06
450.442	250.06
450.662	261.06
450.883	255.06
451.104	264.06
451.324	253.06
451.545	243.06
451.766	235.06
451.986	259.06
452.207	268.06
452.428	253.06
452.648	260.06
452.869	260.06
453.089	236.06
453.31	263.06
453.53	244.06
453.751	256.06
453.971	254.06
454.192	235.06
454.412	235.06
454.633	234.06
454.853	231.06
455.073	239.06
455.294	248.06
455.514	243.06
455.734	235.06
455.955	241.06
456.175	234.06
456.395	225.06
456.616	250.06
456.836	257.06
457.056	225.06
457.276	255.06
457.497	240.06
457.717	225.06
457.937	233.06
458.157	242.06
458.377	230.06
458.598	253.06
458.818	252.06
459.038	261.06
459.258	283.06
459.478	259.06
459.698	270.06
459.918	281.06
460.138	285.06
460.358	299.06
460.578	312.06
460.798	322.06
461.018	330.06
461.238	307.06
461.458	313.06
461.678	327.06
461.898	315.06
462.118	315.06
462.338	330.06
462.558	332.06
462.777	348.06
462.997	384.06
463.217	405.06
463.437	435.06
463.657	404.06
463.876	359.06
464.096	375.06
464.316	377.06
464.536	367.06
464.755	360.06
464.975	345.06
465.195	319.06
465.414	313.06
465.634	285.06
465.854	285.06
466.073	283.06
466.293	284.06
466.512	265.06
466.732	261.06
466.951	279.06
467.171	264.06
467.391	256.06
467.61	272.06
467.829	282.06
468.049	259.06
468.268	263.06
468.488	258.06
468.707	267.06
468.927	245.06
469.146	264.06
469.365	266.06
469.585	279.06
469.804	268.06
470.023	289.06
470.243	280.06
470.462	298.06
470.681	281.06
470.901	280.06
471.12	290.06
471.339	261.06
471.558	279.06
471.777	279.06
471.997	260.06
472.216	244.06
472.435	233.06
472.654	232.06
472.873	260.06
473.092	254.06
473.311	267.06
473.53	257.06
473.749	268.06
473.968	266.06
474.187	263.06
474.406	248.06
474.625	264.06
474.844	255.06
475.063	250.06
475.282	256.06
475.501	251.06
475.72	279.06
475.939	268.06
476.158	266.06
476.377	259.06
476.596	262.06
476.814	285.06
477.033	267.06
477.252	268.06
477.471	281.06
477.69	281.06
477.908	288.06
478.127	292.06
478.346	284.06
478.564	281.06
478.783	323.06
479.002	327.06
479.22	333.06
479.439	298.06
479.658	312.06
479.876	293.06
480.095	308.06
480.313	310.06
480.532	329.06
480.751	324.06
480.969	313.06
481.188	303.06
481.406	290.06
481.624	293.06
481.843	284.06
482.061	298.06
482.28	282.06
482.498	305.06
482.717	291.06
482.935	275.06
483.153	286.06
483.372	295.06
483.59	284.06
483.808	285.06
484.027	300.06
484.245	310.06
484.463	289.06
484.681	295.06
484.9	292.06
485.118	302.06
485.336	306.06
485.554	314.06
485.772	316.06
485.99	312.06
486.209	316.06
486.427	312.06
486.645	314.06
486.863	313.06
487.081	304.06
487.299	304.06
487.517	288.06
487.735	299.06
487.953	291.06
488.171	288.06
488.389	294.06
488.607	289.06
488.825	295.06
489.043	303.06
489.261	301.06
489.479	303.06
489.696	291.06
489.914	300.06
490.132	299.06
490.35	316.06
490.568	289.06
490.786	311.06
491.003	299.06
491.221	314.06
491.439	301.06
491.657	283.06
491.874	304.06
492.092	294.06
492.31	310.06
492.527	317.06
492.745	297.06
492.963	304.06
493.18	318.06
493.398	309.06
493.615	328.06
493.833	330.06
494.05	331.06
494.268	310.06
494.485	326.06
494.703	317.06
494.92	317.06
495.138	321.06
495.355	327.06
495.573	318.06
495.79	310.06
496.008	330.06
496.225	327.06
496.442	332.06
496.66	322.06
496.877	340.06
497.094	343.06
497.312	335.06
497.529	329.06
497.746	367.06
497.963	354.06
498.181	343.06
498.398	390.06
498.615	405.06
498.832	429.06
499.049	460.06
499.267	450.06
499.484	528.06
499.701	576.06
499.918	649.06
500.135	742.06
500.352	887.06
500.569	917.06
500.786	929.06
501.003	843.06
501.22	743.06
501.437	663.06
501.654	575.06
501.871	520.06
502.088	485.06
502.305	458.06
502.522	438.06
502.739	422.06
502.956	403.06
