Data from 0.5MCu(NO3)2.Standard.Lamp.E10.CV._HRD10591_16-04-03-753.txt Node
Date: Mon Jul 22 16:04:03 EDT 2019
User: cochatt
Spectrometer: HR+D1059
Trigger mode: 1
Integration Time (sec): 1.000000E-1
Scans to average: 1
Electric dark correction enabled: true
Nonlinearity correction enabled: false
Boxcar width: 0
XAxis mode: Wavelengths
Number of Pixels in Spectrum: 2048
>>>>>Begin Spectral Data<<<<<
223.165	-19.25
223.4	-19.25
223.635	-19.25
223.869	-9.25
224.104	-12.25
224.338	-14.25
224.573	-20.25
224.808	-23.25
225.042	-8.25
225.277	-10.25
225.511	0.75
225.746	8.75
225.98	2.75
226.215	14.75
226.449	14.75
226.683	15.75
226.918	17.75
227.152	41.75
227.387	35.75
227.621	37.75
227.856	56.75
228.09	36.75
228.324	47.75
228.559	57.75
228.793	58.75
229.027	69.75
229.262	67.75
229.496	76.75
229.73	89.75
229.964	73.75
230.199	83.75
230.433	73.75
230.667	76.75
230.901	73.75
231.136	78.75
231.37	102.75
231.604	97.75
231.838	99.75
232.072	101.75
232.306	99.75
232.541	93.75
232.775	77.75
233.009	91.75
233.243	91.75
233.477	112.75
233.711	94.75
233.945	90.75
234.179	100.75
234.413	95.75
234.647	94.75
234.881	94.75
235.115	86.75
235.349	95.75
235.583	103.75
235.817	106.75
236.051	91.75
236.285	88.75
236.519	81.75
236.753	87.75
236.987	82.75
237.221	102.75
237.455	102.75
237.689	99.75
237.922	84.75
238.156	99.75
238.39	86.75
238.624	80.75
238.858	90.75
239.091	97.75
239.325	96.75
239.559	97.75
239.793	107.75
240.027	93.75
240.26	91.75
240.494	92.75
240.728	89.75
240.961	94.75
241.195	80.75
241.429	101.75
241.662	97.75
241.896	99.75
242.13	102.75
242.363	92.75
242.597	85.75
242.83	92.75
243.064	92.75
243.298	117.75
243.531	105.75
243.765	101.75
243.998	103.75
244.232	89.75
244.465	99.75
244.699	111.75
244.932	103.75
245.166	95.75
245.399	105.75
245.633	105.75
245.866	115.75
246.099	91.75
246.333	101.75
246.566	93.75
246.8	108.75
247.033	97.75
247.266	115.75
247.5	87.75
247.733	89.75
247.966	101.75
248.2	107.75
248.433	114.75
248.666	113.75
248.899	97.75
249.133	95.75
249.366	104.75
249.599	95.75
249.832	111.75
250.066	115.75
250.299	115.75
250.532	107.75
250.765	123.75
250.998	106.75
251.231	109.75
251.465	102.75
251.698	100.75
251.931	113.75
252.164	113.75
252.397	118.75
252.63	111.75
252.863	95.75
253.096	110.75
253.329	113.75
253.562	109.75
253.795	103.75
254.028	110.75
254.261	110.75
254.494	96.75
254.727	101.75
254.96	115.75
255.193	111.75
255.426	125.75
255.659	105.75
255.892	121.75
256.124	132.75
256.357	103.75
256.59	112.75
256.823	115.75
257.056	119.75
257.289	125.75
257.521	107.75
257.754	116.75
257.987	123.75
258.22	121.75
258.452	117.75
258.685	111.75
258.918	115.75
259.151	111.75
259.383	112.75
259.616	104.75
259.849	99.75
260.081	129.75
260.314	118.75
260.547	120.75
260.779	112.75
261.012	130.75
261.244	104.75
261.477	123.75
261.71	117.75
261.942	126.75
262.175	126.75
262.407	121.75
262.64	127.75
262.872	120.75
263.105	112.75
263.337	121.75
263.57	112.75
263.802	115.75
264.035	125.75
264.267	109.75
264.499	109.75
264.732	122.75
264.964	131.75
265.197	113.75
265.429	135.75
265.661	123.75
265.894	139.75
266.126	129.75
266.358	112.75
266.591	119.75
266.823	123.75
267.055	126.75
267.287	119.75
267.52	118.75
267.752	126.75
267.984	128.75
268.216	131.75
268.448	131.75
268.681	130.75
268.913	132.75
269.145	127.75
269.377	108.75
269.609	124.75
269.841	128.75
270.073	124.75
270.306	120.75
270.538	127.75
270.77	125.75
271.002	134.75
271.234	137.75
271.466	137.75
271.698	125.75
271.93	137.75
272.162	134.75
272.394	137.75
272.626	148.75
272.858	151.75
273.09	141.75
273.322	125.75
273.553	144.75
273.785	135.75
274.017	123.75
274.249	134.75
274.481	135.75
274.713	132.75
274.945	127.75
275.176	125.75
275.408	145.75
275.64	142.75
275.872	135.75
276.104	138.75
276.335	131.75
276.567	145.75
276.799	134.75
277.031	135.75
277.262	140.75
277.494	153.75
277.726	135.75
277.957	121.75
278.189	127.75
278.421	134.75
278.652	128.75
278.884	141.75
279.115	132.75
279.347	140.75
279.579	144.75
279.81	136.75
280.042	144.75
280.273	145.75
280.505	150.75
280.736	140.75
280.968	135.75
281.199	143.75
281.431	155.75
281.662	140.75
281.894	159.75
282.125	161.75
282.356	156.75
282.588	158.75
282.819	150.75
283.051	150.75
283.282	139.75
283.513	151.75
283.745	151.75
283.976	146.75
284.207	143.75
284.439	147.75
284.67	154.75
284.901	148.75
285.132	149.75
285.364	164.75
285.595	137.75
285.826	157.75
286.057	165.75
286.288	157.75
286.52	161.75
286.751	159.75
286.982	140.75
287.213	155.75
287.444	156.75
287.675	159.75
287.906	167.75
288.138	151.75
288.369	144.75
288.6	163.75
288.831	150.75
289.062	150.75
289.293	159.75
289.524	172.75
289.755	148.75
289.986	152.75
290.217	168.75
290.448	144.75
290.679	158.75
290.91	165.75
291.141	158.75
291.371	166.75
291.602	163.75
291.833	135.75
292.064	163.75
292.295	172.75
292.526	174.75
292.757	170.75
292.987	155.75
293.218	163.75
293.449	171.75
293.68	154.75
293.91	168.75
294.141	159.75
294.372	167.75
294.603	163.75
294.833	162.75
295.064	144.75
295.295	159.75
295.525	151.75
295.756	151.75
295.987	156.75
296.217	171.75
296.448	171.75
296.679	161.75
296.909	169.75
297.14	166.75
297.37	181.75
297.601	176.75
297.831	181.75
298.062	161.75
298.292	173.75
298.523	172.75
298.753	174.75
298.984	185.75
299.214	172.75
299.445	169.75
299.675	177.75
299.905	169.75
300.136	169.75
300.366	160.75
300.597	184.75
300.827	177.75
301.057	189.75
301.288	177.75
301.518	170.75
301.748	162.75
301.979	169.75
302.209	189.75
302.439	174.75
302.669	188.75
302.9	151.75
303.13	172.75
303.36	173.75
303.59	186.75
303.82	196.75
304.051	189.75
304.281	163.75
304.511	187.75
304.741	176.75
304.971	175.75
305.201	173.75
305.431	183.75
305.661	175.75
305.891	179.75
306.121	173.75
306.352	190.75
306.582	185.75
306.812	181.75
307.042	157.75
307.272	172.75
307.502	192.75
307.731	183.75
307.961	179.75
308.191	168.75
308.421	172.75
308.651	177.75
308.881	170.75
309.111	184.75
309.341	177.75
309.571	176.75
309.8	177.75
310.03	175.75
310.26	190.75
310.49	178.75
310.72	158.75
310.949	177.75
311.179	172.75
311.409	161.75
311.639	163.75
311.868	179.75
312.098	172.75
312.328	197.75
312.557	176.75
312.787	178.75
313.017	185.75
313.246	186.75
313.476	181.75
313.706	188.75
313.935	195.75
314.165	192.75
314.394	190.75
314.624	180.75
314.853	184.75
315.083	189.75
315.312	177.75
315.542	196.75
315.771	190.75
316.001	203.75
316.23	178.75
316.46	179.75
316.689	176.75
316.919	194.75
317.148	170.75
317.377	187.75
317.607	175.75
317.836	183.75
318.065	174.75
318.295	171.75
318.524	180.75
318.753	179.75
318.983	181.75
319.212	175.75
319.441	179.75
319.67	166.75
319.9	184.75
320.129	172.75
320.358	179.75
320.587	175.75
320.816	169.75
321.046	169.75
321.275	174.75
321.504	195.75
321.733	194.75
321.962	172.75
322.191	187.75
322.42	187.75
322.649	193.75
322.878	191.75
323.108	180.75
323.337	176.75
323.566	160.75
323.795	174.75
324.024	176.75
324.253	180.75
324.482	200.75
324.71	174.75
324.939	181.75
325.168	184.75
325.397	191.75
325.626	179.75
325.855	184.75
326.084	195.75
326.313	184.75
326.542	185.75
326.77	183.75
326.999	185.75
327.228	192.75
327.457	199.75
327.686	195.75
327.914	196.75
328.143	222.75
328.372	208.75
328.6	212.75
328.829	201.75
329.058	158.75
329.287	175.75
329.515	187.75
329.744	202.75
329.972	185.75
330.201	195.75
330.43	199.75
330.658	198.75
330.887	181.75
331.115	200.75
331.344	198.75
331.572	200.75
331.801	200.75
332.03	214.75
332.258	207.75
332.486	214.75
332.715	220.75
332.943	206.75
333.172	226.75
333.4	232.75
333.629	240.75
333.857	254.75
334.085	225.75
334.314	210.75
334.542	225.75
334.771	230.75
334.999	213.75
335.227	214.75
335.455	211.75
335.684	224.75
335.912	232.75
336.14	204.75
336.369	219.75
336.597	210.75
336.825	214.75
337.053	213.75
337.281	213.75
337.51	212.75
337.738	189.75
337.966	204.75
338.194	214.75
338.422	200.75
338.65	203.75
338.878	212.75
339.106	187.75
339.334	198.75
339.562	199.75
339.79	198.75
340.018	191.75
340.246	198.75
340.474	197.75
340.702	211.75
340.93	194.75
341.158	198.75
341.386	213.75
341.614	210.75
341.842	201.75
342.07	188.75
342.298	173.75
342.526	201.75
342.754	198.75
342.981	204.75
343.209	200.75
343.437	200.75
343.665	209.75
343.893	226.75
344.12	243.75
344.348	217.75
344.576	217.75
344.804	214.75
345.031	201.75
345.259	196.75
345.487	189.75
345.714	191.75
345.942	194.75
346.17	193.75
346.397	206.75
346.625	210.75
346.853	193.75
347.08	204.75
347.308	197.75
347.535	191.75
347.763	189.75
347.99	173.75
348.218	198.75
348.445	219.75
348.673	196.75
348.9	205.75
349.128	194.75
349.355	188.75
349.583	194.75
349.81	180.75
350.037	188.75
350.265	200.75
350.492	199.75
350.72	189.75
350.947	175.75
351.174	203.75
351.402	186.75
351.629	192.75
351.856	180.75
352.083	191.75
352.311	195.75
352.538	188.75
352.765	188.75
352.992	182.75
353.22	187.75
353.447	187.75
353.674	191.75
353.901	188.75
354.128	192.75
354.355	185.75
354.583	189.75
354.81	191.75
355.037	196.75
355.264	195.75
355.491	188.75
355.718	196.75
355.945	199.75
356.172	191.75
356.399	191.75
356.626	181.75
356.853	189.75
357.08	191.75
357.307	195.75
357.534	203.75
357.761	195.75
357.988	191.75
358.215	201.75
358.441	187.75
358.668	188.75
358.895	189.75
359.122	185.75
359.349	188.75
359.576	181.75
359.802	184.75
360.029	186.75
360.256	190.75
360.483	188.75
360.709	187.75
360.936	189.75
361.163	196.75
361.39	177.75
361.616	173.75
361.843	199.75
362.07	195.75
362.296	175.75
362.523	180.75
362.749	196.75
362.976	184.75
363.203	199.75
363.429	183.75
363.656	177.75
363.882	172.75
364.109	182.75
364.335	200.75
364.562	190.75
364.788	179.75
365.015	182.75
365.241	181.75
365.468	172.75
365.694	183.75
365.92	189.75
366.147	174.75
366.373	185.75
366.599	190.75
366.826	185.75
367.052	195.75
367.278	186.75
367.505	181.75
367.731	169.75
367.957	192.75
368.184	185.75
368.41	207.75
368.636	169.75
368.862	198.75
369.089	187.75
369.315	193.75
369.541	188.75
369.767	165.75
369.993	193.75
370.219	205.75
370.445	188.75
370.672	186.75
370.898	200.75
371.124	201.75
371.35	186.75
371.576	200.75
371.802	206.75
372.028	185.75
372.254	217.75
372.48	197.75
372.706	203.75
372.932	213.75
373.158	197.75
373.384	193.75
373.61	198.75
373.835	200.75
374.061	198.75
374.287	199.75
374.513	187.75
374.739	222.75
374.965	225.75
375.191	209.75
375.416	203.75
375.642	192.75
375.868	208.75
376.094	206.75
376.319	219.75
376.545	197.75
376.771	195.75
376.997	192.75
377.222	191.75
377.448	204.75
377.674	191.75
377.899	199.75
378.125	204.75
378.35	201.75
378.576	176.75
378.802	198.75
379.027	194.75
379.253	189.75
379.478	183.75
379.704	182.75
379.929	193.75
380.155	204.75
380.38	184.75
380.606	190.75
380.831	212.75
381.057	199.75
381.282	206.75
381.507	193.75
381.733	208.75
381.958	214.75
382.184	180.75
382.409	203.75
382.634	196.75
382.86	204.75
383.085	202.75
383.31	229.75
383.535	224.75
383.761	212.75
383.986	228.75
384.211	203.75
384.436	242.75
384.662	225.75
384.887	224.75
385.112	221.75
385.337	227.75
385.562	224.75
385.787	217.75
386.013	230.75
386.238	213.75
386.463	223.75
386.688	233.75
386.913	208.75
387.138	213.75
387.363	209.75
387.588	209.75
387.813	229.75
388.038	219.75
388.263	228.75
388.488	224.75
388.713	218.75
388.938	203.75
389.163	228.75
389.387	219.75
389.612	216.75
389.837	215.75
390.062	225.75
390.287	222.75
390.512	221.75
390.736	207.75
390.961	218.75
391.186	213.75
391.411	222.75
391.636	235.75
391.86	213.75
392.085	223.75
392.31	245.75
392.534	247.75
392.759	222.75
392.984	219.75
393.208	231.75
393.433	236.75
393.658	217.75
393.882	243.75
394.107	237.75
394.331	237.75
394.556	228.75
394.78	241.75
395.005	230.75
395.229	239.75
395.454	231.75
395.678	248.75
395.903	243.75
396.127	224.75
396.352	226.75
396.576	227.75
396.801	231.75
397.025	228.75
397.249	215.75
397.474	236.75
397.698	240.75
397.922	253.75
398.147	221.75
398.371	227.75
398.595	231.75
398.82	237.75
399.044	267.75
399.268	289.75
399.492	323.75
399.717	369.75
399.941	346.75
400.165	329.75
400.389	272.75
400.613	264.75
400.837	263.75
401.062	262.75
401.286	245.75
401.51	246.75
401.734	247.75
401.958	270.75
402.182	260.75
402.406	260.75
402.63	265.75
402.854	278.75
403.078	272.75
403.302	281.75
403.526	284.75
403.75	271.75
403.974	305.75
404.198	286.75
404.422	291.75
404.645	283.75
404.869	292.75
405.093	272.75
405.317	277.75
405.541	286.75
405.765	284.75
405.988	284.75
406.212	276.75
406.436	274.75
406.66	293.75
406.883	297.75
407.107	291.75
407.331	297.75
407.555	335.75
407.778	304.75
408.002	305.75
408.226	322.75
408.449	288.75
408.673	274.75
408.896	285.75
409.12	276.75
409.344	293.75
409.567	280.75
409.791	293.75
410.014	294.75
410.238	297.75
410.461	291.75
410.685	280.75
410.908	277.75
411.132	262.75
411.355	267.75
411.578	264.75
411.802	268.75
412.025	266.75
412.249	261.75
412.472	259.75
412.695	251.75
412.919	258.75
413.142	269.75
413.365	274.75
413.589	254.75
413.812	262.75
414.035	251.75
414.258	238.75
414.482	241.75
414.705	280.75
414.928	260.75
415.151	260.75
415.374	265.75
415.597	262.75
415.821	238.75
416.044	239.75
416.267	253.75
416.49	255.75
416.713	253.75
416.936	239.75
417.159	245.75
417.382	245.75
417.605	249.75
417.828	253.75
418.051	277.75
418.274	265.75
418.497	270.75
418.72	263.75
418.943	249.75
419.166	269.75
419.389	275.75
419.611	262.75
419.834	279.75
420.057	287.75
420.28	266.75
420.503	264.75
420.726	247.75
420.948	268.75
421.171	251.75
421.394	251.75
421.617	263.75
421.839	265.75
422.062	262.75
422.285	259.75
422.507	252.75
422.73	263.75
422.953	267.75
423.175	273.75
423.398	255.75
423.621	266.75
423.843	262.75
424.066	268.75
424.288	268.75
424.511	263.75
424.733	265.75
424.956	273.75
425.178	259.75
425.401	255.75
425.623	244.75
425.846	251.75
426.068	245.75
426.291	255.75
426.513	248.75
426.735	252.75
426.958	245.75
427.18	237.75
427.402	216.75
427.625	230.75
427.847	235.75
428.069	246.75
428.292	238.75
428.514	223.75
428.736	228.75
428.958	234.75
429.181	234.75
429.403	228.75
429.625	223.75
429.847	218.75
430.069	231.75
430.292	224.75
430.514	244.75
430.736	236.75
430.958	229.75
431.18	225.75
431.402	218.75
431.624	227.75
431.846	228.75
432.068	234.75
432.29	245.75
432.512	229.75
432.734	235.75
432.956	229.75
433.178	236.75
433.4	234.75
433.622	233.75
433.844	236.75
434.066	218.75
434.287	238.75
434.509	229.75
434.731	237.75
434.953	249.75
435.175	246.75
435.397	238.75
435.618	247.75
435.84	255.75
436.062	256.75
436.284	250.75
436.505	245.75
436.727	237.75
436.949	229.75
437.17	247.75
437.392	235.75
437.614	222.75
437.835	234.75
438.057	222.75
438.278	208.75
438.5	228.75
438.721	235.75
438.943	235.75
439.165	239.75
439.386	231.75
439.608	228.75
439.829	227.75
440.05	222.75
440.272	223.75
440.493	229.75
440.715	246.75
440.936	250.75
441.158	232.75
441.379	256.75
441.6	260.75
441.822	263.75
442.043	264.75
442.264	256.75
442.486	256.75
442.707	255.75
442.928	257.75
443.149	255.75
443.371	247.75
443.592	236.75
443.813	256.75
444.034	258.75
444.255	263.75
444.476	278.75
444.698	276.75
444.919	287.75
445.14	425.75
445.361	314.75
445.582	275.75
445.803	240.75
446.024	235.75
446.245	241.75
446.466	230.75
446.687	230.75
446.908	234.75
447.129	221.75
447.35	220.75
447.571	243.75
447.792	228.75
448.013	218.75
448.234	232.75
448.455	215.75
448.675	215.75
448.896	210.75
449.117	228.75
449.338	215.75
449.559	209.75
449.779	218.75
450	203.75
450.221	219.75
450.442	206.75
450.662	228.75
450.883	224.75
451.104	227.75
451.324	223.75
451.545	229.75
451.766	225.75
451.986	229.75
452.207	221.75
452.428	215.75
452.648	225.75
452.869	217.75
453.089	220.75
453.31	220.75
453.53	228.75
453.751	235.75
453.971	220.75
454.192	209.75
454.412	239.75
454.633	215.75
454.853	210.75
455.073	209.75
455.294	208.75
455.514	218.75
455.734	223.75
455.955	206.75
456.175	196.75
456.395	206.75
456.616	195.75
456.836	202.75
457.056	215.75
457.276	211.75
457.497	216.75
457.717	209.75
457.937	213.75
458.157	214.75
458.377	197.75
458.598	215.75
458.818	236.75
459.038	216.75
459.258	220.75
459.478	233.75
459.698	232.75
459.918	252.75
460.138	261.75
460.358	262.75
460.578	271.75
460.798	264.75
461.018	261.75
461.238	262.75
461.458	280.75
461.678	264.75
461.898	269.75
462.118	251.75
462.338	268.75
462.558	285.75
462.777	308.75
462.997	315.75
463.217	342.75
463.437	339.75
463.657	328.75
463.876	291.75
464.096	306.75
464.316	288.75
464.536	284.75
464.755	299.75
464.975	293.75
465.195	292.75
465.414	272.75
465.634	259.75
465.854	245.75
466.073	229.75
466.293	237.75
466.512	234.75
466.732	214.75
466.951	224.75
467.171	245.75
467.391	243.75
467.61	234.75
467.829	233.75
468.049	237.75
468.268	231.75
468.488	191.75
468.707	209.75
468.927	221.75
469.146	216.75
469.365	241.75
469.585	244.75
469.804	235.75
470.023	222.75
470.243	244.75
470.462	231.75
470.681	233.75
470.901	229.75
471.12	240.75
471.339	225.75
471.558	226.75
471.777	215.75
471.997	209.75
472.216	230.75
472.435	223.75
472.654	216.75
472.873	231.75
473.092	216.75
473.311	216.75
473.53	224.75
473.749	220.75
473.968	223.75
474.187	222.75
474.406	202.75
474.625	234.75
474.844	224.75
475.063	232.75
475.282	219.75
475.501	214.75
475.72	221.75
475.939	217.75
476.158	216.75
476.377	223.75
476.596	213.75
476.814	221.75
477.033	232.75
477.252	224.75
477.471	234.75
477.69	232.75
477.908	242.75
478.127	246.75
478.346	247.75
478.564	258.75
478.783	261.75
479.002	268.75
479.22	264.75
479.439	260.75
479.658	253.75
479.876	259.75
480.095	265.75
480.313	273.75
480.532	283.75
480.751	264.75
480.969	262.75
481.188	279.75
481.406	278.75
481.624	259.75
481.843	237.75
482.061	246.75
482.28	246.75
482.498	231.75
482.717	255.75
482.935	238.75
483.153	263.75
483.372	247.75
483.59	244.75
483.808	237.75
484.027	257.75
484.245	266.75
484.463	233.75
484.681	255.75
484.9	267.75
485.118	256.75
485.336	260.75
485.554	260.75
485.772	255.75
485.99	255.75
486.209	277.75
486.427	262.75
486.645	258.75
486.863	268.75
487.081	267.75
487.299	270.75
487.517	261.75
487.735	264.75
487.953	256.75
488.171	278.75
488.389	264.75
488.607	253.75
488.825	255.75
489.043	252.75
489.261	265.75
489.479	248.75
489.696	264.75
489.914	246.75
490.132	248.75
490.35	264.75
490.568	270.75
490.786	278.75
491.003	276.75
491.221	265.75
491.439	278.75
491.657	270.75
491.874	251.75
492.092	273.75
492.31	275.75
492.527	257.75
492.745	248.75
492.963	270.75
493.18	265.75
493.398	261.75
493.615	272.75
493.833	261.75
494.05	269.75
494.268	272.75
494.485	283.75
494.703	273.75
494.92	287.75
495.138	276.75
495.355	257.75
495.573	279.75
495.79	267.75
496.008	295.75
496.225	287.75
496.442	280.75
496.66	288.75
496.877	267.75
497.094	291.75
497.312	275.75
497.529	303.75
497.746	303.75
497.963	310.75
498.181	294.75
498.398	332.75
498.615	357.75
498.832	369.75
499.049	380.75
499.267	423.75
499.484	437.75
499.701	475.75
499.918	524.75
500.135	604.75
500.352	680.75
500.569	691.75
500.786	698.75
501.003	629.75
501.22	576.75
501.437	505.75
501.654	450.75
501.871	438.75
502.088	384.75
502.305	369.75
502.522	348.75
502.739	351.75
502.956	344.75
503.172	329.75
