Data from 0.5MCu(NO3)2.Standard.Lamp.E10.CV._HRD10591_16-06-47-753.txt Node
Date: Mon Jul 22 16:06:47 EDT 2019
User: cochatt
Spectrometer: HR+D1059
Trigger mode: 1
Integration Time (sec): 1.000000E-1
Scans to average: 1
Electric dark correction enabled: true
Nonlinearity correction enabled: false
Boxcar width: 0
XAxis mode: Wavelengths
Number of Pixels in Spectrum: 2048
>>>>>Begin Spectral Data<<<<<
223.165	-19.19
223.4	-19.19
223.635	-19.19
223.869	-26.19
224.104	-7.19
224.338	-9.19
224.573	-13.19
224.808	-7.19
225.042	-1.19
225.277	-8.19
225.511	12.81
225.746	-10.19
225.98	13.81
226.215	6.81
226.449	13.81
226.683	29.81
226.918	17.81
227.152	6.81
227.387	34.81
227.621	47.81
227.856	29.81
228.09	31.81
228.324	63.81
228.559	47.81
228.793	63.81
229.027	57.81
229.262	63.81
229.496	51.81
229.73	75.81
229.964	82.81
230.199	81.81
230.433	76.81
230.667	82.81
230.901	92.81
231.136	83.81
231.37	90.81
231.604	82.81
231.838	90.81
232.072	87.81
232.306	78.81
232.541	91.81
232.775	100.81
233.009	97.81
233.243	89.81
233.477	90.81
233.711	103.81
233.945	88.81
234.179	90.81
234.413	95.81
234.647	89.81
234.881	96.81
235.115	88.81
235.349	96.81
235.583	88.81
235.817	87.81
236.051	88.81
236.285	92.81
236.519	97.81
236.753	103.81
236.987	88.81
237.221	77.81
237.455	87.81
237.689	94.81
237.922	76.81
238.156	74.81
238.39	80.81
238.624	80.81
238.858	90.81
239.091	82.81
239.325	98.81
239.559	109.81
239.793	103.81
240.027	85.81
240.26	87.81
240.494	87.81
240.728	75.81
240.961	100.81
241.195	87.81
241.429	109.81
241.662	87.81
241.896	93.81
242.13	99.81
242.363	90.81
242.597	90.81
242.83	82.81
243.064	99.81
243.298	92.81
243.531	92.81
243.765	105.81
243.998	88.81
244.232	95.81
244.465	99.81
244.699	85.81
244.932	87.81
245.166	84.81
245.399	94.81
245.633	91.81
245.866	91.81
246.099	89.81
246.333	97.81
246.566	101.81
246.8	96.81
247.033	91.81
247.266	71.81
247.5	89.81
247.733	98.81
247.966	99.81
248.2	98.81
248.433	109.81
248.666	86.81
248.899	101.81
249.133	106.81
249.366	106.81
249.599	104.81
249.832	91.81
250.066	109.81
250.299	107.81
250.532	117.81
250.765	105.81
250.998	106.81
251.231	97.81
251.465	107.81
251.698	116.81
251.931	107.81
252.164	113.81
252.397	108.81
252.63	87.81
252.863	121.81
253.096	91.81
253.329	121.81
253.562	98.81
253.795	109.81
254.028	96.81
254.261	111.81
254.494	89.81
254.727	104.81
254.96	121.81
255.193	122.81
255.426	112.81
255.659	115.81
255.892	115.81
256.124	107.81
256.357	111.81
256.59	98.81
256.823	87.81
257.056	96.81
257.289	115.81
257.521	131.81
257.754	122.81
257.987	106.81
258.22	116.81
258.452	113.81
258.685	122.81
258.918	119.81
259.151	115.81
259.383	107.81
259.616	124.81
259.849	114.81
260.081	123.81
260.314	119.81
260.547	105.81
260.779	100.81
261.012	90.81
261.244	112.81
261.477	116.81
261.71	114.81
261.942	101.81
262.175	117.81
262.407	136.81
262.64	112.81
262.872	109.81
263.105	120.81
263.337	114.81
263.57	124.81
263.802	129.81
264.035	131.81
264.267	121.81
264.499	119.81
264.732	104.81
264.964	116.81
265.197	115.81
265.429	122.81
265.661	116.81
265.894	116.81
266.126	136.81
266.358	130.81
266.591	124.81
266.823	119.81
267.055	106.81
267.287	145.81
267.52	123.81
267.752	118.81
267.984	116.81
268.216	117.81
268.448	136.81
268.681	131.81
268.913	117.81
269.145	115.81
269.377	135.81
269.609	128.81
269.841	127.81
270.073	128.81
270.306	121.81
270.538	135.81
270.77	123.81
271.002	132.81
271.234	131.81
271.466	129.81
271.698	130.81
271.93	124.81
272.162	128.81
272.394	131.81
272.626	132.81
272.858	128.81
273.09	123.81
273.322	149.81
273.553	136.81
273.785	136.81
274.017	129.81
274.249	134.81
274.481	141.81
274.713	145.81
274.945	136.81
275.176	128.81
275.408	136.81
275.64	123.81
275.872	129.81
276.104	131.81
276.335	143.81
276.567	127.81
276.799	141.81
277.031	139.81
277.262	143.81
277.494	151.81
277.726	134.81
277.957	121.81
278.189	138.81
278.421	138.81
278.652	141.81
278.884	154.81
279.115	140.81
279.347	144.81
279.579	146.81
279.81	130.81
280.042	144.81
280.273	134.81
280.505	123.81
280.736	133.81
280.968	154.81
281.199	154.81
281.431	144.81
281.662	138.81
281.894	147.81
282.125	141.81
282.356	135.81
282.588	148.81
282.819	142.81
283.051	135.81
283.282	149.81
283.513	146.81
283.745	151.81
283.976	136.81
284.207	157.81
284.439	152.81
284.67	147.81
284.901	151.81
285.132	149.81
285.364	147.81
285.595	142.81
285.826	144.81
286.057	154.81
286.288	145.81
286.52	166.81
286.751	147.81
286.982	153.81
287.213	154.81
287.444	145.81
287.675	150.81
287.906	162.81
288.138	161.81
288.369	160.81
288.6	157.81
288.831	137.81
289.062	161.81
289.293	150.81
289.524	155.81
289.755	139.81
289.986	147.81
290.217	161.81
290.448	171.81
290.679	159.81
290.91	156.81
291.141	152.81
291.371	153.81
291.602	159.81
291.833	148.81
292.064	142.81
292.295	152.81
292.526	165.81
292.757	156.81
292.987	167.81
293.218	143.81
293.449	169.81
293.68	159.81
293.91	140.81
294.141	146.81
294.372	163.81
294.603	162.81
294.833	163.81
295.064	152.81
295.295	153.81
295.525	155.81
295.756	150.81
295.987	169.81
296.217	151.81
296.448	172.81
296.679	155.81
296.909	184.81
297.14	183.81
297.37	163.81
297.601	177.81
297.831	164.81
298.062	175.81
298.292	162.81
298.523	180.81
298.753	173.81
298.984	158.81
299.214	164.81
299.445	169.81
299.675	180.81
299.905	159.81
300.136	170.81
300.366	178.81
300.597	170.81
300.827	183.81
301.057	169.81
301.288	165.81
301.518	172.81
301.748	182.81
301.979	176.81
302.209	170.81
302.439	181.81
302.669	179.81
302.9	170.81
303.13	179.81
303.36	179.81
303.59	172.81
303.82	183.81
304.051	172.81
304.281	172.81
304.511	193.81
304.741	162.81
304.971	185.81
305.201	173.81
305.431	198.81
305.661	185.81
305.891	160.81
306.121	176.81
306.352	172.81
306.582	170.81
306.812	155.81
307.042	163.81
307.272	168.81
307.502	175.81
307.731	182.81
307.961	154.81
308.191	167.81
308.421	174.81
308.651	165.81
308.881	177.81
309.111	175.81
309.341	177.81
309.571	160.81
309.8	169.81
310.03	166.81
310.26	160.81
310.49	173.81
310.72	170.81
310.949	161.81
311.179	156.81
311.409	172.81
311.639	184.81
311.868	181.81
312.098	168.81
312.328	151.81
312.557	165.81
312.787	185.81
313.017	170.81
313.246	169.81
313.476	180.81
313.706	179.81
313.935	181.81
314.165	161.81
314.394	188.81
314.624	170.81
314.853	188.81
315.083	172.81
315.312	183.81
315.542	169.81
315.771	186.81
316.001	171.81
316.23	167.81
316.46	168.81
316.689	166.81
316.919	178.81
317.148	175.81
317.377	183.81
317.607	168.81
317.836	172.81
318.065	175.81
318.295	178.81
318.524	169.81
318.753	168.81
318.983	168.81
319.212	186.81
319.441	172.81
319.67	179.81
319.9	177.81
320.129	171.81
320.358	172.81
320.587	175.81
320.816	171.81
321.046	161.81
321.275	191.81
321.504	163.81
321.733	174.81
321.962	166.81
322.191	183.81
322.42	163.81
322.649	175.81
322.878	194.81
323.108	171.81
323.337	185.81
323.566	178.81
323.795	174.81
324.024	179.81
324.253	191.81
324.482	187.81
324.71	172.81
324.939	180.81
325.168	172.81
325.397	185.81
325.626	185.81
325.855	192.81
326.084	193.81
326.313	199.81
326.542	178.81
326.77	194.81
326.999	185.81
327.228	187.81
327.457	183.81
327.686	189.81
327.914	192.81
328.143	210.81
328.372	194.81
328.6	189.81
328.829	190.81
329.058	203.81
329.287	203.81
329.515	179.81
329.744	188.81
329.972	190.81
330.201	196.81
330.43	193.81
330.658	184.81
330.887	181.81
331.115	210.81
331.344	192.81
331.572	191.81
331.801	192.81
332.03	200.81
332.258	203.81
332.486	196.81
332.715	204.81
332.943	212.81
333.172	217.81
333.4	227.81
333.629	249.81
333.857	232.81
334.085	211.81
334.314	230.81
334.542	231.81
334.771	216.81
334.999	212.81
335.227	216.81
335.455	217.81
335.684	220.81
335.912	230.81
336.14	221.81
336.369	224.81
336.597	212.81
336.825	217.81
337.053	207.81
337.281	207.81
337.51	204.81
337.738	206.81
337.966	198.81
338.194	198.81
338.422	216.81
338.65	203.81
338.878	200.81
339.106	210.81
339.334	191.81
339.562	185.81
339.79	204.81
340.018	188.81
340.246	201.81
340.474	197.81
340.702	208.81
340.93	199.81
341.158	204.81
341.386	182.81
341.614	189.81
341.842	186.81
342.07	215.81
342.298	184.81
342.526	190.81
342.754	200.81
342.981	191.81
343.209	201.81
343.437	200.81
343.665	208.81
343.893	205.81
344.12	222.81
344.348	207.81
344.576	224.81
344.804	202.81
345.031	199.81
345.259	207.81
345.487	189.81
345.714	194.81
345.942	186.81
346.17	191.81
346.397	195.81
346.625	194.81
346.853	186.81
347.08	182.81
347.308	196.81
347.535	189.81
347.763	199.81
347.99	192.81
348.218	192.81
348.445	201.81
348.673	195.81
348.9	195.81
349.128	171.81
349.355	172.81
349.583	185.81
349.81	186.81
350.037	183.81
350.265	183.81
350.492	184.81
350.72	175.81
350.947	185.81
351.174	188.81
351.402	198.81
351.629	193.81
351.856	184.81
352.083	188.81
352.311	180.81
352.538	170.81
352.765	183.81
352.992	184.81
353.22	160.81
353.447	188.81
353.674	171.81
353.901	175.81
354.128	190.81
354.355	169.81
354.583	178.81
354.81	179.81
355.037	188.81
355.264	186.81
355.491	182.81
355.718	185.81
355.945	187.81
356.172	196.81
356.399	211.81
356.626	201.81
356.853	175.81
357.08	196.81
357.307	191.81
357.534	193.81
357.761	189.81
357.988	194.81
358.215	177.81
358.441	183.81
358.668	183.81
358.895	173.81
359.122	182.81
359.349	187.81
359.576	180.81
359.802	168.81
360.029	177.81
360.256	198.81
360.483	185.81
360.709	193.81
360.936	177.81
361.163	181.81
361.39	176.81
361.616	183.81
361.843	181.81
362.07	193.81
362.296	189.81
362.523	173.81
362.749	189.81
362.976	185.81
363.203	184.81
363.429	171.81
363.656	191.81
363.882	185.81
364.109	186.81
364.335	169.81
364.562	194.81
364.788	175.81
365.015	174.81
365.241	184.81
365.468	186.81
365.694	174.81
365.92	191.81
366.147	175.81
366.373	177.81
366.599	177.81
366.826	178.81
367.052	183.81
367.278	180.81
367.505	187.81
367.731	187.81
367.957	180.81
368.184	189.81
368.41	186.81
368.636	195.81
368.862	175.81
369.089	180.81
369.315	184.81
369.541	185.81
369.767	182.81
369.993	179.81
370.219	181.81
370.445	196.81
370.672	191.81
370.898	195.81
371.124	197.81
371.35	204.81
371.576	181.81
371.802	179.81
372.028	187.81
372.254	187.81
372.48	197.81
372.706	192.81
372.932	210.81
373.158	205.81
373.384	200.81
373.61	200.81
373.835	201.81
374.061	206.81
374.287	209.81
374.513	195.81
374.739	217.81
374.965	193.81
375.191	204.81
375.416	210.81
375.642	223.81
375.868	199.81
376.094	205.81
376.319	200.81
376.545	180.81
376.771	184.81
376.997	185.81
377.222	185.81
377.448	172.81
377.674	189.81
377.899	196.81
378.125	178.81
378.35	191.81
378.576	187.81
378.802	184.81
379.027	197.81
379.253	196.81
379.478	186.81
379.704	209.81
379.929	193.81
380.155	192.81
380.38	211.81
380.606	186.81
380.831	171.81
381.057	179.81
381.282	183.81
381.507	197.81
381.733	193.81
381.958	177.81
382.184	180.81
382.409	197.81
382.634	210.81
382.86	187.81
383.085	197.81
383.31	198.81
383.535	219.81
383.761	215.81
383.986	192.81
384.211	220.81
384.436	220.81
384.662	211.81
384.887	217.81
385.112	219.81
385.337	218.81
385.562	220.81
385.787	219.81
386.013	224.81
386.238	228.81
386.463	232.81
386.688	205.81
386.913	225.81
387.138	213.81
387.363	209.81
387.588	197.81
387.813	214.81
388.038	200.81
388.263	211.81
388.488	220.81
388.713	218.81
388.938	211.81
389.163	200.81
389.387	209.81
389.612	200.81
389.837	211.81
390.062	216.81
390.287	213.81
390.512	207.81
390.736	226.81
390.961	204.81
391.186	199.81
391.411	226.81
391.636	239.81
391.86	235.81
392.085	243.81
392.31	241.81
392.534	219.81
392.759	220.81
392.984	231.81
393.208	230.81
393.433	226.81
393.658	218.81
393.882	217.81
394.107	232.81
394.331	234.81
394.556	225.81
394.78	230.81
395.005	241.81
395.229	252.81
395.454	243.81
395.678	236.81
395.903	232.81
396.127	229.81
396.352	232.81
396.576	218.81
396.801	221.81
397.025	225.81
397.249	242.81
397.474	243.81
397.698	243.81
397.922	221.81
398.147	247.81
398.371	212.81
398.595	251.81
398.82	249.81
399.044	260.81
399.268	262.81
399.492	310.81
399.717	350.81
399.941	341.81
400.165	309.81
400.389	292.81
400.613	268.81
400.837	244.81
401.062	258.81
401.286	260.81
401.51	259.81
401.734	252.81
401.958	259.81
402.182	252.81
402.406	282.81
402.63	246.81
402.854	276.81
403.078	257.81
403.302	276.81
403.526	270.81
403.75	280.81
403.974	296.81
404.198	277.81
404.422	283.81
404.645	276.81
404.869	276.81
405.093	282.81
405.317	273.81
405.541	271.81
405.765	264.81
405.988	268.81
406.212	287.81
406.436	249.81
406.66	263.81
406.883	288.81
407.107	298.81
407.331	311.81
407.555	303.81
407.778	301.81
408.002	299.81
408.226	296.81
408.449	277.81
408.673	288.81
408.896	278.81
409.12	285.81
409.344	290.81
409.567	277.81
409.791	294.81
410.014	284.81
410.238	285.81
410.461	282.81
410.685	280.81
410.908	273.81
411.132	278.81
411.355	275.81
411.578	273.81
411.802	263.81
412.025	257.81
412.249	257.81
412.472	268.81
412.695	252.81
412.919	245.81
413.142	226.81
413.365	252.81
413.589	240.81
413.812	261.81
414.035	234.81
414.258	244.81
414.482	244.81
414.705	248.81
414.928	263.81
415.151	263.81
415.374	252.81
415.597	241.81
415.821	248.81
416.044	256.81
416.267	255.81
416.49	240.81
416.713	239.81
416.936	258.81
417.159	255.81
417.382	250.81
417.605	255.81
417.828	255.81
418.051	253.81
418.274	256.81
418.497	249.81
418.72	239.81
418.943	262.81
419.166	274.81
419.389	271.81
419.611	277.81
419.834	271.81
420.057	251.81
420.28	259.81
420.503	244.81
420.726	251.81
420.948	250.81
421.171	252.81
421.394	236.81
421.617	233.81
421.839	245.81
422.062	233.81
422.285	237.81
422.507	260.81
422.73	265.81
422.953	241.81
423.175	258.81
423.398	266.81
423.621	279.81
423.843	287.81
424.066	260.81
424.288	255.81
424.511	263.81
424.733	248.81
424.956	238.81
425.178	232.81
425.401	247.81
425.623	258.81
425.846	259.81
426.068	226.81
426.291	259.81
426.513	243.81
426.735	236.81
426.958	231.81
427.18	231.81
427.402	231.81
427.625	234.81
427.847	239.81
428.069	236.81
428.292	209.81
428.514	228.81
428.736	205.81
428.958	231.81
429.181	234.81
429.403	229.81
429.625	224.81
429.847	225.81
430.069	215.81
430.292	217.81
430.514	212.81
430.736	208.81
430.958	218.81
431.18	210.81
431.402	232.81
431.624	224.81
431.846	239.81
432.068	231.81
432.29	227.81
432.512	226.81
432.734	233.81
432.956	241.81
433.178	222.81
433.4	234.81
433.622	234.81
433.844	217.81
434.066	225.81
434.287	231.81
434.509	247.81
434.731	245.81
434.953	226.81
435.175	225.81
435.397	245.81
435.618	233.81
435.84	227.81
436.062	226.81
436.284	231.81
436.505	228.81
436.727	222.81
436.949	233.81
437.17	234.81
437.392	232.81
437.614	239.81
437.835	240.81
438.057	229.81
438.278	218.81
438.5	214.81
438.721	220.81
438.943	232.81
439.165	207.81
439.386	222.81
439.608	234.81
439.829	247.81
440.05	244.81
440.272	246.81
440.493	219.81
440.715	240.81
440.936	237.81
441.158	249.81
441.379	256.81
441.6	241.81
441.822	264.81
442.043	251.81
442.264	247.81
442.486	251.81
442.707	225.81
442.928	242.81
443.149	242.81
443.371	257.81
443.592	252.81
443.813	257.81
444.034	241.81
444.255	246.81
444.476	267.81
444.698	281.81
444.919	292.81
445.14	370.81
445.361	307.81
445.582	256.81
445.803	227.81
446.024	250.81
446.245	236.81
446.466	232.81
446.687	225.81
446.908	228.81
447.129	232.81
447.35	229.81
447.571	218.81
447.792	223.81
448.013	214.81
448.234	224.81
448.455	215.81
448.675	237.81
448.896	219.81
449.117	234.81
449.338	219.81
449.559	211.81
449.779	226.81
450	242.81
450.221	192.81
450.442	205.81
450.662	223.81
450.883	234.81
451.104	230.81
451.324	219.81
451.545	210.81
451.766	221.81
451.986	212.81
452.207	213.81
452.428	216.81
452.648	214.81
452.869	209.81
453.089	210.81
453.31	211.81
453.53	216.81
453.751	222.81
453.971	210.81
454.192	218.81
454.412	207.81
454.633	206.81
454.853	204.81
455.073	220.81
455.294	223.81
455.514	200.81
455.734	217.81
455.955	205.81
456.175	198.81
456.395	204.81
456.616	204.81
456.836	216.81
457.056	191.81
457.276	192.81
457.497	208.81
457.717	208.81
457.937	202.81
458.157	207.81
458.377	201.81
458.598	223.81
458.818	215.81
459.038	237.81
459.258	233.81
459.478	231.81
459.698	234.81
459.918	229.81
460.138	253.81
460.358	260.81
460.578	252.81
460.798	259.81
461.018	272.81
461.238	261.81
461.458	255.81
461.678	262.81
461.898	260.81
462.118	260.81
462.338	284.81
462.558	283.81
462.777	285.81
462.997	309.81
463.217	334.81
463.437	330.81
463.657	322.81
463.876	299.81
464.096	298.81
464.316	298.81
464.536	303.81
464.755	282.81
464.975	286.81
465.195	269.81
465.414	258.81
465.634	232.81
465.854	246.81
466.073	240.81
466.293	255.81
466.512	239.81
466.732	230.81
466.951	233.81
467.171	237.81
467.391	226.81
467.61	216.81
467.829	238.81
468.049	223.81
468.268	237.81
468.488	229.81
468.707	220.81
468.927	215.81
469.146	217.81
469.365	226.81
469.585	240.81
469.804	227.81
470.023	235.81
470.243	241.81
470.462	225.81
470.681	240.81
470.901	248.81
471.12	217.81
471.339	212.81
471.558	207.81
471.777	227.81
471.997	242.81
472.216	207.81
472.435	232.81
472.654	207.81
472.873	223.81
473.092	205.81
473.311	200.81
473.53	217.81
473.749	240.81
473.968	217.81
474.187	220.81
474.406	219.81
474.625	223.81
474.844	221.81
475.063	188.81
475.282	209.81
475.501	214.81
475.72	234.81
475.939	223.81
476.158	214.81
476.377	229.81
476.596	232.81
476.814	207.81
477.033	218.81
477.252	220.81
477.471	226.81
477.69	227.81
477.908	246.81
478.127	253.81
478.346	249.81
478.564	268.81
478.783	252.81
479.002	262.81
479.22	272.81
479.439	248.81
479.658	239.81
479.876	243.81
480.095	264.81
480.313	273.81
480.532	280.81
480.751	283.81
480.969	267.81
481.188	275.81
481.406	243.81
481.624	253.81
481.843	245.81
482.061	247.81
482.28	241.81
482.498	249.81
482.717	244.81
482.935	251.81
483.153	240.81
483.372	214.81
483.59	246.81
483.808	241.81
484.027	253.81
484.245	261.81
484.463	236.81
484.681	257.81
484.9	259.81
485.118	259.81
485.336	251.81
485.554	251.81
485.772	258.81
485.99	264.81
486.209	260.81
486.427	256.81
486.645	262.81
486.863	272.81
487.081	251.81
487.299	259.81
487.517	246.81
487.735	244.81
487.953	267.81
488.171	267.81
488.389	251.81
488.607	240.81
488.825	242.81
489.043	245.81
489.261	239.81
489.479	253.81
489.696	269.81
489.914	266.81
490.132	261.81
490.35	253.81
490.568	252.81
490.786	254.81
491.003	255.81
491.221	257.81
491.439	274.81
491.657	246.81
491.874	269.81
492.092	276.81
492.31	275.81
492.527	255.81
492.745	260.81
492.963	263.81
493.18	270.81
493.398	266.81
493.615	274.81
493.833	263.81
494.05	259.81
494.268	275.81
494.485	259.81
494.703	274.81
494.92	273.81
495.138	251.81
495.355	256.81
495.573	272.81
495.79	265.81
496.008	268.81
496.225	288.81
496.442	277.81
496.66	267.81
496.877	281.81
497.094	299.81
497.312	285.81
497.529	295.81
497.746	289.81
497.963	299.81
498.181	318.81
498.398	310.81
498.615	335.81
498.832	344.81
499.049	361.81
499.267	410.81
499.484	423.81
499.701	472.81
499.918	535.81
500.135	594.81
500.352	679.81
500.569	705.81
500.786	713.81
501.003	662.81
501.22	553.81
501.437	509.81
501.654	452.81
501.871	424.81
502.088	392.81
502.305	369.81
502.522	351.81
502.739	327.81
502.956	333.81
503.172	296.81
503.389	307.81
