Data from 0.5MCu(NO3)2.Standard.Lamp.E10.CV._HRD10591_16-04-02-753.txt Node
Date: Mon Jul 22 16:04:02 EDT 2019
User: cochatt
Spectrometer: HR+D1059
Trigger mode: 1
Integration Time (sec): 1.000000E-1
Scans to average: 1
Electric dark correction enabled: true
Nonlinearity correction enabled: false
Boxcar width: 0
XAxis mode: Wavelengths
Number of Pixels in Spectrum: 2048
>>>>>Begin Spectral Data<<<<<
223.165	-12.38
223.4	-12.38
223.635	-12.38
223.869	-21.38
224.104	-17.38
224.338	-23.38
224.573	-20.38
224.808	-12.38
225.042	3.62
225.277	-6.38
225.511	-9.38
225.746	8.62
225.98	3.62
226.215	15.62
226.449	22.62
226.683	18.62
226.918	22.62
227.152	27.62
227.387	30.62
227.621	37.62
227.856	39.62
228.09	45.62
228.324	39.62
228.559	65.62
228.793	45.62
229.027	66.62
229.262	71.62
229.496	67.62
229.73	65.62
229.964	74.62
230.199	74.62
230.433	89.62
230.667	86.62
230.901	81.62
231.136	92.62
231.37	85.62
231.604	69.62
231.838	73.62
232.072	82.62
232.306	83.62
232.541	79.62
232.775	97.62
233.009	94.62
233.243	85.62
233.477	99.62
233.711	94.62
233.945	83.62
234.179	80.62
234.413	92.62
234.647	97.62
234.881	77.62
235.115	103.62
235.349	87.62
235.583	94.62
235.817	79.62
236.051	80.62
236.285	89.62
236.519	76.62
236.753	102.62
236.987	91.62
237.221	74.62
237.455	83.62
237.689	92.62
237.922	90.62
238.156	86.62
238.39	86.62
238.624	89.62
238.858	97.62
239.091	87.62
239.325	94.62
239.559	81.62
239.793	95.62
240.027	94.62
240.26	95.62
240.494	92.62
240.728	88.62
240.961	83.62
241.195	94.62
241.429	89.62
241.662	80.62
241.896	95.62
242.13	89.62
242.363	78.62
242.597	87.62
242.83	97.62
243.064	90.62
243.298	86.62
243.531	98.62
243.765	105.62
243.998	98.62
244.232	114.62
244.465	90.62
244.699	98.62
244.932	94.62
245.166	90.62
245.399	101.62
245.633	101.62
245.866	89.62
246.099	105.62
246.333	103.62
246.566	85.62
246.8	110.62
247.033	101.62
247.266	100.62
247.5	102.62
247.733	105.62
247.966	90.62
248.2	113.62
248.433	94.62
248.666	106.62
248.899	90.62
249.133	113.62
249.366	90.62
249.599	103.62
249.832	107.62
250.066	95.62
250.299	102.62
250.532	103.62
250.765	101.62
250.998	106.62
251.231	91.62
251.465	109.62
251.698	116.62
251.931	112.62
252.164	119.62
252.397	95.62
252.63	112.62
252.863	114.62
253.096	112.62
253.329	107.62
253.562	113.62
253.795	121.62
254.028	108.62
254.261	120.62
254.494	90.62
254.727	113.62
254.96	107.62
255.193	102.62
255.426	109.62
255.659	106.62
255.892	98.62
256.124	110.62
256.357	113.62
256.59	94.62
256.823	111.62
257.056	104.62
257.289	103.62
257.521	105.62
257.754	113.62
257.987	105.62
258.22	126.62
258.452	115.62
258.685	110.62
258.918	111.62
259.151	109.62
259.383	127.62
259.616	109.62
259.849	110.62
260.081	107.62
260.314	113.62
260.547	117.62
260.779	123.62
261.012	121.62
261.244	98.62
261.477	113.62
261.71	107.62
261.942	117.62
262.175	110.62
262.407	119.62
262.64	125.62
262.872	101.62
263.105	100.62
263.337	102.62
263.57	102.62
263.802	123.62
264.035	120.62
264.267	110.62
264.499	123.62
264.732	114.62
264.964	123.62
265.197	119.62
265.429	122.62
265.661	123.62
265.894	120.62
266.126	125.62
266.358	147.62
266.591	134.62
266.823	121.62
267.055	127.62
267.287	126.62
267.52	116.62
267.752	133.62
267.984	119.62
268.216	119.62
268.448	128.62
268.681	132.62
268.913	127.62
269.145	107.62
269.377	117.62
269.609	121.62
269.841	139.62
270.073	127.62
270.306	133.62
270.538	126.62
270.77	146.62
271.002	136.62
271.234	139.62
271.466	135.62
271.698	133.62
271.93	138.62
272.162	134.62
272.394	147.62
272.626	118.62
272.858	136.62
273.09	144.62
273.322	129.62
273.553	134.62
273.785	130.62
274.017	125.62
274.249	117.62
274.481	125.62
274.713	152.62
274.945	142.62
275.176	135.62
275.408	132.62
275.64	121.62
275.872	146.62
276.104	137.62
276.335	141.62
276.567	124.62
276.799	127.62
277.031	139.62
277.262	134.62
277.494	148.62
277.726	133.62
277.957	142.62
278.189	144.62
278.421	145.62
278.652	131.62
278.884	135.62
279.115	133.62
279.347	150.62
279.579	131.62
279.81	141.62
280.042	139.62
280.273	148.62
280.505	159.62
280.736	152.62
280.968	152.62
281.199	149.62
281.431	147.62
281.662	136.62
281.894	153.62
282.125	152.62
282.356	150.62
282.588	149.62
282.819	146.62
283.051	164.62
283.282	145.62
283.513	143.62
283.745	139.62
283.976	150.62
284.207	141.62
284.439	154.62
284.67	154.62
284.901	158.62
285.132	148.62
285.364	161.62
285.595	135.62
285.826	151.62
286.057	154.62
286.288	147.62
286.52	149.62
286.751	159.62
286.982	158.62
287.213	149.62
287.444	165.62
287.675	155.62
287.906	151.62
288.138	133.62
288.369	159.62
288.6	150.62
288.831	140.62
289.062	166.62
289.293	166.62
289.524	164.62
289.755	134.62
289.986	150.62
290.217	155.62
290.448	159.62
290.679	152.62
290.91	153.62
291.141	159.62
291.371	148.62
291.602	154.62
291.833	165.62
292.064	161.62
292.295	163.62
292.526	147.62
292.757	148.62
292.987	166.62
293.218	149.62
293.449	166.62
293.68	165.62
293.91	167.62
294.141	165.62
294.372	152.62
294.603	152.62
294.833	167.62
295.064	156.62
295.295	155.62
295.525	179.62
295.756	157.62
295.987	163.62
296.217	157.62
296.448	164.62
296.679	161.62
296.909	159.62
297.14	169.62
297.37	160.62
297.601	171.62
297.831	174.62
298.062	185.62
298.292	165.62
298.523	172.62
298.753	174.62
298.984	175.62
299.214	180.62
299.445	177.62
299.675	157.62
299.905	167.62
300.136	172.62
300.366	161.62
300.597	173.62
300.827	185.62
301.057	181.62
301.288	177.62
301.518	187.62
301.748	165.62
301.979	177.62
302.209	174.62
302.439	173.62
302.669	156.62
302.9	176.62
303.13	170.62
303.36	166.62
303.59	163.62
303.82	174.62
304.051	177.62
304.281	181.62
304.511	165.62
304.741	162.62
304.971	170.62
305.201	165.62
305.431	166.62
305.661	168.62
305.891	154.62
306.121	177.62
306.352	185.62
306.582	191.62
306.812	174.62
307.042	175.62
307.272	166.62
307.502	186.62
307.731	175.62
307.961	183.62
308.191	175.62
308.421	161.62
308.651	170.62
308.881	171.62
309.111	180.62
309.341	167.62
309.571	179.62
309.8	169.62
310.03	187.62
310.26	170.62
310.49	177.62
310.72	168.62
310.949	168.62
311.179	183.62
311.409	169.62
311.639	183.62
311.868	193.62
312.098	175.62
312.328	169.62
312.557	175.62
312.787	169.62
313.017	179.62
313.246	190.62
313.476	182.62
313.706	162.62
313.935	186.62
314.165	189.62
314.394	161.62
314.624	170.62
314.853	191.62
315.083	187.62
315.312	195.62
315.542	173.62
315.771	172.62
316.001	185.62
316.23	173.62
316.46	165.62
316.689	167.62
316.919	170.62
317.148	177.62
317.377	188.62
317.607	187.62
317.836	172.62
318.065	174.62
318.295	152.62
318.524	158.62
318.753	179.62
318.983	173.62
319.212	177.62
319.441	173.62
319.67	181.62
319.9	165.62
320.129	186.62
320.358	197.62
320.587	181.62
320.816	184.62
321.046	165.62
321.275	175.62
321.504	159.62
321.733	177.62
321.962	167.62
322.191	165.62
322.42	179.62
322.649	170.62
322.878	168.62
323.108	172.62
323.337	198.62
323.566	189.62
323.795	188.62
324.024	164.62
324.253	174.62
324.482	171.62
324.71	172.62
324.939	194.62
325.168	194.62
325.397	183.62
325.626	162.62
325.855	202.62
326.084	204.62
326.313	189.62
326.542	195.62
326.77	190.62
326.999	209.62
327.228	183.62
327.457	190.62
327.686	185.62
327.914	197.62
328.143	197.62
328.372	207.62
328.6	207.62
328.829	162.62
329.058	182.62
329.287	189.62
329.515	194.62
329.744	197.62
329.972	191.62
330.201	187.62
330.43	186.62
330.658	199.62
330.887	185.62
331.115	196.62
331.344	188.62
331.572	195.62
331.801	209.62
332.03	199.62
332.258	208.62
332.486	219.62
332.715	219.62
332.943	212.62
333.172	229.62
333.4	239.62
333.629	228.62
333.857	243.62
334.085	221.62
334.314	203.62
334.542	230.62
334.771	217.62
334.999	222.62
335.227	232.62
335.455	224.62
335.684	209.62
335.912	222.62
336.14	227.62
336.369	212.62
336.597	212.62
336.825	213.62
337.053	215.62
337.281	206.62
337.51	212.62
337.738	190.62
337.966	196.62
338.194	211.62
338.422	204.62
338.65	194.62
338.878	191.62
339.106	174.62
339.334	193.62
339.562	193.62
339.79	186.62
340.018	178.62
340.246	184.62
340.474	181.62
340.702	192.62
340.93	193.62
341.158	183.62
341.386	183.62
341.614	185.62
341.842	209.62
342.07	206.62
342.298	201.62
342.526	194.62
342.754	186.62
342.981	197.62
343.209	211.62
343.437	206.62
343.665	216.62
343.893	226.62
344.12	233.62
344.348	235.62
344.576	206.62
344.804	206.62
345.031	220.62
345.259	201.62
345.487	199.62
345.714	196.62
345.942	210.62
346.17	197.62
346.397	197.62
346.625	193.62
346.853	193.62
347.08	186.62
347.308	205.62
347.535	179.62
347.763	198.62
347.99	224.62
348.218	179.62
348.445	194.62
348.673	194.62
348.9	204.62
349.128	201.62
349.355	180.62
349.583	192.62
349.81	176.62
350.037	194.62
350.265	182.62
350.492	179.62
350.72	194.62
350.947	166.62
351.174	190.62
351.402	189.62
351.629	170.62
351.856	182.62
352.083	191.62
352.311	170.62
352.538	194.62
352.765	193.62
352.992	193.62
353.22	189.62
353.447	180.62
353.674	180.62
353.901	187.62
354.128	185.62
354.355	188.62
354.583	187.62
354.81	210.62
355.037	182.62
355.264	202.62
355.491	189.62
355.718	183.62
355.945	185.62
356.172	196.62
356.399	189.62
356.626	187.62
356.853	188.62
357.08	170.62
357.307	188.62
357.534	196.62
357.761	170.62
357.988	193.62
358.215	184.62
358.441	181.62
358.668	189.62
358.895	184.62
359.122	188.62
359.349	181.62
359.576	184.62
359.802	197.62
360.029	194.62
360.256	196.62
360.483	197.62
360.709	188.62
360.936	184.62
361.163	189.62
361.39	193.62
361.616	185.62
361.843	187.62
362.07	198.62
362.296	188.62
362.523	185.62
362.749	183.62
362.976	179.62
363.203	190.62
363.429	173.62
363.656	192.62
363.882	178.62
364.109	182.62
364.335	181.62
364.562	189.62
364.788	191.62
365.015	199.62
365.241	197.62
365.468	184.62
365.694	172.62
365.92	183.62
366.147	187.62
366.373	182.62
366.599	181.62
366.826	187.62
367.052	203.62
367.278	185.62
367.505	180.62
367.731	183.62
367.957	190.62
368.184	188.62
368.41	173.62
368.636	184.62
368.862	189.62
369.089	179.62
369.315	186.62
369.541	177.62
369.767	198.62
369.993	186.62
370.219	197.62
370.445	193.62
370.672	197.62
370.898	199.62
371.124	198.62
371.35	185.62
371.576	190.62
371.802	193.62
372.028	183.62
372.254	191.62
372.48	188.62
372.706	195.62
372.932	208.62
373.158	205.62
373.384	199.62
373.61	202.62
373.835	202.62
374.061	190.62
374.287	197.62
374.513	213.62
374.739	212.62
374.965	210.62
375.191	216.62
375.416	209.62
375.642	216.62
375.868	209.62
376.094	208.62
376.319	218.62
376.545	183.62
376.771	207.62
376.997	199.62
377.222	206.62
377.448	198.62
377.674	204.62
377.899	190.62
378.125	189.62
378.35	192.62
378.576	187.62
378.802	189.62
379.027	206.62
379.253	198.62
379.478	188.62
379.704	202.62
379.929	181.62
380.155	193.62
380.38	180.62
380.606	200.62
380.831	188.62
381.057	209.62
381.282	183.62
381.507	188.62
381.733	198.62
381.958	199.62
382.184	211.62
382.409	203.62
382.634	203.62
382.86	186.62
383.085	195.62
383.31	203.62
383.535	196.62
383.761	213.62
383.986	203.62
384.211	219.62
384.436	209.62
384.662	209.62
384.887	230.62
385.112	220.62
385.337	246.62
385.562	237.62
385.787	232.62
386.013	242.62
386.238	217.62
386.463	220.62
386.688	236.62
386.913	200.62
387.138	218.62
387.363	208.62
387.588	229.62
387.813	221.62
388.038	218.62
388.263	221.62
388.488	210.62
388.713	200.62
388.938	203.62
389.163	202.62
389.387	215.62
389.612	210.62
389.837	215.62
390.062	210.62
390.287	209.62
390.512	225.62
390.736	206.62
390.961	206.62
391.186	221.62
391.411	223.62
391.636	227.62
391.86	221.62
392.085	235.62
392.31	234.62
392.534	241.62
392.759	222.62
392.984	225.62
393.208	229.62
393.433	227.62
393.658	224.62
393.882	231.62
394.107	228.62
394.331	229.62
394.556	239.62
394.78	238.62
395.005	233.62
395.229	228.62
395.454	233.62
395.678	247.62
395.903	223.62
396.127	237.62
396.352	239.62
396.576	225.62
396.801	244.62
397.025	223.62
397.249	234.62
397.474	243.62
397.698	243.62
397.922	258.62
398.147	236.62
398.371	230.62
398.595	245.62
398.82	244.62
399.044	251.62
399.268	287.62
399.492	337.62
399.717	368.62
399.941	373.62
400.165	325.62
400.389	310.62
400.613	285.62
400.837	261.62
401.062	277.62
401.286	260.62
401.51	259.62
401.734	246.62
401.958	262.62
402.182	264.62
402.406	266.62
402.63	259.62
402.854	250.62
403.078	277.62
403.302	296.62
403.526	290.62
403.75	299.62
403.974	313.62
404.198	312.62
404.422	299.62
404.645	313.62
404.869	297.62
405.093	287.62
405.317	287.62
405.541	293.62
405.765	283.62
405.988	283.62
406.212	271.62
406.436	273.62
406.66	289.62
406.883	289.62
407.107	307.62
407.331	298.62
407.555	332.62
407.778	309.62
408.002	328.62
408.226	293.62
408.449	293.62
408.673	279.62
408.896	297.62
409.12	273.62
409.344	284.62
409.567	277.62
409.791	279.62
410.014	299.62
410.238	301.62
410.461	305.62
410.685	285.62
410.908	273.62
411.132	274.62
411.355	245.62
411.578	268.62
411.802	261.62
412.025	276.62
412.249	273.62
412.472	261.62
412.695	254.62
412.919	262.62
413.142	264.62
413.365	258.62
413.589	263.62
413.812	253.62
414.035	245.62
414.258	268.62
414.482	284.62
414.705	269.62
414.928	249.62
415.151	246.62
415.374	254.62
415.597	283.62
415.821	270.62
416.044	248.62
416.267	256.62
416.49	268.62
416.713	236.62
416.936	249.62
417.159	248.62
417.382	247.62
417.605	261.62
417.828	264.62
418.051	271.62
418.274	249.62
418.497	274.62
418.72	279.62
418.943	268.62
419.166	282.62
419.389	286.62
419.611	296.62
419.834	290.62
420.057	267.62
420.28	260.62
420.503	258.62
420.726	259.62
420.948	261.62
421.171	270.62
421.394	267.62
421.617	258.62
421.839	252.62
422.062	263.62
422.285	252.62
422.507	271.62
422.73	269.62
422.953	255.62
423.175	286.62
423.398	261.62
423.621	255.62
423.843	278.62
424.066	283.62
424.288	281.62
424.511	276.62
424.733	264.62
424.956	258.62
425.178	269.62
425.401	243.62
425.623	263.62
425.846	230.62
426.068	259.62
426.291	254.62
426.513	233.62
426.735	243.62
426.958	233.62
427.18	242.62
427.402	239.62
427.625	237.62
427.847	249.62
428.069	234.62
428.292	229.62
428.514	226.62
428.736	219.62
428.958	237.62
429.181	222.62
429.403	230.62
429.625	232.62
429.847	252.62
430.069	243.62
430.292	245.62
430.514	214.62
430.736	238.62
430.958	228.62
431.18	226.62
431.402	225.62
431.624	236.62
431.846	229.62
432.068	228.62
432.29	238.62
432.512	241.62
432.734	257.62
432.956	228.62
433.178	240.62
433.4	238.62
433.622	245.62
433.844	232.62
434.066	253.62
434.287	246.62
434.509	249.62
434.731	243.62
434.953	269.62
435.175	281.62
435.397	259.62
435.618	245.62
435.84	253.62
436.062	237.62
436.284	230.62
436.505	232.62
436.727	238.62
436.949	269.62
437.17	246.62
437.392	222.62
437.614	227.62
437.835	219.62
438.057	223.62
438.278	219.62
438.5	233.62
438.721	227.62
438.943	226.62
439.165	236.62
439.386	245.62
439.608	237.62
439.829	227.62
440.05	223.62
440.272	236.62
440.493	230.62
440.715	249.62
440.936	240.62
441.158	237.62
441.379	245.62
441.6	246.62
441.822	267.62
442.043	265.62
442.264	249.62
442.486	221.62
442.707	247.62
442.928	249.62
443.149	250.62
443.371	257.62
443.592	271.62
443.813	248.62
444.034	268.62
444.255	271.62
444.476	268.62
444.698	303.62
444.919	286.62
445.14	439.62
445.361	339.62
445.582	268.62
445.803	259.62
446.024	252.62
446.245	230.62
446.466	219.62
446.687	238.62
446.908	247.62
447.129	223.62
447.35	228.62
447.571	229.62
447.792	236.62
448.013	225.62
448.234	230.62
448.455	220.62
448.675	230.62
448.896	220.62
449.117	208.62
449.338	210.62
449.559	208.62
449.779	225.62
450	215.62
450.221	233.62
450.442	219.62
450.662	221.62
450.883	207.62
451.104	204.62
451.324	203.62
451.545	225.62
451.766	218.62
451.986	226.62
452.207	218.62
452.428	229.62
452.648	221.62
452.869	229.62
453.089	212.62
453.31	201.62
453.53	217.62
453.751	216.62
453.971	206.62
454.192	230.62
454.412	220.62
454.633	213.62
454.853	218.62
455.073	213.62
455.294	215.62
455.514	214.62
455.734	222.62
455.955	205.62
456.175	204.62
456.395	209.62
456.616	204.62
456.836	209.62
457.056	205.62
457.276	190.62
457.497	196.62
457.717	222.62
457.937	218.62
458.157	199.62
458.377	206.62
458.598	213.62
458.818	223.62
459.038	222.62
459.258	223.62
459.478	236.62
459.698	244.62
459.918	247.62
460.138	259.62
460.358	268.62
460.578	268.62
460.798	284.62
461.018	295.62
461.238	271.62
461.458	261.62
461.678	270.62
461.898	265.62
462.118	271.62
462.338	269.62
462.558	284.62
462.777	293.62
462.997	321.62
463.217	354.62
463.437	349.62
463.657	321.62
463.876	282.62
464.096	289.62
464.316	318.62
464.536	318.62
464.755	298.62
464.975	290.62
465.195	291.62
465.414	268.62
465.634	267.62
465.854	245.62
466.073	259.62
466.293	243.62
466.512	237.62
466.732	221.62
466.951	225.62
467.171	222.62
467.391	253.62
467.61	230.62
467.829	234.62
468.049	229.62
468.268	220.62
468.488	220.62
468.707	213.62
468.927	238.62
469.146	237.62
469.365	227.62
469.585	233.62
469.804	258.62
470.023	237.62
470.243	228.62
470.462	243.62
470.681	262.62
470.901	234.62
471.12	245.62
471.339	231.62
471.558	231.62
471.777	231.62
471.997	235.62
472.216	214.62
472.435	221.62
472.654	200.62
472.873	213.62
473.092	237.62
473.311	225.62
473.53	219.62
473.749	234.62
473.968	229.62
474.187	187.62
474.406	214.62
474.625	223.62
474.844	231.62
475.063	216.62
475.282	219.62
475.501	230.62
475.72	223.62
475.939	223.62
476.158	232.62
476.377	236.62
476.596	234.62
476.814	220.62
477.033	238.62
477.252	227.62
477.471	246.62
477.69	239.62
477.908	244.62
478.127	244.62
478.346	244.62
478.564	266.62
478.783	254.62
479.002	266.62
479.22	269.62
479.439	279.62
479.658	257.62
479.876	260.62
480.095	241.62
480.313	289.62
480.532	259.62
480.751	291.62
480.969	270.62
481.188	253.62
481.406	262.62
481.624	250.62
481.843	261.62
482.061	257.62
482.28	236.62
482.498	236.62
482.717	234.62
482.935	246.62
483.153	243.62
483.372	239.62
483.59	271.62
483.808	277.62
484.027	249.62
484.245	256.62
484.463	256.62
484.681	261.62
484.9	260.62
485.118	262.62
485.336	257.62
485.554	255.62
485.772	275.62
485.99	268.62
486.209	285.62
486.427	262.62
486.645	250.62
486.863	266.62
487.081	268.62
487.299	253.62
487.517	257.62
487.735	262.62
487.953	271.62
488.171	239.62
488.389	269.62
488.607	253.62
488.825	262.62
489.043	257.62
489.261	265.62
489.479	271.62
489.696	270.62
489.914	263.62
490.132	250.62
490.35	255.62
490.568	260.62
490.786	259.62
491.003	259.62
491.221	264.62
491.439	264.62
491.657	266.62
491.874	265.62
492.092	275.62
492.31	290.62
492.527	277.62
492.745	259.62
492.963	273.62
493.18	273.62
493.398	272.62
493.615	279.62
493.833	250.62
494.05	260.62
494.268	283.62
494.485	286.62
494.703	274.62
494.92	268.62
495.138	293.62
495.355	275.62
495.573	271.62
495.79	285.62
496.008	279.62
496.225	285.62
496.442	290.62
496.66	270.62
496.877	307.62
497.094	306.62
497.312	278.62
497.529	303.62
497.746	305.62
497.963	325.62
498.181	325.62
498.398	326.62
498.615	346.62
498.832	359.62
499.049	377.62
499.267	404.62
499.484	449.62
499.701	480.62
499.918	542.62
500.135	629.62
500.352	701.62
500.569	731.62
500.786	743.62
501.003	669.62
501.22	609.62
501.437	556.62
501.654	473.62
501.871	437.62
502.088	379.62
502.305	381.62
502.522	370.62
502.739	350.62
502.956	343.62
503.172	317.62
