Data from 0.5MCu(NO3)2.Standard.Lamp.E10.CV._HRD10591_16-05-54-753.txt Node
Date: Mon Jul 22 16:05:54 EDT 2019
User: cochatt
Spectrometer: HR+D1059
Trigger mode: 1
Integration Time (sec): 1.000000E-1
Scans to average: 1
Electric dark correction enabled: true
Nonlinearity correction enabled: false
Boxcar width: 0
XAxis mode: Wavelengths
Number of Pixels in Spectrum: 2048
>>>>>Begin Spectral Data<<<<<
223.165	-7.25
223.4	-7.25
223.635	-7.25
223.869	-7.25
224.104	-19.25
224.338	-12.25
224.573	-19.25
224.808	-4.25
225.042	-20.25
225.277	-10.25
225.511	-6.25
225.746	-4.25
225.98	7.75
226.215	-7.25
226.449	21.75
226.683	32.75
226.918	14.75
227.152	40.75
227.387	26.75
227.621	52.75
227.856	35.75
228.09	35.75
228.324	46.75
228.559	82.75
228.793	76.75
229.027	72.75
229.262	75.75
229.496	84.75
229.73	77.75
229.964	87.75
230.199	94.75
230.433	91.75
230.667	86.75
230.901	94.75
231.136	110.75
231.37	84.75
231.604	106.75
231.838	92.75
232.072	83.75
232.306	92.75
232.541	89.75
232.775	98.75
233.009	94.75
233.243	100.75
233.477	98.75
233.711	99.75
233.945	98.75
234.179	97.75
234.413	102.75
234.647	100.75
234.881	94.75
235.115	91.75
235.349	89.75
235.583	90.75
235.817	78.75
236.051	88.75
236.285	75.75
236.519	94.75
236.753	86.75
236.987	92.75
237.221	102.75
237.455	87.75
237.689	81.75
237.922	83.75
238.156	107.75
238.39	99.75
238.624	89.75
238.858	94.75
239.091	94.75
239.325	79.75
239.559	98.75
239.793	99.75
240.027	108.75
240.26	92.75
240.494	85.75
240.728	103.75
240.961	101.75
241.195	102.75
241.429	102.75
241.662	92.75
241.896	106.75
242.13	106.75
242.363	108.75
242.597	102.75
242.83	107.75
243.064	100.75
243.298	116.75
243.531	113.75
243.765	104.75
243.998	118.75
244.232	108.75
244.465	100.75
244.699	109.75
244.932	100.75
245.166	113.75
245.399	103.75
245.633	109.75
245.866	115.75
246.099	104.75
246.333	118.75
246.566	103.75
246.8	107.75
247.033	113.75
247.266	88.75
247.5	105.75
247.733	106.75
247.966	115.75
248.2	107.75
248.433	106.75
248.666	115.75
248.899	108.75
249.133	97.75
249.366	120.75
249.599	115.75
249.832	99.75
250.066	115.75
250.299	116.75
250.532	118.75
250.765	131.75
250.998	115.75
251.231	127.75
251.465	117.75
251.698	110.75
251.931	103.75
252.164	108.75
252.397	102.75
252.63	119.75
252.863	124.75
253.096	117.75
253.329	117.75
253.562	124.75
253.795	119.75
254.028	115.75
254.261	109.75
254.494	117.75
254.727	123.75
254.96	107.75
255.193	123.75
255.426	120.75
255.659	124.75
255.892	123.75
256.124	117.75
256.357	126.75
256.59	122.75
256.823	131.75
257.056	121.75
257.289	126.75
257.521	119.75
257.754	122.75
257.987	127.75
258.22	125.75
258.452	129.75
258.685	127.75
258.918	126.75
259.151	129.75
259.383	126.75
259.616	122.75
259.849	124.75
260.081	109.75
260.314	117.75
260.547	131.75
260.779	118.75
261.012	127.75
261.244	134.75
261.477	141.75
261.71	128.75
261.942	127.75
262.175	138.75
262.407	123.75
262.64	134.75
262.872	138.75
263.105	129.75
263.337	127.75
263.57	141.75
263.802	137.75
264.035	141.75
264.267	142.75
264.499	126.75
264.732	139.75
264.964	150.75
265.197	149.75
265.429	135.75
265.661	142.75
265.894	132.75
266.126	148.75
266.358	136.75
266.591	145.75
266.823	136.75
267.055	142.75
267.287	140.75
267.52	147.75
267.752	141.75
267.984	139.75
268.216	149.75
268.448	163.75
268.681	139.75
268.913	141.75
269.145	153.75
269.377	154.75
269.609	147.75
269.841	165.75
270.073	137.75
270.306	139.75
270.538	149.75
270.77	157.75
271.002	156.75
271.234	148.75
271.466	150.75
271.698	122.75
271.93	136.75
272.162	144.75
272.394	159.75
272.626	136.75
272.858	142.75
273.09	147.75
273.322	137.75
273.553	161.75
273.785	146.75
274.017	167.75
274.249	150.75
274.481	154.75
274.713	149.75
274.945	176.75
275.176	157.75
275.408	147.75
275.64	155.75
275.872	139.75
276.104	141.75
276.335	155.75
276.567	153.75
276.799	141.75
277.031	162.75
277.262	136.75
277.494	138.75
277.726	159.75
277.957	133.75
278.189	143.75
278.421	161.75
278.652	161.75
278.884	168.75
279.115	147.75
279.347	159.75
279.579	164.75
279.81	188.75
280.042	171.75
280.273	174.75
280.505	145.75
280.736	167.75
280.968	161.75
281.199	172.75
281.431	158.75
281.662	168.75
281.894	166.75
282.125	155.75
282.356	178.75
282.588	177.75
282.819	163.75
283.051	178.75
283.282	165.75
283.513	182.75
283.745	161.75
283.976	161.75
284.207	165.75
284.439	186.75
284.67	168.75
284.901	164.75
285.132	174.75
285.364	164.75
285.595	182.75
285.826	179.75
286.057	176.75
286.288	167.75
286.52	193.75
286.751	183.75
286.982	191.75
287.213	182.75
287.444	169.75
287.675	179.75
287.906	178.75
288.138	173.75
288.369	177.75
288.6	173.75
288.831	195.75
289.062	179.75
289.293	189.75
289.524	191.75
289.755	192.75
289.986	185.75
290.217	173.75
290.448	194.75
290.679	189.75
290.91	173.75
291.141	167.75
291.371	185.75
291.602	181.75
291.833	184.75
292.064	179.75
292.295	173.75
292.526	193.75
292.757	189.75
292.987	207.75
293.218	179.75
293.449	168.75
293.68	185.75
293.91	183.75
294.141	175.75
294.372	190.75
294.603	186.75
294.833	168.75
295.064	177.75
295.295	174.75
295.525	183.75
295.756	201.75
295.987	179.75
296.217	191.75
296.448	188.75
296.679	181.75
296.909	195.75
297.14	182.75
297.37	182.75
297.601	198.75
297.831	194.75
298.062	216.75
298.292	189.75
298.523	206.75
298.753	193.75
298.984	197.75
299.214	190.75
299.445	196.75
299.675	194.75
299.905	211.75
300.136	197.75
300.366	193.75
300.597	197.75
300.827	195.75
301.057	227.75
301.288	180.75
301.518	203.75
301.748	213.75
301.979	192.75
302.209	214.75
302.439	208.75
302.669	202.75
302.9	197.75
303.13	204.75
303.36	206.75
303.59	191.75
303.82	209.75
304.051	206.75
304.281	193.75
304.511	204.75
304.741	208.75
304.971	210.75
305.201	200.75
305.431	191.75
305.661	208.75
305.891	201.75
306.121	220.75
306.352	198.75
306.582	183.75
306.812	207.75
307.042	217.75
307.272	209.75
307.502	214.75
307.731	207.75
307.961	201.75
308.191	195.75
308.421	214.75
308.651	203.75
308.881	189.75
309.111	195.75
309.341	195.75
309.571	199.75
309.8	203.75
310.03	207.75
310.26	200.75
310.49	183.75
310.72	199.75
310.949	215.75
311.179	194.75
311.409	198.75
311.639	199.75
311.868	186.75
312.098	193.75
312.328	197.75
312.557	203.75
312.787	215.75
313.017	235.75
313.246	186.75
313.476	200.75
313.706	204.75
313.935	211.75
314.165	222.75
314.394	218.75
314.624	217.75
314.853	211.75
315.083	199.75
315.312	225.75
315.542	225.75
315.771	206.75
316.001	194.75
316.23	200.75
316.46	211.75
316.689	200.75
316.919	199.75
317.148	214.75
317.377	202.75
317.607	215.75
317.836	187.75
318.065	199.75
318.295	201.75
318.524	196.75
318.753	212.75
318.983	206.75
319.212	204.75
319.441	207.75
319.67	185.75
319.9	203.75
320.129	197.75
320.358	209.75
320.587	214.75
320.816	202.75
321.046	203.75
321.275	218.75
321.504	207.75
321.733	213.75
321.962	211.75
322.191	204.75
322.42	209.75
322.649	219.75
322.878	213.75
323.108	205.75
323.337	221.75
323.566	215.75
323.795	206.75
324.024	198.75
324.253	207.75
324.482	201.75
324.71	217.75
324.939	227.75
325.168	218.75
325.397	224.75
325.626	223.75
325.855	212.75
326.084	224.75
326.313	201.75
326.542	221.75
326.77	229.75
326.999	222.75
327.228	220.75
327.457	215.75
327.686	223.75
327.914	211.75
328.143	229.75
328.372	214.75
328.6	227.75
328.829	219.75
329.058	209.75
329.287	223.75
329.515	216.75
329.744	225.75
329.972	202.75
330.201	215.75
330.43	199.75
330.658	221.75
330.887	227.75
331.115	230.75
331.344	239.75
331.572	237.75
331.801	230.75
332.03	244.75
332.258	248.75
332.486	226.75
332.715	254.75
332.943	266.75
333.172	256.75
333.4	302.75
333.629	301.75
333.857	289.75
334.085	278.75
334.314	273.75
334.542	268.75
334.771	262.75
334.999	263.75
335.227	268.75
335.455	262.75
335.684	252.75
335.912	269.75
336.14	261.75
336.369	246.75
336.597	246.75
336.825	243.75
337.053	258.75
337.281	257.75
337.51	250.75
337.738	223.75
337.966	233.75
338.194	237.75
338.422	225.75
338.65	242.75
338.878	220.75
339.106	232.75
339.334	242.75
339.562	230.75
339.79	227.75
340.018	220.75
340.246	228.75
340.474	227.75
340.702	247.75
340.93	247.75
341.158	243.75
341.386	216.75
341.614	222.75
341.842	224.75
342.07	237.75
342.298	217.75
342.526	223.75
342.754	223.75
342.981	222.75
343.209	229.75
343.437	225.75
343.665	248.75
343.893	260.75
344.12	270.75
344.348	267.75
344.576	243.75
344.804	230.75
345.031	246.75
345.259	226.75
345.487	236.75
345.714	238.75
345.942	231.75
346.17	203.75
346.397	220.75
346.625	224.75
346.853	205.75
347.08	227.75
347.308	203.75
347.535	227.75
347.763	229.75
347.99	216.75
348.218	225.75
348.445	217.75
348.673	216.75
348.9	229.75
349.128	234.75
349.355	215.75
349.583	215.75
349.81	215.75
350.037	205.75
350.265	214.75
350.492	211.75
350.72	209.75
350.947	222.75
351.174	220.75
351.402	227.75
351.629	225.75
351.856	206.75
352.083	218.75
352.311	216.75
352.538	216.75
352.765	230.75
352.992	223.75
353.22	211.75
353.447	217.75
353.674	214.75
353.901	219.75
354.128	211.75
354.355	198.75
354.583	214.75
354.81	210.75
355.037	212.75
355.264	230.75
355.491	209.75
355.718	228.75
355.945	231.75
356.172	227.75
356.399	219.75
356.626	217.75
356.853	227.75
357.08	206.75
357.307	217.75
357.534	204.75
357.761	214.75
357.988	220.75
358.215	208.75
358.441	197.75
358.668	202.75
358.895	218.75
359.122	210.75
359.349	210.75
359.576	206.75
359.802	215.75
360.029	217.75
360.256	208.75
360.483	211.75
360.709	234.75
360.936	230.75
361.163	208.75
361.39	211.75
361.616	204.75
361.843	225.75
362.07	216.75
362.296	212.75
362.523	222.75
362.749	216.75
362.976	212.75
363.203	217.75
363.429	221.75
363.656	198.75
363.882	211.75
364.109	210.75
364.335	212.75
364.562	219.75
364.788	200.75
365.015	191.75
365.241	209.75
365.468	208.75
365.694	204.75
365.92	215.75
366.147	225.75
366.373	218.75
366.599	208.75
366.826	218.75
367.052	206.75
367.278	208.75
367.505	207.75
367.731	207.75
367.957	218.75
368.184	213.75
368.41	216.75
368.636	226.75
368.862	216.75
369.089	208.75
369.315	214.75
369.541	225.75
369.767	212.75
369.993	222.75
370.219	216.75
370.445	221.75
370.672	209.75
370.898	223.75
371.124	224.75
371.35	234.75
371.576	227.75
371.802	229.75
372.028	220.75
372.254	223.75
372.48	218.75
372.706	227.75
372.932	233.75
373.158	235.75
373.384	221.75
373.61	229.75
373.835	226.75
374.061	213.75
374.287	220.75
374.513	234.75
374.739	234.75
374.965	228.75
375.191	254.75
375.416	259.75
375.642	252.75
375.868	239.75
376.094	222.75
376.319	236.75
376.545	223.75
376.771	225.75
376.997	226.75
377.222	234.75
377.448	233.75
377.674	217.75
377.899	214.75
378.125	234.75
378.35	219.75
378.576	208.75
378.802	209.75
379.027	218.75
379.253	251.75
379.478	228.75
379.704	222.75
379.929	215.75
380.155	223.75
380.38	201.75
380.606	214.75
380.831	220.75
381.057	230.75
381.282	211.75
381.507	215.75
381.733	214.75
381.958	224.75
382.184	234.75
382.409	222.75
382.634	228.75
382.86	226.75
383.085	256.75
383.31	234.75
383.535	235.75
383.761	243.75
383.986	237.75
384.211	238.75
384.436	248.75
384.662	265.75
384.887	261.75
385.112	264.75
385.337	254.75
385.562	267.75
385.787	263.75
386.013	275.75
386.238	264.75
386.463	280.75
386.688	261.75
386.913	245.75
387.138	250.75
387.363	249.75
387.588	266.75
387.813	263.75
388.038	254.75
388.263	248.75
388.488	253.75
388.713	250.75
388.938	266.75
389.163	251.75
389.387	257.75
389.612	251.75
389.837	255.75
390.062	239.75
390.287	215.75
390.512	252.75
390.736	258.75
390.961	267.75
391.186	254.75
391.411	258.75
391.636	285.75
391.86	279.75
392.085	283.75
392.31	280.75
392.534	278.75
392.759	270.75
392.984	269.75
393.208	254.75
393.433	275.75
393.658	268.75
393.882	275.75
394.107	270.75
394.331	271.75
394.556	274.75
394.78	259.75
395.005	269.75
395.229	268.75
395.454	282.75
395.678	281.75
395.903	278.75
396.127	267.75
396.352	274.75
396.576	231.75
396.801	245.75
397.025	261.75
397.249	265.75
397.474	293.75
397.698	265.75
397.922	278.75
398.147	268.75
398.371	281.75
398.595	274.75
398.82	305.75
399.044	317.75
399.268	333.75
399.492	378.75
399.717	435.75
399.941	417.75
400.165	364.75
400.389	344.75
400.613	325.75
400.837	315.75
401.062	290.75
401.286	282.75
401.51	322.75
401.734	283.75
401.958	313.75
402.182	300.75
402.406	313.75
402.63	307.75
402.854	313.75
403.078	322.75
403.302	315.75
403.526	335.75
403.75	341.75
403.974	350.75
404.198	351.75
404.422	348.75
404.645	330.75
404.869	325.75
405.093	321.75
405.317	322.75
405.541	319.75
405.765	314.75
405.988	317.75
406.212	327.75
406.436	314.75
406.66	324.75
406.883	333.75
407.107	351.75
407.331	351.75
407.555	389.75
407.778	366.75
408.002	363.75
408.226	358.75
408.449	345.75
408.673	342.75
408.896	351.75
409.12	342.75
409.344	343.75
409.567	339.75
409.791	358.75
410.014	349.75
410.238	333.75
410.461	310.75
410.685	338.75
410.908	339.75
411.132	317.75
411.355	301.75
411.578	321.75
411.802	302.75
412.025	298.75
412.249	309.75
412.472	300.75
412.695	311.75
412.919	287.75
413.142	307.75
413.365	283.75
413.589	290.75
413.812	297.75
414.035	289.75
414.258	290.75
414.482	294.75
414.705	310.75
414.928	308.75
415.151	298.75
415.374	296.75
415.597	292.75
415.821	300.75
416.044	284.75
416.267	295.75
416.49	301.75
416.713	288.75
416.936	301.75
417.159	295.75
417.382	287.75
417.605	301.75
417.828	314.75
418.051	305.75
418.274	303.75
418.497	300.75
418.72	322.75
418.943	306.75
419.166	316.75
419.389	341.75
419.611	309.75
419.834	303.75
420.057	314.75
420.28	307.75
420.503	298.75
420.726	296.75
420.948	285.75
421.171	275.75
421.394	302.75
421.617	289.75
421.839	300.75
422.062	296.75
422.285	290.75
422.507	281.75
422.73	297.75
422.953	329.75
423.175	312.75
423.398	317.75
423.621	301.75
423.843	327.75
424.066	315.75
424.288	307.75
424.511	332.75
424.733	306.75
424.956	322.75
425.178	308.75
425.401	311.75
425.623	300.75
425.846	288.75
426.068	299.75
426.291	283.75
426.513	281.75
426.735	282.75
426.958	285.75
427.18	271.75
427.402	286.75
427.625	275.75
427.847	279.75
428.069	273.75
428.292	282.75
428.514	269.75
428.736	266.75
428.958	276.75
429.181	255.75
429.403	268.75
429.625	269.75
429.847	251.75
430.069	255.75
430.292	260.75
430.514	265.75
430.736	264.75
430.958	270.75
431.18	266.75
431.402	260.75
431.624	260.75
431.846	268.75
432.068	264.75
432.29	267.75
432.512	262.75
432.734	261.75
432.956	281.75
433.178	273.75
433.4	279.75
433.622	257.75
433.844	270.75
434.066	265.75
434.287	259.75
434.509	282.75
434.731	298.75
434.953	283.75
435.175	297.75
435.397	302.75
435.618	301.75
435.84	283.75
436.062	265.75
436.284	253.75
436.505	269.75
436.727	267.75
436.949	256.75
437.17	276.75
437.392	269.75
437.614	259.75
437.835	258.75
438.057	261.75
438.278	261.75
438.5	267.75
438.721	261.75
438.943	257.75
439.165	268.75
439.386	250.75
439.608	277.75
439.829	269.75
440.05	273.75
440.272	253.75
440.493	264.75
440.715	276.75
440.936	268.75
441.158	288.75
441.379	295.75
441.6	286.75
441.822	275.75
442.043	318.75
442.264	300.75
442.486	286.75
442.707	293.75
442.928	297.75
443.149	308.75
443.371	290.75
443.592	297.75
443.813	291.75
444.034	307.75
444.255	309.75
444.476	326.75
444.698	345.75
444.919	343.75
445.14	426.75
445.361	356.75
445.582	302.75
445.803	285.75
446.024	269.75
446.245	282.75
446.466	275.75
446.687	258.75
446.908	259.75
447.129	265.75
447.35	260.75
447.571	267.75
447.792	257.75
448.013	252.75
448.234	245.75
448.455	246.75
448.675	257.75
448.896	265.75
449.117	249.75
449.338	245.75
449.559	258.75
449.779	254.75
450	239.75
450.221	257.75
450.442	258.75
450.662	259.75
450.883	251.75
451.104	257.75
451.324	269.75
451.545	244.75
451.766	273.75
451.986	282.75
452.207	247.75
452.428	246.75
452.648	257.75
452.869	238.75
453.089	237.75
453.31	246.75
453.53	234.75
453.751	243.75
453.971	257.75
454.192	268.75
454.412	257.75
454.633	239.75
454.853	236.75
455.073	246.75
455.294	225.75
455.514	259.75
455.734	247.75
455.955	228.75
456.175	252.75
456.395	256.75
456.616	235.75
456.836	253.75
457.056	235.75
457.276	229.75
457.497	235.75
457.717	233.75
457.937	258.75
458.157	245.75
458.377	238.75
458.598	249.75
458.818	238.75
459.038	247.75
459.258	261.75
459.478	254.75
459.698	290.75
459.918	293.75
460.138	303.75
460.358	323.75
460.578	326.75
460.798	321.75
461.018	312.75
461.238	317.75
461.458	305.75
461.678	309.75
461.898	302.75
462.118	298.75
462.338	331.75
462.558	323.75
462.777	334.75
462.997	364.75
463.217	385.75
463.437	405.75
463.657	378.75
463.876	369.75
464.096	366.75
464.316	373.75
464.536	367.75
464.755	354.75
464.975	338.75
465.195	312.75
465.414	295.75
465.634	273.75
465.854	262.75
466.073	265.75
466.293	272.75
466.512	285.75
466.732	263.75
466.951	257.75
467.171	266.75
467.391	274.75
467.61	267.75
467.829	246.75
468.049	282.75
468.268	263.75
468.488	263.75
468.707	262.75
468.927	252.75
469.146	239.75
469.365	259.75
469.585	286.75
469.804	270.75
470.023	275.75
470.243	281.75
470.462	280.75
470.681	277.75
470.901	271.75
471.12	270.75
471.339	265.75
471.558	262.75
471.777	259.75
471.997	260.75
472.216	250.75
472.435	238.75
472.654	255.75
472.873	257.75
473.092	245.75
473.311	243.75
473.53	252.75
473.749	246.75
473.968	255.75
474.187	266.75
474.406	275.75
474.625	268.75
474.844	257.75
475.063	258.75
475.282	245.75
475.501	258.75
475.72	259.75
475.939	249.75
476.158	245.75
476.377	271.75
476.596	266.75
476.814	273.75
477.033	267.75
477.252	267.75
477.471	272.75
477.69	305.75
477.908	295.75
478.127	289.75
478.346	302.75
478.564	321.75
478.783	293.75
479.002	299.75
479.22	297.75
479.439	322.75
479.658	293.75
479.876	290.75
480.095	295.75
480.313	309.75
480.532	317.75
480.751	333.75
480.969	326.75
481.188	310.75
481.406	284.75
481.624	286.75
481.843	297.75
482.061	292.75
482.28	289.75
482.498	268.75
482.717	270.75
482.935	274.75
483.153	295.75
483.372	268.75
483.59	276.75
483.808	283.75
484.027	289.75
484.245	294.75
484.463	302.75
484.681	306.75
484.9	301.75
485.118	300.75
485.336	305.75
485.554	327.75
485.772	295.75
485.99	314.75
486.209	320.75
486.427	313.75
486.645	291.75
486.863	299.75
487.081	303.75
487.299	313.75
487.517	305.75
487.735	307.75
487.953	323.75
488.171	297.75
488.389	299.75
488.607	287.75
488.825	306.75
489.043	302.75
489.261	301.75
489.479	301.75
489.696	305.75
489.914	305.75
490.132	296.75
490.35	281.75
490.568	295.75
490.786	312.75
491.003	305.75
491.221	296.75
491.439	321.75
491.657	295.75
491.874	317.75
492.092	307.75
492.31	292.75
492.527	307.75
492.745	301.75
492.963	309.75
493.18	308.75
493.398	314.75
493.615	319.75
493.833	315.75
494.05	311.75
494.268	320.75
494.485	324.75
494.703	323.75
494.92	323.75
495.138	313.75
495.355	308.75
495.573	314.75
495.79	319.75
496.008	318.75
496.225	315.75
496.442	313.75
496.66	333.75
496.877	341.75
497.094	333.75
497.312	325.75
497.529	339.75
497.746	341.75
497.963	363.75
498.181	356.75
498.398	379.75
498.615	387.75
498.832	389.75
499.049	459.75
499.267	475.75
499.484	515.75
499.701	570.75
499.918	629.75
500.135	720.75
500.352	825.75
500.569	859.75
500.786	886.75
501.003	817.75
501.22	707.75
501.437	619.75
501.654	553.75
501.871	508.75
502.088	461.75
502.305	453.75
502.522	455.75
502.739	419.75
