Data from 0.5MCu(NO3)2.Standard.Lamp.E10.CV._HRD10591_16-05-02-753.txt Node
Date: Mon Jul 22 16:05:02 EDT 2019
User: cochatt
Spectrometer: HR+D1059
Trigger mode: 1
Integration Time (sec): 1.000000E-1
Scans to average: 1
Electric dark correction enabled: true
Nonlinearity correction enabled: false
Boxcar width: 0
XAxis mode: Wavelengths
Number of Pixels in Spectrum: 2048
>>>>>Begin Spectral Data<<<<<
223.165	-9.5
223.4	-9.5
223.635	-9.5
223.869	-26.5
224.104	-28.5
224.338	-6.5
224.573	-17.5
224.808	-11.5
225.042	-13.5
225.277	-15.5
225.511	10.5
225.746	13.5
225.98	4.5
226.215	10.5
226.449	7.5
226.683	19.5
226.918	28.5
227.152	34.5
227.387	28.5
227.621	41.5
227.856	49.5
228.09	48.5
228.324	41.5
228.559	64.5
228.793	52.5
229.027	72.5
229.262	55.5
229.496	73.5
229.73	77.5
229.964	81.5
230.199	77.5
230.433	109.5
230.667	84.5
230.901	73.5
231.136	87.5
231.37	86.5
231.604	88.5
231.838	90.5
232.072	85.5
232.306	92.5
232.541	85.5
232.775	78.5
233.009	93.5
233.243	107.5
233.477	75.5
233.711	85.5
233.945	94.5
234.179	90.5
234.413	102.5
234.647	91.5
234.881	93.5
235.115	91.5
235.349	95.5
235.583	94.5
235.817	89.5
236.051	87.5
236.285	94.5
236.519	87.5
236.753	95.5
236.987	83.5
237.221	101.5
237.455	77.5
237.689	92.5
237.922	88.5
238.156	91.5
238.39	90.5
238.624	89.5
238.858	81.5
239.091	86.5
239.325	87.5
239.559	84.5
239.793	81.5
240.027	100.5
240.26	79.5
240.494	82.5
240.728	98.5
240.961	93.5
241.195	101.5
241.429	89.5
241.662	91.5
241.896	82.5
242.13	87.5
242.363	97.5
242.597	91.5
242.83	100.5
243.064	89.5
243.298	96.5
243.531	106.5
243.765	88.5
243.998	93.5
244.232	105.5
244.465	102.5
244.699	99.5
244.932	101.5
245.166	92.5
245.399	98.5
245.633	106.5
245.866	108.5
246.099	93.5
246.333	85.5
246.566	91.5
246.8	97.5
247.033	93.5
247.266	101.5
247.5	108.5
247.733	95.5
247.966	102.5
248.2	96.5
248.433	98.5
248.666	115.5
248.899	106.5
249.133	105.5
249.366	92.5
249.599	91.5
249.832	104.5
250.066	99.5
250.299	89.5
250.532	95.5
250.765	101.5
250.998	101.5
251.231	104.5
251.465	105.5
251.698	110.5
251.931	114.5
252.164	116.5
252.397	108.5
252.63	108.5
252.863	95.5
253.096	109.5
253.329	112.5
253.562	110.5
253.795	117.5
254.028	104.5
254.261	94.5
254.494	102.5
254.727	106.5
254.96	111.5
255.193	103.5
255.426	120.5
255.659	109.5
255.892	113.5
256.124	106.5
256.357	106.5
256.59	113.5
256.823	103.5
257.056	106.5
257.289	112.5
257.521	116.5
257.754	113.5
257.987	121.5
258.22	115.5
258.452	116.5
258.685	121.5
258.918	100.5
259.151	116.5
259.383	109.5
259.616	113.5
259.849	115.5
260.081	99.5
260.314	110.5
260.547	108.5
260.779	101.5
261.012	111.5
261.244	96.5
261.477	124.5
261.71	133.5
261.942	107.5
262.175	112.5
262.407	115.5
262.64	108.5
262.872	120.5
263.105	120.5
263.337	132.5
263.57	135.5
263.802	114.5
264.035	108.5
264.267	128.5
264.499	122.5
264.732	128.5
264.964	116.5
265.197	124.5
265.429	129.5
265.661	131.5
265.894	114.5
266.126	128.5
266.358	128.5
266.591	126.5
266.823	127.5
267.055	117.5
267.287	152.5
267.52	124.5
267.752	123.5
267.984	141.5
268.216	129.5
268.448	129.5
268.681	123.5
268.913	135.5
269.145	130.5
269.377	134.5
269.609	125.5
269.841	128.5
270.073	134.5
270.306	140.5
270.538	129.5
270.77	140.5
271.002	116.5
271.234	124.5
271.466	132.5
271.698	132.5
271.93	128.5
272.162	123.5
272.394	142.5
272.626	142.5
272.858	127.5
273.09	123.5
273.322	138.5
273.553	119.5
273.785	138.5
274.017	132.5
274.249	132.5
274.481	125.5
274.713	140.5
274.945	126.5
275.176	124.5
275.408	136.5
275.64	118.5
275.872	135.5
276.104	139.5
276.335	117.5
276.567	149.5
276.799	133.5
277.031	143.5
277.262	148.5
277.494	138.5
277.726	134.5
277.957	158.5
278.189	134.5
278.421	142.5
278.652	138.5
278.884	135.5
279.115	155.5
279.347	143.5
279.579	128.5
279.81	137.5
280.042	153.5
280.273	148.5
280.505	147.5
280.736	150.5
280.968	136.5
281.199	157.5
281.431	139.5
281.662	133.5
281.894	139.5
282.125	140.5
282.356	157.5
282.588	148.5
282.819	158.5
283.051	137.5
283.282	138.5
283.513	153.5
283.745	137.5
283.976	149.5
284.207	143.5
284.439	146.5
284.67	159.5
284.901	140.5
285.132	163.5
285.364	152.5
285.595	151.5
285.826	148.5
286.057	152.5
286.288	156.5
286.52	152.5
286.751	156.5
286.982	167.5
287.213	164.5
287.444	156.5
287.675	169.5
287.906	155.5
288.138	164.5
288.369	153.5
288.6	150.5
288.831	168.5
289.062	158.5
289.293	156.5
289.524	170.5
289.755	164.5
289.986	167.5
290.217	168.5
290.448	151.5
290.679	163.5
290.91	172.5
291.141	163.5
291.371	164.5
291.602	156.5
291.833	146.5
292.064	152.5
292.295	155.5
292.526	151.5
292.757	184.5
292.987	162.5
293.218	170.5
293.449	149.5
293.68	168.5
293.91	166.5
294.141	156.5
294.372	168.5
294.603	168.5
294.833	156.5
295.064	166.5
295.295	158.5
295.525	166.5
295.756	173.5
295.987	181.5
296.217	169.5
296.448	162.5
296.679	167.5
296.909	167.5
297.14	170.5
297.37	182.5
297.601	162.5
297.831	172.5
298.062	167.5
298.292	157.5
298.523	169.5
298.753	177.5
298.984	177.5
299.214	173.5
299.445	182.5
299.675	180.5
299.905	168.5
300.136	192.5
300.366	178.5
300.597	172.5
300.827	190.5
301.057	168.5
301.288	162.5
301.518	184.5
301.748	174.5
301.979	168.5
302.209	172.5
302.439	176.5
302.669	186.5
302.9	167.5
303.13	170.5
303.36	169.5
303.59	169.5
303.82	173.5
304.051	183.5
304.281	184.5
304.511	187.5
304.741	180.5
304.971	189.5
305.201	196.5
305.431	181.5
305.661	167.5
305.891	168.5
306.121	169.5
306.352	171.5
306.582	175.5
306.812	183.5
307.042	184.5
307.272	189.5
307.502	167.5
307.731	161.5
307.961	174.5
308.191	179.5
308.421	186.5
308.651	181.5
308.881	184.5
309.111	176.5
309.341	176.5
309.571	185.5
309.8	182.5
310.03	181.5
310.26	165.5
310.49	173.5
310.72	188.5
310.949	168.5
311.179	180.5
311.409	186.5
311.639	173.5
311.868	169.5
312.098	183.5
312.328	184.5
312.557	204.5
312.787	184.5
313.017	180.5
313.246	193.5
313.476	183.5
313.706	174.5
313.935	188.5
314.165	172.5
314.394	195.5
314.624	186.5
314.853	189.5
315.083	199.5
315.312	180.5
315.542	182.5
315.771	173.5
316.001	192.5
316.23	169.5
316.46	189.5
316.689	183.5
316.919	169.5
317.148	179.5
317.377	170.5
317.607	182.5
317.836	182.5
318.065	186.5
318.295	188.5
318.524	188.5
318.753	171.5
318.983	182.5
319.212	178.5
319.441	165.5
319.67	170.5
319.9	167.5
320.129	168.5
320.358	161.5
320.587	167.5
320.816	172.5
321.046	170.5
321.275	183.5
321.504	175.5
321.733	190.5
321.962	171.5
322.191	189.5
322.42	174.5
322.649	178.5
322.878	184.5
323.108	200.5
323.337	182.5
323.566	162.5
323.795	186.5
324.024	170.5
324.253	182.5
324.482	184.5
324.71	196.5
324.939	190.5
325.168	178.5
325.397	192.5
325.626	202.5
325.855	194.5
326.084	190.5
326.313	206.5
326.542	196.5
326.77	195.5
326.999	187.5
327.228	197.5
327.457	203.5
327.686	197.5
327.914	197.5
328.143	172.5
328.372	190.5
328.6	192.5
328.829	198.5
329.058	183.5
329.287	179.5
329.515	197.5
329.744	187.5
329.972	181.5
330.201	193.5
330.43	189.5
330.658	193.5
330.887	192.5
331.115	195.5
331.344	226.5
331.572	204.5
331.801	202.5
332.03	217.5
332.258	200.5
332.486	222.5
332.715	224.5
332.943	222.5
333.172	236.5
333.4	233.5
333.629	237.5
333.857	235.5
334.085	234.5
334.314	221.5
334.542	232.5
334.771	234.5
334.999	237.5
335.227	235.5
335.455	226.5
335.684	233.5
335.912	210.5
336.14	205.5
336.369	215.5
336.597	211.5
336.825	225.5
337.053	212.5
337.281	213.5
337.51	204.5
337.738	197.5
337.966	195.5
338.194	209.5
338.422	188.5
338.65	215.5
338.878	204.5
339.106	203.5
339.334	205.5
339.562	198.5
339.79	193.5
340.018	202.5
340.246	197.5
340.474	198.5
340.702	211.5
340.93	215.5
341.158	205.5
341.386	188.5
341.614	215.5
341.842	208.5
342.07	200.5
342.298	201.5
342.526	202.5
342.754	186.5
342.981	193.5
343.209	205.5
343.437	207.5
343.665	214.5
343.893	236.5
344.12	228.5
344.348	226.5
344.576	208.5
344.804	209.5
345.031	210.5
345.259	196.5
345.487	185.5
345.714	199.5
345.942	197.5
346.17	185.5
346.397	193.5
346.625	198.5
346.853	194.5
347.08	198.5
347.308	186.5
347.535	193.5
347.763	200.5
347.99	202.5
348.218	206.5
348.445	187.5
348.673	190.5
348.9	196.5
349.128	205.5
349.355	199.5
349.583	191.5
349.81	187.5
350.037	189.5
350.265	180.5
350.492	183.5
350.72	184.5
350.947	193.5
351.174	168.5
351.402	195.5
351.629	186.5
351.856	193.5
352.083	184.5
352.311	203.5
352.538	194.5
352.765	189.5
352.992	195.5
353.22	193.5
353.447	203.5
353.674	185.5
353.901	185.5
354.128	170.5
354.355	163.5
354.583	182.5
354.81	182.5
355.037	201.5
355.264	179.5
355.491	181.5
355.718	183.5
355.945	167.5
356.172	174.5
356.399	192.5
356.626	179.5
356.853	187.5
357.08	184.5
357.307	185.5
357.534	171.5
357.761	180.5
357.988	196.5
358.215	184.5
358.441	170.5
358.668	185.5
358.895	173.5
359.122	196.5
359.349	183.5
359.576	181.5
359.802	183.5
360.029	186.5
360.256	185.5
360.483	186.5
360.709	201.5
360.936	183.5
361.163	184.5
361.39	186.5
361.616	187.5
361.843	189.5
362.07	182.5
362.296	189.5
362.523	181.5
362.749	185.5
362.976	185.5
363.203	196.5
363.429	190.5
363.656	174.5
363.882	176.5
364.109	187.5
364.335	182.5
364.562	161.5
364.788	181.5
365.015	190.5
365.241	208.5
365.468	167.5
365.694	180.5
365.92	182.5
366.147	178.5
366.373	190.5
366.599	179.5
366.826	194.5
367.052	192.5
367.278	189.5
367.505	180.5
367.731	188.5
367.957	170.5
368.184	165.5
368.41	174.5
368.636	187.5
368.862	196.5
369.089	194.5
369.315	186.5
369.541	197.5
369.767	185.5
369.993	180.5
370.219	191.5
370.445	196.5
370.672	193.5
370.898	189.5
371.124	197.5
371.35	201.5
371.576	208.5
371.802	206.5
372.028	177.5
372.254	183.5
372.48	177.5
372.706	187.5
372.932	210.5
373.158	202.5
373.384	202.5
373.61	204.5
373.835	187.5
374.061	205.5
374.287	174.5
374.513	199.5
374.739	199.5
374.965	198.5
375.191	225.5
375.416	202.5
375.642	209.5
375.868	221.5
376.094	206.5
376.319	185.5
376.545	187.5
376.771	195.5
376.997	200.5
377.222	197.5
377.448	193.5
377.674	203.5
377.899	191.5
378.125	188.5
378.35	190.5
378.576	200.5
378.802	200.5
379.027	190.5
379.253	195.5
379.478	191.5
379.704	200.5
379.929	208.5
380.155	191.5
380.38	187.5
380.606	194.5
380.831	193.5
381.057	202.5
381.282	200.5
381.507	210.5
381.733	192.5
381.958	194.5
382.184	189.5
382.409	197.5
382.634	204.5
382.86	200.5
383.085	189.5
383.31	204.5
383.535	207.5
383.761	208.5
383.986	220.5
384.211	213.5
384.436	220.5
384.662	231.5
384.887	213.5
385.112	214.5
385.337	229.5
385.562	228.5
385.787	199.5
386.013	233.5
386.238	230.5
386.463	214.5
386.688	204.5
386.913	210.5
387.138	219.5
387.363	228.5
387.588	229.5
387.813	210.5
388.038	245.5
388.263	219.5
388.488	212.5
388.713	215.5
388.938	199.5
389.163	190.5
389.387	206.5
389.612	201.5
389.837	194.5
390.062	215.5
390.287	210.5
390.512	210.5
390.736	226.5
390.961	224.5
391.186	215.5
391.411	228.5
391.636	248.5
391.86	233.5
392.085	249.5
392.31	237.5
392.534	211.5
392.759	224.5
392.984	256.5
393.208	226.5
393.433	225.5
393.658	235.5
393.882	233.5
394.107	227.5
394.331	241.5
394.556	225.5
394.78	235.5
395.005	235.5
395.229	217.5
395.454	231.5
395.678	221.5
395.903	243.5
396.127	225.5
396.352	227.5
396.576	229.5
396.801	226.5
397.025	233.5
397.249	240.5
397.474	237.5
397.698	227.5
397.922	217.5
398.147	233.5
398.371	237.5
398.595	242.5
398.82	263.5
399.044	260.5
399.268	286.5
399.492	333.5
399.717	375.5
399.941	350.5
400.165	333.5
400.389	294.5
400.613	278.5
400.837	261.5
401.062	246.5
401.286	243.5
401.51	253.5
401.734	246.5
401.958	237.5
402.182	260.5
402.406	264.5
402.63	268.5
402.854	258.5
403.078	273.5
403.302	274.5
403.526	288.5
403.75	306.5
403.974	284.5
404.198	296.5
404.422	305.5
404.645	279.5
404.869	283.5
405.093	292.5
405.317	278.5
405.541	276.5
405.765	290.5
405.988	279.5
406.212	293.5
406.436	270.5
406.66	293.5
406.883	279.5
407.107	304.5
407.331	305.5
407.555	318.5
407.778	331.5
408.002	327.5
408.226	310.5
408.449	312.5
408.673	275.5
408.896	275.5
409.12	277.5
409.344	282.5
409.567	258.5
409.791	297.5
410.014	294.5
410.238	285.5
410.461	289.5
410.685	276.5
410.908	279.5
411.132	269.5
411.355	264.5
411.578	256.5
411.802	281.5
412.025	274.5
412.249	248.5
412.472	267.5
412.695	265.5
412.919	251.5
413.142	232.5
413.365	256.5
413.589	245.5
413.812	271.5
414.035	245.5
414.258	247.5
414.482	240.5
414.705	249.5
414.928	252.5
415.151	264.5
415.374	250.5
415.597	246.5
415.821	251.5
416.044	246.5
416.267	251.5
416.49	255.5
416.713	253.5
416.936	240.5
417.159	251.5
417.382	260.5
417.605	254.5
417.828	267.5
418.051	255.5
418.274	277.5
418.497	268.5
418.72	269.5
418.943	263.5
419.166	289.5
419.389	291.5
419.611	271.5
419.834	275.5
420.057	260.5
420.28	278.5
420.503	253.5
420.726	269.5
420.948	266.5
421.171	274.5
421.394	264.5
421.617	266.5
421.839	254.5
422.062	241.5
422.285	231.5
422.507	251.5
422.73	260.5
422.953	266.5
423.175	261.5
423.398	269.5
423.621	259.5
423.843	269.5
424.066	276.5
424.288	266.5
424.511	266.5
424.733	248.5
424.956	252.5
425.178	242.5
425.401	238.5
425.623	264.5
425.846	243.5
426.068	249.5
426.291	243.5
426.513	251.5
426.735	234.5
426.958	254.5
427.18	240.5
427.402	232.5
427.625	231.5
427.847	231.5
428.069	229.5
428.292	235.5
428.514	233.5
428.736	225.5
428.958	219.5
429.181	230.5
429.403	225.5
429.625	227.5
429.847	229.5
430.069	222.5
430.292	236.5
430.514	220.5
430.736	225.5
430.958	224.5
431.18	217.5
431.402	232.5
431.624	236.5
431.846	236.5
432.068	226.5
432.29	237.5
432.512	234.5
432.734	247.5
432.956	238.5
433.178	244.5
433.4	220.5
433.622	245.5
433.844	245.5
434.066	215.5
434.287	228.5
434.509	240.5
434.731	236.5
434.953	237.5
435.175	260.5
435.397	243.5
435.618	255.5
435.84	237.5
436.062	240.5
436.284	221.5
436.505	230.5
436.727	223.5
436.949	242.5
437.17	227.5
437.392	233.5
437.614	221.5
437.835	220.5
438.057	225.5
438.278	222.5
438.5	226.5
438.721	217.5
438.943	226.5
439.165	218.5
439.386	230.5
439.608	216.5
439.829	218.5
440.05	235.5
440.272	232.5
440.493	248.5
440.715	237.5
440.936	230.5
441.158	252.5
441.379	250.5
441.6	264.5
441.822	250.5
442.043	257.5
442.264	257.5
442.486	246.5
442.707	263.5
442.928	242.5
443.149	265.5
443.371	238.5
443.592	244.5
443.813	262.5
444.034	260.5
444.255	260.5
444.476	280.5
444.698	280.5
444.919	311.5
445.14	414.5
445.361	316.5
445.582	253.5
445.803	253.5
446.024	259.5
446.245	240.5
446.466	237.5
446.687	221.5
446.908	233.5
447.129	221.5
447.35	235.5
447.571	220.5
447.792	218.5
448.013	232.5
448.234	233.5
448.455	224.5
448.675	207.5
448.896	212.5
449.117	221.5
449.338	210.5
449.559	208.5
449.779	213.5
450	197.5
450.221	219.5
450.442	228.5
450.662	225.5
450.883	223.5
451.104	226.5
451.324	241.5
451.545	206.5
451.766	206.5
451.986	224.5
452.207	210.5
452.428	209.5
452.648	219.5
452.869	206.5
453.089	199.5
453.31	219.5
453.53	196.5
453.751	222.5
453.971	205.5
454.192	205.5
454.412	233.5
454.633	221.5
454.853	232.5
455.073	208.5
455.294	198.5
455.514	209.5
455.734	212.5
455.955	214.5
456.175	198.5
456.395	228.5
456.616	217.5
456.836	206.5
457.056	200.5
457.276	194.5
457.497	199.5
457.717	206.5
457.937	215.5
458.157	211.5
458.377	220.5
458.598	202.5
458.818	224.5
459.038	219.5
459.258	215.5
459.478	227.5
459.698	231.5
459.918	237.5
460.138	246.5
460.358	266.5
460.578	271.5
460.798	276.5
461.018	275.5
461.238	274.5
461.458	258.5
461.678	264.5
461.898	260.5
462.118	268.5
462.338	265.5
462.558	281.5
462.777	295.5
462.997	309.5
463.217	326.5
463.437	356.5
463.657	301.5
463.876	289.5
464.096	296.5
464.316	301.5
464.536	317.5
464.755	293.5
464.975	278.5
465.195	274.5
465.414	263.5
465.634	256.5
465.854	262.5
466.073	218.5
466.293	227.5
466.512	231.5
466.732	225.5
466.951	249.5
467.171	230.5
467.391	226.5
467.61	242.5
467.829	235.5
468.049	220.5
468.268	234.5
468.488	221.5
468.707	207.5
468.927	216.5
469.146	218.5
469.365	240.5
469.585	236.5
469.804	223.5
470.023	240.5
470.243	230.5
470.462	231.5
470.681	224.5
470.901	253.5
471.12	241.5
471.339	234.5
471.558	241.5
471.777	222.5
471.997	220.5
472.216	220.5
472.435	223.5
472.654	228.5
472.873	207.5
473.092	234.5
473.311	237.5
473.53	211.5
473.749	221.5
473.968	212.5
474.187	206.5
474.406	221.5
474.625	216.5
474.844	240.5
475.063	219.5
475.282	213.5
475.501	220.5
475.72	209.5
475.939	218.5
476.158	229.5
476.377	226.5
476.596	215.5
476.814	224.5
477.033	205.5
477.252	240.5
477.471	234.5
477.69	228.5
477.908	244.5
478.127	253.5
478.346	238.5
478.564	266.5
478.783	249.5
479.002	275.5
479.22	270.5
479.439	256.5
479.658	268.5
479.876	274.5
480.095	260.5
480.313	289.5
480.532	269.5
480.751	292.5
480.969	262.5
481.188	270.5
481.406	254.5
481.624	254.5
481.843	257.5
482.061	257.5
482.28	267.5
482.498	252.5
482.717	236.5
482.935	233.5
483.153	245.5
483.372	240.5
483.59	235.5
483.808	244.5
484.027	252.5
484.245	232.5
484.463	260.5
484.681	256.5
484.9	247.5
485.118	249.5
485.336	250.5
485.554	258.5
485.772	268.5
485.99	255.5
486.209	275.5
486.427	266.5
486.645	273.5
486.863	252.5
487.081	261.5
487.299	271.5
487.517	265.5
487.735	276.5
487.953	261.5
488.171	288.5
488.389	267.5
488.607	265.5
488.825	258.5
489.043	267.5
489.261	248.5
489.479	264.5
489.696	262.5
489.914	240.5
490.132	262.5
490.35	258.5
490.568	270.5
490.786	255.5
491.003	282.5
491.221	260.5
491.439	269.5
491.657	268.5
491.874	256.5
492.092	276.5
492.31	274.5
492.527	265.5
492.745	278.5
492.963	280.5
493.18	256.5
493.398	264.5
493.615	272.5
493.833	292.5
494.05	276.5
494.268	286.5
494.485	260.5
494.703	260.5
494.92	272.5
495.138	264.5
495.355	266.5
495.573	258.5
495.79	268.5
496.008	273.5
496.225	278.5
496.442	277.5
496.66	280.5
496.877	285.5
497.094	266.5
497.312	290.5
497.529	301.5
497.746	298.5
497.963	316.5
498.181	287.5
498.398	330.5
498.615	338.5
498.832	340.5
499.049	385.5
499.267	403.5
499.484	444.5
499.701	489.5
499.918	544.5
500.135	596.5
500.352	683.5
500.569	704.5
500.786	710.5
501.003	681.5
501.22	604.5
501.437	538.5
501.654	446.5
501.871	433.5
502.088	386.5
502.305	385.5
502.522	363.5
502.739	336.5
502.956	337.5
503.172	330.5
503.389	301.5
503.606	300.5
503.823	299.5
504.04	302.5
504.256	298.5
504.473	318.5
504.69	322.5
504.907	327.5
505.123	298.5
505.34	299.5
505.557	283.5
505.773	248.5
505.99	256.5
506.207	272.5
506.423	267.5
506.64	257.5
506.856	240.5
507.073	246.5
507.289	247.5
507.506	255.5
507.722	235.5
507.939	243.5
508.155	244.5
508.372	244.5
508.588	257.5
508.805	248.5
509.021	240.5
509.238	247.5
509.454	234.5
509.67	237.5
509.887	223.5
510.103	221.5
510.319	233.5
510.536	247.5
510.752	232.5
510.968	239.5
511.184	234.5
511.401	247.5
511.617	242.5
511.833	258.5
512.049	238.5
512.265	228.5
512.481	233.5
512.698	233.5
512.914	254.5
513.13	240.5
513.346	250.5
513.562	242.5
513.778	227.5
513.994	230.5
514.21	232.5
514.426	228.5
514.642	248.5
514.858	230.5
515.074	248.5
515.29	244.5
515.506	261.5
515.721	251.5
515.937	269.5
516.153	257.5
516.369	258.5
516.585	275.5
516.801	258.5
517.016	286.5
517.232	289.5
517.448	276.5
517.664	298.5
517.879	294.5
518.095	312.5
518.311	316.5
518.527	288.5
518.742	296.5
518.958	268.5
519.173	275.5
519.389	270.5
519.605	245.5
519.82	246.5
520.036	242.5
520.251	257.5
520.467	245.5
520.682	236.5
520.898	234.5
521.113	256.5
521.329	248.5
