Data from 0.5MCu(NO3)2.Standard.Lamp.E10.CV._HRD10591_16-04-33-752.txt Node
Date: Mon Jul 22 16:04:33 EDT 2019
User: cochatt
Spectrometer: HR+D1059
Trigger mode: 1
Integration Time (sec): 1.000000E-1
Scans to average: 1
Electric dark correction enabled: true
Nonlinearity correction enabled: false
Boxcar width: 0
XAxis mode: Wavelengths
Number of Pixels in Spectrum: 2048
>>>>>Begin Spectral Data<<<<<
223.165	-19.25
223.4	-19.25
223.635	-19.25
223.869	-12.25
224.104	-17.25
224.338	-13.25
224.573	-18.25
224.808	-27.25
225.042	-8.25
225.277	-3.25
225.511	3.75
225.746	3.75
225.98	18.75
226.215	11.75
226.449	7.75
226.683	23.75
226.918	13.75
227.152	35.75
227.387	40.75
227.621	34.75
227.856	30.75
228.09	44.75
228.324	39.75
228.559	34.75
228.793	53.75
229.027	59.75
229.262	63.75
229.496	78.75
229.73	71.75
229.964	85.75
230.199	94.75
230.433	84.75
230.667	76.75
230.901	78.75
231.136	78.75
231.37	86.75
231.604	83.75
231.838	99.75
232.072	94.75
232.306	88.75
232.541	91.75
232.775	90.75
233.009	90.75
233.243	97.75
233.477	88.75
233.711	97.75
233.945	94.75
234.179	91.75
234.413	98.75
234.647	85.75
234.881	96.75
235.115	91.75
235.349	91.75
235.583	93.75
235.817	98.75
236.051	78.75
236.285	78.75
236.519	86.75
236.753	78.75
236.987	89.75
237.221	94.75
237.455	83.75
237.689	98.75
237.922	95.75
238.156	85.75
238.39	82.75
238.624	98.75
238.858	89.75
239.091	87.75
239.325	80.75
239.559	83.75
239.793	96.75
240.027	95.75
240.26	90.75
240.494	90.75
240.728	92.75
240.961	91.75
241.195	86.75
241.429	94.75
241.662	87.75
241.896	88.75
242.13	84.75
242.363	96.75
242.597	99.75
242.83	95.75
243.064	86.75
243.298	92.75
243.531	96.75
243.765	98.75
243.998	101.75
244.232	89.75
244.465	99.75
244.699	96.75
244.932	98.75
245.166	107.75
245.399	110.75
245.633	91.75
245.866	102.75
246.099	104.75
246.333	102.75
246.566	92.75
246.8	107.75
247.033	91.75
247.266	99.75
247.5	105.75
247.733	101.75
247.966	93.75
248.2	97.75
248.433	81.75
248.666	117.75
248.899	113.75
249.133	99.75
249.366	115.75
249.599	103.75
249.832	117.75
250.066	113.75
250.299	106.75
250.532	99.75
250.765	106.75
250.998	118.75
251.231	95.75
251.465	99.75
251.698	105.75
251.931	96.75
252.164	115.75
252.397	123.75
252.63	119.75
252.863	114.75
253.096	96.75
253.329	107.75
253.562	120.75
253.795	102.75
254.028	106.75
254.261	117.75
254.494	109.75
254.727	97.75
254.96	117.75
255.193	116.75
255.426	106.75
255.659	104.75
255.892	103.75
256.124	121.75
256.357	121.75
256.59	123.75
256.823	109.75
257.056	111.75
257.289	131.75
257.521	127.75
257.754	128.75
257.987	120.75
258.22	115.75
258.452	118.75
258.685	117.75
258.918	128.75
259.151	120.75
259.383	115.75
259.616	132.75
259.849	121.75
260.081	99.75
260.314	121.75
260.547	115.75
260.779	113.75
261.012	115.75
261.244	104.75
261.477	129.75
261.71	127.75
261.942	125.75
262.175	115.75
262.407	114.75
262.64	122.75
262.872	135.75
263.105	138.75
263.337	123.75
263.57	115.75
263.802	131.75
264.035	140.75
264.267	101.75
264.499	129.75
264.732	131.75
264.964	134.75
265.197	128.75
265.429	112.75
265.661	128.75
265.894	126.75
266.126	130.75
266.358	137.75
266.591	122.75
266.823	130.75
267.055	123.75
267.287	133.75
267.52	131.75
267.752	127.75
267.984	127.75
268.216	119.75
268.448	126.75
268.681	127.75
268.913	130.75
269.145	137.75
269.377	137.75
269.609	129.75
269.841	131.75
270.073	128.75
270.306	127.75
270.538	133.75
270.77	127.75
271.002	130.75
271.234	138.75
271.466	126.75
271.698	122.75
271.93	126.75
272.162	124.75
272.394	143.75
272.626	129.75
272.858	139.75
273.09	125.75
273.322	142.75
273.553	143.75
273.785	147.75
274.017	125.75
274.249	137.75
274.481	124.75
274.713	142.75
274.945	143.75
275.176	133.75
275.408	137.75
275.64	133.75
275.872	125.75
276.104	139.75
276.335	139.75
276.567	141.75
276.799	140.75
277.031	147.75
277.262	139.75
277.494	148.75
277.726	130.75
277.957	133.75
278.189	135.75
278.421	152.75
278.652	141.75
278.884	145.75
279.115	142.75
279.347	146.75
279.579	148.75
279.81	168.75
280.042	149.75
280.273	149.75
280.505	141.75
280.736	146.75
280.968	137.75
281.199	151.75
281.431	145.75
281.662	156.75
281.894	145.75
282.125	150.75
282.356	168.75
282.588	131.75
282.819	159.75
283.051	165.75
283.282	150.75
283.513	147.75
283.745	143.75
283.976	147.75
284.207	158.75
284.439	153.75
284.67	163.75
284.901	154.75
285.132	182.75
285.364	157.75
285.595	153.75
285.826	162.75
286.057	167.75
286.288	166.75
286.52	149.75
286.751	148.75
286.982	171.75
287.213	149.75
287.444	149.75
287.675	155.75
287.906	163.75
288.138	164.75
288.369	165.75
288.6	156.75
288.831	151.75
289.062	171.75
289.293	189.75
289.524	154.75
289.755	149.75
289.986	167.75
290.217	155.75
290.448	150.75
290.679	160.75
290.91	160.75
291.141	158.75
291.371	154.75
291.602	172.75
291.833	169.75
292.064	156.75
292.295	173.75
292.526	162.75
292.757	172.75
292.987	155.75
293.218	161.75
293.449	156.75
293.68	154.75
293.91	154.75
294.141	169.75
294.372	177.75
294.603	165.75
294.833	161.75
295.064	175.75
295.295	163.75
295.525	153.75
295.756	162.75
295.987	165.75
296.217	173.75
296.448	174.75
296.679	164.75
296.909	164.75
297.14	187.75
297.37	175.75
297.601	173.75
297.831	167.75
298.062	185.75
298.292	184.75
298.523	180.75
298.753	186.75
298.984	169.75
299.214	181.75
299.445	185.75
299.675	165.75
299.905	157.75
300.136	175.75
300.366	192.75
300.597	175.75
300.827	166.75
301.057	166.75
301.288	175.75
301.518	192.75
301.748	188.75
301.979	195.75
302.209	178.75
302.439	174.75
302.669	173.75
302.9	172.75
303.13	186.75
303.36	189.75
303.59	178.75
303.82	175.75
304.051	184.75
304.281	173.75
304.511	184.75
304.741	180.75
304.971	190.75
305.201	177.75
305.431	166.75
305.661	177.75
305.891	189.75
306.121	181.75
306.352	177.75
306.582	181.75
306.812	161.75
307.042	165.75
307.272	183.75
307.502	164.75
307.731	167.75
307.961	199.75
308.191	182.75
308.421	175.75
308.651	173.75
308.881	172.75
309.111	169.75
309.341	178.75
309.571	172.75
309.8	181.75
310.03	167.75
310.26	172.75
310.49	158.75
310.72	188.75
310.949	177.75
311.179	175.75
311.409	167.75
311.639	169.75
311.868	173.75
312.098	182.75
312.328	185.75
312.557	175.75
312.787	189.75
313.017	198.75
313.246	186.75
313.476	207.75
313.706	194.75
313.935	174.75
314.165	187.75
314.394	197.75
314.624	185.75
314.853	181.75
315.083	182.75
315.312	190.75
315.542	178.75
315.771	189.75
316.001	202.75
316.23	186.75
316.46	177.75
316.689	189.75
316.919	165.75
317.148	194.75
317.377	181.75
317.607	183.75
317.836	178.75
318.065	172.75
318.295	170.75
318.524	186.75
318.753	161.75
318.983	165.75
319.212	202.75
319.441	190.75
319.67	185.75
319.9	197.75
320.129	165.75
320.358	187.75
320.587	193.75
320.816	178.75
321.046	163.75
321.275	177.75
321.504	187.75
321.733	186.75
321.962	175.75
322.191	175.75
322.42	187.75
322.649	183.75
322.878	193.75
323.108	186.75
323.337	182.75
323.566	176.75
323.795	173.75
324.024	187.75
324.253	190.75
324.482	184.75
324.71	183.75
324.939	204.75
325.168	189.75
325.397	207.75
325.626	194.75
325.855	187.75
326.084	206.75
326.313	188.75
326.542	199.75
326.77	191.75
326.999	196.75
327.228	188.75
327.457	199.75
327.686	189.75
327.914	202.75
328.143	188.75
328.372	204.75
328.6	201.75
328.829	208.75
329.058	196.75
329.287	190.75
329.515	192.75
329.744	217.75
329.972	190.75
330.201	197.75
330.43	202.75
330.658	197.75
330.887	199.75
331.115	211.75
331.344	190.75
331.572	213.75
331.801	202.75
332.03	213.75
332.258	199.75
332.486	214.75
332.715	210.75
332.943	225.75
333.172	238.75
333.4	237.75
333.629	246.75
333.857	249.75
334.085	247.75
334.314	241.75
334.542	231.75
334.771	234.75
334.999	238.75
335.227	233.75
335.455	234.75
335.684	216.75
335.912	227.75
336.14	223.75
336.369	231.75
336.597	222.75
336.825	211.75
337.053	220.75
337.281	227.75
337.51	201.75
337.738	220.75
337.966	221.75
338.194	203.75
338.422	201.75
338.65	201.75
338.878	208.75
339.106	213.75
339.334	210.75
339.562	191.75
339.79	204.75
340.018	214.75
340.246	206.75
340.474	213.75
340.702	203.75
340.93	211.75
341.158	210.75
341.386	208.75
341.614	206.75
341.842	198.75
342.07	194.75
342.298	200.75
342.526	188.75
342.754	196.75
342.981	209.75
343.209	199.75
343.437	215.75
343.665	202.75
343.893	227.75
344.12	228.75
344.348	217.75
344.576	222.75
344.804	215.75
345.031	212.75
345.259	208.75
345.487	209.75
345.714	189.75
345.942	201.75
346.17	195.75
346.397	201.75
346.625	204.75
346.853	206.75
347.08	191.75
347.308	190.75
347.535	216.75
347.763	207.75
347.99	201.75
348.218	204.75
348.445	195.75
348.673	198.75
348.9	186.75
349.128	200.75
349.355	189.75
349.583	195.75
349.81	189.75
350.037	185.75
350.265	206.75
350.492	195.75
350.72	167.75
350.947	176.75
351.174	204.75
351.402	179.75
351.629	195.75
351.856	184.75
352.083	194.75
352.311	195.75
352.538	185.75
352.765	190.75
352.992	186.75
353.22	180.75
353.447	177.75
353.674	189.75
353.901	191.75
354.128	186.75
354.355	188.75
354.583	190.75
354.81	192.75
355.037	192.75
355.264	187.75
355.491	182.75
355.718	195.75
355.945	193.75
356.172	198.75
356.399	214.75
356.626	204.75
356.853	202.75
357.08	184.75
357.307	180.75
357.534	192.75
357.761	185.75
357.988	213.75
358.215	187.75
358.441	189.75
358.668	177.75
358.895	189.75
359.122	187.75
359.349	207.75
359.576	188.75
359.802	198.75
360.029	185.75
360.256	193.75
360.483	205.75
360.709	188.75
360.936	194.75
361.163	187.75
361.39	185.75
361.616	191.75
361.843	190.75
362.07	173.75
362.296	186.75
362.523	202.75
362.749	192.75
362.976	191.75
363.203	197.75
363.429	185.75
363.656	172.75
363.882	180.75
364.109	205.75
364.335	193.75
364.562	187.75
364.788	189.75
365.015	183.75
365.241	198.75
365.468	187.75
365.694	204.75
365.92	205.75
366.147	183.75
366.373	192.75
366.599	179.75
366.826	181.75
367.052	181.75
367.278	181.75
367.505	182.75
367.731	184.75
367.957	189.75
368.184	176.75
368.41	185.75
368.636	182.75
368.862	181.75
369.089	195.75
369.315	205.75
369.541	206.75
369.767	204.75
369.993	188.75
370.219	195.75
370.445	198.75
370.672	192.75
370.898	215.75
371.124	200.75
371.35	190.75
371.576	202.75
371.802	197.75
372.028	205.75
372.254	193.75
372.48	194.75
372.706	218.75
372.932	210.75
373.158	202.75
373.384	203.75
373.61	213.75
373.835	199.75
374.061	199.75
374.287	198.75
374.513	201.75
374.739	215.75
374.965	220.75
375.191	213.75
375.416	223.75
375.642	208.75
375.868	207.75
376.094	216.75
376.319	206.75
376.545	189.75
376.771	204.75
376.997	204.75
377.222	183.75
377.448	214.75
377.674	207.75
377.899	194.75
378.125	197.75
378.35	204.75
378.576	186.75
378.802	209.75
379.027	215.75
379.253	211.75
379.478	199.75
379.704	182.75
379.929	193.75
380.155	197.75
380.38	199.75
380.606	184.75
380.831	192.75
381.057	205.75
381.282	190.75
381.507	205.75
381.733	214.75
381.958	211.75
382.184	216.75
382.409	194.75
382.634	223.75
382.86	207.75
383.085	218.75
383.31	225.75
383.535	207.75
383.761	219.75
383.986	216.75
384.211	219.75
384.436	235.75
384.662	231.75
384.887	235.75
385.112	233.75
385.337	227.75
385.562	231.75
385.787	250.75
386.013	239.75
386.238	224.75
386.463	227.75
386.688	214.75
386.913	236.75
387.138	228.75
387.363	221.75
387.588	214.75
387.813	224.75
388.038	224.75
388.263	234.75
388.488	229.75
388.713	225.75
388.938	232.75
389.163	227.75
389.387	221.75
389.612	218.75
389.837	215.75
390.062	223.75
390.287	227.75
390.512	236.75
390.736	221.75
390.961	229.75
391.186	211.75
391.411	247.75
391.636	246.75
391.86	251.75
392.085	238.75
392.31	254.75
392.534	247.75
392.759	248.75
392.984	243.75
393.208	233.75
393.433	241.75
393.658	229.75
393.882	236.75
394.107	226.75
394.331	238.75
394.556	232.75
394.78	246.75
395.005	244.75
395.229	265.75
395.454	255.75
395.678	247.75
395.903	264.75
396.127	246.75
396.352	246.75
396.576	251.75
396.801	241.75
397.025	234.75
397.249	237.75
397.474	241.75
397.698	267.75
397.922	251.75
398.147	230.75
398.371	247.75
398.595	257.75
398.82	281.75
399.044	258.75
399.268	301.75
399.492	353.75
399.717	369.75
399.941	370.75
400.165	335.75
400.389	313.75
400.613	279.75
400.837	290.75
401.062	265.75
401.286	271.75
401.51	277.75
401.734	247.75
401.958	272.75
402.182	279.75
402.406	286.75
402.63	284.75
402.854	301.75
403.078	293.75
403.302	288.75
403.526	307.75
403.75	291.75
403.974	291.75
404.198	316.75
404.422	327.75
404.645	307.75
404.869	298.75
405.093	291.75
405.317	286.75
405.541	286.75
405.765	288.75
405.988	286.75
406.212	293.75
406.436	294.75
406.66	286.75
406.883	299.75
407.107	299.75
407.331	303.75
407.555	343.75
407.778	320.75
408.002	329.75
408.226	320.75
408.449	319.75
408.673	291.75
408.896	295.75
409.12	290.75
409.344	302.75
409.567	295.75
409.791	317.75
410.014	300.75
410.238	301.75
410.461	299.75
410.685	293.75
410.908	301.75
411.132	290.75
411.355	278.75
411.578	272.75
411.802	279.75
412.025	289.75
412.249	274.75
412.472	264.75
412.695	258.75
412.919	263.75
413.142	258.75
413.365	254.75
413.589	281.75
413.812	267.75
414.035	256.75
414.258	254.75
414.482	259.75
414.705	275.75
414.928	270.75
415.151	260.75
415.374	276.75
415.597	261.75
415.821	268.75
416.044	272.75
416.267	269.75
416.49	257.75
416.713	261.75
416.936	281.75
417.159	260.75
417.382	264.75
417.605	255.75
417.828	263.75
418.051	270.75
418.274	265.75
418.497	266.75
418.72	258.75
418.943	293.75
419.166	283.75
419.389	289.75
419.611	289.75
419.834	282.75
420.057	281.75
420.28	297.75
420.503	262.75
420.726	252.75
420.948	267.75
421.171	271.75
421.394	265.75
421.617	273.75
421.839	264.75
422.062	252.75
422.285	261.75
422.507	265.75
422.73	276.75
422.953	279.75
423.175	277.75
423.398	266.75
423.621	279.75
423.843	279.75
424.066	289.75
424.288	281.75
424.511	283.75
424.733	257.75
424.956	271.75
425.178	274.75
425.401	269.75
425.623	276.75
425.846	261.75
426.068	271.75
426.291	272.75
426.513	264.75
426.735	245.75
426.958	253.75
427.18	241.75
427.402	228.75
427.625	241.75
427.847	246.75
428.069	238.75
428.292	261.75
428.514	235.75
428.736	230.75
428.958	230.75
429.181	245.75
429.403	251.75
429.625	232.75
429.847	213.75
430.069	221.75
430.292	220.75
430.514	236.75
430.736	238.75
430.958	236.75
431.18	238.75
431.402	236.75
431.624	252.75
431.846	228.75
432.068	222.75
432.29	245.75
432.512	250.75
432.734	246.75
432.956	243.75
433.178	242.75
433.4	258.75
433.622	241.75
433.844	251.75
434.066	239.75
434.287	265.75
434.509	259.75
434.731	259.75
434.953	285.75
435.175	251.75
435.397	269.75
435.618	250.75
435.84	247.75
436.062	251.75
436.284	219.75
436.505	240.75
436.727	241.75
436.949	243.75
437.17	257.75
437.392	243.75
437.614	261.75
437.835	243.75
438.057	218.75
438.278	230.75
438.5	233.75
438.721	245.75
438.943	239.75
439.165	244.75
439.386	253.75
439.608	248.75
439.829	252.75
440.05	233.75
440.272	249.75
440.493	252.75
440.715	244.75
440.936	239.75
441.158	267.75
441.379	272.75
441.6	265.75
441.822	278.75
442.043	269.75
442.264	266.75
442.486	260.75
442.707	275.75
442.928	257.75
443.149	267.75
443.371	264.75
443.592	254.75
443.813	267.75
444.034	271.75
444.255	285.75
444.476	281.75
444.698	307.75
444.919	303.75
445.14	420.75
445.361	334.75
445.582	292.75
445.803	261.75
446.024	250.75
446.245	251.75
446.466	263.75
446.687	245.75
446.908	235.75
447.129	242.75
447.35	245.75
447.571	231.75
447.792	249.75
448.013	243.75
448.234	225.75
448.455	241.75
448.675	221.75
448.896	229.75
449.117	230.75
449.338	225.75
449.559	219.75
449.779	220.75
450	229.75
450.221	218.75
450.442	232.75
450.662	229.75
450.883	243.75
451.104	227.75
451.324	225.75
451.545	227.75
451.766	243.75
451.986	234.75
452.207	238.75
452.428	232.75
452.648	226.75
452.869	229.75
453.089	235.75
453.31	220.75
453.53	211.75
453.751	222.75
453.971	223.75
454.192	226.75
454.412	206.75
454.633	220.75
454.853	222.75
455.073	217.75
455.294	217.75
455.514	224.75
455.734	216.75
455.955	214.75
456.175	229.75
456.395	219.75
456.616	215.75
456.836	216.75
457.056	238.75
457.276	214.75
457.497	218.75
457.717	209.75
457.937	225.75
458.157	228.75
458.377	220.75
458.598	228.75
458.818	234.75
459.038	253.75
459.258	258.75
459.478	268.75
459.698	265.75
459.918	261.75
460.138	261.75
460.358	290.75
460.578	285.75
460.798	265.75
461.018	263.75
461.238	261.75
461.458	282.75
461.678	273.75
461.898	281.75
462.118	290.75
462.338	291.75
462.558	308.75
462.777	317.75
462.997	339.75
463.217	375.75
463.437	373.75
463.657	346.75
463.876	327.75
464.096	328.75
464.316	311.75
464.536	322.75
464.755	332.75
464.975	291.75
465.195	285.75
465.414	275.75
465.634	245.75
465.854	270.75
466.073	243.75
466.293	238.75
466.512	245.75
466.732	234.75
466.951	239.75
467.171	241.75
467.391	239.75
467.61	238.75
467.829	233.75
468.049	218.75
468.268	236.75
468.488	232.75
468.707	222.75
468.927	206.75
469.146	225.75
469.365	237.75
469.585	240.75
469.804	249.75
470.023	235.75
470.243	228.75
470.462	251.75
470.681	246.75
470.901	263.75
471.12	258.75
471.339	241.75
471.558	229.75
471.777	239.75
471.997	242.75
472.216	246.75
472.435	223.75
472.654	228.75
472.873	207.75
473.092	219.75
473.311	228.75
473.53	221.75
473.749	233.75
473.968	228.75
474.187	236.75
474.406	226.75
474.625	235.75
474.844	227.75
475.063	234.75
475.282	214.75
475.501	224.75
475.72	236.75
475.939	225.75
476.158	233.75
476.377	244.75
476.596	226.75
476.814	248.75
477.033	244.75
477.252	263.75
477.471	217.75
477.69	238.75
477.908	246.75
478.127	252.75
478.346	262.75
478.564	262.75
478.783	261.75
479.002	277.75
479.22	279.75
479.439	283.75
479.658	261.75
479.876	275.75
480.095	289.75
480.313	298.75
480.532	289.75
480.751	277.75
480.969	278.75
481.188	282.75
481.406	276.75
481.624	253.75
481.843	253.75
482.061	249.75
482.28	255.75
482.498	268.75
482.717	259.75
482.935	259.75
483.153	247.75
483.372	267.75
483.59	255.75
483.808	265.75
484.027	260.75
484.245	274.75
484.463	265.75
484.681	280.75
484.9	270.75
485.118	278.75
485.336	261.75
485.554	273.75
485.772	265.75
485.99	273.75
486.209	262.75
486.427	284.75
486.645	267.75
486.863	281.75
487.081	268.75
487.299	262.75
487.517	270.75
487.735	298.75
487.953	281.75
488.171	276.75
488.389	276.75
488.607	246.75
488.825	285.75
489.043	274.75
489.261	285.75
489.479	257.75
489.696	269.75
489.914	272.75
490.132	276.75
490.35	245.75
490.568	253.75
490.786	263.75
491.003	281.75
491.221	271.75
491.439	265.75
491.657	283.75
491.874	286.75
492.092	266.75
492.31	280.75
492.527	264.75
492.745	273.75
492.963	289.75
493.18	288.75
493.398	300.75
493.615	287.75
493.833	267.75
494.05	274.75
494.268	287.75
494.485	277.75
494.703	279.75
494.92	287.75
495.138	274.75
495.355	294.75
495.573	284.75
495.79	305.75
496.008	285.75
496.225	292.75
496.442	298.75
496.66	302.75
496.877	297.75
497.094	294.75
497.312	318.75
497.529	315.75
497.746	303.75
497.963	320.75
498.181	321.75
498.398	333.75
498.615	358.75
498.832	377.75
499.049	399.75
499.267	419.75
499.484	460.75
499.701	506.75
499.918	568.75
500.135	669.75
500.352	738.75
500.569	771.75
500.786	781.75
501.003	704.75
501.22	642.75
501.437	572.75
501.654	491.75
501.871	465.75
502.088	426.75
502.305	416.75
502.522	382.75
502.739	367.75
502.956	348.75
503.172	336.75
503.389	309.75
