Data from 0.5MCu(NO3)2.Standard.Lamp.E10.CV._HRD10591_16-05-04-753.txt Node
Date: Mon Jul 22 16:05:04 EDT 2019
User: cochatt
Spectrometer: HR+D1059
Trigger mode: 1
Integration Time (sec): 1.000000E-1
Scans to average: 1
Electric dark correction enabled: true
Nonlinearity correction enabled: false
Boxcar width: 0
XAxis mode: Wavelengths
Number of Pixels in Spectrum: 2048
>>>>>Begin Spectral Data<<<<<
223.165	-19.88
223.4	-19.88
223.635	-19.88
223.869	-0.88
224.104	-22.88
224.338	-16.88
224.573	-11.88
224.808	1.12
225.042	-19.88
225.277	-10.88
225.511	-5.88
225.746	16.12
225.98	10.12
226.215	8.12
226.449	16.12
226.683	18.12
226.918	15.12
227.152	24.12
227.387	12.12
227.621	37.12
227.856	35.12
228.09	56.12
228.324	33.12
228.559	52.12
228.793	45.12
229.027	67.12
229.262	72.12
229.496	67.12
229.73	80.12
229.964	78.12
230.199	97.12
230.433	87.12
230.667	78.12
230.901	91.12
231.136	81.12
231.37	78.12
231.604	67.12
231.838	84.12
232.072	89.12
232.306	95.12
232.541	93.12
232.775	95.12
233.009	88.12
233.243	102.12
233.477	87.12
233.711	92.12
233.945	86.12
234.179	92.12
234.413	100.12
234.647	94.12
234.881	86.12
235.115	77.12
235.349	93.12
235.583	85.12
235.817	101.12
236.051	79.12
236.285	87.12
236.519	82.12
236.753	93.12
236.987	84.12
237.221	77.12
237.455	91.12
237.689	88.12
237.922	79.12
238.156	88.12
238.39	92.12
238.624	84.12
238.858	101.12
239.091	87.12
239.325	78.12
239.559	88.12
239.793	82.12
240.027	87.12
240.26	90.12
240.494	106.12
240.728	89.12
240.961	98.12
241.195	91.12
241.429	94.12
241.662	91.12
241.896	89.12
242.13	91.12
242.363	96.12
242.597	86.12
242.83	96.12
243.064	95.12
243.298	91.12
243.531	105.12
243.765	119.12
243.998	97.12
244.232	92.12
244.465	113.12
244.699	88.12
244.932	88.12
245.166	97.12
245.399	92.12
245.633	101.12
245.866	89.12
246.099	93.12
246.333	100.12
246.566	97.12
246.8	88.12
247.033	111.12
247.266	99.12
247.5	108.12
247.733	97.12
247.966	91.12
248.2	119.12
248.433	109.12
248.666	89.12
248.899	111.12
249.133	113.12
249.366	102.12
249.599	96.12
249.832	108.12
250.066	113.12
250.299	112.12
250.532	111.12
250.765	93.12
250.998	105.12
251.231	92.12
251.465	109.12
251.698	115.12
251.931	107.12
252.164	115.12
252.397	124.12
252.63	107.12
252.863	101.12
253.096	110.12
253.329	110.12
253.562	114.12
253.795	107.12
254.028	104.12
254.261	116.12
254.494	115.12
254.727	105.12
254.96	121.12
255.193	111.12
255.426	107.12
255.659	97.12
255.892	106.12
256.124	113.12
256.357	103.12
256.59	127.12
256.823	122.12
257.056	113.12
257.289	113.12
257.521	121.12
257.754	115.12
257.987	111.12
258.22	102.12
258.452	115.12
258.685	119.12
258.918	107.12
259.151	124.12
259.383	121.12
259.616	119.12
259.849	125.12
260.081	133.12
260.314	121.12
260.547	126.12
260.779	118.12
261.012	125.12
261.244	123.12
261.477	121.12
261.71	110.12
261.942	123.12
262.175	123.12
262.407	133.12
262.64	109.12
262.872	122.12
263.105	131.12
263.337	126.12
263.57	118.12
263.802	114.12
264.035	131.12
264.267	122.12
264.499	131.12
264.732	113.12
264.964	117.12
265.197	116.12
265.429	126.12
265.661	124.12
265.894	118.12
266.126	151.12
266.358	129.12
266.591	117.12
266.823	120.12
267.055	126.12
267.287	126.12
267.52	123.12
267.752	133.12
267.984	116.12
268.216	118.12
268.448	135.12
268.681	133.12
268.913	121.12
269.145	124.12
269.377	138.12
269.609	149.12
269.841	124.12
270.073	131.12
270.306	123.12
270.538	134.12
270.77	153.12
271.002	145.12
271.234	147.12
271.466	141.12
271.698	127.12
271.93	118.12
272.162	133.12
272.394	129.12
272.626	128.12
272.858	129.12
273.09	143.12
273.322	133.12
273.553	144.12
273.785	141.12
274.017	144.12
274.249	151.12
274.481	147.12
274.713	137.12
274.945	146.12
275.176	166.12
275.408	147.12
275.64	143.12
275.872	141.12
276.104	134.12
276.335	129.12
276.567	138.12
276.799	143.12
277.031	129.12
277.262	134.12
277.494	137.12
277.726	133.12
277.957	139.12
278.189	132.12
278.421	145.12
278.652	151.12
278.884	152.12
279.115	149.12
279.347	153.12
279.579	143.12
279.81	136.12
280.042	140.12
280.273	143.12
280.505	133.12
280.736	141.12
280.968	143.12
281.199	143.12
281.431	157.12
281.662	139.12
281.894	150.12
282.125	153.12
282.356	148.12
282.588	139.12
282.819	144.12
283.051	159.12
283.282	146.12
283.513	136.12
283.745	139.12
283.976	143.12
284.207	149.12
284.439	159.12
284.67	145.12
284.901	155.12
285.132	157.12
285.364	156.12
285.595	165.12
285.826	170.12
286.057	147.12
286.288	154.12
286.52	145.12
286.751	157.12
286.982	162.12
287.213	156.12
287.444	152.12
287.675	156.12
287.906	155.12
288.138	138.12
288.369	153.12
288.6	161.12
288.831	168.12
289.062	161.12
289.293	163.12
289.524	150.12
289.755	153.12
289.986	151.12
290.217	145.12
290.448	160.12
290.679	142.12
290.91	168.12
291.141	166.12
291.371	166.12
291.602	167.12
291.833	149.12
292.064	176.12
292.295	157.12
292.526	148.12
292.757	154.12
292.987	157.12
293.218	162.12
293.449	167.12
293.68	167.12
293.91	168.12
294.141	177.12
294.372	161.12
294.603	158.12
294.833	166.12
295.064	161.12
295.295	162.12
295.525	163.12
295.756	169.12
295.987	179.12
296.217	163.12
296.448	165.12
296.679	182.12
296.909	186.12
297.14	182.12
297.37	171.12
297.601	171.12
297.831	184.12
298.062	185.12
298.292	175.12
298.523	192.12
298.753	176.12
298.984	171.12
299.214	185.12
299.445	177.12
299.675	199.12
299.905	178.12
300.136	185.12
300.366	173.12
300.597	185.12
300.827	186.12
301.057	196.12
301.288	170.12
301.518	187.12
301.748	185.12
301.979	182.12
302.209	183.12
302.439	184.12
302.669	188.12
302.9	166.12
303.13	173.12
303.36	183.12
303.59	189.12
303.82	181.12
304.051	190.12
304.281	195.12
304.511	177.12
304.741	172.12
304.971	169.12
305.201	175.12
305.431	168.12
305.661	167.12
305.891	181.12
306.121	166.12
306.352	181.12
306.582	161.12
306.812	182.12
307.042	188.12
307.272	183.12
307.502	173.12
307.731	175.12
307.961	193.12
308.191	180.12
308.421	177.12
308.651	192.12
308.881	166.12
309.111	174.12
309.341	177.12
309.571	177.12
309.8	182.12
310.03	175.12
310.26	188.12
310.49	189.12
310.72	175.12
310.949	163.12
311.179	163.12
311.409	186.12
311.639	182.12
311.868	189.12
312.098	177.12
312.328	182.12
312.557	187.12
312.787	179.12
313.017	182.12
313.246	181.12
313.476	175.12
313.706	183.12
313.935	183.12
314.165	189.12
314.394	190.12
314.624	198.12
314.853	184.12
315.083	192.12
315.312	185.12
315.542	181.12
315.771	184.12
316.001	185.12
316.23	189.12
316.46	181.12
316.689	184.12
316.919	174.12
317.148	181.12
317.377	194.12
317.607	173.12
317.836	173.12
318.065	184.12
318.295	183.12
318.524	170.12
318.753	172.12
318.983	174.12
319.212	180.12
319.441	194.12
319.67	173.12
319.9	187.12
320.129	184.12
320.358	181.12
320.587	190.12
320.816	185.12
321.046	174.12
321.275	170.12
321.504	166.12
321.733	182.12
321.962	186.12
322.191	190.12
322.42	181.12
322.649	193.12
322.878	181.12
323.108	168.12
323.337	196.12
323.566	167.12
323.795	195.12
324.024	185.12
324.253	182.12
324.482	195.12
324.71	186.12
324.939	202.12
325.168	186.12
325.397	183.12
325.626	183.12
325.855	207.12
326.084	196.12
326.313	194.12
326.542	229.12
326.77	199.12
326.999	189.12
327.228	194.12
327.457	195.12
327.686	191.12
327.914	195.12
328.143	199.12
328.372	196.12
328.6	187.12
328.829	197.12
329.058	172.12
329.287	187.12
329.515	199.12
329.744	199.12
329.972	186.12
330.201	195.12
330.43	201.12
330.658	192.12
330.887	191.12
331.115	192.12
331.344	199.12
331.572	196.12
331.801	220.12
332.03	206.12
332.258	203.12
332.486	229.12
332.715	220.12
332.943	228.12
333.172	224.12
333.4	231.12
333.629	253.12
333.857	250.12
334.085	236.12
334.314	239.12
334.542	222.12
334.771	228.12
334.999	229.12
335.227	239.12
335.455	219.12
335.684	238.12
335.912	216.12
336.14	205.12
336.369	213.12
336.597	232.12
336.825	219.12
337.053	208.12
337.281	218.12
337.51	196.12
337.738	205.12
337.966	198.12
338.194	219.12
338.422	220.12
338.65	211.12
338.878	210.12
339.106	201.12
339.334	206.12
339.562	203.12
339.79	216.12
340.018	188.12
340.246	191.12
340.474	207.12
340.702	213.12
340.93	203.12
341.158	195.12
341.386	202.12
341.614	181.12
341.842	193.12
342.07	201.12
342.298	194.12
342.526	202.12
342.754	197.12
342.981	197.12
343.209	199.12
343.437	197.12
343.665	206.12
343.893	227.12
344.12	242.12
344.348	222.12
344.576	232.12
344.804	214.12
345.031	195.12
345.259	195.12
345.487	203.12
345.714	179.12
345.942	198.12
346.17	185.12
346.397	185.12
346.625	191.12
346.853	197.12
347.08	195.12
347.308	205.12
347.535	211.12
347.763	203.12
347.99	209.12
348.218	199.12
348.445	197.12
348.673	198.12
348.9	179.12
349.128	193.12
349.355	190.12
349.583	197.12
349.81	201.12
350.037	189.12
350.265	183.12
350.492	179.12
350.72	197.12
350.947	194.12
351.174	192.12
351.402	186.12
351.629	185.12
351.856	183.12
352.083	175.12
352.311	195.12
352.538	191.12
352.765	194.12
352.992	189.12
353.22	178.12
353.447	183.12
353.674	181.12
353.901	192.12
354.128	181.12
354.355	184.12
354.583	195.12
354.81	207.12
355.037	200.12
355.264	177.12
355.491	182.12
355.718	172.12
355.945	196.12
356.172	181.12
356.399	200.12
356.626	201.12
356.853	200.12
357.08	198.12
357.307	190.12
357.534	187.12
357.761	185.12
357.988	207.12
358.215	195.12
358.441	199.12
358.668	184.12
358.895	187.12
359.122	184.12
359.349	179.12
359.576	183.12
359.802	191.12
360.029	198.12
360.256	185.12
360.483	187.12
360.709	187.12
360.936	184.12
361.163	188.12
361.39	177.12
361.616	190.12
361.843	193.12
362.07	185.12
362.296	183.12
362.523	193.12
362.749	188.12
362.976	198.12
363.203	188.12
363.429	188.12
363.656	191.12
363.882	173.12
364.109	175.12
364.335	203.12
364.562	204.12
364.788	200.12
365.015	183.12
365.241	184.12
365.468	205.12
365.694	174.12
365.92	187.12
366.147	205.12
366.373	183.12
366.599	202.12
366.826	183.12
367.052	188.12
367.278	198.12
367.505	203.12
367.731	186.12
367.957	184.12
368.184	185.12
368.41	196.12
368.636	187.12
368.862	193.12
369.089	181.12
369.315	203.12
369.541	187.12
369.767	185.12
369.993	196.12
370.219	181.12
370.445	175.12
370.672	190.12
370.898	186.12
371.124	197.12
371.35	206.12
371.576	201.12
371.802	187.12
372.028	201.12
372.254	207.12
372.48	190.12
372.706	212.12
372.932	209.12
373.158	212.12
373.384	217.12
373.61	211.12
373.835	192.12
374.061	205.12
374.287	220.12
374.513	205.12
374.739	202.12
374.965	209.12
375.191	225.12
375.416	221.12
375.642	202.12
375.868	214.12
376.094	206.12
376.319	221.12
376.545	211.12
376.771	194.12
376.997	201.12
377.222	215.12
377.448	197.12
377.674	199.12
377.899	205.12
378.125	199.12
378.35	180.12
378.576	191.12
378.802	210.12
379.027	196.12
379.253	204.12
379.478	195.12
379.704	197.12
379.929	184.12
380.155	189.12
380.38	191.12
380.606	205.12
380.831	211.12
381.057	205.12
381.282	192.12
381.507	199.12
381.733	209.12
381.958	205.12
382.184	189.12
382.409	207.12
382.634	211.12
382.86	199.12
383.085	219.12
383.31	204.12
383.535	203.12
383.761	210.12
383.986	215.12
384.211	206.12
384.436	227.12
384.662	251.12
384.887	232.12
385.112	226.12
385.337	240.12
385.562	225.12
385.787	244.12
386.013	233.12
386.238	226.12
386.463	223.12
386.688	205.12
386.913	202.12
387.138	226.12
387.363	205.12
387.588	220.12
387.813	227.12
388.038	227.12
388.263	213.12
388.488	213.12
388.713	215.12
388.938	232.12
389.163	220.12
389.387	218.12
389.612	225.12
389.837	215.12
390.062	221.12
390.287	220.12
390.512	212.12
390.736	201.12
390.961	223.12
391.186	228.12
391.411	238.12
391.636	247.12
391.86	247.12
392.085	238.12
392.31	270.12
392.534	252.12
392.759	239.12
392.984	233.12
393.208	243.12
393.433	239.12
393.658	239.12
393.882	228.12
394.107	229.12
394.331	244.12
394.556	246.12
394.78	237.12
395.005	242.12
395.229	242.12
395.454	235.12
395.678	242.12
395.903	255.12
396.127	237.12
396.352	244.12
396.576	233.12
396.801	235.12
397.025	230.12
397.249	252.12
397.474	245.12
397.698	243.12
397.922	230.12
398.147	238.12
398.371	238.12
398.595	239.12
398.82	252.12
399.044	282.12
399.268	297.12
399.492	347.12
399.717	366.12
399.941	374.12
400.165	318.12
400.389	278.12
400.613	289.12
400.837	282.12
401.062	263.12
401.286	263.12
401.51	266.12
401.734	259.12
401.958	257.12
402.182	262.12
402.406	270.12
402.63	271.12
402.854	269.12
403.078	294.12
403.302	300.12
403.526	296.12
403.75	286.12
403.974	300.12
404.198	304.12
404.422	286.12
404.645	311.12
404.869	307.12
405.093	308.12
405.317	289.12
405.541	283.12
405.765	277.12
405.988	271.12
406.212	284.12
406.436	282.12
406.66	299.12
406.883	299.12
407.107	301.12
407.331	330.12
407.555	334.12
407.778	315.12
408.002	343.12
408.226	301.12
408.449	302.12
408.673	313.12
408.896	292.12
409.12	287.12
409.344	296.12
409.567	278.12
409.791	294.12
410.014	292.12
410.238	296.12
410.461	287.12
410.685	293.12
410.908	279.12
411.132	290.12
411.355	264.12
411.578	280.12
411.802	269.12
412.025	291.12
412.249	266.12
412.472	275.12
412.695	252.12
412.919	249.12
413.142	270.12
413.365	265.12
413.589	266.12
413.812	268.12
414.035	267.12
414.258	276.12
414.482	259.12
414.705	272.12
414.928	277.12
415.151	265.12
415.374	264.12
415.597	253.12
415.821	263.12
416.044	245.12
416.267	248.12
416.49	245.12
416.713	252.12
416.936	263.12
417.159	287.12
417.382	280.12
417.605	271.12
417.828	259.12
418.051	267.12
418.274	276.12
418.497	261.12
418.72	254.12
418.943	268.12
419.166	284.12
419.389	285.12
419.611	290.12
419.834	268.12
420.057	264.12
420.28	285.12
420.503	266.12
420.726	275.12
420.948	278.12
421.171	272.12
421.394	260.12
421.617	244.12
421.839	267.12
422.062	249.12
422.285	245.12
422.507	266.12
422.73	269.12
422.953	271.12
423.175	273.12
423.398	280.12
423.621	283.12
423.843	268.12
424.066	273.12
424.288	266.12
424.511	307.12
424.733	280.12
424.956	283.12
425.178	250.12
425.401	261.12
425.623	247.12
425.846	256.12
426.068	238.12
426.291	274.12
426.513	258.12
426.735	248.12
426.958	261.12
427.18	233.12
427.402	233.12
427.625	231.12
427.847	243.12
428.069	253.12
428.292	254.12
428.514	240.12
428.736	220.12
428.958	253.12
429.181	234.12
429.403	244.12
429.625	235.12
429.847	235.12
430.069	247.12
430.292	230.12
430.514	234.12
430.736	228.12
430.958	238.12
431.18	236.12
431.402	220.12
431.624	221.12
431.846	235.12
432.068	244.12
432.29	259.12
432.512	234.12
432.734	238.12
432.956	239.12
433.178	251.12
433.4	236.12
433.622	226.12
433.844	231.12
434.066	225.12
434.287	244.12
434.509	235.12
434.731	248.12
434.953	263.12
435.175	273.12
435.397	277.12
435.618	246.12
435.84	243.12
436.062	242.12
436.284	245.12
436.505	247.12
436.727	221.12
436.949	244.12
437.17	235.12
437.392	252.12
437.614	235.12
437.835	226.12
438.057	224.12
438.278	236.12
438.5	221.12
438.721	235.12
438.943	248.12
439.165	235.12
439.386	226.12
439.608	246.12
439.829	221.12
440.05	228.12
440.272	245.12
440.493	242.12
440.715	254.12
440.936	241.12
441.158	259.12
441.379	237.12
441.6	257.12
441.822	271.12
442.043	259.12
442.264	260.12
442.486	272.12
442.707	260.12
442.928	279.12
443.149	266.12
443.371	246.12
443.592	256.12
443.813	247.12
444.034	254.12
444.255	274.12
444.476	284.12
444.698	297.12
444.919	307.12
445.14	423.12
445.361	334.12
445.582	253.12
445.803	276.12
446.024	243.12
446.245	241.12
446.466	245.12
446.687	238.12
446.908	255.12
447.129	251.12
447.35	225.12
447.571	224.12
447.792	228.12
448.013	244.12
448.234	230.12
448.455	226.12
448.675	243.12
448.896	237.12
449.117	229.12
449.338	223.12
449.559	207.12
449.779	209.12
450	211.12
450.221	208.12
450.442	220.12
450.662	230.12
450.883	239.12
451.104	229.12
451.324	223.12
451.545	210.12
451.766	229.12
451.986	234.12
452.207	213.12
452.428	221.12
452.648	220.12
452.869	231.12
453.089	229.12
453.31	225.12
453.53	226.12
453.751	218.12
453.971	222.12
454.192	218.12
454.412	224.12
454.633	210.12
454.853	226.12
455.073	220.12
455.294	221.12
455.514	202.12
455.734	217.12
455.955	205.12
456.175	208.12
456.395	225.12
456.616	215.12
456.836	228.12
457.056	208.12
457.276	211.12
457.497	220.12
457.717	218.12
457.937	198.12
458.157	201.12
458.377	226.12
458.598	215.12
458.818	221.12
459.038	231.12
459.258	228.12
459.478	246.12
459.698	241.12
459.918	238.12
460.138	253.12
460.358	266.12
460.578	269.12
460.798	269.12
461.018	278.12
461.238	250.12
461.458	269.12
461.678	252.12
461.898	275.12
462.118	269.12
462.338	275.12
462.558	300.12
462.777	286.12
462.997	318.12
463.217	352.12
463.437	344.12
463.657	331.12
463.876	316.12
464.096	322.12
464.316	317.12
464.536	333.12
464.755	314.12
464.975	298.12
465.195	302.12
465.414	281.12
465.634	251.12
465.854	221.12
466.073	261.12
466.293	241.12
466.512	248.12
466.732	226.12
466.951	247.12
467.171	256.12
467.391	245.12
467.61	237.12
467.829	239.12
468.049	234.12
468.268	225.12
468.488	217.12
468.707	224.12
468.927	213.12
469.146	232.12
469.365	252.12
469.585	227.12
469.804	231.12
470.023	252.12
470.243	245.12
470.462	245.12
470.681	256.12
470.901	238.12
471.12	251.12
471.339	246.12
471.558	217.12
471.777	233.12
471.997	229.12
472.216	223.12
472.435	216.12
472.654	218.12
472.873	234.12
473.092	222.12
473.311	225.12
473.53	224.12
473.749	235.12
473.968	217.12
474.187	219.12
474.406	227.12
474.625	221.12
474.844	229.12
475.063	218.12
475.282	213.12
475.501	211.12
475.72	236.12
475.939	235.12
476.158	230.12
476.377	229.12
476.596	236.12
476.814	222.12
477.033	237.12
477.252	234.12
477.471	252.12
477.69	228.12
477.908	257.12
478.127	257.12
478.346	270.12
478.564	257.12
478.783	252.12
479.002	260.12
479.22	282.12
479.439	287.12
479.658	274.12
479.876	280.12
480.095	249.12
480.313	290.12
480.532	262.12
480.751	297.12
480.969	277.12
481.188	265.12
481.406	261.12
481.624	258.12
481.843	255.12
482.061	259.12
482.28	226.12
482.498	234.12
482.717	239.12
482.935	239.12
483.153	251.12
483.372	245.12
483.59	247.12
483.808	252.12
484.027	247.12
484.245	273.12
484.463	249.12
484.681	249.12
484.9	279.12
485.118	286.12
485.336	267.12
485.554	263.12
485.772	296.12
485.99	271.12
486.209	264.12
486.427	272.12
486.645	264.12
486.863	278.12
487.081	271.12
487.299	275.12
487.517	283.12
487.735	252.12
487.953	297.12
488.171	286.12
488.389	265.12
488.607	243.12
488.825	268.12
489.043	257.12
489.261	260.12
489.479	247.12
489.696	272.12
489.914	275.12
490.132	274.12
490.35	269.12
490.568	291.12
490.786	274.12
491.003	284.12
491.221	281.12
491.439	277.12
491.657	281.12
491.874	275.12
492.092	290.12
492.31	270.12
492.527	265.12
492.745	269.12
492.963	287.12
493.18	279.12
493.398	282.12
493.615	278.12
493.833	271.12
494.05	275.12
494.268	271.12
494.485	272.12
494.703	289.12
494.92	280.12
495.138	277.12
495.355	280.12
495.573	269.12
495.79	282.12
496.008	282.12
496.225	277.12
496.442	273.12
496.66	286.12
496.877	279.12
497.094	290.12
497.312	295.12
497.529	293.12
497.746	308.12
497.963	324.12
498.181	323.12
498.398	343.12
498.615	346.12
498.832	355.12
499.049	382.12
499.267	417.12
499.484	437.12
499.701	512.12
499.918	533.12
500.135	618.12
500.352	707.12
500.569	730.12
500.786	763.12
501.003	686.12
501.22	614.12
501.437	551.12
501.654	489.12
501.871	461.12
502.088	407.12
502.305	383.12
502.522	374.12
502.739	356.12
502.956	345.12
503.172	341.12
