Data from 0.5MCu(NO3)2.Standard.Lamp.E10.CV._HRD10591_16-05-13-753.txt Node
Date: Mon Jul 22 16:05:13 EDT 2019
User: cochatt
Spectrometer: HR+D1059
Trigger mode: 1
Integration Time (sec): 1.000000E-1
Scans to average: 1
Electric dark correction enabled: true
Nonlinearity correction enabled: false
Boxcar width: 0
XAxis mode: Wavelengths
Number of Pixels in Spectrum: 2048
>>>>>Begin Spectral Data<<<<<
223.165	-30.25
223.4	-30.25
223.635	-30.25
223.869	-19.25
224.104	-14.25
224.338	-8.25
224.573	-28.25
224.808	-15.25
225.042	-5.25
225.277	-4.25
225.511	7.75
225.746	9.75
225.98	4.75
226.215	14.75
226.449	23.75
226.683	13.75
226.918	19.75
227.152	30.75
227.387	32.75
227.621	34.75
227.856	36.75
228.09	41.75
228.324	45.75
228.559	56.75
228.793	55.75
229.027	53.75
229.262	61.75
229.496	72.75
229.73	69.75
229.964	68.75
230.199	72.75
230.433	72.75
230.667	88.75
230.901	94.75
231.136	89.75
231.37	85.75
231.604	71.75
231.838	84.75
232.072	89.75
232.306	93.75
232.541	89.75
232.775	93.75
233.009	91.75
233.243	94.75
233.477	83.75
233.711	93.75
233.945	76.75
234.179	91.75
234.413	96.75
234.647	96.75
234.881	106.75
235.115	94.75
235.349	94.75
235.583	97.75
235.817	65.75
236.051	90.75
236.285	87.75
236.519	88.75
236.753	92.75
236.987	95.75
237.221	90.75
237.455	80.75
237.689	90.75
237.922	88.75
238.156	85.75
238.39	82.75
238.624	80.75
238.858	82.75
239.091	89.75
239.325	96.75
239.559	83.75
239.793	80.75
240.027	93.75
240.26	98.75
240.494	93.75
240.728	87.75
240.961	93.75
241.195	86.75
241.429	95.75
241.662	90.75
241.896	91.75
242.13	88.75
242.363	87.75
242.597	93.75
242.83	87.75
243.064	104.75
243.298	103.75
243.531	91.75
243.765	94.75
243.998	83.75
244.232	88.75
244.465	93.75
244.699	95.75
244.932	100.75
245.166	95.75
245.399	97.75
245.633	99.75
245.866	103.75
246.099	97.75
246.333	86.75
246.566	91.75
246.8	96.75
247.033	102.75
247.266	102.75
247.5	87.75
247.733	107.75
247.966	87.75
248.2	102.75
248.433	101.75
248.666	103.75
248.899	104.75
249.133	103.75
249.366	102.75
249.599	100.75
249.832	99.75
250.066	99.75
250.299	98.75
250.532	109.75
250.765	96.75
250.998	104.75
251.231	114.75
251.465	98.75
251.698	105.75
251.931	113.75
252.164	105.75
252.397	110.75
252.63	114.75
252.863	105.75
253.096	101.75
253.329	121.75
253.562	101.75
253.795	99.75
254.028	102.75
254.261	98.75
254.494	103.75
254.727	104.75
254.96	99.75
255.193	104.75
255.426	115.75
255.659	106.75
255.892	115.75
256.124	105.75
256.357	116.75
256.59	93.75
256.823	95.75
257.056	93.75
257.289	108.75
257.521	100.75
257.754	107.75
257.987	116.75
258.22	106.75
258.452	110.75
258.685	110.75
258.918	102.75
259.151	105.75
259.383	107.75
259.616	111.75
259.849	98.75
260.081	120.75
260.314	117.75
260.547	110.75
260.779	121.75
261.012	115.75
261.244	101.75
261.477	126.75
261.71	118.75
261.942	114.75
262.175	125.75
262.407	114.75
262.64	128.75
262.872	126.75
263.105	120.75
263.337	118.75
263.57	131.75
263.802	119.75
264.035	118.75
264.267	122.75
264.499	106.75
264.732	119.75
264.964	135.75
265.197	120.75
265.429	106.75
265.661	128.75
265.894	127.75
266.126	123.75
266.358	140.75
266.591	123.75
266.823	122.75
267.055	118.75
267.287	119.75
267.52	121.75
267.752	137.75
267.984	105.75
268.216	119.75
268.448	128.75
268.681	118.75
268.913	122.75
269.145	123.75
269.377	138.75
269.609	130.75
269.841	122.75
270.073	132.75
270.306	130.75
270.538	131.75
270.77	132.75
271.002	122.75
271.234	127.75
271.466	125.75
271.698	116.75
271.93	130.75
272.162	127.75
272.394	124.75
272.626	119.75
272.858	124.75
273.09	122.75
273.322	137.75
273.553	138.75
273.785	128.75
274.017	130.75
274.249	135.75
274.481	126.75
274.713	134.75
274.945	128.75
275.176	142.75
275.408	123.75
275.64	132.75
275.872	145.75
276.104	131.75
276.335	132.75
276.567	134.75
276.799	127.75
277.031	141.75
277.262	131.75
277.494	132.75
277.726	128.75
277.957	125.75
278.189	119.75
278.421	137.75
278.652	144.75
278.884	143.75
279.115	139.75
279.347	139.75
279.579	135.75
279.81	136.75
280.042	139.75
280.273	139.75
280.505	154.75
280.736	151.75
280.968	131.75
281.199	133.75
281.431	139.75
281.662	144.75
281.894	147.75
282.125	141.75
282.356	140.75
282.588	149.75
282.819	150.75
283.051	148.75
283.282	149.75
283.513	156.75
283.745	143.75
283.976	137.75
284.207	159.75
284.439	140.75
284.67	169.75
284.901	141.75
285.132	131.75
285.364	143.75
285.595	152.75
285.826	147.75
286.057	152.75
286.288	153.75
286.52	140.75
286.751	143.75
286.982	149.75
287.213	161.75
287.444	143.75
287.675	147.75
287.906	154.75
288.138	151.75
288.369	147.75
288.6	131.75
288.831	149.75
289.062	145.75
289.293	154.75
289.524	139.75
289.755	153.75
289.986	153.75
290.217	164.75
290.448	156.75
290.679	148.75
290.91	160.75
291.141	153.75
291.371	156.75
291.602	153.75
291.833	144.75
292.064	141.75
292.295	157.75
292.526	159.75
292.757	168.75
292.987	142.75
293.218	161.75
293.449	157.75
293.68	146.75
293.91	143.75
294.141	153.75
294.372	151.75
294.603	161.75
294.833	162.75
295.064	151.75
295.295	153.75
295.525	167.75
295.756	165.75
295.987	149.75
296.217	143.75
296.448	153.75
296.679	151.75
296.909	168.75
297.14	173.75
297.37	147.75
297.601	154.75
297.831	169.75
298.062	166.75
298.292	169.75
298.523	174.75
298.753	178.75
298.984	167.75
299.214	172.75
299.445	148.75
299.675	161.75
299.905	158.75
300.136	162.75
300.366	167.75
300.597	167.75
300.827	157.75
301.057	165.75
301.288	166.75
301.518	179.75
301.748	167.75
301.979	173.75
302.209	182.75
302.439	177.75
302.669	181.75
302.9	173.75
303.13	165.75
303.36	174.75
303.59	173.75
303.82	175.75
304.051	159.75
304.281	177.75
304.511	180.75
304.741	176.75
304.971	192.75
305.201	174.75
305.431	178.75
305.661	173.75
305.891	151.75
306.121	167.75
306.352	168.75
306.582	163.75
306.812	162.75
307.042	182.75
307.272	155.75
307.502	164.75
307.731	169.75
307.961	170.75
308.191	172.75
308.421	168.75
308.651	168.75
308.881	162.75
309.111	169.75
309.341	173.75
309.571	163.75
309.8	171.75
310.03	157.75
310.26	157.75
310.49	180.75
310.72	165.75
310.949	161.75
311.179	160.75
311.409	164.75
311.639	167.75
311.868	153.75
312.098	165.75
312.328	168.75
312.557	167.75
312.787	170.75
313.017	157.75
313.246	177.75
313.476	168.75
313.706	177.75
313.935	171.75
314.165	173.75
314.394	179.75
314.624	169.75
314.853	171.75
315.083	172.75
315.312	175.75
315.542	180.75
315.771	174.75
316.001	164.75
316.23	165.75
316.46	179.75
316.689	155.75
316.919	174.75
317.148	163.75
317.377	174.75
317.607	172.75
317.836	166.75
318.065	165.75
318.295	161.75
318.524	156.75
318.753	165.75
318.983	185.75
319.212	185.75
319.441	172.75
319.67	168.75
319.9	184.75
320.129	164.75
320.358	167.75
320.587	162.75
320.816	169.75
321.046	178.75
321.275	167.75
321.504	171.75
321.733	170.75
321.962	177.75
322.191	177.75
322.42	165.75
322.649	189.75
322.878	181.75
323.108	168.75
323.337	187.75
323.566	184.75
323.795	156.75
324.024	179.75
324.253	190.75
324.482	173.75
324.71	177.75
324.939	170.75
325.168	176.75
325.397	186.75
325.626	180.75
325.855	184.75
326.084	170.75
326.313	178.75
326.542	194.75
326.77	188.75
326.999	178.75
327.228	200.75
327.457	185.75
327.686	166.75
327.914	159.75
328.143	189.75
328.372	205.75
328.6	180.75
328.829	156.75
329.058	171.75
329.287	182.75
329.515	169.75
329.744	196.75
329.972	183.75
330.201	195.75
330.43	182.75
330.658	185.75
330.887	186.75
331.115	191.75
331.344	187.75
331.572	204.75
331.801	201.75
332.03	185.75
332.258	183.75
332.486	184.75
332.715	213.75
332.943	223.75
333.172	234.75
333.4	214.75
333.629	229.75
333.857	218.75
334.085	227.75
334.314	228.75
334.542	217.75
334.771	209.75
334.999	211.75
335.227	207.75
335.455	204.75
335.684	230.75
335.912	204.75
336.14	226.75
336.369	212.75
336.597	190.75
336.825	190.75
337.053	207.75
337.281	211.75
337.51	189.75
337.738	197.75
337.966	198.75
338.194	210.75
338.422	183.75
338.65	193.75
338.878	199.75
339.106	210.75
339.334	197.75
339.562	194.75
339.79	177.75
340.018	191.75
340.246	202.75
340.474	184.75
340.702	178.75
340.93	183.75
341.158	170.75
341.386	204.75
341.614	182.75
341.842	184.75
342.07	170.75
342.298	179.75
342.526	193.75
342.754	179.75
342.981	186.75
343.209	189.75
343.437	189.75
343.665	199.75
343.893	219.75
344.12	241.75
344.348	211.75
344.576	201.75
344.804	197.75
345.031	191.75
345.259	202.75
345.487	176.75
345.714	190.75
345.942	183.75
346.17	205.75
346.397	173.75
346.625	181.75
346.853	181.75
347.08	185.75
347.308	185.75
347.535	197.75
347.763	177.75
347.99	185.75
348.218	177.75
348.445	192.75
348.673	186.75
348.9	214.75
349.128	177.75
349.355	196.75
349.583	195.75
349.81	177.75
350.037	194.75
350.265	184.75
350.492	179.75
350.72	172.75
350.947	183.75
351.174	170.75
351.402	179.75
351.629	165.75
351.856	182.75
352.083	171.75
352.311	193.75
352.538	165.75
352.765	172.75
352.992	183.75
353.22	177.75
353.447	174.75
353.674	169.75
353.901	181.75
354.128	181.75
354.355	194.75
354.583	180.75
354.81	179.75
355.037	168.75
355.264	192.75
355.491	190.75
355.718	175.75
355.945	165.75
356.172	175.75
356.399	179.75
356.626	185.75
356.853	193.75
357.08	193.75
357.307	175.75
357.534	195.75
357.761	180.75
357.988	202.75
358.215	175.75
358.441	181.75
358.668	183.75
358.895	190.75
359.122	174.75
359.349	184.75
359.576	191.75
359.802	169.75
360.029	158.75
360.256	185.75
360.483	169.75
360.709	175.75
360.936	177.75
361.163	186.75
361.39	173.75
361.616	166.75
361.843	178.75
362.07	185.75
362.296	178.75
362.523	191.75
362.749	184.75
362.976	180.75
363.203	179.75
363.429	193.75
363.656	177.75
363.882	183.75
364.109	177.75
364.335	167.75
364.562	168.75
364.788	184.75
365.015	197.75
365.241	166.75
365.468	197.75
365.694	183.75
365.92	172.75
366.147	178.75
366.373	159.75
366.599	167.75
366.826	167.75
367.052	186.75
367.278	175.75
367.505	182.75
367.731	185.75
367.957	186.75
368.184	175.75
368.41	197.75
368.636	189.75
368.862	191.75
369.089	164.75
369.315	181.75
369.541	190.75
369.767	184.75
369.993	194.75
370.219	194.75
370.445	171.75
370.672	171.75
370.898	167.75
371.124	170.75
371.35	186.75
371.576	181.75
371.802	173.75
372.028	187.75
372.254	206.75
372.48	195.75
372.706	187.75
372.932	207.75
373.158	192.75
373.384	197.75
373.61	202.75
373.835	181.75
374.061	193.75
374.287	193.75
374.513	195.75
374.739	181.75
374.965	187.75
375.191	200.75
375.416	204.75
375.642	203.75
375.868	188.75
376.094	202.75
376.319	188.75
376.545	198.75
376.771	191.75
376.997	199.75
377.222	198.75
377.448	194.75
377.674	194.75
377.899	181.75
378.125	178.75
378.35	197.75
378.576	181.75
378.802	168.75
379.027	192.75
379.253	190.75
379.478	183.75
379.704	188.75
379.929	195.75
380.155	190.75
380.38	191.75
380.606	188.75
380.831	191.75
381.057	183.75
381.282	180.75
381.507	191.75
381.733	178.75
381.958	191.75
382.184	185.75
382.409	187.75
382.634	199.75
382.86	199.75
383.085	179.75
383.31	181.75
383.535	191.75
383.761	193.75
383.986	209.75
384.211	206.75
384.436	197.75
384.662	216.75
384.887	214.75
385.112	207.75
385.337	203.75
385.562	201.75
385.787	204.75
386.013	229.75
386.238	222.75
386.463	214.75
386.688	216.75
386.913	205.75
387.138	189.75
387.363	207.75
387.588	213.75
387.813	208.75
388.038	213.75
388.263	206.75
388.488	219.75
388.713	210.75
388.938	220.75
389.163	207.75
389.387	211.75
389.612	209.75
389.837	202.75
390.062	215.75
390.287	220.75
390.512	209.75
390.736	197.75
390.961	199.75
391.186	226.75
391.411	219.75
391.636	212.75
391.86	236.75
392.085	221.75
392.31	225.75
392.534	209.75
392.759	221.75
392.984	236.75
393.208	231.75
393.433	227.75
393.658	226.75
393.882	227.75
394.107	225.75
394.331	220.75
394.556	233.75
394.78	213.75
395.005	215.75
395.229	220.75
395.454	234.75
395.678	229.75
395.903	238.75
396.127	230.75
396.352	215.75
396.576	202.75
396.801	206.75
397.025	211.75
397.249	225.75
397.474	229.75
397.698	214.75
397.922	218.75
398.147	225.75
398.371	221.75
398.595	238.75
398.82	239.75
399.044	244.75
399.268	272.75
399.492	311.75
399.717	352.75
399.941	325.75
400.165	309.75
400.389	270.75
400.613	260.75
400.837	243.75
401.062	257.75
401.286	230.75
401.51	261.75
401.734	226.75
401.958	243.75
402.182	229.75
402.406	257.75
402.63	260.75
402.854	249.75
403.078	271.75
403.302	272.75
403.526	260.75
403.75	274.75
403.974	269.75
404.198	285.75
404.422	303.75
404.645	283.75
404.869	254.75
405.093	246.75
405.317	266.75
405.541	270.75
405.765	250.75
405.988	288.75
406.212	266.75
406.436	280.75
406.66	280.75
406.883	284.75
407.107	299.75
407.331	309.75
407.555	298.75
407.778	307.75
408.002	300.75
408.226	277.75
408.449	285.75
408.673	260.75
408.896	265.75
409.12	251.75
409.344	267.75
409.567	260.75
409.791	269.75
410.014	264.75
410.238	257.75
410.461	267.75
410.685	266.75
410.908	248.75
411.132	264.75
411.355	247.75
411.578	251.75
411.802	252.75
412.025	258.75
412.249	256.75
412.472	250.75
412.695	230.75
412.919	231.75
413.142	229.75
413.365	255.75
413.589	240.75
413.812	239.75
414.035	233.75
414.258	265.75
414.482	232.75
414.705	247.75
414.928	241.75
415.151	242.75
415.374	255.75
415.597	261.75
415.821	236.75
416.044	235.75
416.267	222.75
416.49	221.75
416.713	238.75
416.936	241.75
417.159	261.75
417.382	247.75
417.605	250.75
417.828	230.75
418.051	247.75
418.274	242.75
418.497	266.75
418.72	253.75
418.943	245.75
419.166	250.75
419.389	275.75
419.611	264.75
419.834	261.75
420.057	271.75
420.28	243.75
420.503	257.75
420.726	234.75
420.948	229.75
421.171	235.75
421.394	234.75
421.617	226.75
421.839	238.75
422.062	254.75
422.285	249.75
422.507	245.75
422.73	234.75
422.953	241.75
423.175	255.75
423.398	241.75
423.621	248.75
423.843	252.75
424.066	264.75
424.288	256.75
424.511	253.75
424.733	243.75
424.956	233.75
425.178	253.75
425.401	237.75
425.623	249.75
425.846	229.75
426.068	238.75
426.291	206.75
426.513	232.75
426.735	237.75
426.958	216.75
427.18	229.75
427.402	218.75
427.625	218.75
427.847	221.75
428.069	223.75
428.292	238.75
428.514	230.75
428.736	225.75
428.958	242.75
429.181	222.75
429.403	214.75
429.625	217.75
429.847	217.75
430.069	209.75
430.292	223.75
430.514	217.75
430.736	226.75
430.958	225.75
431.18	214.75
431.402	213.75
431.624	226.75
431.846	233.75
432.068	220.75
432.29	231.75
432.512	225.75
432.734	218.75
432.956	229.75
433.178	229.75
433.4	222.75
433.622	220.75
433.844	221.75
434.066	210.75
434.287	211.75
434.509	235.75
434.731	245.75
434.953	229.75
435.175	238.75
435.397	243.75
435.618	235.75
435.84	257.75
436.062	218.75
436.284	230.75
436.505	212.75
436.727	208.75
436.949	232.75
437.17	224.75
437.392	219.75
437.614	213.75
437.835	205.75
438.057	238.75
438.278	216.75
438.5	218.75
438.721	221.75
438.943	224.75
439.165	215.75
439.386	229.75
439.608	222.75
439.829	228.75
440.05	221.75
440.272	219.75
440.493	227.75
440.715	222.75
440.936	224.75
441.158	216.75
441.379	247.75
441.6	251.75
441.822	254.75
442.043	249.75
442.264	245.75
442.486	242.75
442.707	212.75
442.928	245.75
443.149	242.75
443.371	229.75
443.592	222.75
443.813	249.75
444.034	232.75
444.255	269.75
444.476	258.75
444.698	282.75
444.919	268.75
445.14	408.75
445.361	329.75
445.582	254.75
445.803	247.75
446.024	239.75
446.245	223.75
446.466	211.75
446.687	194.75
446.908	220.75
447.129	226.75
447.35	214.75
447.571	217.75
447.792	215.75
448.013	211.75
448.234	217.75
448.455	234.75
448.675	203.75
448.896	216.75
449.117	214.75
449.338	216.75
449.559	215.75
449.779	204.75
450	212.75
450.221	203.75
450.442	205.75
450.662	217.75
450.883	222.75
451.104	220.75
451.324	210.75
451.545	218.75
451.766	236.75
451.986	215.75
452.207	205.75
452.428	210.75
452.648	214.75
452.869	205.75
453.089	180.75
453.31	207.75
453.53	216.75
453.751	202.75
453.971	199.75
454.192	191.75
454.412	198.75
454.633	200.75
454.853	214.75
455.073	206.75
455.294	203.75
455.514	205.75
455.734	216.75
455.955	195.75
456.175	210.75
456.395	185.75
456.616	186.75
456.836	202.75
457.056	196.75
457.276	193.75
457.497	207.75
457.717	208.75
457.937	214.75
458.157	209.75
458.377	213.75
458.598	200.75
458.818	200.75
459.038	194.75
459.258	198.75
459.478	238.75
459.698	219.75
459.918	232.75
460.138	241.75
460.358	251.75
460.578	268.75
460.798	245.75
461.018	251.75
461.238	259.75
461.458	255.75
461.678	258.75
461.898	249.75
462.118	262.75
462.338	270.75
462.558	283.75
462.777	275.75
462.997	289.75
463.217	340.75
463.437	331.75
463.657	279.75
463.876	283.75
464.096	270.75
464.316	300.75
464.536	290.75
464.755	273.75
464.975	283.75
465.195	251.75
465.414	246.75
465.634	245.75
465.854	233.75
466.073	235.75
466.293	236.75
466.512	227.75
466.732	223.75
466.951	227.75
467.171	219.75
467.391	230.75
467.61	237.75
467.829	231.75
468.049	225.75
468.268	214.75
468.488	217.75
468.707	194.75
468.927	215.75
469.146	206.75
469.365	206.75
469.585	220.75
469.804	226.75
470.023	223.75
470.243	210.75
470.462	241.75
470.681	235.75
470.901	216.75
471.12	228.75
471.339	224.75
471.558	214.75
471.777	212.75
471.997	219.75
472.216	224.75
472.435	218.75
472.654	205.75
472.873	217.75
473.092	204.75
473.311	201.75
473.53	207.75
473.749	219.75
473.968	202.75
474.187	211.75
474.406	217.75
474.625	210.75
474.844	212.75
475.063	221.75
475.282	207.75
475.501	215.75
475.72	208.75
475.939	231.75
476.158	223.75
476.377	226.75
476.596	216.75
476.814	203.75
477.033	216.75
477.252	219.75
477.471	211.75
477.69	221.75
477.908	246.75
478.127	246.75
478.346	239.75
478.564	249.75
478.783	236.75
479.002	259.75
479.22	260.75
479.439	261.75
479.658	241.75
479.876	241.75
480.095	264.75
480.313	246.75
480.532	278.75
480.751	266.75
480.969	267.75
481.188	247.75
481.406	233.75
481.624	246.75
481.843	233.75
482.061	249.75
482.28	246.75
482.498	234.75
482.717	211.75
482.935	234.75
483.153	260.75
483.372	240.75
483.59	249.75
483.808	215.75
484.027	249.75
484.245	230.75
484.463	229.75
484.681	240.75
484.9	249.75
485.118	241.75
485.336	249.75
485.554	247.75
485.772	262.75
485.99	259.75
486.209	245.75
486.427	257.75
486.645	251.75
486.863	256.75
487.081	267.75
487.299	252.75
487.517	243.75
487.735	262.75
487.953	259.75
488.171	245.75
488.389	265.75
488.607	234.75
488.825	239.75
489.043	249.75
489.261	234.75
489.479	264.75
489.696	241.75
489.914	233.75
490.132	243.75
490.35	249.75
490.568	243.75
490.786	260.75
491.003	259.75
491.221	263.75
491.439	251.75
491.657	246.75
491.874	261.75
492.092	267.75
492.31	258.75
492.527	257.75
492.745	256.75
492.963	246.75
493.18	253.75
493.398	255.75
493.615	253.75
493.833	266.75
494.05	282.75
494.268	260.75
494.485	270.75
494.703	273.75
494.92	261.75
495.138	271.75
495.355	271.75
495.573	258.75
495.79	279.75
496.008	273.75
496.225	261.75
496.442	264.75
496.66	275.75
496.877	282.75
497.094	261.75
497.312	292.75
497.529	290.75
497.746	269.75
497.963	297.75
498.181	306.75
498.398	293.75
498.615	320.75
498.832	315.75
499.049	349.75
499.267	398.75
499.484	405.75
499.701	446.75
499.918	501.75
500.135	560.75
500.352	620.75
500.569	693.75
500.786	683.75
501.003	621.75
501.22	567.75
501.437	501.75
501.654	436.75
501.871	403.75
502.088	379.75
502.305	359.75
502.522	349.75
502.739	335.75
502.956	316.75
503.172	322.75
503.389	287.75
