Data from 0.5MCu(NO3)2.Standard.Lamp.E10.CV._HRD10591_16-04-25-753.txt Node
Date: Mon Jul 22 16:04:25 EDT 2019
User: cochatt
Spectrometer: HR+D1059
Trigger mode: 1
Integration Time (sec): 1.000000E-1
Scans to average: 1
Electric dark correction enabled: true
Nonlinearity correction enabled: false
Boxcar width: 0
XAxis mode: Wavelengths
Number of Pixels in Spectrum: 2048
>>>>>Begin Spectral Data<<<<<
223.165	-16.5
223.4	-16.5
223.635	-16.5
223.869	-23.5
224.104	-14.5
224.338	-23.5
224.573	-16.5
224.808	-12.5
225.042	8.5
225.277	2.5
225.511	5.5
225.746	0.5
225.98	15.5
226.215	-0.5
226.449	8.5
226.683	21.5
226.918	25.5
227.152	19.5
227.387	39.5
227.621	33.5
227.856	36.5
228.09	43.5
228.324	42.5
228.559	49.5
228.793	69.5
229.027	71.5
229.262	63.5
229.496	73.5
229.73	76.5
229.964	77.5
230.199	70.5
230.433	76.5
230.667	90.5
230.901	75.5
231.136	85.5
231.37	82.5
231.604	89.5
231.838	87.5
232.072	77.5
232.306	88.5
232.541	84.5
232.775	99.5
233.009	96.5
233.243	81.5
233.477	85.5
233.711	97.5
233.945	78.5
234.179	93.5
234.413	89.5
234.647	95.5
234.881	95.5
235.115	84.5
235.349	83.5
235.583	88.5
235.817	69.5
236.051	87.5
236.285	82.5
236.519	92.5
236.753	96.5
236.987	90.5
237.221	87.5
237.455	90.5
237.689	80.5
237.922	91.5
238.156	90.5
238.39	91.5
238.624	89.5
238.858	97.5
239.091	85.5
239.325	81.5
239.559	76.5
239.793	78.5
240.027	84.5
240.26	71.5
240.494	88.5
240.728	94.5
240.961	92.5
241.195	90.5
241.429	79.5
241.662	84.5
241.896	81.5
242.13	96.5
242.363	86.5
242.597	85.5
242.83	98.5
243.064	106.5
243.298	92.5
243.531	90.5
243.765	93.5
243.998	89.5
244.232	83.5
244.465	88.5
244.699	102.5
244.932	83.5
245.166	100.5
245.399	89.5
245.633	85.5
245.866	103.5
246.099	89.5
246.333	102.5
246.566	109.5
246.8	97.5
247.033	101.5
247.266	105.5
247.5	87.5
247.733	102.5
247.966	98.5
248.2	91.5
248.433	97.5
248.666	105.5
248.899	99.5
249.133	103.5
249.366	97.5
249.599	90.5
249.832	102.5
250.066	116.5
250.299	102.5
250.532	98.5
250.765	90.5
250.998	102.5
251.231	99.5
251.465	100.5
251.698	111.5
251.931	115.5
252.164	104.5
252.397	86.5
252.63	109.5
252.863	122.5
253.096	104.5
253.329	102.5
253.562	109.5
253.795	113.5
254.028	85.5
254.261	102.5
254.494	93.5
254.727	119.5
254.96	99.5
255.193	107.5
255.426	101.5
255.659	90.5
255.892	111.5
256.124	107.5
256.357	111.5
256.59	111.5
256.823	103.5
257.056	101.5
257.289	110.5
257.521	115.5
257.754	98.5
257.987	104.5
258.22	129.5
258.452	111.5
258.685	86.5
258.918	95.5
259.151	112.5
259.383	107.5
259.616	112.5
259.849	113.5
260.081	120.5
260.314	123.5
260.547	98.5
260.779	113.5
261.012	99.5
261.244	122.5
261.477	120.5
261.71	115.5
261.942	116.5
262.175	106.5
262.407	113.5
262.64	121.5
262.872	119.5
263.105	103.5
263.337	125.5
263.57	129.5
263.802	94.5
264.035	125.5
264.267	100.5
264.499	118.5
264.732	123.5
264.964	104.5
265.197	116.5
265.429	125.5
265.661	116.5
265.894	121.5
266.126	118.5
266.358	131.5
266.591	120.5
266.823	128.5
267.055	129.5
267.287	115.5
267.52	127.5
267.752	120.5
267.984	118.5
268.216	122.5
268.448	121.5
268.681	127.5
268.913	126.5
269.145	131.5
269.377	105.5
269.609	129.5
269.841	119.5
270.073	134.5
270.306	117.5
270.538	117.5
270.77	141.5
271.002	125.5
271.234	145.5
271.466	126.5
271.698	128.5
271.93	131.5
272.162	122.5
272.394	123.5
272.626	137.5
272.858	129.5
273.09	125.5
273.322	127.5
273.553	110.5
273.785	118.5
274.017	129.5
274.249	122.5
274.481	137.5
274.713	123.5
274.945	134.5
275.176	125.5
275.408	138.5
275.64	137.5
275.872	143.5
276.104	133.5
276.335	133.5
276.567	130.5
276.799	150.5
277.031	138.5
277.262	143.5
277.494	140.5
277.726	141.5
277.957	128.5
278.189	153.5
278.421	131.5
278.652	138.5
278.884	147.5
279.115	139.5
279.347	151.5
279.579	138.5
279.81	143.5
280.042	118.5
280.273	131.5
280.505	132.5
280.736	150.5
280.968	153.5
281.199	146.5
281.431	145.5
281.662	137.5
281.894	137.5
282.125	131.5
282.356	138.5
282.588	143.5
282.819	152.5
283.051	149.5
283.282	146.5
283.513	145.5
283.745	153.5
283.976	138.5
284.207	140.5
284.439	139.5
284.67	134.5
284.901	139.5
285.132	160.5
285.364	155.5
285.595	152.5
285.826	159.5
286.057	157.5
286.288	152.5
286.52	146.5
286.751	160.5
286.982	160.5
287.213	160.5
287.444	140.5
287.675	149.5
287.906	155.5
288.138	155.5
288.369	153.5
288.6	157.5
288.831	158.5
289.062	147.5
289.293	154.5
289.524	154.5
289.755	150.5
289.986	142.5
290.217	152.5
290.448	162.5
290.679	167.5
290.91	158.5
291.141	160.5
291.371	154.5
291.602	155.5
291.833	153.5
292.064	151.5
292.295	146.5
292.526	150.5
292.757	157.5
292.987	151.5
293.218	155.5
293.449	154.5
293.68	156.5
293.91	160.5
294.141	148.5
294.372	147.5
294.603	160.5
294.833	155.5
295.064	163.5
295.295	165.5
295.525	162.5
295.756	161.5
295.987	146.5
296.217	148.5
296.448	150.5
296.679	161.5
296.909	170.5
297.14	161.5
297.37	159.5
297.601	163.5
297.831	161.5
298.062	169.5
298.292	177.5
298.523	175.5
298.753	177.5
298.984	165.5
299.214	173.5
299.445	169.5
299.675	170.5
299.905	160.5
300.136	163.5
300.366	175.5
300.597	158.5
300.827	168.5
301.057	179.5
301.288	165.5
301.518	185.5
301.748	167.5
301.979	187.5
302.209	177.5
302.439	166.5
302.669	175.5
302.9	172.5
303.13	169.5
303.36	158.5
303.59	164.5
303.82	169.5
304.051	166.5
304.281	175.5
304.511	178.5
304.741	159.5
304.971	184.5
305.201	170.5
305.431	167.5
305.661	177.5
305.891	166.5
306.121	161.5
306.352	181.5
306.582	163.5
306.812	155.5
307.042	161.5
307.272	158.5
307.502	166.5
307.731	173.5
307.961	173.5
308.191	159.5
308.421	162.5
308.651	165.5
308.881	163.5
309.111	176.5
309.341	162.5
309.571	175.5
309.8	159.5
310.03	168.5
310.26	172.5
310.49	161.5
310.72	167.5
310.949	154.5
311.179	163.5
311.409	170.5
311.639	168.5
311.868	158.5
312.098	176.5
312.328	172.5
312.557	178.5
312.787	177.5
313.017	160.5
313.246	183.5
313.476	177.5
313.706	188.5
313.935	171.5
314.165	178.5
314.394	177.5
314.624	169.5
314.853	174.5
315.083	161.5
315.312	173.5
315.542	178.5
315.771	191.5
316.001	180.5
316.23	176.5
316.46	167.5
316.689	161.5
316.919	167.5
317.148	167.5
317.377	181.5
317.607	174.5
317.836	188.5
318.065	182.5
318.295	170.5
318.524	170.5
318.753	155.5
318.983	177.5
319.212	191.5
319.441	163.5
319.67	173.5
319.9	186.5
320.129	178.5
320.358	171.5
320.587	170.5
320.816	173.5
321.046	177.5
321.275	187.5
321.504	168.5
321.733	184.5
321.962	196.5
322.191	164.5
322.42	178.5
322.649	177.5
322.878	170.5
323.108	180.5
323.337	186.5
323.566	180.5
323.795	193.5
324.024	179.5
324.253	177.5
324.482	175.5
324.71	173.5
324.939	181.5
325.168	171.5
325.397	170.5
325.626	179.5
325.855	184.5
326.084	181.5
326.313	184.5
326.542	186.5
326.77	185.5
326.999	179.5
327.228	183.5
327.457	187.5
327.686	195.5
327.914	178.5
328.143	171.5
328.372	195.5
328.6	189.5
328.829	182.5
329.058	174.5
329.287	179.5
329.515	196.5
329.744	184.5
329.972	197.5
330.201	203.5
330.43	174.5
330.658	183.5
330.887	183.5
331.115	173.5
331.344	185.5
331.572	209.5
331.801	204.5
332.03	201.5
332.258	191.5
332.486	196.5
332.715	185.5
332.943	211.5
333.172	215.5
333.4	215.5
333.629	241.5
333.857	224.5
334.085	230.5
334.314	210.5
334.542	219.5
334.771	214.5
334.999	216.5
335.227	206.5
335.455	210.5
335.684	206.5
335.912	217.5
336.14	203.5
336.369	215.5
336.597	223.5
336.825	208.5
337.053	215.5
337.281	222.5
337.51	197.5
337.738	215.5
337.966	206.5
338.194	190.5
338.422	199.5
338.65	201.5
338.878	201.5
339.106	192.5
339.334	195.5
339.562	182.5
339.79	183.5
340.018	193.5
340.246	193.5
340.474	178.5
340.702	182.5
340.93	181.5
341.158	193.5
341.386	198.5
341.614	177.5
341.842	199.5
342.07	189.5
342.298	177.5
342.526	177.5
342.754	192.5
342.981	202.5
343.209	211.5
343.437	209.5
343.665	206.5
343.893	221.5
344.12	228.5
344.348	217.5
344.576	209.5
344.804	201.5
345.031	195.5
345.259	202.5
345.487	201.5
345.714	183.5
345.942	176.5
346.17	196.5
346.397	192.5
346.625	197.5
346.853	192.5
347.08	189.5
347.308	182.5
347.535	189.5
347.763	208.5
347.99	186.5
348.218	198.5
348.445	191.5
348.673	203.5
348.9	201.5
349.128	185.5
349.355	184.5
349.583	179.5
349.81	178.5
350.037	174.5
350.265	166.5
350.492	181.5
350.72	181.5
350.947	170.5
351.174	179.5
351.402	179.5
351.629	190.5
351.856	197.5
352.083	170.5
352.311	170.5
352.538	171.5
352.765	170.5
352.992	181.5
353.22	184.5
353.447	176.5
353.674	178.5
353.901	173.5
354.128	179.5
354.355	184.5
354.583	173.5
354.81	196.5
355.037	193.5
355.264	183.5
355.491	206.5
355.718	188.5
355.945	169.5
356.172	177.5
356.399	182.5
356.626	176.5
356.853	184.5
357.08	163.5
357.307	187.5
357.534	189.5
357.761	168.5
357.988	194.5
358.215	189.5
358.441	173.5
358.668	195.5
358.895	174.5
359.122	175.5
359.349	195.5
359.576	166.5
359.802	175.5
360.029	179.5
360.256	195.5
360.483	190.5
360.709	190.5
360.936	168.5
361.163	174.5
361.39	185.5
361.616	182.5
361.843	191.5
362.07	170.5
362.296	183.5
362.523	178.5
362.749	181.5
362.976	183.5
363.203	186.5
363.429	170.5
363.656	164.5
363.882	185.5
364.109	186.5
364.335	190.5
364.562	173.5
364.788	178.5
365.015	159.5
365.241	164.5
365.468	178.5
365.694	163.5
365.92	173.5
366.147	173.5
366.373	183.5
366.599	176.5
366.826	167.5
367.052	176.5
367.278	180.5
367.505	178.5
367.731	180.5
367.957	189.5
368.184	173.5
368.41	182.5
368.636	182.5
368.862	173.5
369.089	180.5
369.315	171.5
369.541	188.5
369.767	192.5
369.993	181.5
370.219	170.5
370.445	179.5
370.672	189.5
370.898	199.5
371.124	178.5
371.35	194.5
371.576	178.5
371.802	183.5
372.028	177.5
372.254	184.5
372.48	207.5
372.706	190.5
372.932	198.5
373.158	183.5
373.384	198.5
373.61	179.5
373.835	190.5
374.061	199.5
374.287	186.5
374.513	198.5
374.739	210.5
374.965	206.5
375.191	209.5
375.416	209.5
375.642	200.5
375.868	203.5
376.094	206.5
376.319	197.5
376.545	200.5
376.771	207.5
376.997	189.5
377.222	178.5
377.448	199.5
377.674	195.5
377.899	180.5
378.125	180.5
378.35	182.5
378.576	200.5
378.802	189.5
379.027	191.5
379.253	181.5
379.478	192.5
379.704	195.5
379.929	186.5
380.155	169.5
380.38	179.5
380.606	201.5
380.831	194.5
381.057	202.5
381.282	195.5
381.507	188.5
381.733	190.5
381.958	203.5
382.184	191.5
382.409	189.5
382.634	194.5
382.86	205.5
383.085	205.5
383.31	201.5
383.535	207.5
383.761	209.5
383.986	202.5
384.211	201.5
384.436	198.5
384.662	215.5
384.887	219.5
385.112	210.5
385.337	219.5
385.562	214.5
385.787	184.5
386.013	217.5
386.238	223.5
386.463	202.5
386.688	209.5
386.913	200.5
387.138	218.5
387.363	200.5
387.588	201.5
387.813	197.5
388.038	198.5
388.263	206.5
388.488	213.5
388.713	214.5
388.938	208.5
389.163	201.5
389.387	202.5
389.612	198.5
389.837	196.5
390.062	196.5
390.287	209.5
390.512	202.5
390.736	189.5
390.961	202.5
391.186	210.5
391.411	212.5
391.636	213.5
391.86	210.5
392.085	216.5
392.31	213.5
392.534	232.5
392.759	223.5
392.984	206.5
393.208	239.5
393.433	222.5
393.658	216.5
393.882	205.5
394.107	221.5
394.331	221.5
394.556	210.5
394.78	229.5
395.005	203.5
395.229	215.5
395.454	222.5
395.678	215.5
395.903	230.5
396.127	241.5
396.352	209.5
396.576	229.5
396.801	217.5
397.025	226.5
397.249	207.5
397.474	219.5
397.698	208.5
397.922	243.5
398.147	222.5
398.371	222.5
398.595	246.5
398.82	247.5
399.044	242.5
399.268	264.5
399.492	326.5
399.717	329.5
399.941	327.5
400.165	314.5
400.389	282.5
400.613	257.5
400.837	265.5
401.062	247.5
401.286	241.5
401.51	241.5
401.734	220.5
401.958	246.5
402.182	250.5
402.406	246.5
402.63	253.5
402.854	237.5
403.078	256.5
403.302	276.5
403.526	270.5
403.75	282.5
403.974	264.5
404.198	275.5
404.422	279.5
404.645	269.5
404.869	280.5
405.093	270.5
405.317	260.5
405.541	265.5
405.765	265.5
405.988	259.5
406.212	268.5
406.436	246.5
406.66	268.5
406.883	271.5
407.107	264.5
407.331	295.5
407.555	272.5
407.778	301.5
408.002	311.5
408.226	289.5
408.449	294.5
408.673	266.5
408.896	278.5
409.12	285.5
409.344	275.5
409.567	289.5
409.791	293.5
410.014	291.5
410.238	273.5
410.461	260.5
410.685	260.5
410.908	266.5
411.132	243.5
411.355	253.5
411.578	257.5
411.802	273.5
412.025	258.5
412.249	266.5
412.472	239.5
412.695	243.5
412.919	229.5
413.142	247.5
413.365	247.5
413.589	243.5
413.812	246.5
414.035	221.5
414.258	247.5
414.482	245.5
414.705	254.5
414.928	232.5
415.151	246.5
415.374	258.5
415.597	244.5
415.821	246.5
416.044	249.5
416.267	245.5
416.49	242.5
416.713	259.5
416.936	235.5
417.159	253.5
417.382	255.5
417.605	227.5
417.828	242.5
418.051	241.5
418.274	249.5
418.497	246.5
418.72	250.5
418.943	247.5
419.166	263.5
419.389	280.5
419.611	266.5
419.834	265.5
420.057	251.5
420.28	250.5
420.503	234.5
420.726	232.5
420.948	234.5
421.171	229.5
421.394	233.5
421.617	238.5
421.839	225.5
422.062	243.5
422.285	232.5
422.507	260.5
422.73	242.5
422.953	253.5
423.175	256.5
423.398	266.5
423.621	270.5
423.843	274.5
424.066	265.5
424.288	275.5
424.511	273.5
424.733	245.5
424.956	242.5
425.178	238.5
425.401	243.5
425.623	240.5
425.846	237.5
426.068	237.5
426.291	241.5
426.513	228.5
426.735	237.5
426.958	227.5
427.18	227.5
427.402	225.5
427.625	217.5
427.847	242.5
428.069	231.5
428.292	234.5
428.514	230.5
428.736	210.5
428.958	222.5
429.181	227.5
429.403	218.5
429.625	207.5
429.847	231.5
430.069	214.5
430.292	220.5
430.514	238.5
430.736	235.5
430.958	209.5
431.18	221.5
431.402	217.5
431.624	208.5
431.846	239.5
432.068	220.5
432.29	217.5
432.512	231.5
432.734	234.5
432.956	232.5
433.178	223.5
433.4	223.5
433.622	232.5
433.844	236.5
434.066	217.5
434.287	211.5
434.509	239.5
434.731	240.5
434.953	227.5
435.175	268.5
435.397	231.5
435.618	230.5
435.84	217.5
436.062	208.5
436.284	221.5
436.505	214.5
436.727	207.5
436.949	208.5
437.17	229.5
437.392	211.5
437.614	206.5
437.835	212.5
438.057	224.5
438.278	210.5
438.5	211.5
438.721	194.5
438.943	226.5
439.165	238.5
439.386	223.5
439.608	222.5
439.829	210.5
440.05	222.5
440.272	207.5
440.493	227.5
440.715	223.5
440.936	226.5
441.158	225.5
441.379	233.5
441.6	253.5
441.822	249.5
442.043	265.5
442.264	231.5
442.486	224.5
442.707	230.5
442.928	215.5
443.149	223.5
443.371	226.5
443.592	251.5
443.813	261.5
444.034	266.5
444.255	228.5
444.476	254.5
444.698	258.5
444.919	290.5
445.14	386.5
445.361	325.5
445.582	263.5
445.803	234.5
446.024	219.5
446.245	211.5
446.466	237.5
446.687	220.5
446.908	231.5
447.129	230.5
447.35	231.5
447.571	215.5
447.792	200.5
448.013	232.5
448.234	210.5
448.455	211.5
448.675	203.5
448.896	206.5
449.117	207.5
449.338	204.5
449.559	210.5
449.779	209.5
450	194.5
450.221	201.5
450.442	206.5
450.662	206.5
450.883	210.5
451.104	223.5
451.324	223.5
451.545	213.5
451.766	223.5
451.986	221.5
452.207	215.5
452.428	224.5
452.648	217.5
452.869	207.5
453.089	217.5
453.31	200.5
453.53	209.5
453.751	218.5
453.971	209.5
454.192	222.5
454.412	207.5
454.633	206.5
454.853	199.5
455.073	210.5
455.294	206.5
455.514	205.5
455.734	203.5
455.955	199.5
456.175	188.5
456.395	201.5
456.616	193.5
456.836	187.5
457.056	185.5
457.276	207.5
457.497	203.5
457.717	211.5
457.937	207.5
458.157	200.5
458.377	220.5
458.598	213.5
458.818	205.5
459.038	225.5
459.258	216.5
459.478	208.5
459.698	228.5
459.918	242.5
460.138	230.5
460.358	256.5
460.578	255.5
460.798	238.5
461.018	262.5
461.238	257.5
461.458	239.5
461.678	258.5
461.898	255.5
462.118	255.5
462.338	255.5
462.558	261.5
462.777	285.5
462.997	304.5
463.217	332.5
463.437	315.5
463.657	293.5
463.876	301.5
464.096	287.5
464.316	292.5
464.536	290.5
464.755	278.5
464.975	274.5
465.195	248.5
465.414	255.5
465.634	228.5
465.854	233.5
466.073	234.5
466.293	235.5
466.512	239.5
466.732	217.5
466.951	218.5
467.171	211.5
467.391	230.5
467.61	228.5
467.829	205.5
468.049	225.5
468.268	221.5
468.488	224.5
468.707	215.5
468.927	227.5
469.146	216.5
469.365	224.5
469.585	215.5
469.804	220.5
470.023	225.5
470.243	239.5
470.462	224.5
470.681	233.5
470.901	231.5
471.12	226.5
471.339	226.5
471.558	224.5
471.777	227.5
471.997	221.5
472.216	223.5
472.435	223.5
472.654	217.5
472.873	214.5
473.092	208.5
473.311	198.5
473.53	214.5
473.749	201.5
473.968	216.5
474.187	209.5
474.406	200.5
474.625	211.5
474.844	219.5
475.063	208.5
475.282	223.5
475.501	223.5
475.72	226.5
475.939	202.5
476.158	209.5
476.377	229.5
476.596	214.5
476.814	203.5
477.033	224.5
477.252	232.5
477.471	231.5
477.69	234.5
477.908	221.5
478.127	260.5
478.346	260.5
478.564	252.5
478.783	237.5
479.002	246.5
479.22	234.5
479.439	230.5
479.658	253.5
479.876	245.5
480.095	238.5
480.313	257.5
480.532	268.5
480.751	273.5
480.969	265.5
481.188	256.5
481.406	246.5
481.624	242.5
481.843	249.5
482.061	232.5
482.28	242.5
482.498	234.5
482.717	242.5
482.935	241.5
483.153	230.5
483.372	230.5
483.59	250.5
483.808	243.5
484.027	230.5
484.245	239.5
484.463	244.5
484.681	269.5
484.9	241.5
485.118	242.5
485.336	262.5
485.554	241.5
485.772	265.5
485.99	250.5
486.209	254.5
486.427	255.5
486.645	273.5
486.863	255.5
487.081	257.5
487.299	261.5
487.517	242.5
487.735	251.5
487.953	274.5
488.171	264.5
488.389	266.5
488.607	243.5
488.825	228.5
489.043	241.5
489.261	223.5
489.479	246.5
489.696	259.5
489.914	239.5
490.132	260.5
490.35	253.5
490.568	265.5
490.786	253.5
491.003	255.5
491.221	261.5
491.439	255.5
491.657	245.5
491.874	256.5
492.092	239.5
492.31	274.5
492.527	265.5
492.745	271.5
492.963	273.5
493.18	274.5
493.398	266.5
493.615	278.5
493.833	268.5
494.05	262.5
494.268	255.5
494.485	255.5
494.703	258.5
494.92	250.5
495.138	264.5
495.355	269.5
495.573	261.5
495.79	257.5
496.008	274.5
496.225	278.5
496.442	263.5
496.66	270.5
496.877	282.5
497.094	266.5
497.312	272.5
497.529	278.5
497.746	282.5
497.963	299.5
498.181	301.5
498.398	299.5
498.615	324.5
498.832	355.5
499.049	366.5
499.267	397.5
499.484	424.5
499.701	445.5
499.918	511.5
500.135	571.5
500.352	630.5
500.569	666.5
500.786	674.5
501.003	623.5
501.22	564.5
501.437	489.5
501.654	439.5
501.871	418.5
502.088	389.5
502.305	361.5
502.522	346.5
502.739	334.5
502.956	321.5
503.172	310.5
503.389	303.5
503.606	288.5
503.823	281.5
504.04	297.5
504.256	296.5
504.473	291.5
504.69	312.5
504.907	303.5
505.123	290.5
505.34	260.5
505.557	248.5
505.773	261.5
505.99	259.5
506.207	252.5
506.423	265.5
506.64	261.5
506.856	247.5
507.073	230.5
507.289	239.5
507.506	245.5
507.722	246.5
507.939	265.5
508.155	232.5
508.372	249.5
508.588	240.5
508.805	244.5
509.021	231.5
509.238	237.5
509.454	238.5
509.67	241.5
509.887	228.5
510.103	235.5
510.319	226.5
510.536	237.5
510.752	214.5
510.968	236.5
511.184	243.5
511.401	231.5
511.617	230.5
511.833	221.5
512.049	231.5
512.265	227.5
512.481	257.5
512.698	221.5
512.914	234.5
513.13	242.5
513.346	221.5
513.562	232.5
513.778	230.5
513.994	225.5
514.21	208.5
514.426	220.5
514.642	216.5
514.858	249.5
515.074	229.5
515.29	239.5
515.506	247.5
515.721	244.5
515.937	229.5
516.153	242.5
516.369	262.5
516.585	243.5
516.801	267.5
517.016	282.5
517.232	279.5
517.448	285.5
517.664	298.5
517.879	285.5
518.095	283.5
518.311	297.5
518.527	285.5
518.742	280.5
518.958	261.5
519.173	257.5
519.389	260.5
519.605	249.5
519.82	220.5
520.036	227.5
520.251	230.5
520.467	233.5
520.682	226.5
520.898	234.5
521.113	249.5
521.329	240.5
521.544	238.5
