Data from 0.5MCu(NO3)2.Standard.Lamp.E10.CV._HRD10591_16-04-06-753.txt Node
Date: Mon Jul 22 16:04:06 EDT 2019
User: cochatt
Spectrometer: HR+D1059
Trigger mode: 1
Integration Time (sec): 1.000000E-1
Scans to average: 1
Electric dark correction enabled: true
Nonlinearity correction enabled: false
Boxcar width: 0
XAxis mode: Wavelengths
Number of Pixels in Spectrum: 2048
>>>>>Begin Spectral Data<<<<<
223.165	-15.06
223.4	-15.06
223.635	-15.06
223.869	-22.06
224.104	-7.06
224.338	-8.06
224.573	-2.06
224.808	-16.06
225.042	-6.06
225.277	-14.06
225.511	-10.06
225.746	-5.06
225.98	8.94
226.215	2.94
226.449	11.94
226.683	23.94
226.918	25.94
227.152	31.94
227.387	32.94
227.621	30.94
227.856	39.94
228.09	36.94
228.324	52.94
228.559	63.94
228.793	52.94
229.027	59.94
229.262	76.94
229.496	80.94
229.73	72.94
229.964	88.94
230.199	84.94
230.433	73.94
230.667	80.94
230.901	85.94
231.136	86.94
231.37	83.94
231.604	95.94
231.838	85.94
232.072	86.94
232.306	106.94
232.541	94.94
232.775	92.94
233.009	76.94
233.243	103.94
233.477	84.94
233.711	103.94
233.945	109.94
234.179	89.94
234.413	89.94
234.647	96.94
234.881	88.94
235.115	92.94
235.349	77.94
235.583	91.94
235.817	79.94
236.051	79.94
236.285	94.94
236.519	95.94
236.753	84.94
236.987	76.94
237.221	95.94
237.455	100.94
237.689	94.94
237.922	86.94
238.156	95.94
238.39	86.94
238.624	87.94
238.858	83.94
239.091	92.94
239.325	89.94
239.559	83.94
239.793	90.94
240.027	91.94
240.26	104.94
240.494	88.94
240.728	101.94
240.961	82.94
241.195	79.94
241.429	83.94
241.662	94.94
241.896	102.94
242.13	105.94
242.363	100.94
242.597	98.94
242.83	80.94
243.064	103.94
243.298	99.94
243.531	99.94
243.765	94.94
243.998	98.94
244.232	108.94
244.465	92.94
244.699	91.94
244.932	87.94
245.166	101.94
245.399	107.94
245.633	116.94
245.866	89.94
246.099	103.94
246.333	106.94
246.566	118.94
246.8	102.94
247.033	99.94
247.266	106.94
247.5	111.94
247.733	103.94
247.966	105.94
248.2	100.94
248.433	98.94
248.666	105.94
248.899	101.94
249.133	102.94
249.366	111.94
249.599	96.94
249.832	115.94
250.066	116.94
250.299	91.94
250.532	93.94
250.765	97.94
250.998	122.94
251.231	106.94
251.465	114.94
251.698	117.94
251.931	102.94
252.164	105.94
252.397	112.94
252.63	122.94
252.863	104.94
253.096	106.94
253.329	109.94
253.562	92.94
253.795	108.94
254.028	102.94
254.261	120.94
254.494	119.94
254.727	131.94
254.96	117.94
255.193	109.94
255.426	115.94
255.659	106.94
255.892	119.94
256.124	124.94
256.357	112.94
256.59	116.94
256.823	112.94
257.056	112.94
257.289	127.94
257.521	115.94
257.754	120.94
257.987	120.94
258.22	122.94
258.452	134.94
258.685	108.94
258.918	123.94
259.151	123.94
259.383	120.94
259.616	118.94
259.849	112.94
260.081	114.94
260.314	112.94
260.547	134.94
260.779	125.94
261.012	103.94
261.244	114.94
261.477	122.94
261.71	120.94
261.942	121.94
262.175	119.94
262.407	125.94
262.64	125.94
262.872	121.94
263.105	134.94
263.337	136.94
263.57	119.94
263.802	135.94
264.035	122.94
264.267	124.94
264.499	131.94
264.732	128.94
264.964	130.94
265.197	148.94
265.429	132.94
265.661	136.94
265.894	138.94
266.126	120.94
266.358	121.94
266.591	120.94
266.823	136.94
267.055	121.94
267.287	145.94
267.52	121.94
267.752	128.94
267.984	136.94
268.216	137.94
268.448	130.94
268.681	130.94
268.913	141.94
269.145	152.94
269.377	139.94
269.609	138.94
269.841	130.94
270.073	124.94
270.306	128.94
270.538	132.94
270.77	142.94
271.002	132.94
271.234	140.94
271.466	137.94
271.698	140.94
271.93	150.94
272.162	144.94
272.394	120.94
272.626	136.94
272.858	137.94
273.09	148.94
273.322	142.94
273.553	146.94
273.785	153.94
274.017	141.94
274.249	132.94
274.481	141.94
274.713	144.94
274.945	128.94
275.176	152.94
275.408	126.94
275.64	141.94
275.872	144.94
276.104	141.94
276.335	149.94
276.567	158.94
276.799	169.94
277.031	156.94
277.262	172.94
277.494	151.94
277.726	148.94
277.957	130.94
278.189	132.94
278.421	155.94
278.652	142.94
278.884	137.94
279.115	156.94
279.347	154.94
279.579	164.94
279.81	166.94
280.042	157.94
280.273	165.94
280.505	142.94
280.736	160.94
280.968	152.94
281.199	142.94
281.431	176.94
281.662	164.94
281.894	154.94
282.125	149.94
282.356	160.94
282.588	156.94
282.819	158.94
283.051	169.94
283.282	168.94
283.513	134.94
283.745	163.94
283.976	163.94
284.207	172.94
284.439	143.94
284.67	177.94
284.901	161.94
285.132	166.94
285.364	167.94
285.595	154.94
285.826	157.94
286.057	158.94
286.288	169.94
286.52	174.94
286.751	172.94
286.982	177.94
287.213	179.94
287.444	158.94
287.675	160.94
287.906	166.94
288.138	179.94
288.369	160.94
288.6	174.94
288.831	168.94
289.062	168.94
289.293	170.94
289.524	179.94
289.755	165.94
289.986	168.94
290.217	163.94
290.448	163.94
290.679	176.94
290.91	162.94
291.141	163.94
291.371	160.94
291.602	157.94
291.833	167.94
292.064	181.94
292.295	175.94
292.526	174.94
292.757	182.94
292.987	171.94
293.218	178.94
293.449	170.94
293.68	180.94
293.91	193.94
294.141	173.94
294.372	190.94
294.603	161.94
294.833	176.94
295.064	164.94
295.295	183.94
295.525	166.94
295.756	180.94
295.987	188.94
296.217	174.94
296.448	161.94
296.679	189.94
296.909	188.94
297.14	190.94
297.37	174.94
297.601	177.94
297.831	176.94
298.062	180.94
298.292	177.94
298.523	191.94
298.753	196.94
298.984	194.94
299.214	166.94
299.445	189.94
299.675	178.94
299.905	195.94
300.136	184.94
300.366	178.94
300.597	184.94
300.827	207.94
301.057	199.94
301.288	206.94
301.518	196.94
301.748	209.94
301.979	201.94
302.209	201.94
302.439	187.94
302.669	199.94
302.9	200.94
303.13	189.94
303.36	185.94
303.59	185.94
303.82	189.94
304.051	212.94
304.281	186.94
304.511	191.94
304.741	183.94
304.971	198.94
305.201	196.94
305.431	185.94
305.661	205.94
305.891	199.94
306.121	196.94
306.352	190.94
306.582	186.94
306.812	185.94
307.042	176.94
307.272	178.94
307.502	180.94
307.731	192.94
307.961	192.94
308.191	194.94
308.421	201.94
308.651	206.94
308.881	190.94
309.111	188.94
309.341	192.94
309.571	193.94
309.8	194.94
310.03	183.94
310.26	197.94
310.49	194.94
310.72	177.94
310.949	191.94
311.179	200.94
311.409	184.94
311.639	193.94
311.868	198.94
312.098	198.94
312.328	209.94
312.557	198.94
312.787	199.94
313.017	198.94
313.246	209.94
313.476	193.94
313.706	211.94
313.935	205.94
314.165	201.94
314.394	207.94
314.624	197.94
314.853	199.94
315.083	198.94
315.312	198.94
315.542	215.94
315.771	213.94
316.001	193.94
316.23	188.94
316.46	196.94
316.689	184.94
316.919	191.94
317.148	198.94
317.377	216.94
317.607	198.94
317.836	190.94
318.065	197.94
318.295	203.94
318.524	198.94
318.753	201.94
318.983	204.94
319.212	187.94
319.441	208.94
319.67	209.94
319.9	205.94
320.129	189.94
320.358	208.94
320.587	199.94
320.816	197.94
321.046	190.94
321.275	204.94
321.504	200.94
321.733	201.94
321.962	205.94
322.191	197.94
322.42	203.94
322.649	176.94
322.878	186.94
323.108	198.94
323.337	200.94
323.566	187.94
323.795	199.94
324.024	189.94
324.253	209.94
324.482	208.94
324.71	205.94
324.939	196.94
325.168	213.94
325.397	203.94
325.626	208.94
325.855	197.94
326.084	206.94
326.313	207.94
326.542	217.94
326.77	225.94
326.999	205.94
327.228	210.94
327.457	202.94
327.686	202.94
327.914	209.94
328.143	188.94
328.372	205.94
328.6	213.94
328.829	213.94
329.058	202.94
329.287	211.94
329.515	207.94
329.744	225.94
329.972	211.94
330.201	202.94
330.43	213.94
330.658	221.94
330.887	233.94
331.115	213.94
331.344	213.94
331.572	221.94
331.801	225.94
332.03	232.94
332.258	233.94
332.486	235.94
332.715	260.94
332.943	254.94
333.172	265.94
333.4	268.94
333.629	289.94
333.857	276.94
334.085	265.94
334.314	266.94
334.542	275.94
334.771	261.94
334.999	249.94
335.227	254.94
335.455	256.94
335.684	250.94
335.912	259.94
336.14	231.94
336.369	237.94
336.597	228.94
336.825	236.94
337.053	231.94
337.281	248.94
337.51	244.94
337.738	227.94
337.966	212.94
338.194	224.94
338.422	200.94
338.65	228.94
338.878	218.94
339.106	225.94
339.334	222.94
339.562	234.94
339.79	224.94
340.018	222.94
340.246	226.94
340.474	217.94
340.702	215.94
340.93	227.94
341.158	229.94
341.386	201.94
341.614	214.94
341.842	206.94
342.07	210.94
342.298	211.94
342.526	195.94
342.754	209.94
342.981	206.94
343.209	215.94
343.437	213.94
343.665	224.94
343.893	255.94
344.12	274.94
344.348	242.94
344.576	234.94
344.804	250.94
345.031	227.94
345.259	220.94
345.487	213.94
345.714	213.94
345.942	230.94
346.17	208.94
346.397	201.94
346.625	211.94
346.853	202.94
347.08	216.94
347.308	225.94
347.535	193.94
347.763	188.94
347.99	209.94
348.218	230.94
348.445	226.94
348.673	212.94
348.9	204.94
349.128	222.94
349.355	197.94
349.583	217.94
349.81	215.94
350.037	192.94
350.265	195.94
350.492	215.94
350.72	192.94
350.947	215.94
351.174	219.94
351.402	208.94
351.629	206.94
351.856	208.94
352.083	199.94
352.311	194.94
352.538	207.94
352.765	215.94
352.992	212.94
353.22	198.94
353.447	199.94
353.674	198.94
353.901	188.94
354.128	185.94
354.355	188.94
354.583	203.94
354.81	194.94
355.037	196.94
355.264	212.94
355.491	218.94
355.718	208.94
355.945	217.94
356.172	209.94
356.399	209.94
356.626	212.94
356.853	197.94
357.08	205.94
357.307	196.94
357.534	195.94
357.761	204.94
357.988	207.94
358.215	206.94
358.441	222.94
358.668	224.94
358.895	199.94
359.122	204.94
359.349	213.94
359.576	221.94
359.802	194.94
360.029	197.94
360.256	219.94
360.483	196.94
360.709	204.94
360.936	211.94
361.163	202.94
361.39	208.94
361.616	215.94
361.843	198.94
362.07	204.94
362.296	216.94
362.523	202.94
362.749	205.94
362.976	203.94
363.203	211.94
363.429	207.94
363.656	212.94
363.882	207.94
364.109	209.94
364.335	208.94
364.562	210.94
364.788	208.94
365.015	208.94
365.241	208.94
365.468	202.94
365.694	204.94
365.92	204.94
366.147	201.94
366.373	209.94
366.599	213.94
366.826	195.94
367.052	204.94
367.278	203.94
367.505	211.94
367.731	215.94
367.957	211.94
368.184	202.94
368.41	208.94
368.636	192.94
368.862	207.94
369.089	204.94
369.315	212.94
369.541	226.94
369.767	229.94
369.993	211.94
370.219	198.94
370.445	212.94
370.672	216.94
370.898	206.94
371.124	210.94
371.35	215.94
371.576	211.94
371.802	220.94
372.028	210.94
372.254	220.94
372.48	221.94
372.706	228.94
372.932	239.94
373.158	240.94
373.384	226.94
373.61	202.94
373.835	193.94
374.061	212.94
374.287	227.94
374.513	220.94
374.739	231.94
374.965	223.94
375.191	236.94
375.416	236.94
375.642	236.94
375.868	229.94
376.094	218.94
376.319	227.94
376.545	229.94
376.771	228.94
376.997	212.94
377.222	205.94
377.448	203.94
377.674	197.94
377.899	215.94
378.125	203.94
378.35	212.94
378.576	213.94
378.802	217.94
379.027	213.94
379.253	206.94
379.478	226.94
379.704	218.94
379.929	204.94
380.155	200.94
380.38	208.94
380.606	204.94
380.831	220.94
381.057	220.94
381.282	197.94
381.507	212.94
381.733	230.94
381.958	212.94
382.184	209.94
382.409	213.94
382.634	221.94
382.86	229.94
383.085	241.94
383.31	217.94
383.535	229.94
383.761	248.94
383.986	239.94
384.211	252.94
384.436	224.94
384.662	248.94
384.887	244.94
385.112	236.94
385.337	242.94
385.562	265.94
385.787	255.94
386.013	262.94
386.238	250.94
386.463	262.94
386.688	253.94
386.913	255.94
387.138	228.94
387.363	234.94
387.588	236.94
387.813	262.94
388.038	254.94
388.263	245.94
388.488	240.94
388.713	250.94
388.938	222.94
389.163	244.94
389.387	248.94
389.612	241.94
389.837	225.94
390.062	233.94
390.287	224.94
390.512	251.94
390.736	236.94
390.961	241.94
391.186	237.94
391.411	273.94
391.636	262.94
391.86	270.94
392.085	280.94
392.31	283.94
392.534	273.94
392.759	257.94
392.984	272.94
393.208	269.94
393.433	249.94
393.658	254.94
393.882	261.94
394.107	267.94
394.331	274.94
394.556	260.94
394.78	272.94
395.005	274.94
395.229	245.94
395.454	252.94
395.678	276.94
395.903	279.94
396.127	264.94
396.352	246.94
396.576	260.94
396.801	262.94
397.025	254.94
397.249	274.94
397.474	277.94
397.698	257.94
397.922	273.94
398.147	259.94
398.371	265.94
398.595	289.94
398.82	277.94
399.044	291.94
399.268	321.94
399.492	367.94
399.717	438.94
399.941	400.94
400.165	377.94
400.389	348.94
400.613	316.94
400.837	273.94
401.062	290.94
401.286	287.94
401.51	277.94
401.734	283.94
401.958	279.94
402.182	306.94
402.406	307.94
402.63	297.94
402.854	295.94
403.078	310.94
403.302	327.94
403.526	324.94
403.75	315.94
403.974	353.94
404.198	337.94
404.422	341.94
404.645	344.94
404.869	333.94
405.093	316.94
405.317	318.94
405.541	313.94
405.765	321.94
405.988	317.94
406.212	316.94
406.436	307.94
406.66	320.94
406.883	334.94
407.107	358.94
407.331	357.94
407.555	345.94
407.778	359.94
408.002	357.94
408.226	343.94
408.449	353.94
408.673	321.94
408.896	322.94
409.12	324.94
409.344	312.94
409.567	312.94
409.791	345.94
410.014	309.94
410.238	308.94
410.461	327.94
410.685	315.94
410.908	321.94
411.132	308.94
411.355	317.94
411.578	304.94
411.802	278.94
412.025	289.94
412.249	311.94
412.472	316.94
412.695	304.94
412.919	289.94
413.142	291.94
413.365	291.94
413.589	285.94
413.812	287.94
414.035	284.94
414.258	279.94
414.482	289.94
414.705	295.94
414.928	287.94
415.151	276.94
415.374	289.94
415.597	272.94
415.821	294.94
416.044	295.94
416.267	283.94
416.49	281.94
416.713	284.94
416.936	284.94
417.159	272.94
417.382	272.94
417.605	263.94
417.828	276.94
418.051	275.94
418.274	287.94
418.497	296.94
418.72	301.94
418.943	284.94
419.166	323.94
419.389	322.94
419.611	311.94
419.834	297.94
420.057	290.94
420.28	318.94
420.503	283.94
420.726	278.94
420.948	273.94
421.171	282.94
421.394	284.94
421.617	289.94
421.839	286.94
422.062	290.94
422.285	264.94
422.507	293.94
422.73	313.94
422.953	283.94
423.175	320.94
423.398	294.94
423.621	287.94
423.843	314.94
424.066	304.94
424.288	304.94
424.511	306.94
424.733	301.94
424.956	271.94
425.178	284.94
425.401	290.94
425.623	292.94
425.846	290.94
426.068	295.94
426.291	281.94
426.513	271.94
426.735	280.94
426.958	275.94
427.18	275.94
427.402	263.94
427.625	258.94
427.847	255.94
428.069	269.94
428.292	280.94
428.514	260.94
428.736	261.94
428.958	268.94
429.181	242.94
429.403	253.94
429.625	244.94
429.847	244.94
430.069	247.94
430.292	260.94
430.514	259.94
430.736	260.94
430.958	258.94
431.18	274.94
431.402	255.94
431.624	249.94
431.846	269.94
432.068	246.94
432.29	270.94
432.512	266.94
432.734	269.94
432.956	254.94
433.178	250.94
433.4	256.94
433.622	256.94
433.844	257.94
434.066	273.94
434.287	289.94
434.509	287.94
434.731	288.94
434.953	294.94
435.175	293.94
435.397	285.94
435.618	270.94
435.84	272.94
436.062	258.94
436.284	260.94
436.505	265.94
436.727	248.94
436.949	266.94
437.17	244.94
437.392	255.94
437.614	256.94
437.835	250.94
438.057	251.94
438.278	248.94
438.5	237.94
438.721	237.94
438.943	252.94
439.165	259.94
439.386	254.94
439.608	252.94
439.829	249.94
440.05	270.94
440.272	243.94
440.493	250.94
440.715	266.94
440.936	228.94
441.158	257.94
441.379	276.94
441.6	288.94
441.822	296.94
442.043	318.94
442.264	281.94
442.486	277.94
442.707	278.94
442.928	308.94
443.149	262.94
443.371	276.94
443.592	274.94
443.813	296.94
444.034	296.94
444.255	301.94
444.476	318.94
444.698	327.94
444.919	354.94
445.14	463.94
445.361	365.94
445.582	302.94
445.803	268.94
446.024	270.94
446.245	273.94
446.466	257.94
446.687	247.94
446.908	269.94
447.129	261.94
447.35	249.94
447.571	239.94
447.792	246.94
448.013	253.94
448.234	235.94
448.455	230.94
448.675	239.94
448.896	260.94
449.117	251.94
449.338	244.94
449.559	236.94
449.779	220.94
450	250.94
450.221	232.94
450.442	233.94
450.662	257.94
450.883	249.94
451.104	242.94
451.324	230.94
451.545	250.94
451.766	255.94
451.986	232.94
452.207	257.94
452.428	240.94
452.648	250.94
452.869	257.94
453.089	244.94
453.31	260.94
453.53	237.94
453.751	242.94
453.971	239.94
454.192	260.94
454.412	239.94
454.633	243.94
454.853	230.94
455.073	232.94
455.294	225.94
455.514	225.94
455.734	206.94
455.955	225.94
456.175	215.94
456.395	213.94
456.616	225.94
456.836	232.94
457.056	230.94
457.276	241.94
457.497	227.94
457.717	225.94
457.937	229.94
458.157	221.94
458.377	237.94
458.598	246.94
458.818	252.94
459.038	244.94
459.258	241.94
459.478	264.94
459.698	263.94
459.918	292.94
460.138	284.94
460.358	296.94
460.578	313.94
460.798	315.94
461.018	302.94
461.238	304.94
461.458	302.94
461.678	304.94
461.898	289.94
462.118	309.94
462.338	331.94
462.558	334.94
462.777	338.94
462.997	372.94
463.217	416.94
463.437	400.94
463.657	371.94
463.876	323.94
464.096	343.94
464.316	351.94
464.536	344.94
464.755	334.94
464.975	325.94
465.195	326.94
465.414	306.94
465.634	285.94
465.854	265.94
466.073	291.94
466.293	256.94
466.512	268.94
466.732	238.94
466.951	262.94
467.171	255.94
467.391	265.94
467.61	252.94
467.829	277.94
468.049	259.94
468.268	244.94
468.488	263.94
468.707	232.94
468.927	251.94
469.146	238.94
469.365	266.94
469.585	264.94
469.804	257.94
470.023	258.94
470.243	267.94
470.462	250.94
470.681	276.94
470.901	254.94
471.12	260.94
471.339	253.94
471.558	255.94
471.777	230.94
471.997	247.94
472.216	261.94
472.435	245.94
472.654	258.94
472.873	254.94
473.092	226.94
473.311	258.94
473.53	252.94
473.749	223.94
473.968	239.94
474.187	260.94
474.406	227.94
474.625	238.94
474.844	248.94
475.063	243.94
475.282	259.94
475.501	245.94
475.72	238.94
475.939	256.94
476.158	250.94
476.377	243.94
476.596	261.94
476.814	248.94
477.033	254.94
477.252	256.94
477.471	274.94
477.69	266.94
477.908	283.94
478.127	287.94
478.346	308.94
478.564	285.94
478.783	272.94
479.002	296.94
479.22	297.94
479.439	305.94
479.658	292.94
479.876	295.94
480.095	321.94
480.313	295.94
480.532	290.94
480.751	323.94
480.969	305.94
481.188	281.94
481.406	300.94
481.624	272.94
481.843	267.94
482.061	257.94
482.28	275.94
482.498	252.94
482.717	254.94
482.935	280.94
483.153	284.94
483.372	278.94
483.59	277.94
483.808	278.94
484.027	278.94
484.245	297.94
484.463	280.94
484.681	312.94
484.9	301.94
485.118	300.94
485.336	304.94
485.554	288.94
485.772	285.94
485.99	292.94
486.209	304.94
486.427	312.94
486.645	305.94
486.863	289.94
487.081	296.94
487.299	299.94
487.517	298.94
487.735	306.94
487.953	289.94
488.171	294.94
488.389	284.94
488.607	305.94
488.825	279.94
489.043	290.94
489.261	296.94
489.479	296.94
489.696	306.94
489.914	300.94
490.132	294.94
490.35	294.94
490.568	301.94
490.786	306.94
491.003	294.94
491.221	285.94
491.439	280.94
491.657	300.94
491.874	294.94
492.092	297.94
492.31	304.94
492.527	289.94
492.745	296.94
492.963	312.94
493.18	288.94
493.398	304.94
493.615	313.94
493.833	310.94
494.05	302.94
494.268	293.94
494.485	296.94
494.703	319.94
494.92	306.94
495.138	324.94
495.355	308.94
495.573	269.94
495.79	290.94
496.008	324.94
496.225	310.94
496.442	326.94
496.66	316.94
496.877	312.94
497.094	334.94
497.312	327.94
497.529	327.94
497.746	348.94
497.963	344.94
498.181	356.94
498.398	385.94
498.615	401.94
498.832	386.94
499.049	436.94
499.267	472.94
499.484	530.94
499.701	557.94
499.918	643.94
500.135	685.94
500.352	800.94
500.569	890.94
500.786	856.94
501.003	773.94
501.22	680.94
501.437	630.94
501.654	537.94
501.871	500.94
502.088	463.94
502.305	426.94
502.522	418.94
502.739	398.94
502.956	394.94
503.172	351.94
