Data from 0.5MCu(NO3)2.Standard.Lamp.E10.CV._HRD10591_16-06-34-754.txt Node
Date: Mon Jul 22 16:06:34 EDT 2019
User: cochatt
Spectrometer: HR+D1059
Trigger mode: 1
Integration Time (sec): 1.000000E-1
Scans to average: 1
Electric dark correction enabled: true
Nonlinearity correction enabled: false
Boxcar width: 0
XAxis mode: Wavelengths
Number of Pixels in Spectrum: 2048
>>>>>Begin Spectral Data<<<<<
223.165	-21.75
223.4	-21.75
223.635	-21.75
223.869	-10.75
224.104	-15.75
224.338	-31.75
224.573	-7.75
224.808	-18.75
225.042	-4.75
225.277	-9.75
225.511	-9.75
225.746	23.25
225.98	17.25
226.215	19.25
226.449	9.25
226.683	13.25
226.918	15.25
227.152	33.25
227.387	25.25
227.621	29.25
227.856	38.25
228.09	45.25
228.324	42.25
228.559	54.25
228.793	65.25
229.027	49.25
229.262	59.25
229.496	82.25
229.73	68.25
229.964	84.25
230.199	86.25
230.433	71.25
230.667	105.25
230.901	94.25
231.136	84.25
231.37	86.25
231.604	85.25
231.838	85.25
232.072	110.25
232.306	94.25
232.541	89.25
232.775	107.25
233.009	93.25
233.243	94.25
233.477	95.25
233.711	94.25
233.945	86.25
234.179	90.25
234.413	87.25
234.647	90.25
234.881	86.25
235.115	108.25
235.349	93.25
235.583	103.25
235.817	86.25
236.051	98.25
236.285	78.25
236.519	92.25
236.753	91.25
236.987	90.25
237.221	89.25
237.455	71.25
237.689	93.25
237.922	88.25
238.156	98.25
238.39	93.25
238.624	76.25
238.858	92.25
239.091	104.25
239.325	80.25
239.559	94.25
239.793	95.25
240.027	93.25
240.26	103.25
240.494	101.25
240.728	92.25
240.961	102.25
241.195	108.25
241.429	97.25
241.662	80.25
241.896	92.25
242.13	94.25
242.363	86.25
242.597	90.25
242.83	90.25
243.064	105.25
243.298	108.25
243.531	103.25
243.765	117.25
243.998	94.25
244.232	104.25
244.465	93.25
244.699	102.25
244.932	97.25
245.166	87.25
245.399	100.25
245.633	109.25
245.866	105.25
246.099	103.25
246.333	92.25
246.566	102.25
246.8	100.25
247.033	101.25
247.266	93.25
247.5	100.25
247.733	110.25
247.966	113.25
248.2	95.25
248.433	95.25
248.666	114.25
248.899	92.25
249.133	121.25
249.366	102.25
249.599	106.25
249.832	120.25
250.066	113.25
250.299	102.25
250.532	109.25
250.765	114.25
250.998	120.25
251.231	116.25
251.465	100.25
251.698	129.25
251.931	104.25
252.164	119.25
252.397	107.25
252.63	104.25
252.863	114.25
253.096	115.25
253.329	113.25
253.562	114.25
253.795	116.25
254.028	129.25
254.261	114.25
254.494	119.25
254.727	121.25
254.96	130.25
255.193	113.25
255.426	125.25
255.659	115.25
255.892	108.25
256.124	118.25
256.357	119.25
256.59	122.25
256.823	121.25
257.056	127.25
257.289	127.25
257.521	115.25
257.754	119.25
257.987	112.25
258.22	126.25
258.452	120.25
258.685	122.25
258.918	129.25
259.151	133.25
259.383	126.25
259.616	116.25
259.849	117.25
260.081	121.25
260.314	119.25
260.547	111.25
260.779	127.25
261.012	119.25
261.244	128.25
261.477	106.25
261.71	124.25
261.942	115.25
262.175	122.25
262.407	126.25
262.64	105.25
262.872	102.25
263.105	116.25
263.337	120.25
263.57	124.25
263.802	135.25
264.035	115.25
264.267	120.25
264.499	121.25
264.732	136.25
264.964	147.25
265.197	125.25
265.429	121.25
265.661	132.25
265.894	127.25
266.126	130.25
266.358	136.25
266.591	126.25
266.823	125.25
267.055	131.25
267.287	135.25
267.52	138.25
267.752	137.25
267.984	136.25
268.216	137.25
268.448	142.25
268.681	145.25
268.913	141.25
269.145	123.25
269.377	138.25
269.609	133.25
269.841	132.25
270.073	133.25
270.306	121.25
270.538	139.25
270.77	146.25
271.002	123.25
271.234	151.25
271.466	134.25
271.698	130.25
271.93	130.25
272.162	138.25
272.394	134.25
272.626	143.25
272.858	140.25
273.09	139.25
273.322	144.25
273.553	133.25
273.785	150.25
274.017	137.25
274.249	125.25
274.481	144.25
274.713	137.25
274.945	143.25
275.176	146.25
275.408	144.25
275.64	159.25
275.872	147.25
276.104	132.25
276.335	136.25
276.567	155.25
276.799	153.25
277.031	161.25
277.262	149.25
277.494	139.25
277.726	161.25
277.957	144.25
278.189	150.25
278.421	153.25
278.652	157.25
278.884	150.25
279.115	153.25
279.347	147.25
279.579	148.25
279.81	146.25
280.042	169.25
280.273	155.25
280.505	155.25
280.736	154.25
280.968	159.25
281.199	162.25
281.431	154.25
281.662	156.25
281.894	156.25
282.125	140.25
282.356	147.25
282.588	149.25
282.819	148.25
283.051	160.25
283.282	150.25
283.513	158.25
283.745	156.25
283.976	159.25
284.207	172.25
284.439	149.25
284.67	158.25
284.901	159.25
285.132	164.25
285.364	162.25
285.595	174.25
285.826	169.25
286.057	158.25
286.288	154.25
286.52	152.25
286.751	173.25
286.982	166.25
287.213	175.25
287.444	162.25
287.675	164.25
287.906	165.25
288.138	150.25
288.369	169.25
288.6	184.25
288.831	163.25
289.062	165.25
289.293	168.25
289.524	173.25
289.755	177.25
289.986	181.25
290.217	173.25
290.448	161.25
290.679	172.25
290.91	168.25
291.141	173.25
291.371	174.25
291.602	177.25
291.833	164.25
292.064	170.25
292.295	170.25
292.526	186.25
292.757	168.25
292.987	167.25
293.218	164.25
293.449	165.25
293.68	172.25
293.91	180.25
294.141	171.25
294.372	178.25
294.603	169.25
294.833	174.25
295.064	186.25
295.295	170.25
295.525	174.25
295.756	170.25
295.987	175.25
296.217	174.25
296.448	151.25
296.679	167.25
296.909	200.25
297.14	185.25
297.37	192.25
297.601	189.25
297.831	182.25
298.062	193.25
298.292	195.25
298.523	166.25
298.753	180.25
298.984	167.25
299.214	177.25
299.445	204.25
299.675	201.25
299.905	193.25
300.136	185.25
300.366	194.25
300.597	183.25
300.827	197.25
301.057	183.25
301.288	198.25
301.518	191.25
301.748	203.25
301.979	180.25
302.209	192.25
302.439	181.25
302.669	186.25
302.9	199.25
303.13	203.25
303.36	181.25
303.59	191.25
303.82	195.25
304.051	166.25
304.281	186.25
304.511	176.25
304.741	182.25
304.971	172.25
305.201	193.25
305.431	182.25
305.661	195.25
305.891	195.25
306.121	184.25
306.352	182.25
306.582	189.25
306.812	188.25
307.042	194.25
307.272	175.25
307.502	188.25
307.731	185.25
307.961	195.25
308.191	179.25
308.421	196.25
308.651	195.25
308.881	168.25
309.111	178.25
309.341	179.25
309.571	193.25
309.8	199.25
310.03	193.25
310.26	198.25
310.49	181.25
310.72	168.25
310.949	173.25
311.179	183.25
311.409	181.25
311.639	198.25
311.868	184.25
312.098	193.25
312.328	198.25
312.557	167.25
312.787	210.25
313.017	204.25
313.246	206.25
313.476	189.25
313.706	186.25
313.935	202.25
314.165	208.25
314.394	199.25
314.624	182.25
314.853	203.25
315.083	189.25
315.312	203.25
315.542	184.25
315.771	198.25
316.001	179.25
316.23	184.25
316.46	194.25
316.689	177.25
316.919	189.25
317.148	190.25
317.377	181.25
317.607	188.25
317.836	200.25
318.065	201.25
318.295	211.25
318.524	186.25
318.753	188.25
318.983	186.25
319.212	196.25
319.441	201.25
319.67	189.25
319.9	203.25
320.129	196.25
320.358	195.25
320.587	178.25
320.816	197.25
321.046	189.25
321.275	203.25
321.504	180.25
321.733	197.25
321.962	194.25
322.191	186.25
322.42	207.25
322.649	174.25
322.878	189.25
323.108	197.25
323.337	173.25
323.566	179.25
323.795	191.25
324.024	213.25
324.253	187.25
324.482	195.25
324.71	217.25
324.939	209.25
325.168	194.25
325.397	206.25
325.626	209.25
325.855	197.25
326.084	216.25
326.313	188.25
326.542	230.25
326.77	202.25
326.999	200.25
327.228	197.25
327.457	195.25
327.686	215.25
327.914	205.25
328.143	197.25
328.372	193.25
328.6	217.25
328.829	199.25
329.058	208.25
329.287	205.25
329.515	195.25
329.744	208.25
329.972	210.25
330.201	213.25
330.43	209.25
330.658	195.25
330.887	201.25
331.115	215.25
331.344	214.25
331.572	209.25
331.801	226.25
332.03	219.25
332.258	211.25
332.486	227.25
332.715	225.25
332.943	233.25
333.172	250.25
333.4	252.25
333.629	254.25
333.857	261.25
334.085	232.25
334.314	226.25
334.542	242.25
334.771	245.25
334.999	230.25
335.227	229.25
335.455	221.25
335.684	223.25
335.912	237.25
336.14	237.25
336.369	239.25
336.597	233.25
336.825	238.25
337.053	230.25
337.281	234.25
337.51	231.25
337.738	218.25
337.966	232.25
338.194	210.25
338.422	219.25
338.65	215.25
338.878	231.25
339.106	226.25
339.334	229.25
339.562	221.25
339.79	213.25
340.018	226.25
340.246	206.25
340.474	200.25
340.702	208.25
340.93	216.25
341.158	212.25
341.386	193.25
341.614	206.25
341.842	200.25
342.07	191.25
342.298	203.25
342.526	217.25
342.754	210.25
342.981	218.25
343.209	222.25
343.437	241.25
343.665	234.25
343.893	261.25
344.12	237.25
344.348	241.25
344.576	214.25
344.804	207.25
345.031	205.25
345.259	207.25
345.487	204.25
345.714	208.25
345.942	211.25
346.17	209.25
346.397	211.25
346.625	204.25
346.853	204.25
347.08	208.25
347.308	201.25
347.535	218.25
347.763	216.25
347.99	222.25
348.218	228.25
348.445	227.25
348.673	203.25
348.9	209.25
349.128	199.25
349.355	190.25
349.583	190.25
349.81	201.25
350.037	189.25
350.265	184.25
350.492	190.25
350.72	191.25
350.947	206.25
351.174	194.25
351.402	205.25
351.629	193.25
351.856	204.25
352.083	185.25
352.311	191.25
352.538	188.25
352.765	196.25
352.992	203.25
353.22	195.25
353.447	195.25
353.674	196.25
353.901	206.25
354.128	197.25
354.355	189.25
354.583	189.25
354.81	203.25
355.037	195.25
355.264	203.25
355.491	201.25
355.718	191.25
355.945	202.25
356.172	195.25
356.399	191.25
356.626	210.25
356.853	209.25
357.08	197.25
357.307	182.25
357.534	202.25
357.761	206.25
357.988	206.25
358.215	202.25
358.441	209.25
358.668	202.25
358.895	197.25
359.122	187.25
359.349	196.25
359.576	181.25
359.802	218.25
360.029	206.25
360.256	197.25
360.483	193.25
360.709	204.25
360.936	213.25
361.163	187.25
361.39	191.25
361.616	188.25
361.843	208.25
362.07	202.25
362.296	205.25
362.523	194.25
362.749	193.25
362.976	181.25
363.203	206.25
363.429	188.25
363.656	190.25
363.882	202.25
364.109	200.25
364.335	196.25
364.562	215.25
364.788	197.25
365.015	190.25
365.241	202.25
365.468	194.25
365.694	167.25
365.92	200.25
366.147	196.25
366.373	203.25
366.599	215.25
366.826	198.25
367.052	201.25
367.278	205.25
367.505	201.25
367.731	197.25
367.957	201.25
368.184	195.25
368.41	184.25
368.636	202.25
368.862	206.25
369.089	196.25
369.315	200.25
369.541	185.25
369.767	197.25
369.993	186.25
370.219	191.25
370.445	210.25
370.672	203.25
370.898	203.25
371.124	187.25
371.35	199.25
371.576	190.25
371.802	211.25
372.028	207.25
372.254	198.25
372.48	219.25
372.706	218.25
372.932	211.25
373.158	218.25
373.384	216.25
373.61	214.25
373.835	220.25
374.061	205.25
374.287	191.25
374.513	216.25
374.739	217.25
374.965	219.25
375.191	213.25
375.416	221.25
375.642	217.25
375.868	222.25
376.094	218.25
376.319	206.25
376.545	222.25
376.771	215.25
376.997	197.25
377.222	193.25
377.448	190.25
377.674	205.25
377.899	202.25
378.125	193.25
378.35	199.25
378.576	221.25
378.802	216.25
379.027	223.25
379.253	197.25
379.478	197.25
379.704	189.25
379.929	196.25
380.155	194.25
380.38	216.25
380.606	193.25
380.831	197.25
381.057	205.25
381.282	192.25
381.507	197.25
381.733	216.25
381.958	211.25
382.184	213.25
382.409	196.25
382.634	224.25
382.86	212.25
383.085	201.25
383.31	209.25
383.535	212.25
383.761	215.25
383.986	217.25
384.211	224.25
384.436	227.25
384.662	220.25
384.887	229.25
385.112	243.25
385.337	231.25
385.562	251.25
385.787	231.25
386.013	243.25
386.238	243.25
386.463	241.25
386.688	242.25
386.913	226.25
387.138	246.25
387.363	237.25
387.588	231.25
387.813	215.25
388.038	227.25
388.263	242.25
388.488	225.25
388.713	236.25
388.938	225.25
389.163	238.25
389.387	217.25
389.612	226.25
389.837	224.25
390.062	209.25
390.287	233.25
390.512	238.25
390.736	230.25
390.961	221.25
391.186	219.25
391.411	236.25
391.636	248.25
391.86	235.25
392.085	258.25
392.31	269.25
392.534	236.25
392.759	222.25
392.984	225.25
393.208	239.25
393.433	245.25
393.658	263.25
393.882	259.25
394.107	249.25
394.331	245.25
394.556	264.25
394.78	252.25
395.005	244.25
395.229	254.25
395.454	235.25
395.678	243.25
395.903	244.25
396.127	243.25
396.352	269.25
396.576	250.25
396.801	243.25
397.025	253.25
397.249	247.25
397.474	246.25
397.698	243.25
397.922	232.25
398.147	256.25
398.371	259.25
398.595	266.25
398.82	263.25
399.044	267.25
399.268	314.25
399.492	347.25
399.717	404.25
399.941	385.25
400.165	358.25
400.389	326.25
400.613	289.25
400.837	284.25
401.062	285.25
401.286	253.25
401.51	262.25
401.734	256.25
401.958	277.25
402.182	272.25
402.406	266.25
402.63	279.25
402.854	301.25
403.078	296.25
403.302	287.25
403.526	318.25
403.75	299.25
403.974	313.25
404.198	312.25
404.422	320.25
404.645	320.25
404.869	299.25
405.093	296.25
405.317	295.25
405.541	310.25
405.765	292.25
405.988	298.25
406.212	294.25
406.436	283.25
406.66	318.25
406.883	293.25
407.107	309.25
407.331	354.25
407.555	341.25
407.778	347.25
408.002	334.25
408.226	330.25
408.449	302.25
408.673	313.25
408.896	289.25
409.12	299.25
409.344	302.25
409.567	297.25
409.791	316.25
410.014	309.25
410.238	305.25
410.461	289.25
410.685	279.25
410.908	284.25
411.132	268.25
411.355	269.25
411.578	264.25
411.802	280.25
412.025	287.25
412.249	287.25
412.472	278.25
412.695	287.25
412.919	288.25
413.142	255.25
413.365	263.25
413.589	250.25
413.812	269.25
414.035	246.25
414.258	267.25
414.482	259.25
414.705	263.25
414.928	290.25
415.151	285.25
415.374	277.25
415.597	276.25
415.821	266.25
416.044	263.25
416.267	260.25
416.49	283.25
416.713	265.25
416.936	275.25
417.159	261.25
417.382	273.25
417.605	254.25
417.828	262.25
418.051	272.25
418.274	279.25
418.497	264.25
418.72	283.25
418.943	269.25
419.166	285.25
419.389	285.25
419.611	306.25
419.834	282.25
420.057	282.25
420.28	278.25
420.503	267.25
420.726	266.25
420.948	267.25
421.171	257.25
421.394	290.25
421.617	263.25
421.839	280.25
422.062	290.25
422.285	265.25
422.507	279.25
422.73	295.25
422.953	283.25
423.175	293.25
423.398	297.25
423.621	299.25
423.843	276.25
424.066	296.25
424.288	282.25
424.511	282.25
424.733	274.25
424.956	258.25
425.178	264.25
425.401	251.25
425.623	263.25
425.846	261.25
426.068	266.25
426.291	259.25
426.513	254.25
426.735	254.25
426.958	246.25
427.18	247.25
427.402	260.25
427.625	264.25
427.847	252.25
428.069	231.25
428.292	264.25
428.514	271.25
428.736	254.25
428.958	242.25
429.181	227.25
429.403	236.25
429.625	231.25
429.847	232.25
430.069	260.25
430.292	244.25
430.514	247.25
430.736	243.25
430.958	233.25
431.18	224.25
431.402	254.25
431.624	249.25
431.846	246.25
432.068	253.25
432.29	251.25
432.512	255.25
432.734	239.25
432.956	258.25
433.178	236.25
433.4	239.25
433.622	239.25
433.844	246.25
434.066	255.25
434.287	266.25
434.509	245.25
434.731	266.25
434.953	267.25
435.175	268.25
435.397	275.25
435.618	265.25
435.84	240.25
436.062	247.25
436.284	241.25
436.505	241.25
436.727	244.25
436.949	249.25
437.17	251.25
437.392	223.25
437.614	234.25
437.835	245.25
438.057	233.25
438.278	222.25
438.5	229.25
438.721	237.25
438.943	234.25
439.165	238.25
439.386	244.25
439.608	237.25
439.829	252.25
440.05	247.25
440.272	247.25
440.493	266.25
440.715	232.25
440.936	250.25
441.158	261.25
441.379	275.25
441.6	276.25
441.822	281.25
442.043	293.25
442.264	268.25
442.486	267.25
442.707	277.25
442.928	272.25
443.149	265.25
443.371	278.25
443.592	277.25
443.813	266.25
444.034	286.25
444.255	285.25
444.476	285.25
444.698	302.25
444.919	327.25
445.14	403.25
445.361	313.25
445.582	275.25
445.803	274.25
446.024	248.25
446.245	258.25
446.466	260.25
446.687	245.25
446.908	245.25
447.129	247.25
447.35	258.25
447.571	237.25
447.792	216.25
448.013	223.25
448.234	238.25
448.455	234.25
448.675	234.25
448.896	262.25
449.117	215.25
449.338	214.25
449.559	230.25
449.779	222.25
450	231.25
450.221	216.25
450.442	234.25
450.662	234.25
450.883	231.25
451.104	248.25
451.324	234.25
451.545	236.25
451.766	228.25
451.986	223.25
452.207	222.25
452.428	247.25
452.648	244.25
452.869	228.25
453.089	232.25
453.31	232.25
453.53	245.25
453.751	212.25
453.971	222.25
454.192	232.25
454.412	219.25
454.633	217.25
454.853	223.25
455.073	242.25
455.294	197.25
455.514	217.25
455.734	207.25
455.955	204.25
456.175	219.25
456.395	221.25
456.616	228.25
456.836	230.25
457.056	213.25
457.276	212.25
457.497	216.25
457.717	220.25
457.937	205.25
458.157	228.25
458.377	234.25
458.598	209.25
458.818	226.25
459.038	238.25
459.258	264.25
459.478	231.25
459.698	255.25
459.918	259.25
460.138	257.25
460.358	298.25
460.578	285.25
460.798	300.25
461.018	298.25
461.238	284.25
461.458	280.25
461.678	281.25
461.898	297.25
462.118	297.25
462.338	296.25
462.558	280.25
462.777	314.25
462.997	352.25
463.217	334.25
463.437	389.25
463.657	341.25
463.876	341.25
464.096	338.25
464.316	338.25
464.536	326.25
464.755	329.25
464.975	301.25
465.195	301.25
465.414	279.25
465.634	266.25
465.854	260.25
466.073	251.25
466.293	257.25
466.512	261.25
466.732	237.25
466.951	243.25
467.171	256.25
467.391	246.25
467.61	241.25
467.829	237.25
468.049	248.25
468.268	227.25
468.488	241.25
468.707	237.25
468.927	238.25
469.146	243.25
469.365	244.25
469.585	253.25
469.804	225.25
470.023	254.25
470.243	258.25
470.462	258.25
470.681	260.25
470.901	265.25
471.12	241.25
471.339	252.25
471.558	257.25
471.777	255.25
471.997	238.25
472.216	231.25
472.435	243.25
472.654	227.25
472.873	243.25
473.092	220.25
473.311	236.25
473.53	234.25
473.749	219.25
473.968	222.25
474.187	229.25
474.406	223.25
474.625	227.25
474.844	226.25
475.063	231.25
475.282	245.25
475.501	240.25
475.72	242.25
475.939	234.25
476.158	232.25
476.377	223.25
476.596	244.25
476.814	270.25
477.033	269.25
477.252	245.25
477.471	245.25
477.69	258.25
477.908	258.25
478.127	264.25
478.346	271.25
478.564	263.25
478.783	278.25
479.002	287.25
479.22	285.25
479.439	276.25
479.658	293.25
479.876	285.25
480.095	291.25
480.313	285.25
480.532	300.25
480.751	285.25
480.969	283.25
481.188	272.25
481.406	266.25
481.624	254.25
481.843	255.25
482.061	246.25
482.28	249.25
482.498	260.25
482.717	247.25
482.935	257.25
483.153	278.25
483.372	260.25
483.59	245.25
483.808	263.25
484.027	268.25
484.245	264.25
484.463	259.25
484.681	279.25
484.9	278.25
485.118	269.25
485.336	263.25
485.554	286.25
485.772	267.25
485.99	270.25
486.209	298.25
486.427	271.25
486.645	286.25
486.863	281.25
487.081	286.25
487.299	278.25
487.517	297.25
487.735	254.25
487.953	273.25
488.171	274.25
488.389	282.25
488.607	270.25
488.825	267.25
489.043	272.25
489.261	262.25
489.479	276.25
489.696	270.25
489.914	266.25
490.132	287.25
490.35	261.25
490.568	275.25
490.786	285.25
491.003	282.25
491.221	281.25
491.439	283.25
491.657	276.25
491.874	273.25
492.092	286.25
492.31	271.25
492.527	282.25
492.745	281.25
492.963	283.25
493.18	293.25
493.398	279.25
493.615	272.25
493.833	288.25
494.05	291.25
494.268	292.25
494.485	285.25
494.703	294.25
494.92	291.25
495.138	291.25
495.355	291.25
495.573	277.25
495.79	270.25
496.008	303.25
496.225	301.25
496.442	303.25
496.66	309.25
496.877	305.25
497.094	307.25
497.312	282.25
497.529	294.25
497.746	309.25
497.963	336.25
498.181	355.25
498.398	361.25
498.615	383.25
498.832	381.25
499.049	407.25
499.267	442.25
499.484	486.25
499.701	533.25
499.918	559.25
500.135	637.25
500.352	791.25
500.569	822.25
500.786	809.25
501.003	747.25
501.22	665.25
501.437	555.25
501.654	481.25
501.871	454.25
502.088	408.25
502.305	397.25
502.522	391.25
502.739	380.25
502.956	357.25
