Data from 0.5MCu(NO3)2.Standard.Lamp.E10.CV._HRD10591_16-04-04-753.txt Node
Date: Mon Jul 22 16:04:04 EDT 2019
User: cochatt
Spectrometer: HR+D1059
Trigger mode: 1
Integration Time (sec): 1.000000E-1
Scans to average: 1
Electric dark correction enabled: true
Nonlinearity correction enabled: false
Boxcar width: 0
XAxis mode: Wavelengths
Number of Pixels in Spectrum: 2048
>>>>>Begin Spectral Data<<<<<
223.165	-17.38
223.4	-17.38
223.635	-17.38
223.869	-6.38
224.104	-14.38
224.338	-11.38
224.573	-17.38
224.808	-14.38
225.042	-15.38
225.277	3.62
225.511	-3.38
225.746	4.62
225.98	10.62
226.215	2.62
226.449	6.62
226.683	21.62
226.918	33.62
227.152	16.62
227.387	22.62
227.621	32.62
227.856	39.62
228.09	22.62
228.324	40.62
228.559	53.62
228.793	52.62
229.027	62.62
229.262	53.62
229.496	70.62
229.73	69.62
229.964	79.62
230.199	60.62
230.433	73.62
230.667	91.62
230.901	72.62
231.136	80.62
231.37	78.62
231.604	80.62
231.838	96.62
232.072	80.62
232.306	83.62
232.541	81.62
232.775	87.62
233.009	71.62
233.243	89.62
233.477	85.62
233.711	92.62
233.945	91.62
234.179	76.62
234.413	95.62
234.647	89.62
234.881	95.62
235.115	81.62
235.349	91.62
235.583	96.62
235.817	75.62
236.051	85.62
236.285	91.62
236.519	90.62
236.753	91.62
236.987	83.62
237.221	96.62
237.455	98.62
237.689	97.62
237.922	88.62
238.156	89.62
238.39	90.62
238.624	92.62
238.858	95.62
239.091	77.62
239.325	79.62
239.559	75.62
239.793	85.62
240.027	84.62
240.26	88.62
240.494	86.62
240.728	90.62
240.961	87.62
241.195	94.62
241.429	85.62
241.662	83.62
241.896	92.62
242.13	90.62
242.363	82.62
242.597	94.62
242.83	92.62
243.064	90.62
243.298	86.62
243.531	98.62
243.765	96.62
243.998	90.62
244.232	87.62
244.465	94.62
244.699	87.62
244.932	96.62
245.166	104.62
245.399	103.62
245.633	86.62
245.866	97.62
246.099	89.62
246.333	94.62
246.566	110.62
246.8	101.62
247.033	86.62
247.266	86.62
247.5	94.62
247.733	92.62
247.966	100.62
248.2	95.62
248.433	95.62
248.666	103.62
248.899	96.62
249.133	93.62
249.366	105.62
249.599	98.62
249.832	108.62
250.066	95.62
250.299	119.62
250.532	101.62
250.765	105.62
250.998	99.62
251.231	103.62
251.465	107.62
251.698	118.62
251.931	105.62
252.164	111.62
252.397	103.62
252.63	98.62
252.863	110.62
253.096	103.62
253.329	89.62
253.562	103.62
253.795	119.62
254.028	106.62
254.261	77.62
254.494	105.62
254.727	110.62
254.96	97.62
255.193	112.62
255.426	99.62
255.659	107.62
255.892	110.62
256.124	110.62
256.357	98.62
256.59	103.62
256.823	98.62
257.056	112.62
257.289	120.62
257.521	111.62
257.754	104.62
257.987	115.62
258.22	113.62
258.452	106.62
258.685	99.62
258.918	115.62
259.151	107.62
259.383	112.62
259.616	101.62
259.849	121.62
260.081	108.62
260.314	114.62
260.547	120.62
260.779	115.62
261.012	95.62
261.244	121.62
261.477	132.62
261.71	121.62
261.942	131.62
262.175	126.62
262.407	116.62
262.64	126.62
262.872	106.62
263.105	116.62
263.337	122.62
263.57	111.62
263.802	120.62
264.035	115.62
264.267	118.62
264.499	114.62
264.732	113.62
264.964	118.62
265.197	122.62
265.429	114.62
265.661	116.62
265.894	124.62
266.126	121.62
266.358	132.62
266.591	120.62
266.823	106.62
267.055	115.62
267.287	116.62
267.52	125.62
267.752	115.62
267.984	108.62
268.216	113.62
268.448	146.62
268.681	112.62
268.913	135.62
269.145	123.62
269.377	111.62
269.609	130.62
269.841	128.62
270.073	130.62
270.306	126.62
270.538	130.62
270.77	125.62
271.002	131.62
271.234	124.62
271.466	130.62
271.698	124.62
271.93	128.62
272.162	142.62
272.394	123.62
272.626	126.62
272.858	130.62
273.09	106.62
273.322	126.62
273.553	144.62
273.785	132.62
274.017	148.62
274.249	137.62
274.481	144.62
274.713	118.62
274.945	127.62
275.176	138.62
275.408	134.62
275.64	133.62
275.872	140.62
276.104	138.62
276.335	130.62
276.567	131.62
276.799	132.62
277.031	143.62
277.262	123.62
277.494	144.62
277.726	122.62
277.957	128.62
278.189	139.62
278.421	128.62
278.652	137.62
278.884	139.62
279.115	124.62
279.347	126.62
279.579	141.62
279.81	144.62
280.042	136.62
280.273	140.62
280.505	148.62
280.736	136.62
280.968	145.62
281.199	146.62
281.431	148.62
281.662	134.62
281.894	142.62
282.125	135.62
282.356	141.62
282.588	146.62
282.819	148.62
283.051	145.62
283.282	134.62
283.513	147.62
283.745	152.62
283.976	146.62
284.207	154.62
284.439	138.62
284.67	147.62
284.901	139.62
285.132	131.62
285.364	143.62
285.595	145.62
285.826	165.62
286.057	142.62
286.288	146.62
286.52	155.62
286.751	146.62
286.982	121.62
287.213	163.62
287.444	160.62
287.675	143.62
287.906	144.62
288.138	148.62
288.369	164.62
288.6	162.62
288.831	146.62
289.062	132.62
289.293	142.62
289.524	151.62
289.755	162.62
289.986	160.62
290.217	141.62
290.448	140.62
290.679	148.62
290.91	146.62
291.141	148.62
291.371	147.62
291.602	163.62
291.833	143.62
292.064	151.62
292.295	174.62
292.526	156.62
292.757	146.62
292.987	150.62
293.218	151.62
293.449	156.62
293.68	169.62
293.91	154.62
294.141	149.62
294.372	147.62
294.603	155.62
294.833	172.62
295.064	149.62
295.295	168.62
295.525	156.62
295.756	160.62
295.987	164.62
296.217	161.62
296.448	168.62
296.679	171.62
296.909	161.62
297.14	160.62
297.37	154.62
297.601	163.62
297.831	162.62
298.062	175.62
298.292	158.62
298.523	159.62
298.753	177.62
298.984	167.62
299.214	177.62
299.445	161.62
299.675	155.62
299.905	175.62
300.136	184.62
300.366	175.62
300.597	174.62
300.827	174.62
301.057	187.62
301.288	171.62
301.518	176.62
301.748	172.62
301.979	186.62
302.209	167.62
302.439	176.62
302.669	173.62
302.9	165.62
303.13	181.62
303.36	162.62
303.59	185.62
303.82	160.62
304.051	171.62
304.281	160.62
304.511	178.62
304.741	161.62
304.971	180.62
305.201	154.62
305.431	172.62
305.661	169.62
305.891	170.62
306.121	164.62
306.352	167.62
306.582	158.62
306.812	159.62
307.042	158.62
307.272	184.62
307.502	161.62
307.731	169.62
307.961	164.62
308.191	174.62
308.421	161.62
308.651	174.62
308.881	174.62
309.111	179.62
309.341	155.62
309.571	178.62
309.8	164.62
310.03	168.62
310.26	154.62
310.49	156.62
310.72	172.62
310.949	169.62
311.179	181.62
311.409	172.62
311.639	152.62
311.868	178.62
312.098	182.62
312.328	178.62
312.557	171.62
312.787	156.62
313.017	200.62
313.246	182.62
313.476	167.62
313.706	172.62
313.935	181.62
314.165	176.62
314.394	181.62
314.624	194.62
314.853	188.62
315.083	186.62
315.312	178.62
315.542	184.62
315.771	176.62
316.001	159.62
316.23	178.62
316.46	172.62
316.689	171.62
316.919	177.62
317.148	193.62
317.377	180.62
317.607	179.62
317.836	172.62
318.065	177.62
318.295	170.62
318.524	163.62
318.753	176.62
318.983	184.62
319.212	167.62
319.441	167.62
319.67	171.62
319.9	166.62
320.129	168.62
320.358	172.62
320.587	174.62
320.816	167.62
321.046	183.62
321.275	188.62
321.504	169.62
321.733	188.62
321.962	187.62
322.191	181.62
322.42	169.62
322.649	174.62
322.878	185.62
323.108	166.62
323.337	178.62
323.566	179.62
323.795	180.62
324.024	172.62
324.253	170.62
324.482	173.62
324.71	178.62
324.939	186.62
325.168	166.62
325.397	187.62
325.626	182.62
325.855	171.62
326.084	179.62
326.313	183.62
326.542	181.62
326.77	186.62
326.999	186.62
327.228	190.62
327.457	203.62
327.686	175.62
327.914	180.62
328.143	180.62
328.372	185.62
328.6	180.62
328.829	179.62
329.058	183.62
329.287	184.62
329.515	184.62
329.744	196.62
329.972	200.62
330.201	177.62
330.43	184.62
330.658	194.62
330.887	180.62
331.115	182.62
331.344	180.62
331.572	209.62
331.801	184.62
332.03	204.62
332.258	210.62
332.486	215.62
332.715	217.62
332.943	221.62
333.172	245.62
333.4	221.62
333.629	232.62
333.857	232.62
334.085	243.62
334.314	201.62
334.542	215.62
334.771	209.62
334.999	216.62
335.227	228.62
335.455	223.62
335.684	217.62
335.912	217.62
336.14	211.62
336.369	218.62
336.597	208.62
336.825	202.62
337.053	211.62
337.281	208.62
337.51	206.62
337.738	196.62
337.966	197.62
338.194	190.62
338.422	211.62
338.65	192.62
338.878	193.62
339.106	195.62
339.334	200.62
339.562	185.62
339.79	185.62
340.018	199.62
340.246	190.62
340.474	194.62
340.702	178.62
340.93	167.62
341.158	185.62
341.386	196.62
341.614	204.62
341.842	192.62
342.07	200.62
342.298	204.62
342.526	188.62
342.754	186.62
342.981	199.62
343.209	187.62
343.437	202.62
343.665	207.62
343.893	210.62
344.12	226.62
344.348	212.62
344.576	197.62
344.804	189.62
345.031	187.62
345.259	189.62
345.487	194.62
345.714	191.62
345.942	166.62
346.17	170.62
346.397	188.62
346.625	180.62
346.853	193.62
347.08	186.62
347.308	208.62
347.535	181.62
347.763	174.62
347.99	210.62
348.218	196.62
348.445	177.62
348.673	186.62
348.9	194.62
349.128	182.62
349.355	182.62
349.583	190.62
349.81	179.62
350.037	184.62
350.265	174.62
350.492	182.62
350.72	176.62
350.947	179.62
351.174	187.62
351.402	197.62
351.629	171.62
351.856	180.62
352.083	165.62
352.311	182.62
352.538	183.62
352.765	167.62
352.992	187.62
353.22	186.62
353.447	176.62
353.674	167.62
353.901	195.62
354.128	204.62
354.355	186.62
354.583	182.62
354.81	188.62
355.037	175.62
355.264	184.62
355.491	168.62
355.718	184.62
355.945	181.62
356.172	181.62
356.399	181.62
356.626	183.62
356.853	178.62
357.08	169.62
357.307	212.62
357.534	187.62
357.761	180.62
357.988	182.62
358.215	185.62
358.441	169.62
358.668	196.62
358.895	181.62
359.122	167.62
359.349	175.62
359.576	194.62
359.802	177.62
360.029	180.62
360.256	185.62
360.483	181.62
360.709	180.62
360.936	187.62
361.163	168.62
361.39	186.62
361.616	176.62
361.843	190.62
362.07	172.62
362.296	184.62
362.523	182.62
362.749	182.62
362.976	187.62
363.203	186.62
363.429	182.62
363.656	187.62
363.882	167.62
364.109	183.62
364.335	172.62
364.562	166.62
364.788	174.62
365.015	176.62
365.241	178.62
365.468	181.62
365.694	187.62
365.92	184.62
366.147	191.62
366.373	180.62
366.599	174.62
366.826	179.62
367.052	179.62
367.278	170.62
367.505	166.62
367.731	182.62
367.957	166.62
368.184	192.62
368.41	191.62
368.636	186.62
368.862	182.62
369.089	169.62
369.315	196.62
369.541	183.62
369.767	200.62
369.993	190.62
370.219	175.62
370.445	188.62
370.672	188.62
370.898	189.62
371.124	182.62
371.35	188.62
371.576	203.62
371.802	203.62
372.028	192.62
372.254	186.62
372.48	192.62
372.706	187.62
372.932	206.62
373.158	207.62
373.384	196.62
373.61	200.62
373.835	184.62
374.061	194.62
374.287	198.62
374.513	206.62
374.739	202.62
374.965	208.62
375.191	202.62
375.416	186.62
375.642	204.62
375.868	199.62
376.094	204.62
376.319	186.62
376.545	198.62
376.771	202.62
376.997	199.62
377.222	198.62
377.448	202.62
377.674	195.62
377.899	192.62
378.125	178.62
378.35	189.62
378.576	180.62
378.802	190.62
379.027	193.62
379.253	188.62
379.478	199.62
379.704	191.62
379.929	188.62
380.155	198.62
380.38	194.62
380.606	198.62
380.831	169.62
381.057	187.62
381.282	202.62
381.507	186.62
381.733	187.62
381.958	190.62
382.184	185.62
382.409	203.62
382.634	209.62
382.86	198.62
383.085	199.62
383.31	208.62
383.535	216.62
383.761	223.62
383.986	219.62
384.211	216.62
384.436	232.62
384.662	201.62
384.887	237.62
385.112	199.62
385.337	217.62
385.562	214.62
385.787	216.62
386.013	226.62
386.238	244.62
386.463	204.62
386.688	228.62
386.913	210.62
387.138	218.62
387.363	227.62
387.588	227.62
387.813	208.62
388.038	203.62
388.263	228.62
388.488	219.62
388.713	215.62
388.938	212.62
389.163	222.62
389.387	234.62
389.612	217.62
389.837	204.62
390.062	214.62
390.287	211.62
390.512	202.62
390.736	215.62
390.961	216.62
391.186	216.62
391.411	224.62
391.636	224.62
391.86	230.62
392.085	244.62
392.31	236.62
392.534	234.62
392.759	225.62
392.984	223.62
393.208	212.62
393.433	220.62
393.658	223.62
393.882	239.62
394.107	213.62
394.331	235.62
394.556	216.62
394.78	226.62
395.005	219.62
395.229	226.62
395.454	243.62
395.678	235.62
395.903	215.62
396.127	227.62
396.352	204.62
396.576	228.62
396.801	210.62
397.025	217.62
397.249	224.62
397.474	212.62
397.698	231.62
397.922	225.62
398.147	236.62
398.371	233.62
398.595	238.62
398.82	240.62
399.044	264.62
399.268	275.62
399.492	318.62
399.717	367.62
399.941	331.62
400.165	313.62
400.389	307.62
400.613	262.62
400.837	249.62
401.062	258.62
401.286	241.62
401.51	257.62
401.734	255.62
401.958	261.62
402.182	264.62
402.406	264.62
402.63	245.62
402.854	256.62
403.078	274.62
403.302	274.62
403.526	281.62
403.75	259.62
403.974	287.62
404.198	291.62
404.422	305.62
404.645	276.62
404.869	280.62
405.093	263.62
405.317	273.62
405.541	300.62
405.765	266.62
405.988	270.62
406.212	271.62
406.436	275.62
406.66	287.62
406.883	281.62
407.107	294.62
407.331	317.62
407.555	300.62
407.778	306.62
408.002	305.62
408.226	284.62
408.449	295.62
408.673	285.62
408.896	288.62
409.12	291.62
409.344	277.62
409.567	279.62
409.791	290.62
410.014	272.62
410.238	284.62
410.461	296.62
410.685	279.62
410.908	277.62
411.132	259.62
411.355	259.62
411.578	251.62
411.802	263.62
412.025	248.62
412.249	267.62
412.472	245.62
412.695	242.62
412.919	254.62
413.142	257.62
413.365	247.62
413.589	248.62
413.812	232.62
414.035	254.62
414.258	253.62
414.482	253.62
414.705	236.62
414.928	258.62
415.151	257.62
415.374	256.62
415.597	246.62
415.821	260.62
416.044	253.62
416.267	246.62
416.49	264.62
416.713	246.62
416.936	253.62
417.159	245.62
417.382	227.62
417.605	245.62
417.828	227.62
418.051	243.62
418.274	251.62
418.497	265.62
418.72	241.62
418.943	258.62
419.166	267.62
419.389	298.62
419.611	276.62
419.834	276.62
420.057	246.62
420.28	235.62
420.503	260.62
420.726	242.62
420.948	248.62
421.171	237.62
421.394	264.62
421.617	247.62
421.839	258.62
422.062	246.62
422.285	243.62
422.507	238.62
422.73	253.62
422.953	262.62
423.175	267.62
423.398	250.62
423.621	264.62
423.843	260.62
424.066	262.62
424.288	263.62
424.511	258.62
424.733	272.62
424.956	245.62
425.178	256.62
425.401	256.62
425.623	250.62
425.846	244.62
426.068	250.62
426.291	233.62
426.513	233.62
426.735	230.62
426.958	248.62
427.18	225.62
427.402	221.62
427.625	235.62
427.847	222.62
428.069	233.62
428.292	242.62
428.514	226.62
428.736	225.62
428.958	228.62
429.181	224.62
429.403	234.62
429.625	226.62
429.847	221.62
430.069	225.62
430.292	211.62
430.514	211.62
430.736	231.62
430.958	245.62
431.18	238.62
431.402	223.62
431.624	228.62
431.846	217.62
432.068	232.62
432.29	237.62
432.512	242.62
432.734	237.62
432.956	236.62
433.178	214.62
433.4	230.62
433.622	231.62
433.844	238.62
434.066	230.62
434.287	231.62
434.509	231.62
434.731	244.62
434.953	240.62
435.175	263.62
435.397	258.62
435.618	242.62
435.84	214.62
436.062	231.62
436.284	218.62
436.505	226.62
436.727	225.62
436.949	238.62
437.17	232.62
437.392	217.62
437.614	214.62
437.835	224.62
438.057	227.62
438.278	219.62
438.5	217.62
438.721	225.62
438.943	213.62
439.165	217.62
439.386	225.62
439.608	225.62
439.829	222.62
440.05	228.62
440.272	210.62
440.493	222.62
440.715	244.62
440.936	216.62
441.158	235.62
441.379	232.62
441.6	256.62
441.822	247.62
442.043	267.62
442.264	250.62
442.486	247.62
442.707	239.62
442.928	232.62
443.149	227.62
443.371	230.62
443.592	265.62
443.813	248.62
444.034	244.62
444.255	239.62
444.476	281.62
444.698	280.62
444.919	294.62
445.14	400.62
445.361	330.62
445.582	264.62
445.803	236.62
446.024	243.62
446.245	228.62
446.466	226.62
446.687	233.62
446.908	230.62
447.129	227.62
447.35	219.62
447.571	229.62
447.792	224.62
448.013	224.62
448.234	200.62
448.455	205.62
448.675	212.62
448.896	211.62
449.117	213.62
449.338	210.62
449.559	212.62
449.779	211.62
450	201.62
450.221	218.62
450.442	202.62
450.662	210.62
450.883	222.62
451.104	198.62
451.324	222.62
451.545	227.62
451.766	203.62
451.986	201.62
452.207	207.62
452.428	213.62
452.648	202.62
452.869	184.62
453.089	215.62
453.31	231.62
453.53	216.62
453.751	209.62
453.971	210.62
454.192	190.62
454.412	196.62
454.633	207.62
454.853	223.62
455.073	210.62
455.294	203.62
455.514	217.62
455.734	203.62
455.955	205.62
456.175	213.62
456.395	195.62
456.616	199.62
456.836	210.62
457.056	210.62
457.276	210.62
457.497	196.62
457.717	217.62
457.937	186.62
458.157	184.62
458.377	205.62
458.598	214.62
458.818	211.62
459.038	222.62
459.258	208.62
459.478	221.62
459.698	214.62
459.918	237.62
460.138	238.62
460.358	272.62
460.578	240.62
460.798	264.62
461.018	273.62
461.238	258.62
461.458	280.62
461.678	242.62
461.898	245.62
462.118	293.62
462.338	274.62
462.558	286.62
462.777	292.62
462.997	330.62
463.217	341.62
463.437	339.62
463.657	334.62
463.876	302.62
464.096	297.62
464.316	295.62
464.536	295.62
464.755	294.62
464.975	276.62
465.195	274.62
465.414	261.62
465.634	233.62
465.854	245.62
466.073	232.62
466.293	234.62
466.512	224.62
466.732	233.62
466.951	216.62
467.171	235.62
467.391	215.62
467.61	214.62
467.829	216.62
468.049	213.62
468.268	228.62
468.488	213.62
468.707	223.62
468.927	221.62
469.146	225.62
469.365	223.62
469.585	210.62
469.804	226.62
470.023	222.62
470.243	207.62
470.462	234.62
470.681	217.62
470.901	247.62
471.12	233.62
471.339	229.62
471.558	199.62
471.777	231.62
471.997	225.62
472.216	218.62
472.435	243.62
472.654	212.62
472.873	208.62
473.092	224.62
473.311	201.62
473.53	189.62
473.749	208.62
473.968	208.62
474.187	216.62
474.406	233.62
474.625	211.62
474.844	210.62
475.063	197.62
475.282	219.62
475.501	198.62
475.72	230.62
475.939	233.62
476.158	218.62
476.377	222.62
476.596	219.62
476.814	226.62
477.033	203.62
477.252	217.62
477.471	222.62
477.69	242.62
477.908	258.62
478.127	253.62
478.346	250.62
478.564	246.62
478.783	257.62
479.002	285.62
479.22	244.62
479.439	278.62
479.658	250.62
479.876	243.62
480.095	251.62
480.313	261.62
480.532	272.62
480.751	280.62
480.969	270.62
481.188	240.62
481.406	257.62
481.624	249.62
481.843	239.62
482.061	251.62
482.28	242.62
482.498	217.62
482.717	222.62
482.935	221.62
483.153	243.62
483.372	238.62
483.59	232.62
483.808	234.62
484.027	265.62
484.245	248.62
484.463	246.62
484.681	267.62
484.9	242.62
485.118	245.62
485.336	249.62
485.554	276.62
485.772	259.62
485.99	265.62
486.209	258.62
486.427	258.62
486.645	271.62
486.863	261.62
487.081	260.62
487.299	246.62
487.517	255.62
487.735	274.62
487.953	264.62
488.171	266.62
488.389	258.62
488.607	255.62
488.825	223.62
489.043	244.62
489.261	245.62
489.479	252.62
489.696	251.62
489.914	242.62
490.132	273.62
490.35	260.62
490.568	255.62
490.786	264.62
491.003	261.62
491.221	248.62
491.439	250.62
491.657	262.62
491.874	284.62
492.092	261.62
492.31	266.62
492.527	251.62
492.745	268.62
492.963	246.62
493.18	267.62
493.398	268.62
493.615	268.62
493.833	268.62
494.05	256.62
494.268	274.62
494.485	264.62
494.703	265.62
494.92	259.62
495.138	272.62
495.355	280.62
495.573	271.62
495.79	267.62
496.008	267.62
496.225	267.62
496.442	281.62
496.66	294.62
496.877	279.62
497.094	277.62
497.312	289.62
497.529	287.62
497.746	283.62
497.963	299.62
498.181	327.62
498.398	331.62
498.615	344.62
498.832	344.62
499.049	387.62
499.267	404.62
499.484	435.62
499.701	490.62
499.918	520.62
500.135	600.62
500.352	670.62
500.569	696.62
500.786	723.62
501.003	670.62
501.22	580.62
501.437	528.62
501.654	468.62
501.871	404.62
502.088	384.62
502.305	357.62
502.522	359.62
502.739	345.62
502.956	312.62
503.172	326.62
503.389	312.62
