Data from 0.5MCu(NO3)2.Standard.Lamp.E10.CV._HRD10591_16-06-41-754.txt Node
Date: Mon Jul 22 16:06:41 EDT 2019
User: cochatt
Spectrometer: HR+D1059
Trigger mode: 1
Integration Time (sec): 1.000000E-1
Scans to average: 1
Electric dark correction enabled: true
Nonlinearity correction enabled: false
Boxcar width: 0
XAxis mode: Wavelengths
Number of Pixels in Spectrum: 2048
>>>>>Begin Spectral Data<<<<<
223.165	-29.25
223.4	-29.25
223.635	-29.25
223.869	-18.25
224.104	-22.25
224.338	-12.25
224.573	-12.25
224.808	2.75
225.042	9.75
225.277	-8.25
225.511	-9.25
225.746	-0.25
225.98	-10.25
226.215	4.75
226.449	12.75
226.683	22.75
226.918	36.75
227.152	32.75
227.387	23.75
227.621	30.75
227.856	41.75
228.09	38.75
228.324	52.75
228.559	50.75
228.793	51.75
229.027	62.75
229.262	68.75
229.496	68.75
229.73	65.75
229.964	79.75
230.199	81.75
230.433	73.75
230.667	69.75
230.901	88.75
231.136	79.75
231.37	76.75
231.604	81.75
231.838	76.75
232.072	90.75
232.306	99.75
232.541	91.75
232.775	97.75
233.009	88.75
233.243	89.75
233.477	84.75
233.711	87.75
233.945	69.75
234.179	92.75
234.413	83.75
234.647	77.75
234.881	87.75
235.115	75.75
235.349	77.75
235.583	94.75
235.817	82.75
236.051	80.75
236.285	87.75
236.519	82.75
236.753	81.75
236.987	84.75
237.221	95.75
237.455	83.75
237.689	82.75
237.922	84.75
238.156	88.75
238.39	94.75
238.624	91.75
238.858	72.75
239.091	84.75
239.325	91.75
239.559	98.75
239.793	83.75
240.027	80.75
240.26	83.75
240.494	76.75
240.728	99.75
240.961	83.75
241.195	94.75
241.429	76.75
241.662	96.75
241.896	91.75
242.13	90.75
242.363	84.75
242.597	83.75
242.83	94.75
243.064	84.75
243.298	94.75
243.531	81.75
243.765	80.75
243.998	92.75
244.232	104.75
244.465	101.75
244.699	89.75
244.932	107.75
245.166	91.75
245.399	91.75
245.633	105.75
245.866	92.75
246.099	85.75
246.333	89.75
246.566	87.75
246.8	85.75
247.033	87.75
247.266	109.75
247.5	99.75
247.733	100.75
247.966	102.75
248.2	105.75
248.433	88.75
248.666	99.75
248.899	99.75
249.133	86.75
249.366	101.75
249.599	102.75
249.832	103.75
250.066	96.75
250.299	100.75
250.532	111.75
250.765	88.75
250.998	98.75
251.231	104.75
251.465	102.75
251.698	113.75
251.931	106.75
252.164	109.75
252.397	100.75
252.63	103.75
252.863	98.75
253.096	118.75
253.329	105.75
253.562	106.75
253.795	108.75
254.028	102.75
254.261	98.75
254.494	102.75
254.727	115.75
254.96	112.75
255.193	107.75
255.426	102.75
255.659	106.75
255.892	123.75
256.124	116.75
256.357	83.75
256.59	123.75
256.823	98.75
257.056	96.75
257.289	111.75
257.521	110.75
257.754	100.75
257.987	122.75
258.22	100.75
258.452	105.75
258.685	103.75
258.918	109.75
259.151	104.75
259.383	107.75
259.616	111.75
259.849	119.75
260.081	112.75
260.314	111.75
260.547	121.75
260.779	111.75
261.012	110.75
261.244	108.75
261.477	110.75
261.71	114.75
261.942	122.75
262.175	112.75
262.407	123.75
262.64	111.75
262.872	120.75
263.105	126.75
263.337	123.75
263.57	104.75
263.802	113.75
264.035	124.75
264.267	120.75
264.499	122.75
264.732	141.75
264.964	132.75
265.197	128.75
265.429	121.75
265.661	124.75
265.894	124.75
266.126	130.75
266.358	107.75
266.591	114.75
266.823	128.75
267.055	110.75
267.287	124.75
267.52	121.75
267.752	119.75
267.984	125.75
268.216	133.75
268.448	123.75
268.681	120.75
268.913	121.75
269.145	127.75
269.377	118.75
269.609	128.75
269.841	131.75
270.073	114.75
270.306	134.75
270.538	124.75
270.77	130.75
271.002	111.75
271.234	112.75
271.466	130.75
271.698	130.75
271.93	123.75
272.162	139.75
272.394	117.75
272.626	123.75
272.858	123.75
273.09	138.75
273.322	129.75
273.553	114.75
273.785	130.75
274.017	140.75
274.249	135.75
274.481	119.75
274.713	144.75
274.945	133.75
275.176	114.75
275.408	132.75
275.64	124.75
275.872	138.75
276.104	135.75
276.335	133.75
276.567	129.75
276.799	134.75
277.031	135.75
277.262	150.75
277.494	145.75
277.726	135.75
277.957	130.75
278.189	129.75
278.421	127.75
278.652	152.75
278.884	138.75
279.115	139.75
279.347	140.75
279.579	132.75
279.81	131.75
280.042	132.75
280.273	142.75
280.505	140.75
280.736	144.75
280.968	136.75
281.199	147.75
281.431	129.75
281.662	138.75
281.894	138.75
282.125	153.75
282.356	123.75
282.588	132.75
282.819	137.75
283.051	127.75
283.282	147.75
283.513	141.75
283.745	142.75
283.976	162.75
284.207	145.75
284.439	133.75
284.67	151.75
284.901	153.75
285.132	141.75
285.364	144.75
285.595	159.75
285.826	137.75
286.057	154.75
286.288	147.75
286.52	154.75
286.751	139.75
286.982	148.75
287.213	160.75
287.444	161.75
287.675	155.75
287.906	166.75
288.138	147.75
288.369	153.75
288.6	143.75
288.831	144.75
289.062	144.75
289.293	127.75
289.524	155.75
289.755	151.75
289.986	145.75
290.217	138.75
290.448	159.75
290.679	158.75
290.91	141.75
291.141	146.75
291.371	159.75
291.602	146.75
291.833	146.75
292.064	133.75
292.295	158.75
292.526	156.75
292.757	148.75
292.987	155.75
293.218	159.75
293.449	141.75
293.68	161.75
293.91	154.75
294.141	155.75
294.372	160.75
294.603	159.75
294.833	154.75
295.064	164.75
295.295	158.75
295.525	160.75
295.756	169.75
295.987	154.75
296.217	136.75
296.448	151.75
296.679	163.75
296.909	177.75
297.14	158.75
297.37	163.75
297.601	155.75
297.831	152.75
298.062	161.75
298.292	165.75
298.523	167.75
298.753	167.75
298.984	168.75
299.214	151.75
299.445	172.75
299.675	179.75
299.905	171.75
300.136	165.75
300.366	165.75
300.597	155.75
300.827	161.75
301.057	172.75
301.288	176.75
301.518	170.75
301.748	174.75
301.979	193.75
302.209	179.75
302.439	166.75
302.669	172.75
302.9	178.75
303.13	186.75
303.36	164.75
303.59	144.75
303.82	162.75
304.051	163.75
304.281	164.75
304.511	169.75
304.741	164.75
304.971	162.75
305.201	162.75
305.431	157.75
305.661	178.75
305.891	168.75
306.121	166.75
306.352	166.75
306.582	146.75
306.812	158.75
307.042	170.75
307.272	162.75
307.502	162.75
307.731	159.75
307.961	163.75
308.191	146.75
308.421	174.75
308.651	187.75
308.881	161.75
309.111	173.75
309.341	154.75
309.571	168.75
309.8	168.75
310.03	164.75
310.26	159.75
310.49	161.75
310.72	154.75
310.949	162.75
311.179	172.75
311.409	173.75
311.639	164.75
311.868	171.75
312.098	164.75
312.328	154.75
312.557	169.75
312.787	162.75
313.017	177.75
313.246	187.75
313.476	194.75
313.706	177.75
313.935	186.75
314.165	183.75
314.394	174.75
314.624	166.75
314.853	186.75
315.083	181.75
315.312	179.75
315.542	175.75
315.771	176.75
316.001	174.75
316.23	176.75
316.46	153.75
316.689	175.75
316.919	175.75
317.148	176.75
317.377	179.75
317.607	166.75
317.836	180.75
318.065	170.75
318.295	170.75
318.524	174.75
318.753	163.75
318.983	170.75
319.212	159.75
319.441	168.75
319.67	162.75
319.9	176.75
320.129	169.75
320.358	194.75
320.587	176.75
320.816	165.75
321.046	169.75
321.275	192.75
321.504	166.75
321.733	180.75
321.962	174.75
322.191	175.75
322.42	174.75
322.649	143.75
322.878	162.75
323.108	165.75
323.337	171.75
323.566	171.75
323.795	183.75
324.024	165.75
324.253	187.75
324.482	193.75
324.71	180.75
324.939	164.75
325.168	176.75
325.397	184.75
325.626	171.75
325.855	184.75
326.084	174.75
326.313	177.75
326.542	188.75
326.77	176.75
326.999	175.75
327.228	178.75
327.457	178.75
327.686	174.75
327.914	179.75
328.143	183.75
328.372	181.75
328.6	167.75
328.829	170.75
329.058	190.75
329.287	183.75
329.515	179.75
329.744	172.75
329.972	182.75
330.201	176.75
330.43	186.75
330.658	188.75
330.887	172.75
331.115	181.75
331.344	176.75
331.572	188.75
331.801	198.75
332.03	208.75
332.258	185.75
332.486	191.75
332.715	212.75
332.943	198.75
333.172	231.75
333.4	218.75
333.629	228.75
333.857	236.75
334.085	242.75
334.314	224.75
334.542	212.75
334.771	201.75
334.999	217.75
335.227	198.75
335.455	212.75
335.684	222.75
335.912	210.75
336.14	201.75
336.369	203.75
336.597	202.75
336.825	206.75
337.053	207.75
337.281	198.75
337.51	204.75
337.738	181.75
337.966	190.75
338.194	208.75
338.422	186.75
338.65	186.75
338.878	195.75
339.106	179.75
339.334	202.75
339.562	201.75
339.79	196.75
340.018	180.75
340.246	186.75
340.474	188.75
340.702	195.75
340.93	172.75
341.158	184.75
341.386	181.75
341.614	199.75
341.842	187.75
342.07	201.75
342.298	194.75
342.526	187.75
342.754	186.75
342.981	172.75
343.209	187.75
343.437	183.75
343.665	199.75
343.893	198.75
344.12	234.75
344.348	211.75
344.576	194.75
344.804	190.75
345.031	198.75
345.259	188.75
345.487	179.75
345.714	200.75
345.942	197.75
346.17	185.75
346.397	189.75
346.625	180.75
346.853	193.75
347.08	177.75
347.308	188.75
347.535	185.75
347.763	195.75
347.99	170.75
348.218	190.75
348.445	192.75
348.673	187.75
348.9	182.75
349.128	186.75
349.355	170.75
349.583	184.75
349.81	192.75
350.037	167.75
350.265	181.75
350.492	195.75
350.72	165.75
350.947	178.75
351.174	193.75
351.402	187.75
351.629	190.75
351.856	194.75
352.083	183.75
352.311	174.75
352.538	163.75
352.765	173.75
352.992	163.75
353.22	179.75
353.447	162.75
353.674	184.75
353.901	192.75
354.128	190.75
354.355	182.75
354.583	169.75
354.81	164.75
355.037	171.75
355.264	166.75
355.491	169.75
355.718	174.75
355.945	171.75
356.172	183.75
356.399	176.75
356.626	186.75
356.853	185.75
357.08	163.75
357.307	181.75
357.534	188.75
357.761	193.75
357.988	170.75
358.215	172.75
358.441	177.75
358.668	176.75
358.895	197.75
359.122	166.75
359.349	166.75
359.576	184.75
359.802	172.75
360.029	162.75
360.256	187.75
360.483	172.75
360.709	163.75
360.936	186.75
361.163	170.75
361.39	177.75
361.616	177.75
361.843	180.75
362.07	181.75
362.296	179.75
362.523	166.75
362.749	176.75
362.976	162.75
363.203	161.75
363.429	185.75
363.656	174.75
363.882	188.75
364.109	190.75
364.335	181.75
364.562	192.75
364.788	182.75
365.015	177.75
365.241	195.75
365.468	179.75
365.694	172.75
365.92	177.75
366.147	192.75
366.373	173.75
366.599	174.75
366.826	168.75
367.052	186.75
367.278	171.75
367.505	177.75
367.731	192.75
367.957	176.75
368.184	199.75
368.41	182.75
368.636	185.75
368.862	174.75
369.089	186.75
369.315	163.75
369.541	199.75
369.767	184.75
369.993	180.75
370.219	195.75
370.445	182.75
370.672	183.75
370.898	188.75
371.124	202.75
371.35	193.75
371.576	188.75
371.802	172.75
372.028	195.75
372.254	187.75
372.48	198.75
372.706	195.75
372.932	188.75
373.158	200.75
373.384	189.75
373.61	179.75
373.835	184.75
374.061	187.75
374.287	182.75
374.513	190.75
374.739	199.75
374.965	189.75
375.191	202.75
375.416	204.75
375.642	210.75
375.868	204.75
376.094	204.75
376.319	194.75
376.545	171.75
376.771	191.75
376.997	184.75
377.222	190.75
377.448	189.75
377.674	175.75
377.899	199.75
378.125	190.75
378.35	191.75
378.576	174.75
378.802	190.75
379.027	188.75
379.253	187.75
379.478	181.75
379.704	189.75
379.929	190.75
380.155	190.75
380.38	177.75
380.606	189.75
380.831	196.75
381.057	194.75
381.282	194.75
381.507	175.75
381.733	201.75
381.958	192.75
382.184	201.75
382.409	190.75
382.634	180.75
382.86	194.75
383.085	191.75
383.31	187.75
383.535	193.75
383.761	212.75
383.986	211.75
384.211	208.75
384.436	211.75
384.662	221.75
384.887	211.75
385.112	215.75
385.337	225.75
385.562	218.75
385.787	188.75
386.013	223.75
386.238	217.75
386.463	221.75
386.688	222.75
386.913	211.75
387.138	185.75
387.363	199.75
387.588	194.75
387.813	225.75
388.038	203.75
388.263	201.75
388.488	214.75
388.713	208.75
388.938	202.75
389.163	199.75
389.387	215.75
389.612	211.75
389.837	201.75
390.062	194.75
390.287	215.75
390.512	190.75
390.736	202.75
390.961	216.75
391.186	210.75
391.411	207.75
391.636	214.75
391.86	206.75
392.085	234.75
392.31	239.75
392.534	219.75
392.759	226.75
392.984	218.75
393.208	212.75
393.433	221.75
393.658	216.75
393.882	228.75
394.107	203.75
394.331	223.75
394.556	221.75
394.78	224.75
395.005	226.75
395.229	215.75
395.454	233.75
395.678	224.75
395.903	239.75
396.127	225.75
396.352	208.75
396.576	204.75
396.801	204.75
397.025	212.75
397.249	222.75
397.474	210.75
397.698	238.75
397.922	212.75
398.147	220.75
398.371	229.75
398.595	240.75
398.82	237.75
399.044	251.75
399.268	267.75
399.492	322.75
399.717	354.75
399.941	340.75
400.165	328.75
400.389	303.75
400.613	274.75
400.837	246.75
401.062	242.75
401.286	249.75
401.51	232.75
401.734	228.75
401.958	255.75
402.182	246.75
402.406	256.75
402.63	255.75
402.854	252.75
403.078	259.75
403.302	280.75
403.526	282.75
403.75	265.75
403.974	287.75
404.198	277.75
404.422	266.75
404.645	269.75
404.869	268.75
405.093	279.75
405.317	273.75
405.541	254.75
405.765	272.75
405.988	254.75
406.212	268.75
406.436	255.75
406.66	272.75
406.883	268.75
407.107	286.75
407.331	291.75
407.555	291.75
407.778	304.75
408.002	290.75
408.226	284.75
408.449	261.75
408.673	295.75
408.896	258.75
409.12	270.75
409.344	270.75
409.567	276.75
409.791	282.75
410.014	274.75
410.238	266.75
410.461	262.75
410.685	271.75
410.908	265.75
411.132	263.75
411.355	230.75
411.578	224.75
411.802	261.75
412.025	260.75
412.249	251.75
412.472	249.75
412.695	248.75
412.919	245.75
413.142	253.75
413.365	234.75
413.589	248.75
413.812	230.75
414.035	232.75
414.258	251.75
414.482	246.75
414.705	240.75
414.928	245.75
415.151	240.75
415.374	254.75
415.597	265.75
415.821	235.75
416.044	237.75
416.267	245.75
416.49	240.75
416.713	235.75
416.936	250.75
417.159	226.75
417.382	233.75
417.605	255.75
417.828	246.75
418.051	244.75
418.274	228.75
418.497	227.75
418.72	248.75
418.943	235.75
419.166	280.75
419.389	278.75
419.611	249.75
419.834	255.75
420.057	274.75
420.28	241.75
420.503	228.75
420.726	219.75
420.948	217.75
421.171	241.75
421.394	234.75
421.617	232.75
421.839	232.75
422.062	257.75
422.285	230.75
422.507	242.75
422.73	260.75
422.953	246.75
423.175	265.75
423.398	266.75
423.621	247.75
423.843	251.75
424.066	259.75
424.288	261.75
424.511	254.75
424.733	272.75
424.956	256.75
425.178	270.75
425.401	252.75
425.623	236.75
425.846	240.75
426.068	238.75
426.291	216.75
426.513	220.75
426.735	231.75
426.958	222.75
427.18	218.75
427.402	230.75
427.625	220.75
427.847	219.75
428.069	223.75
428.292	195.75
428.514	213.75
428.736	211.75
428.958	210.75
429.181	209.75
429.403	206.75
429.625	220.75
429.847	195.75
430.069	211.75
430.292	209.75
430.514	210.75
430.736	216.75
430.958	238.75
431.18	233.75
431.402	210.75
431.624	227.75
431.846	212.75
432.068	220.75
432.29	227.75
432.512	217.75
432.734	222.75
432.956	229.75
433.178	193.75
433.4	216.75
433.622	215.75
433.844	218.75
434.066	223.75
434.287	234.75
434.509	222.75
434.731	262.75
434.953	254.75
435.175	243.75
435.397	244.75
435.618	242.75
435.84	238.75
436.062	238.75
436.284	205.75
436.505	204.75
436.727	208.75
436.949	212.75
437.17	214.75
437.392	219.75
437.614	207.75
437.835	216.75
438.057	208.75
438.278	214.75
438.5	214.75
438.721	218.75
438.943	220.75
439.165	211.75
439.386	209.75
439.608	212.75
439.829	220.75
440.05	228.75
440.272	235.75
440.493	221.75
440.715	216.75
440.936	226.75
441.158	227.75
441.379	223.75
441.6	244.75
441.822	257.75
442.043	227.75
442.264	253.75
442.486	245.75
442.707	254.75
442.928	254.75
443.149	242.75
443.371	258.75
443.592	236.75
443.813	234.75
444.034	254.75
444.255	260.75
444.476	268.75
444.698	274.75
444.919	270.75
445.14	370.75
445.361	296.75
445.582	237.75
445.803	238.75
446.024	219.75
446.245	231.75
446.466	238.75
446.687	206.75
446.908	221.75
447.129	225.75
447.35	198.75
447.571	207.75
447.792	202.75
448.013	214.75
448.234	219.75
448.455	198.75
448.675	212.75
448.896	210.75
449.117	201.75
449.338	201.75
449.559	209.75
449.779	223.75
450	224.75
450.221	189.75
450.442	203.75
450.662	206.75
450.883	203.75
451.104	219.75
451.324	218.75
451.545	207.75
451.766	222.75
451.986	219.75
452.207	214.75
452.428	222.75
452.648	198.75
452.869	226.75
453.089	186.75
453.31	210.75
453.53	212.75
453.751	201.75
453.971	201.75
454.192	193.75
454.412	184.75
454.633	200.75
454.853	200.75
455.073	194.75
455.294	210.75
455.514	206.75
455.734	184.75
455.955	195.75
456.175	193.75
456.395	183.75
456.616	198.75
456.836	186.75
457.056	203.75
457.276	202.75
457.497	207.75
457.717	206.75
457.937	192.75
458.157	205.75
458.377	203.75
458.598	201.75
458.818	210.75
459.038	209.75
459.258	225.75
459.478	227.75
459.698	215.75
459.918	245.75
460.138	245.75
460.358	248.75
460.578	265.75
460.798	241.75
461.018	232.75
461.238	242.75
461.458	244.75
461.678	259.75
461.898	240.75
462.118	265.75
462.338	269.75
462.558	282.75
462.777	268.75
462.997	286.75
463.217	320.75
463.437	323.75
463.657	308.75
463.876	263.75
464.096	287.75
464.316	303.75
464.536	291.75
464.755	282.75
464.975	268.75
465.195	269.75
465.414	265.75
465.634	231.75
465.854	227.75
466.073	242.75
466.293	224.75
466.512	222.75
466.732	218.75
466.951	215.75
467.171	213.75
467.391	231.75
467.61	213.75
467.829	203.75
468.049	219.75
468.268	216.75
468.488	194.75
468.707	224.75
468.927	209.75
469.146	218.75
469.365	218.75
469.585	212.75
469.804	222.75
470.023	222.75
470.243	244.75
470.462	232.75
470.681	233.75
470.901	223.75
471.12	233.75
471.339	222.75
471.558	223.75
471.777	231.75
471.997	227.75
472.216	192.75
472.435	217.75
472.654	221.75
472.873	220.75
473.092	203.75
473.311	219.75
473.53	225.75
473.749	197.75
473.968	219.75
474.187	211.75
474.406	189.75
474.625	219.75
474.844	204.75
475.063	208.75
475.282	189.75
475.501	208.75
475.72	219.75
475.939	206.75
476.158	216.75
476.377	217.75
476.596	222.75
476.814	222.75
477.033	216.75
477.252	231.75
477.471	221.75
477.69	231.75
477.908	219.75
478.127	239.75
478.346	234.75
478.564	248.75
478.783	256.75
479.002	227.75
479.22	258.75
479.439	258.75
479.658	224.75
479.876	248.75
480.095	235.75
480.313	253.75
480.532	271.75
480.751	270.75
480.969	271.75
481.188	258.75
481.406	244.75
481.624	232.75
481.843	245.75
482.061	238.75
482.28	231.75
482.498	217.75
482.717	224.75
482.935	227.75
483.153	242.75
483.372	231.75
483.59	219.75
483.808	247.75
484.027	236.75
484.245	233.75
484.463	245.75
484.681	249.75
484.9	230.75
485.118	249.75
485.336	241.75
485.554	256.75
485.772	246.75
485.99	265.75
486.209	239.75
486.427	246.75
486.645	232.75
486.863	258.75
487.081	238.75
487.299	244.75
487.517	244.75
487.735	238.75
487.953	250.75
488.171	257.75
488.389	247.75
488.607	258.75
488.825	259.75
489.043	257.75
489.261	232.75
489.479	228.75
489.696	239.75
489.914	250.75
490.132	247.75
490.35	231.75
490.568	255.75
490.786	246.75
491.003	239.75
491.221	260.75
491.439	256.75
491.657	232.75
491.874	252.75
492.092	251.75
492.31	253.75
492.527	271.75
492.745	253.75
492.963	268.75
493.18	250.75
493.398	253.75
493.615	258.75
493.833	256.75
494.05	242.75
494.268	244.75
494.485	262.75
494.703	270.75
494.92	264.75
495.138	279.75
495.355	272.75
495.573	254.75
495.79	267.75
496.008	246.75
496.225	265.75
496.442	268.75
496.66	269.75
496.877	272.75
497.094	264.75
497.312	266.75
497.529	270.75
497.746	288.75
497.963	280.75
498.181	313.75
498.398	324.75
498.615	327.75
498.832	339.75
499.049	356.75
499.267	384.75
499.484	397.75
499.701	454.75
499.918	500.75
500.135	579.75
500.352	668.75
500.569	692.75
500.786	684.75
501.003	615.75
501.22	568.75
501.437	523.75
501.654	456.75
501.871	403.75
502.088	375.75
502.305	376.75
502.522	343.75
502.739	332.75
502.956	314.75
503.172	315.75
503.389	300.75
