Data from 0.5MCu(NO3)2.Standard.Lamp.E10.CV._HRD10591_16-05-57-753.txt Node
Date: Mon Jul 22 16:05:57 EDT 2019
User: cochatt
Spectrometer: HR+D1059
Trigger mode: 1
Integration Time (sec): 1.000000E-1
Scans to average: 1
Electric dark correction enabled: true
Nonlinearity correction enabled: false
Boxcar width: 0
XAxis mode: Wavelengths
Number of Pixels in Spectrum: 2048
>>>>>Begin Spectral Data<<<<<
223.165	-18.94
223.4	-18.94
223.635	-18.94
223.869	-19.94
224.104	-25.94
224.338	-15.94
224.573	-8.94
224.808	-7.94
225.042	-1.94
225.277	-0.94
225.511	7.06
225.746	-6.94
225.98	10.06
226.215	14.06
226.449	24.06
226.683	8.06
226.918	20.06
227.152	24.06
227.387	35.06
227.621	51.06
227.856	39.06
228.09	44.06
228.324	52.06
228.559	49.06
228.793	63.06
229.027	63.06
229.262	76.06
229.496	78.06
229.73	78.06
229.964	84.06
230.199	82.06
230.433	80.06
230.667	83.06
230.901	81.06
231.136	72.06
231.37	109.06
231.604	88.06
231.838	76.06
232.072	103.06
232.306	67.06
232.541	87.06
232.775	83.06
233.009	87.06
233.243	101.06
233.477	84.06
233.711	105.06
233.945	98.06
234.179	93.06
234.413	104.06
234.647	102.06
234.881	90.06
235.115	104.06
235.349	101.06
235.583	88.06
235.817	72.06
236.051	89.06
236.285	84.06
236.519	74.06
236.753	84.06
236.987	85.06
237.221	84.06
237.455	90.06
237.689	89.06
237.922	89.06
238.156	92.06
238.39	91.06
238.624	89.06
238.858	105.06
239.091	83.06
239.325	89.06
239.559	87.06
239.793	87.06
240.027	83.06
240.26	101.06
240.494	87.06
240.728	77.06
240.961	81.06
241.195	78.06
241.429	89.06
241.662	95.06
241.896	100.06
242.13	92.06
242.363	99.06
242.597	95.06
242.83	93.06
243.064	101.06
243.298	98.06
243.531	98.06
243.765	91.06
243.998	89.06
244.232	98.06
244.465	111.06
244.699	99.06
244.932	91.06
245.166	83.06
245.399	83.06
245.633	100.06
245.866	95.06
246.099	104.06
246.333	99.06
246.566	107.06
246.8	105.06
247.033	104.06
247.266	99.06
247.5	96.06
247.733	101.06
247.966	109.06
248.2	121.06
248.433	109.06
248.666	105.06
248.899	100.06
249.133	103.06
249.366	104.06
249.599	99.06
249.832	109.06
250.066	114.06
250.299	108.06
250.532	119.06
250.765	108.06
250.998	114.06
251.231	113.06
251.465	114.06
251.698	110.06
251.931	102.06
252.164	99.06
252.397	113.06
252.63	103.06
252.863	113.06
253.096	105.06
253.329	105.06
253.562	108.06
253.795	103.06
254.028	104.06
254.261	118.06
254.494	107.06
254.727	116.06
254.96	96.06
255.193	119.06
255.426	123.06
255.659	118.06
255.892	127.06
256.124	117.06
256.357	91.06
256.59	113.06
256.823	120.06
257.056	104.06
257.289	115.06
257.521	126.06
257.754	113.06
257.987	123.06
258.22	119.06
258.452	120.06
258.685	120.06
258.918	125.06
259.151	106.06
259.383	118.06
259.616	114.06
259.849	110.06
260.081	123.06
260.314	127.06
260.547	131.06
260.779	113.06
261.012	111.06
261.244	123.06
261.477	131.06
261.71	111.06
261.942	117.06
262.175	121.06
262.407	124.06
262.64	118.06
262.872	126.06
263.105	124.06
263.337	121.06
263.57	115.06
263.802	122.06
264.035	123.06
264.267	126.06
264.499	113.06
264.732	119.06
264.964	118.06
265.197	115.06
265.429	123.06
265.661	122.06
265.894	130.06
266.126	127.06
266.358	132.06
266.591	129.06
266.823	121.06
267.055	133.06
267.287	139.06
267.52	124.06
267.752	135.06
267.984	123.06
268.216	125.06
268.448	122.06
268.681	141.06
268.913	142.06
269.145	117.06
269.377	138.06
269.609	126.06
269.841	129.06
270.073	126.06
270.306	127.06
270.538	134.06
270.77	133.06
271.002	123.06
271.234	138.06
271.466	141.06
271.698	119.06
271.93	122.06
272.162	145.06
272.394	129.06
272.626	125.06
272.858	140.06
273.09	140.06
273.322	151.06
273.553	151.06
273.785	134.06
274.017	137.06
274.249	126.06
274.481	143.06
274.713	141.06
274.945	138.06
275.176	131.06
275.408	133.06
275.64	123.06
275.872	128.06
276.104	160.06
276.335	144.06
276.567	133.06
276.799	147.06
277.031	138.06
277.262	138.06
277.494	153.06
277.726	143.06
277.957	125.06
278.189	140.06
278.421	135.06
278.652	132.06
278.884	153.06
279.115	149.06
279.347	143.06
279.579	147.06
279.81	141.06
280.042	142.06
280.273	141.06
280.505	146.06
280.736	142.06
280.968	152.06
281.199	148.06
281.431	141.06
281.662	143.06
281.894	149.06
282.125	143.06
282.356	149.06
282.588	153.06
282.819	154.06
283.051	131.06
283.282	141.06
283.513	153.06
283.745	151.06
283.976	160.06
284.207	155.06
284.439	153.06
284.67	162.06
284.901	156.06
285.132	148.06
285.364	153.06
285.595	164.06
285.826	147.06
286.057	147.06
286.288	146.06
286.52	149.06
286.751	154.06
286.982	159.06
287.213	164.06
287.444	160.06
287.675	161.06
287.906	168.06
288.138	154.06
288.369	154.06
288.6	151.06
288.831	153.06
289.062	156.06
289.293	159.06
289.524	167.06
289.755	148.06
289.986	162.06
290.217	159.06
290.448	157.06
290.679	161.06
290.91	157.06
291.141	152.06
291.371	165.06
291.602	167.06
291.833	174.06
292.064	158.06
292.295	179.06
292.526	169.06
292.757	162.06
292.987	160.06
293.218	159.06
293.449	158.06
293.68	171.06
293.91	163.06
294.141	158.06
294.372	180.06
294.603	180.06
294.833	160.06
295.064	166.06
295.295	168.06
295.525	172.06
295.756	179.06
295.987	174.06
296.217	165.06
296.448	173.06
296.679	174.06
296.909	178.06
297.14	173.06
297.37	178.06
297.601	179.06
297.831	169.06
298.062	191.06
298.292	181.06
298.523	159.06
298.753	166.06
298.984	177.06
299.214	158.06
299.445	192.06
299.675	174.06
299.905	166.06
300.136	181.06
300.366	171.06
300.597	181.06
300.827	189.06
301.057	180.06
301.288	191.06
301.518	166.06
301.748	177.06
301.979	191.06
302.209	183.06
302.439	171.06
302.669	187.06
302.9	177.06
303.13	196.06
303.36	166.06
303.59	173.06
303.82	182.06
304.051	173.06
304.281	190.06
304.511	180.06
304.741	179.06
304.971	181.06
305.201	176.06
305.431	190.06
305.661	186.06
305.891	172.06
306.121	178.06
306.352	187.06
306.582	164.06
306.812	179.06
307.042	171.06
307.272	189.06
307.502	181.06
307.731	180.06
307.961	165.06
308.191	178.06
308.421	180.06
308.651	181.06
308.881	183.06
309.111	193.06
309.341	177.06
309.571	159.06
309.8	183.06
310.03	179.06
310.26	183.06
310.49	174.06
310.72	179.06
310.949	177.06
311.179	187.06
311.409	185.06
311.639	174.06
311.868	192.06
312.098	175.06
312.328	187.06
312.557	187.06
312.787	183.06
313.017	205.06
313.246	195.06
313.476	190.06
313.706	182.06
313.935	193.06
314.165	197.06
314.394	202.06
314.624	184.06
314.853	186.06
315.083	187.06
315.312	182.06
315.542	193.06
315.771	172.06
316.001	181.06
316.23	179.06
316.46	188.06
316.689	168.06
316.919	189.06
317.148	171.06
317.377	184.06
317.607	178.06
317.836	184.06
318.065	173.06
318.295	185.06
318.524	163.06
318.753	183.06
318.983	167.06
319.212	177.06
319.441	172.06
319.67	185.06
319.9	190.06
320.129	174.06
320.358	175.06
320.587	196.06
320.816	181.06
321.046	187.06
321.275	205.06
321.504	177.06
321.733	181.06
321.962	188.06
322.191	198.06
322.42	204.06
322.649	193.06
322.878	172.06
323.108	197.06
323.337	181.06
323.566	181.06
323.795	192.06
324.024	185.06
324.253	186.06
324.482	189.06
324.71	186.06
324.939	219.06
325.168	202.06
325.397	179.06
325.626	183.06
325.855	202.06
326.084	198.06
326.313	209.06
326.542	186.06
326.77	194.06
326.999	205.06
327.228	190.06
327.457	197.06
327.686	190.06
327.914	197.06
328.143	188.06
328.372	199.06
328.6	199.06
328.829	201.06
329.058	190.06
329.287	190.06
329.515	195.06
329.744	201.06
329.972	182.06
330.201	197.06
330.43	200.06
330.658	198.06
330.887	204.06
331.115	202.06
331.344	211.06
331.572	207.06
331.801	221.06
332.03	205.06
332.258	215.06
332.486	214.06
332.715	223.06
332.943	233.06
333.172	221.06
333.4	253.06
333.629	264.06
333.857	251.06
334.085	244.06
334.314	247.06
334.542	235.06
334.771	225.06
334.999	234.06
335.227	246.06
335.455	234.06
335.684	223.06
335.912	226.06
336.14	222.06
336.369	220.06
336.597	222.06
336.825	212.06
337.053	208.06
337.281	209.06
337.51	207.06
337.738	212.06
337.966	214.06
338.194	191.06
338.422	205.06
338.65	198.06
338.878	211.06
339.106	209.06
339.334	207.06
339.562	199.06
339.79	216.06
340.018	208.06
340.246	196.06
340.474	209.06
340.702	194.06
340.93	200.06
341.158	181.06
341.386	204.06
341.614	208.06
341.842	205.06
342.07	193.06
342.298	218.06
342.526	191.06
342.754	190.06
342.981	203.06
343.209	197.06
343.437	205.06
343.665	227.06
343.893	246.06
344.12	240.06
344.348	238.06
344.576	233.06
344.804	214.06
345.031	215.06
345.259	207.06
345.487	183.06
345.714	192.06
345.942	206.06
346.17	202.06
346.397	198.06
346.625	203.06
346.853	192.06
347.08	192.06
347.308	198.06
347.535	207.06
347.763	194.06
347.99	199.06
348.218	196.06
348.445	199.06
348.673	219.06
348.9	185.06
349.128	210.06
349.355	180.06
349.583	187.06
349.81	193.06
350.037	183.06
350.265	188.06
350.492	196.06
350.72	206.06
350.947	173.06
351.174	185.06
351.402	193.06
351.629	190.06
351.856	187.06
352.083	190.06
352.311	191.06
352.538	187.06
352.765	191.06
352.992	187.06
353.22	197.06
353.447	186.06
353.674	183.06
353.901	196.06
354.128	189.06
354.355	189.06
354.583	187.06
354.81	189.06
355.037	177.06
355.264	185.06
355.491	185.06
355.718	186.06
355.945	197.06
356.172	186.06
356.399	209.06
356.626	185.06
356.853	202.06
357.08	186.06
357.307	196.06
357.534	189.06
357.761	174.06
357.988	188.06
358.215	182.06
358.441	194.06
358.668	194.06
358.895	188.06
359.122	189.06
359.349	195.06
359.576	195.06
359.802	187.06
360.029	201.06
360.256	204.06
360.483	187.06
360.709	200.06
360.936	196.06
361.163	192.06
361.39	187.06
361.616	179.06
361.843	190.06
362.07	192.06
362.296	193.06
362.523	173.06
362.749	186.06
362.976	183.06
363.203	169.06
363.429	181.06
363.656	175.06
363.882	179.06
364.109	193.06
364.335	177.06
364.562	193.06
364.788	194.06
365.015	191.06
365.241	177.06
365.468	197.06
365.694	195.06
365.92	180.06
366.147	177.06
366.373	183.06
366.599	186.06
366.826	181.06
367.052	189.06
367.278	176.06
367.505	182.06
367.731	187.06
367.957	181.06
368.184	189.06
368.41	193.06
368.636	195.06
368.862	182.06
369.089	199.06
369.315	198.06
369.541	192.06
369.767	198.06
369.993	181.06
370.219	207.06
370.445	192.06
370.672	197.06
370.898	197.06
371.124	186.06
371.35	193.06
371.576	214.06
371.802	190.06
372.028	214.06
372.254	188.06
372.48	221.06
372.706	207.06
372.932	197.06
373.158	205.06
373.384	197.06
373.61	186.06
373.835	206.06
374.061	193.06
374.287	211.06
374.513	213.06
374.739	195.06
374.965	213.06
375.191	211.06
375.416	214.06
375.642	209.06
375.868	211.06
376.094	210.06
376.319	205.06
376.545	203.06
376.771	172.06
376.997	191.06
377.222	196.06
377.448	201.06
377.674	198.06
377.899	201.06
378.125	206.06
378.35	189.06
378.576	202.06
378.802	196.06
379.027	207.06
379.253	201.06
379.478	210.06
379.704	195.06
379.929	179.06
380.155	198.06
380.38	172.06
380.606	189.06
380.831	197.06
381.057	203.06
381.282	203.06
381.507	199.06
381.733	208.06
381.958	211.06
382.184	193.06
382.409	202.06
382.634	195.06
382.86	181.06
383.085	215.06
383.31	207.06
383.535	232.06
383.761	213.06
383.986	215.06
384.211	218.06
384.436	221.06
384.662	218.06
384.887	242.06
385.112	222.06
385.337	235.06
385.562	219.06
385.787	215.06
386.013	230.06
386.238	230.06
386.463	244.06
386.688	220.06
386.913	227.06
387.138	241.06
387.363	218.06
387.588	215.06
387.813	215.06
388.038	225.06
388.263	225.06
388.488	229.06
388.713	217.06
388.938	214.06
389.163	233.06
389.387	206.06
389.612	196.06
389.837	225.06
390.062	226.06
390.287	229.06
390.512	202.06
390.736	226.06
390.961	236.06
391.186	233.06
391.411	239.06
391.636	229.06
391.86	256.06
392.085	250.06
392.31	251.06
392.534	230.06
392.759	232.06
392.984	246.06
393.208	229.06
393.433	224.06
393.658	229.06
393.882	234.06
394.107	232.06
394.331	229.06
394.556	244.06
394.78	239.06
395.005	228.06
395.229	229.06
395.454	235.06
395.678	235.06
395.903	238.06
396.127	231.06
396.352	245.06
396.576	226.06
396.801	236.06
397.025	219.06
397.249	238.06
397.474	243.06
397.698	245.06
397.922	241.06
398.147	242.06
398.371	232.06
398.595	265.06
398.82	250.06
399.044	267.06
399.268	313.06
399.492	343.06
399.717	392.06
399.941	365.06
400.165	337.06
400.389	296.06
400.613	280.06
400.837	258.06
401.062	264.06
401.286	255.06
401.51	244.06
401.734	251.06
401.958	276.06
402.182	267.06
402.406	264.06
402.63	255.06
402.854	263.06
403.078	281.06
403.302	294.06
403.526	293.06
403.75	294.06
403.974	319.06
404.198	299.06
404.422	309.06
404.645	286.06
404.869	294.06
405.093	285.06
405.317	288.06
405.541	286.06
405.765	281.06
405.988	275.06
406.212	268.06
406.436	273.06
406.66	307.06
406.883	293.06
407.107	297.06
407.331	325.06
407.555	341.06
407.778	338.06
408.002	304.06
408.226	295.06
408.449	305.06
408.673	321.06
408.896	292.06
409.12	299.06
409.344	288.06
409.567	289.06
409.791	309.06
410.014	313.06
410.238	298.06
410.461	299.06
410.685	302.06
410.908	280.06
411.132	275.06
411.355	272.06
411.578	257.06
411.802	273.06
412.025	265.06
412.249	273.06
412.472	281.06
412.695	253.06
412.919	259.06
413.142	261.06
413.365	242.06
413.589	277.06
413.812	265.06
414.035	255.06
414.258	252.06
414.482	266.06
414.705	280.06
414.928	259.06
415.151	261.06
415.374	260.06
415.597	266.06
415.821	252.06
416.044	248.06
416.267	253.06
416.49	261.06
416.713	270.06
416.936	266.06
417.159	275.06
417.382	264.06
417.605	262.06
417.828	274.06
418.051	279.06
418.274	277.06
418.497	256.06
418.72	262.06
418.943	257.06
419.166	286.06
419.389	289.06
419.611	299.06
419.834	294.06
420.057	280.06
420.28	259.06
420.503	268.06
420.726	266.06
420.948	249.06
421.171	270.06
421.394	269.06
421.617	254.06
421.839	265.06
422.062	255.06
422.285	274.06
422.507	266.06
422.73	263.06
422.953	267.06
423.175	270.06
423.398	287.06
423.621	283.06
423.843	279.06
424.066	266.06
424.288	279.06
424.511	271.06
424.733	277.06
424.956	272.06
425.178	271.06
425.401	277.06
425.623	266.06
425.846	245.06
426.068	249.06
426.291	251.06
426.513	246.06
426.735	261.06
426.958	228.06
427.18	254.06
427.402	249.06
427.625	258.06
427.847	253.06
428.069	238.06
428.292	250.06
428.514	234.06
428.736	236.06
428.958	238.06
429.181	243.06
429.403	241.06
429.625	222.06
429.847	244.06
430.069	241.06
430.292	231.06
430.514	234.06
430.736	225.06
430.958	238.06
431.18	242.06
431.402	243.06
431.624	245.06
431.846	242.06
432.068	224.06
432.29	252.06
432.512	242.06
432.734	259.06
432.956	245.06
433.178	246.06
433.4	224.06
433.622	220.06
433.844	248.06
434.066	257.06
434.287	239.06
434.509	259.06
434.731	265.06
434.953	261.06
435.175	269.06
435.397	274.06
435.618	256.06
435.84	252.06
436.062	253.06
436.284	235.06
436.505	240.06
436.727	236.06
436.949	226.06
437.17	261.06
437.392	241.06
437.614	243.06
437.835	218.06
438.057	243.06
438.278	227.06
438.5	234.06
438.721	231.06
438.943	230.06
439.165	231.06
439.386	250.06
439.608	237.06
439.829	236.06
440.05	233.06
440.272	226.06
440.493	234.06
440.715	248.06
440.936	257.06
441.158	264.06
441.379	222.06
441.6	265.06
441.822	261.06
442.043	270.06
442.264	255.06
442.486	265.06
442.707	263.06
442.928	261.06
443.149	248.06
443.371	246.06
443.592	243.06
443.813	265.06
444.034	263.06
444.255	275.06
444.476	289.06
444.698	273.06
444.919	329.06
445.14	372.06
445.361	315.06
445.582	271.06
445.803	258.06
446.024	250.06
446.245	224.06
446.466	250.06
446.687	256.06
446.908	233.06
447.129	247.06
447.35	225.06
447.571	220.06
447.792	228.06
448.013	240.06
448.234	221.06
448.455	216.06
448.675	222.06
448.896	227.06
449.117	227.06
449.338	215.06
449.559	217.06
449.779	219.06
450	224.06
450.221	234.06
450.442	223.06
450.662	222.06
450.883	227.06
451.104	233.06
451.324	231.06
451.545	223.06
451.766	239.06
451.986	239.06
452.207	219.06
452.428	228.06
452.648	237.06
452.869	231.06
453.089	216.06
453.31	215.06
453.53	220.06
453.751	206.06
453.971	247.06
454.192	222.06
454.412	206.06
454.633	214.06
454.853	224.06
455.073	222.06
455.294	230.06
455.514	212.06
455.734	214.06
455.955	224.06
456.175	199.06
456.395	202.06
456.616	203.06
456.836	200.06
457.056	225.06
457.276	225.06
457.497	197.06
457.717	209.06
457.937	231.06
458.157	227.06
458.377	197.06
458.598	211.06
458.818	227.06
459.038	235.06
459.258	235.06
459.478	241.06
459.698	257.06
459.918	266.06
460.138	277.06
460.358	269.06
460.578	285.06
460.798	277.06
461.018	271.06
461.238	266.06
461.458	269.06
461.678	266.06
461.898	280.06
462.118	291.06
462.338	270.06
462.558	276.06
462.777	292.06
462.997	325.06
463.217	358.06
463.437	371.06
463.657	331.06
463.876	305.06
464.096	309.06
464.316	307.06
464.536	333.06
464.755	312.06
464.975	293.06
465.195	286.06
465.414	264.06
465.634	262.06
465.854	245.06
466.073	257.06
466.293	264.06
466.512	242.06
466.732	239.06
466.951	228.06
467.171	221.06
467.391	242.06
467.61	229.06
467.829	257.06
468.049	236.06
468.268	220.06
468.488	234.06
468.707	235.06
468.927	229.06
469.146	238.06
469.365	221.06
469.585	237.06
469.804	243.06
470.023	248.06
470.243	259.06
470.462	236.06
470.681	245.06
470.901	240.06
471.12	249.06
471.339	243.06
471.558	226.06
471.777	217.06
471.997	231.06
472.216	223.06
472.435	244.06
472.654	232.06
472.873	232.06
473.092	222.06
473.311	211.06
473.53	213.06
473.749	221.06
473.968	210.06
474.187	219.06
474.406	225.06
474.625	230.06
474.844	223.06
475.063	229.06
475.282	233.06
475.501	215.06
475.72	251.06
475.939	221.06
476.158	224.06
476.377	228.06
476.596	234.06
476.814	249.06
477.033	245.06
477.252	239.06
477.471	213.06
477.69	240.06
477.908	234.06
478.127	260.06
478.346	265.06
478.564	275.06
478.783	269.06
479.002	271.06
479.22	290.06
479.439	278.06
479.658	257.06
479.876	278.06
480.095	277.06
480.313	279.06
480.532	283.06
480.751	277.06
480.969	265.06
481.188	272.06
481.406	261.06
481.624	256.06
481.843	237.06
482.061	257.06
482.28	255.06
482.498	261.06
482.717	260.06
482.935	271.06
483.153	265.06
483.372	258.06
483.59	262.06
483.808	268.06
484.027	275.06
484.245	261.06
484.463	262.06
484.681	265.06
484.9	259.06
485.118	266.06
485.336	262.06
485.554	268.06
485.772	272.06
485.99	280.06
486.209	259.06
486.427	271.06
486.645	274.06
486.863	250.06
487.081	266.06
487.299	275.06
487.517	264.06
487.735	265.06
487.953	259.06
488.171	277.06
488.389	274.06
488.607	285.06
488.825	281.06
489.043	273.06
489.261	243.06
489.479	243.06
489.696	262.06
489.914	278.06
490.132	252.06
490.35	260.06
490.568	261.06
490.786	263.06
491.003	282.06
491.221	269.06
491.439	273.06
491.657	272.06
491.874	270.06
492.092	250.06
492.31	282.06
492.527	274.06
492.745	277.06
492.963	264.06
493.18	287.06
493.398	282.06
493.615	277.06
493.833	273.06
494.05	271.06
494.268	287.06
494.485	273.06
494.703	261.06
494.92	284.06
495.138	281.06
495.355	261.06
495.573	267.06
495.79	285.06
496.008	300.06
496.225	263.06
496.442	289.06
496.66	281.06
496.877	272.06
497.094	284.06
497.312	274.06
497.529	320.06
497.746	313.06
497.963	309.06
498.181	330.06
498.398	347.06
498.615	335.06
498.832	345.06
499.049	393.06
499.267	401.06
499.484	450.06
499.701	493.06
499.918	564.06
500.135	627.06
500.352	724.06
500.569	786.06
500.786	761.06
501.003	724.06
501.22	611.06
501.437	549.06
501.654	498.06
501.871	451.06
502.088	384.06
502.305	400.06
502.522	368.06
502.739	362.06
502.956	330.06
503.172	330.06
