Data from 0.5MCu(NO3)2.Standard.Lamp.E10.CV._HRD10591_16-06-20-754.txt Node
Date: Mon Jul 22 16:06:20 EDT 2019
User: cochatt
Spectrometer: HR+D1059
Trigger mode: 1
Integration Time (sec): 1.000000E-1
Scans to average: 1
Electric dark correction enabled: true
Nonlinearity correction enabled: false
Boxcar width: 0
XAxis mode: Wavelengths
Number of Pixels in Spectrum: 2048
>>>>>Begin Spectral Data<<<<<
223.165	-18.5
223.4	-18.5
223.635	-18.5
223.869	6.5
224.104	-7.5
224.338	-18.5
224.573	-21.5
224.808	-16.5
225.042	-13.5
225.277	-6.5
225.511	-9.5
225.746	18.5
225.98	13.5
226.215	-6.5
226.449	2.5
226.683	17.5
226.918	28.5
227.152	31.5
227.387	33.5
227.621	49.5
227.856	40.5
228.09	38.5
228.324	45.5
228.559	56.5
228.793	64.5
229.027	64.5
229.262	55.5
229.496	67.5
229.73	68.5
229.964	76.5
230.199	73.5
230.433	77.5
230.667	71.5
230.901	83.5
231.136	64.5
231.37	89.5
231.604	85.5
231.838	94.5
232.072	85.5
232.306	95.5
232.541	99.5
232.775	82.5
233.009	109.5
233.243	94.5
233.477	83.5
233.711	90.5
233.945	85.5
234.179	108.5
234.413	95.5
234.647	92.5
234.881	100.5
235.115	84.5
235.349	93.5
235.583	93.5
235.817	73.5
236.051	71.5
236.285	67.5
236.519	73.5
236.753	90.5
236.987	86.5
237.221	96.5
237.455	82.5
237.689	91.5
237.922	85.5
238.156	91.5
238.39	94.5
238.624	87.5
238.858	91.5
239.091	94.5
239.325	99.5
239.559	82.5
239.793	99.5
240.027	97.5
240.26	93.5
240.494	98.5
240.728	86.5
240.961	97.5
241.195	97.5
241.429	92.5
241.662	102.5
241.896	87.5
242.13	97.5
242.363	100.5
242.597	103.5
242.83	93.5
243.064	94.5
243.298	103.5
243.531	86.5
243.765	104.5
243.998	110.5
244.232	94.5
244.465	102.5
244.699	102.5
244.932	113.5
245.166	103.5
245.399	100.5
245.633	103.5
245.866	114.5
246.099	110.5
246.333	112.5
246.566	101.5
246.8	99.5
247.033	83.5
247.266	110.5
247.5	97.5
247.733	100.5
247.966	90.5
248.2	91.5
248.433	92.5
248.666	106.5
248.899	117.5
249.133	100.5
249.366	94.5
249.599	113.5
249.832	121.5
250.066	113.5
250.299	117.5
250.532	109.5
250.765	117.5
250.998	120.5
251.231	102.5
251.465	120.5
251.698	114.5
251.931	103.5
252.164	116.5
252.397	101.5
252.63	124.5
252.863	108.5
253.096	110.5
253.329	105.5
253.562	108.5
253.795	113.5
254.028	114.5
254.261	119.5
254.494	121.5
254.727	113.5
254.96	108.5
255.193	113.5
255.426	117.5
255.659	108.5
255.892	109.5
256.124	109.5
256.357	113.5
256.59	122.5
256.823	125.5
257.056	112.5
257.289	117.5
257.521	118.5
257.754	130.5
257.987	117.5
258.22	126.5
258.452	117.5
258.685	115.5
258.918	131.5
259.151	128.5
259.383	113.5
259.616	118.5
259.849	116.5
260.081	115.5
260.314	108.5
260.547	109.5
260.779	134.5
261.012	129.5
261.244	126.5
261.477	131.5
261.71	127.5
261.942	122.5
262.175	132.5
262.407	128.5
262.64	124.5
262.872	110.5
263.105	113.5
263.337	133.5
263.57	129.5
263.802	133.5
264.035	123.5
264.267	117.5
264.499	126.5
264.732	144.5
264.964	127.5
265.197	130.5
265.429	133.5
265.661	129.5
265.894	115.5
266.126	144.5
266.358	141.5
266.591	125.5
266.823	124.5
267.055	137.5
267.287	138.5
267.52	138.5
267.752	144.5
267.984	139.5
268.216	124.5
268.448	139.5
268.681	117.5
268.913	124.5
269.145	149.5
269.377	142.5
269.609	129.5
269.841	122.5
270.073	127.5
270.306	142.5
270.538	126.5
270.77	118.5
271.002	138.5
271.234	129.5
271.466	138.5
271.698	119.5
271.93	131.5
272.162	135.5
272.394	133.5
272.626	137.5
272.858	138.5
273.09	132.5
273.322	130.5
273.553	134.5
273.785	152.5
274.017	141.5
274.249	133.5
274.481	148.5
274.713	136.5
274.945	137.5
275.176	142.5
275.408	142.5
275.64	152.5
275.872	150.5
276.104	130.5
276.335	141.5
276.567	149.5
276.799	141.5
277.031	148.5
277.262	142.5
277.494	137.5
277.726	141.5
277.957	154.5
278.189	135.5
278.421	144.5
278.652	140.5
278.884	153.5
279.115	151.5
279.347	136.5
279.579	155.5
279.81	146.5
280.042	150.5
280.273	155.5
280.505	154.5
280.736	135.5
280.968	160.5
281.199	161.5
281.431	155.5
281.662	164.5
281.894	163.5
282.125	147.5
282.356	150.5
282.588	152.5
282.819	160.5
283.051	144.5
283.282	140.5
283.513	160.5
283.745	163.5
283.976	166.5
284.207	161.5
284.439	153.5
284.67	151.5
284.901	147.5
285.132	161.5
285.364	151.5
285.595	157.5
285.826	156.5
286.057	158.5
286.288	154.5
286.52	166.5
286.751	157.5
286.982	158.5
287.213	162.5
287.444	158.5
287.675	170.5
287.906	166.5
288.138	171.5
288.369	158.5
288.6	171.5
288.831	156.5
289.062	172.5
289.293	175.5
289.524	153.5
289.755	160.5
289.986	178.5
290.217	166.5
290.448	167.5
290.679	180.5
290.91	174.5
291.141	174.5
291.371	175.5
291.602	167.5
291.833	175.5
292.064	171.5
292.295	158.5
292.526	182.5
292.757	178.5
292.987	163.5
293.218	166.5
293.449	167.5
293.68	174.5
293.91	181.5
294.141	162.5
294.372	187.5
294.603	180.5
294.833	179.5
295.064	159.5
295.295	151.5
295.525	182.5
295.756	183.5
295.987	181.5
296.217	189.5
296.448	185.5
296.679	181.5
296.909	183.5
297.14	185.5
297.37	175.5
297.601	172.5
297.831	175.5
298.062	186.5
298.292	174.5
298.523	192.5
298.753	191.5
298.984	185.5
299.214	189.5
299.445	163.5
299.675	174.5
299.905	162.5
300.136	183.5
300.366	183.5
300.597	182.5
300.827	183.5
301.057	189.5
301.288	186.5
301.518	198.5
301.748	187.5
301.979	174.5
302.209	186.5
302.439	192.5
302.669	185.5
302.9	185.5
303.13	173.5
303.36	180.5
303.59	171.5
303.82	179.5
304.051	189.5
304.281	194.5
304.511	188.5
304.741	186.5
304.971	188.5
305.201	188.5
305.431	182.5
305.661	184.5
305.891	171.5
306.121	184.5
306.352	172.5
306.582	189.5
306.812	182.5
307.042	197.5
307.272	187.5
307.502	188.5
307.731	164.5
307.961	193.5
308.191	186.5
308.421	185.5
308.651	198.5
308.881	194.5
309.111	180.5
309.341	181.5
309.571	172.5
309.8	172.5
310.03	184.5
310.26	187.5
310.49	173.5
310.72	196.5
310.949	181.5
311.179	185.5
311.409	184.5
311.639	182.5
311.868	187.5
312.098	186.5
312.328	194.5
312.557	202.5
312.787	187.5
313.017	196.5
313.246	204.5
313.476	190.5
313.706	189.5
313.935	183.5
314.165	190.5
314.394	193.5
314.624	207.5
314.853	187.5
315.083	191.5
315.312	178.5
315.542	184.5
315.771	191.5
316.001	185.5
316.23	198.5
316.46	181.5
316.689	190.5
316.919	190.5
317.148	189.5
317.377	182.5
317.607	181.5
317.836	181.5
318.065	177.5
318.295	182.5
318.524	181.5
318.753	201.5
318.983	188.5
319.212	190.5
319.441	181.5
319.67	191.5
319.9	201.5
320.129	196.5
320.358	188.5
320.587	186.5
320.816	177.5
321.046	175.5
321.275	202.5
321.504	182.5
321.733	187.5
321.962	188.5
322.191	173.5
322.42	190.5
322.649	200.5
322.878	191.5
323.108	189.5
323.337	198.5
323.566	189.5
323.795	198.5
324.024	196.5
324.253	193.5
324.482	203.5
324.71	180.5
324.939	185.5
325.168	194.5
325.397	197.5
325.626	202.5
325.855	219.5
326.084	198.5
326.313	190.5
326.542	200.5
326.77	208.5
326.999	204.5
327.228	203.5
327.457	214.5
327.686	209.5
327.914	204.5
328.143	198.5
328.372	207.5
328.6	194.5
328.829	207.5
329.058	201.5
329.287	206.5
329.515	196.5
329.744	214.5
329.972	198.5
330.201	203.5
330.43	214.5
330.658	220.5
330.887	210.5
331.115	206.5
331.344	207.5
331.572	206.5
331.801	194.5
332.03	220.5
332.258	213.5
332.486	215.5
332.715	235.5
332.943	253.5
333.172	245.5
333.4	257.5
333.629	272.5
333.857	250.5
334.085	238.5
334.314	247.5
334.542	248.5
334.771	247.5
334.999	234.5
335.227	237.5
335.455	227.5
335.684	226.5
335.912	233.5
336.14	228.5
336.369	229.5
336.597	240.5
336.825	254.5
337.053	219.5
337.281	224.5
337.51	226.5
337.738	217.5
337.966	209.5
338.194	224.5
338.422	207.5
338.65	205.5
338.878	227.5
339.106	203.5
339.334	232.5
339.562	212.5
339.79	209.5
340.018	220.5
340.246	191.5
340.474	211.5
340.702	205.5
340.93	217.5
341.158	201.5
341.386	217.5
341.614	197.5
341.842	206.5
342.07	204.5
342.298	200.5
342.526	200.5
342.754	194.5
342.981	209.5
343.209	202.5
343.437	217.5
343.665	226.5
343.893	241.5
344.12	253.5
344.348	236.5
344.576	237.5
344.804	222.5
345.031	204.5
345.259	211.5
345.487	221.5
345.714	215.5
345.942	214.5
346.17	216.5
346.397	195.5
346.625	205.5
346.853	183.5
347.08	198.5
347.308	209.5
347.535	210.5
347.763	220.5
347.99	216.5
348.218	199.5
348.445	204.5
348.673	212.5
348.9	206.5
349.128	204.5
349.355	189.5
349.583	201.5
349.81	196.5
350.037	191.5
350.265	193.5
350.492	180.5
350.72	205.5
350.947	185.5
351.174	191.5
351.402	180.5
351.629	198.5
351.856	185.5
352.083	198.5
352.311	195.5
352.538	217.5
352.765	209.5
352.992	201.5
353.22	200.5
353.447	204.5
353.674	197.5
353.901	207.5
354.128	206.5
354.355	208.5
354.583	176.5
354.81	195.5
355.037	201.5
355.264	187.5
355.491	197.5
355.718	177.5
355.945	202.5
356.172	201.5
356.399	218.5
356.626	198.5
356.853	191.5
357.08	187.5
357.307	206.5
357.534	188.5
357.761	196.5
357.988	193.5
358.215	199.5
358.441	184.5
358.668	193.5
358.895	196.5
359.122	195.5
359.349	204.5
359.576	189.5
359.802	210.5
360.029	206.5
360.256	198.5
360.483	204.5
360.709	186.5
360.936	194.5
361.163	190.5
361.39	215.5
361.616	199.5
361.843	206.5
362.07	195.5
362.296	204.5
362.523	195.5
362.749	206.5
362.976	194.5
363.203	203.5
363.429	200.5
363.656	191.5
363.882	196.5
364.109	204.5
364.335	204.5
364.562	198.5
364.788	184.5
365.015	186.5
365.241	201.5
365.468	199.5
365.694	190.5
365.92	196.5
366.147	196.5
366.373	196.5
366.599	198.5
366.826	196.5
367.052	207.5
367.278	191.5
367.505	190.5
367.731	197.5
367.957	185.5
368.184	190.5
368.41	209.5
368.636	211.5
368.862	190.5
369.089	190.5
369.315	197.5
369.541	185.5
369.767	205.5
369.993	212.5
370.219	183.5
370.445	196.5
370.672	201.5
370.898	198.5
371.124	194.5
371.35	204.5
371.576	204.5
371.802	210.5
372.028	213.5
372.254	199.5
372.48	200.5
372.706	198.5
372.932	193.5
373.158	218.5
373.384	215.5
373.61	207.5
373.835	206.5
374.061	188.5
374.287	217.5
374.513	193.5
374.739	207.5
374.965	233.5
375.191	216.5
375.416	207.5
375.642	214.5
375.868	226.5
376.094	207.5
376.319	204.5
376.545	225.5
376.771	215.5
376.997	202.5
377.222	203.5
377.448	212.5
377.674	207.5
377.899	213.5
378.125	198.5
378.35	218.5
378.576	209.5
378.802	203.5
379.027	185.5
379.253	205.5
379.478	188.5
379.704	188.5
379.929	200.5
380.155	204.5
380.38	206.5
380.606	199.5
380.831	200.5
381.057	197.5
381.282	210.5
381.507	211.5
381.733	203.5
381.958	220.5
382.184	215.5
382.409	213.5
382.634	204.5
382.86	215.5
383.085	220.5
383.31	211.5
383.535	231.5
383.761	221.5
383.986	226.5
384.211	231.5
384.436	232.5
384.662	231.5
384.887	231.5
385.112	218.5
385.337	239.5
385.562	236.5
385.787	248.5
386.013	248.5
386.238	245.5
386.463	235.5
386.688	240.5
386.913	227.5
387.138	223.5
387.363	212.5
387.588	228.5
387.813	231.5
388.038	244.5
388.263	247.5
388.488	234.5
388.713	232.5
388.938	245.5
389.163	230.5
389.387	236.5
389.612	237.5
389.837	224.5
390.062	231.5
390.287	233.5
390.512	235.5
390.736	223.5
390.961	220.5
391.186	225.5
391.411	236.5
391.636	232.5
391.86	263.5
392.085	260.5
392.31	238.5
392.534	240.5
392.759	245.5
392.984	238.5
393.208	241.5
393.433	238.5
393.658	237.5
393.882	265.5
394.107	260.5
394.331	242.5
394.556	243.5
394.78	241.5
395.005	219.5
395.229	257.5
395.454	249.5
395.678	263.5
395.903	239.5
396.127	242.5
396.352	249.5
396.576	226.5
396.801	241.5
397.025	227.5
397.249	251.5
397.474	245.5
397.698	264.5
397.922	261.5
398.147	236.5
398.371	225.5
398.595	268.5
398.82	282.5
399.044	288.5
399.268	322.5
399.492	369.5
399.717	393.5
399.941	386.5
400.165	346.5
400.389	302.5
400.613	287.5
400.837	271.5
401.062	265.5
401.286	274.5
401.51	267.5
401.734	269.5
401.958	268.5
402.182	267.5
402.406	279.5
402.63	266.5
402.854	287.5
403.078	279.5
403.302	311.5
403.526	304.5
403.75	305.5
403.974	322.5
404.198	334.5
404.422	311.5
404.645	313.5
404.869	305.5
405.093	297.5
405.317	281.5
405.541	315.5
405.765	299.5
405.988	289.5
406.212	283.5
406.436	294.5
406.66	298.5
406.883	306.5
407.107	325.5
407.331	335.5
407.555	340.5
407.778	345.5
408.002	331.5
408.226	332.5
408.449	319.5
408.673	314.5
408.896	300.5
409.12	309.5
409.344	289.5
409.567	315.5
409.791	302.5
410.014	320.5
410.238	303.5
410.461	289.5
410.685	301.5
410.908	300.5
411.132	267.5
411.355	273.5
411.578	289.5
411.802	281.5
412.025	269.5
412.249	305.5
412.472	287.5
412.695	281.5
412.919	270.5
413.142	265.5
413.365	276.5
413.589	267.5
413.812	276.5
414.035	271.5
414.258	278.5
414.482	268.5
414.705	282.5
414.928	273.5
415.151	295.5
415.374	282.5
415.597	271.5
415.821	291.5
416.044	275.5
416.267	266.5
416.49	271.5
416.713	264.5
416.936	271.5
417.159	272.5
417.382	290.5
417.605	267.5
417.828	266.5
418.051	287.5
418.274	276.5
418.497	280.5
418.72	286.5
418.943	295.5
419.166	287.5
419.389	309.5
419.611	296.5
419.834	291.5
420.057	287.5
420.28	271.5
420.503	254.5
420.726	268.5
420.948	269.5
421.171	261.5
421.394	277.5
421.617	271.5
421.839	285.5
422.062	257.5
422.285	263.5
422.507	289.5
422.73	278.5
422.953	296.5
423.175	289.5
423.398	279.5
423.621	291.5
423.843	283.5
424.066	286.5
424.288	270.5
424.511	277.5
424.733	284.5
424.956	281.5
425.178	275.5
425.401	272.5
425.623	271.5
425.846	273.5
426.068	255.5
426.291	268.5
426.513	266.5
426.735	263.5
426.958	273.5
427.18	264.5
427.402	242.5
427.625	244.5
427.847	245.5
428.069	234.5
428.292	265.5
428.514	259.5
428.736	229.5
428.958	249.5
429.181	244.5
429.403	254.5
429.625	242.5
429.847	248.5
430.069	236.5
430.292	239.5
430.514	254.5
430.736	241.5
430.958	243.5
431.18	236.5
431.402	229.5
431.624	234.5
431.846	245.5
432.068	224.5
432.29	252.5
432.512	228.5
432.734	245.5
432.956	254.5
433.178	244.5
433.4	246.5
433.622	268.5
433.844	274.5
434.066	238.5
434.287	241.5
434.509	268.5
434.731	279.5
434.953	279.5
435.175	289.5
435.397	281.5
435.618	270.5
435.84	268.5
436.062	259.5
436.284	246.5
436.505	235.5
436.727	250.5
436.949	230.5
437.17	250.5
437.392	231.5
437.614	251.5
437.835	216.5
438.057	229.5
438.278	260.5
438.5	245.5
438.721	236.5
438.943	256.5
439.165	254.5
439.386	231.5
439.608	237.5
439.829	243.5
440.05	258.5
440.272	256.5
440.493	242.5
440.715	232.5
440.936	254.5
441.158	272.5
441.379	275.5
441.6	269.5
441.822	283.5
442.043	277.5
442.264	264.5
442.486	281.5
442.707	260.5
442.928	263.5
443.149	262.5
443.371	251.5
443.592	266.5
443.813	258.5
444.034	268.5
444.255	297.5
444.476	297.5
444.698	305.5
444.919	326.5
445.14	434.5
445.361	335.5
445.582	292.5
445.803	290.5
446.024	250.5
446.245	268.5
446.466	257.5
446.687	238.5
446.908	261.5
447.129	253.5
447.35	231.5
447.571	253.5
447.792	255.5
448.013	260.5
448.234	239.5
448.455	226.5
448.675	231.5
448.896	221.5
449.117	218.5
449.338	236.5
449.559	222.5
449.779	249.5
450	244.5
450.221	241.5
450.442	231.5
450.662	226.5
450.883	222.5
451.104	231.5
451.324	226.5
451.545	242.5
451.766	231.5
451.986	236.5
452.207	241.5
452.428	234.5
452.648	233.5
452.869	231.5
453.089	218.5
453.31	219.5
453.53	226.5
453.751	210.5
453.971	220.5
454.192	227.5
454.412	222.5
454.633	226.5
454.853	230.5
455.073	214.5
455.294	224.5
455.514	216.5
455.734	241.5
455.955	229.5
456.175	219.5
456.395	222.5
456.616	229.5
456.836	226.5
457.056	218.5
457.276	223.5
457.497	228.5
457.717	211.5
457.937	204.5
458.157	215.5
458.377	210.5
458.598	232.5
458.818	242.5
459.038	228.5
459.258	260.5
459.478	253.5
459.698	257.5
459.918	264.5
460.138	249.5
460.358	281.5
460.578	282.5
460.798	289.5
461.018	299.5
461.238	305.5
461.458	284.5
461.678	265.5
461.898	278.5
462.118	289.5
462.338	312.5
462.558	325.5
462.777	326.5
462.997	339.5
463.217	369.5
463.437	362.5
463.657	356.5
463.876	338.5
464.096	320.5
464.316	316.5
464.536	326.5
464.755	321.5
464.975	320.5
465.195	304.5
465.414	283.5
465.634	269.5
465.854	260.5
466.073	265.5
466.293	252.5
466.512	267.5
466.732	243.5
466.951	243.5
467.171	256.5
467.391	250.5
467.61	251.5
467.829	260.5
468.049	259.5
468.268	233.5
468.488	219.5
468.707	241.5
468.927	251.5
469.146	229.5
469.365	245.5
469.585	243.5
469.804	234.5
470.023	255.5
470.243	259.5
470.462	267.5
470.681	271.5
470.901	265.5
471.12	248.5
471.339	254.5
471.558	241.5
471.777	236.5
471.997	238.5
472.216	236.5
472.435	220.5
472.654	222.5
472.873	224.5
473.092	247.5
473.311	214.5
473.53	248.5
473.749	225.5
473.968	223.5
474.187	232.5
474.406	223.5
474.625	221.5
474.844	228.5
475.063	231.5
475.282	227.5
475.501	231.5
475.72	235.5
475.939	224.5
476.158	253.5
476.377	229.5
476.596	227.5
476.814	234.5
477.033	261.5
477.252	265.5
477.471	236.5
477.69	249.5
477.908	277.5
478.127	266.5
478.346	267.5
478.564	277.5
478.783	271.5
479.002	283.5
479.22	283.5
479.439	282.5
479.658	296.5
479.876	290.5
480.095	301.5
480.313	302.5
480.532	303.5
480.751	296.5
480.969	287.5
481.188	260.5
481.406	270.5
481.624	266.5
481.843	281.5
482.061	291.5
482.28	276.5
482.498	262.5
482.717	258.5
482.935	264.5
483.153	254.5
483.372	269.5
483.59	259.5
483.808	271.5
484.027	279.5
484.245	255.5
484.463	272.5
484.681	279.5
484.9	269.5
485.118	267.5
485.336	276.5
485.554	274.5
485.772	278.5
485.99	277.5
486.209	278.5
486.427	289.5
486.645	285.5
486.863	261.5
487.081	290.5
487.299	286.5
487.517	293.5
487.735	279.5
487.953	261.5
488.171	280.5
488.389	277.5
488.607	271.5
488.825	266.5
489.043	269.5
489.261	280.5
489.479	275.5
489.696	282.5
489.914	275.5
490.132	299.5
490.35	283.5
490.568	268.5
490.786	263.5
491.003	282.5
491.221	268.5
491.439	285.5
491.657	268.5
491.874	296.5
492.092	277.5
492.31	266.5
492.527	282.5
492.745	276.5
492.963	281.5
493.18	278.5
493.398	307.5
493.615	283.5
493.833	282.5
494.05	285.5
494.268	305.5
494.485	272.5
494.703	310.5
494.92	282.5
495.138	283.5
495.355	297.5
495.573	288.5
495.79	280.5
496.008	303.5
496.225	313.5
496.442	286.5
496.66	295.5
496.877	283.5
497.094	323.5
497.312	312.5
497.529	312.5
497.746	329.5
497.963	336.5
498.181	312.5
498.398	340.5
498.615	354.5
498.832	374.5
499.049	408.5
499.267	440.5
499.484	485.5
499.701	522.5
499.918	572.5
500.135	681.5
500.352	803.5
500.569	822.5
500.786	783.5
501.003	733.5
501.22	649.5
501.437	592.5
501.654	521.5
501.871	459.5
502.088	428.5
502.305	393.5
502.522	394.5
502.739	358.5
502.956	363.5
503.172	340.5
503.389	350.5
503.606	308.5
503.823	333.5
504.04	315.5
504.256	331.5
504.473	327.5
504.69	354.5
504.907	332.5
505.123	317.5
505.34	305.5
505.557	287.5
505.773	279.5
505.99	286.5
506.207	284.5
506.423	268.5
506.64	297.5
506.856	275.5
507.073	265.5
507.289	260.5
507.506	246.5
507.722	274.5
507.939	258.5
508.155	241.5
508.372	246.5
508.588	246.5
508.805	262.5
509.021	252.5
509.238	271.5
509.454	246.5
509.67	246.5
509.887	236.5
510.103	243.5
510.319	224.5
510.536	246.5
510.752	259.5
510.968	272.5
511.184	243.5
511.401	249.5
511.617	231.5
511.833	247.5
512.049	246.5
512.265	244.5
512.481	251.5
512.698	250.5
512.914	248.5
513.13	249.5
513.346	238.5
513.562	260.5
513.778	255.5
513.994	245.5
514.21	250.5
514.426	245.5
514.642	251.5
514.858	260.5
515.074	248.5
515.29	267.5
515.506	252.5
515.721	271.5
515.937	280.5
516.153	265.5
516.369	276.5
516.585	281.5
516.801	297.5
517.016	290.5
517.232	294.5
517.448	327.5
517.664	330.5
517.879	351.5
518.095	353.5
518.311	329.5
518.527	309.5
518.742	305.5
518.958	297.5
519.173	282.5
519.389	270.5
519.605	272.5
519.82	279.5
520.036	275.5
520.251	238.5
520.467	253.5
520.682	252.5
520.898	256.5
521.113	238.5
