Data from 0.5MCu(NO3)2.Standard.Lamp.E10.CV._HRD10591_16-05-40-753.txt Node
Date: Mon Jul 22 16:05:40 EDT 2019
User: cochatt
Spectrometer: HR+D1059
Trigger mode: 1
Integration Time (sec): 1.000000E-1
Scans to average: 1
Electric dark correction enabled: true
Nonlinearity correction enabled: false
Boxcar width: 0
XAxis mode: Wavelengths
Number of Pixels in Spectrum: 2048
>>>>>Begin Spectral Data<<<<<
223.165	-20.12
223.4	-20.12
223.635	-20.12
223.869	-25.12
224.104	-15.12
224.338	-3.12
224.573	-22.12
224.808	-8.12
225.042	-13.12
225.277	-1.12
225.511	-2.12
225.746	8.88
225.98	2.88
226.215	6.88
226.449	9.88
226.683	25.88
226.918	10.88
227.152	44.88
227.387	32.88
227.621	33.88
227.856	42.88
228.09	41.88
228.324	55.88
228.559	53.88
228.793	64.88
229.027	62.88
229.262	72.88
229.496	74.88
229.73	85.88
229.964	80.88
230.199	76.88
230.433	88.88
230.667	93.88
230.901	88.88
231.136	70.88
231.37	92.88
231.604	96.88
231.838	77.88
232.072	96.88
232.306	99.88
232.541	108.88
232.775	77.88
233.009	88.88
233.243	101.88
233.477	92.88
233.711	101.88
233.945	99.88
234.179	83.88
234.413	89.88
234.647	96.88
234.881	90.88
235.115	90.88
235.349	87.88
235.583	108.88
235.817	105.88
236.051	84.88
236.285	91.88
236.519	98.88
236.753	87.88
236.987	97.88
237.221	89.88
237.455	91.88
237.689	99.88
237.922	92.88
238.156	81.88
238.39	83.88
238.624	99.88
238.858	91.88
239.091	92.88
239.325	97.88
239.559	84.88
239.793	98.88
240.027	89.88
240.26	96.88
240.494	100.88
240.728	104.88
240.961	84.88
241.195	103.88
241.429	96.88
241.662	99.88
241.896	109.88
242.13	83.88
242.363	97.88
242.597	111.88
242.83	91.88
243.064	102.88
243.298	104.88
243.531	118.88
243.765	98.88
243.998	109.88
244.232	93.88
244.465	107.88
244.699	103.88
244.932	107.88
245.166	96.88
245.399	108.88
245.633	94.88
245.866	91.88
246.099	112.88
246.333	116.88
246.566	106.88
246.8	120.88
247.033	114.88
247.266	113.88
247.5	106.88
247.733	103.88
247.966	103.88
248.2	118.88
248.433	118.88
248.666	113.88
248.899	87.88
249.133	113.88
249.366	124.88
249.599	109.88
249.832	114.88
250.066	122.88
250.299	114.88
250.532	119.88
250.765	109.88
250.998	109.88
251.231	115.88
251.465	128.88
251.698	105.88
251.931	124.88
252.164	107.88
252.397	113.88
252.63	122.88
252.863	105.88
253.096	120.88
253.329	122.88
253.562	109.88
253.795	132.88
254.028	118.88
254.261	106.88
254.494	128.88
254.727	124.88
254.96	115.88
255.193	116.88
255.426	110.88
255.659	136.88
255.892	132.88
256.124	118.88
256.357	137.88
256.59	110.88
256.823	121.88
257.056	126.88
257.289	122.88
257.521	130.88
257.754	116.88
257.987	124.88
258.22	132.88
258.452	130.88
258.685	120.88
258.918	129.88
259.151	124.88
259.383	117.88
259.616	122.88
259.849	136.88
260.081	132.88
260.314	126.88
260.547	139.88
260.779	121.88
261.012	134.88
261.244	132.88
261.477	133.88
261.71	139.88
261.942	134.88
262.175	118.88
262.407	140.88
262.64	128.88
262.872	137.88
263.105	135.88
263.337	137.88
263.57	123.88
263.802	129.88
264.035	133.88
264.267	135.88
264.499	132.88
264.732	134.88
264.964	141.88
265.197	138.88
265.429	141.88
265.661	134.88
265.894	139.88
266.126	135.88
266.358	116.88
266.591	136.88
266.823	143.88
267.055	116.88
267.287	121.88
267.52	129.88
267.752	131.88
267.984	138.88
268.216	140.88
268.448	155.88
268.681	135.88
268.913	142.88
269.145	129.88
269.377	139.88
269.609	131.88
269.841	145.88
270.073	136.88
270.306	140.88
270.538	148.88
270.77	136.88
271.002	149.88
271.234	146.88
271.466	157.88
271.698	146.88
271.93	140.88
272.162	165.88
272.394	147.88
272.626	149.88
272.858	159.88
273.09	158.88
273.322	153.88
273.553	141.88
273.785	147.88
274.017	157.88
274.249	155.88
274.481	150.88
274.713	129.88
274.945	153.88
275.176	147.88
275.408	152.88
275.64	141.88
275.872	149.88
276.104	161.88
276.335	154.88
276.567	142.88
276.799	151.88
277.031	168.88
277.262	143.88
277.494	139.88
277.726	137.88
277.957	156.88
278.189	157.88
278.421	139.88
278.652	150.88
278.884	159.88
279.115	162.88
279.347	164.88
279.579	151.88
279.81	170.88
280.042	153.88
280.273	162.88
280.505	169.88
280.736	160.88
280.968	178.88
281.199	172.88
281.431	169.88
281.662	171.88
281.894	170.88
282.125	150.88
282.356	172.88
282.588	163.88
282.819	161.88
283.051	168.88
283.282	163.88
283.513	165.88
283.745	169.88
283.976	170.88
284.207	172.88
284.439	165.88
284.67	181.88
284.901	172.88
285.132	182.88
285.364	164.88
285.595	162.88
285.826	153.88
286.057	167.88
286.288	173.88
286.52	166.88
286.751	179.88
286.982	164.88
287.213	173.88
287.444	173.88
287.675	186.88
287.906	179.88
288.138	186.88
288.369	186.88
288.6	178.88
288.831	176.88
289.062	178.88
289.293	183.88
289.524	178.88
289.755	180.88
289.986	195.88
290.217	181.88
290.448	176.88
290.679	189.88
290.91	189.88
291.141	185.88
291.371	187.88
291.602	195.88
291.833	205.88
292.064	172.88
292.295	180.88
292.526	189.88
292.757	190.88
292.987	187.88
293.218	189.88
293.449	187.88
293.68	193.88
293.91	186.88
294.141	180.88
294.372	180.88
294.603	174.88
294.833	196.88
295.064	179.88
295.295	204.88
295.525	190.88
295.756	187.88
295.987	194.88
296.217	181.88
296.448	194.88
296.679	197.88
296.909	178.88
297.14	187.88
297.37	201.88
297.601	201.88
297.831	180.88
298.062	195.88
298.292	203.88
298.523	203.88
298.753	192.88
298.984	210.88
299.214	209.88
299.445	192.88
299.675	209.88
299.905	196.88
300.136	202.88
300.366	193.88
300.597	209.88
300.827	189.88
301.057	206.88
301.288	202.88
301.518	210.88
301.748	231.88
301.979	207.88
302.209	209.88
302.439	221.88
302.669	197.88
302.9	185.88
303.13	201.88
303.36	213.88
303.59	190.88
303.82	191.88
304.051	202.88
304.281	220.88
304.511	195.88
304.741	205.88
304.971	207.88
305.201	184.88
305.431	197.88
305.661	222.88
305.891	207.88
306.121	188.88
306.352	187.88
306.582	197.88
306.812	187.88
307.042	202.88
307.272	204.88
307.502	196.88
307.731	192.88
307.961	213.88
308.191	200.88
308.421	192.88
308.651	196.88
308.881	200.88
309.111	222.88
309.341	184.88
309.571	193.88
309.8	199.88
310.03	189.88
310.26	187.88
310.49	202.88
310.72	210.88
310.949	205.88
311.179	204.88
311.409	217.88
311.639	203.88
311.868	191.88
312.098	206.88
312.328	192.88
312.557	214.88
312.787	199.88
313.017	212.88
313.246	210.88
313.476	216.88
313.706	212.88
313.935	214.88
314.165	213.88
314.394	203.88
314.624	203.88
314.853	207.88
315.083	203.88
315.312	206.88
315.542	225.88
315.771	204.88
316.001	209.88
316.23	216.88
316.46	197.88
316.689	205.88
316.919	213.88
317.148	208.88
317.377	220.88
317.607	196.88
317.836	199.88
318.065	205.88
318.295	205.88
318.524	211.88
318.753	206.88
318.983	193.88
319.212	211.88
319.441	214.88
319.67	227.88
319.9	212.88
320.129	192.88
320.358	199.88
320.587	198.88
320.816	200.88
321.046	191.88
321.275	212.88
321.504	210.88
321.733	206.88
321.962	211.88
322.191	223.88
322.42	217.88
322.649	189.88
322.878	215.88
323.108	202.88
323.337	231.88
323.566	229.88
323.795	222.88
324.024	228.88
324.253	217.88
324.482	212.88
324.71	201.88
324.939	206.88
325.168	200.88
325.397	190.88
325.626	206.88
325.855	206.88
326.084	233.88
326.313	223.88
326.542	233.88
326.77	218.88
326.999	228.88
327.228	231.88
327.457	224.88
327.686	213.88
327.914	212.88
328.143	228.88
328.372	206.88
328.6	228.88
328.829	229.88
329.058	221.88
329.287	227.88
329.515	233.88
329.744	235.88
329.972	224.88
330.201	220.88
330.43	219.88
330.658	223.88
330.887	225.88
331.115	230.88
331.344	228.88
331.572	236.88
331.801	233.88
332.03	232.88
332.258	258.88
332.486	248.88
332.715	270.88
332.943	262.88
333.172	273.88
333.4	271.88
333.629	292.88
333.857	282.88
334.085	290.88
334.314	250.88
334.542	264.88
334.771	253.88
334.999	267.88
335.227	259.88
335.455	267.88
335.684	256.88
335.912	265.88
336.14	267.88
336.369	256.88
336.597	258.88
336.825	243.88
337.053	258.88
337.281	260.88
337.51	241.88
337.738	248.88
337.966	243.88
338.194	238.88
338.422	243.88
338.65	224.88
338.878	246.88
339.106	222.88
339.334	238.88
339.562	235.88
339.79	232.88
340.018	230.88
340.246	224.88
340.474	222.88
340.702	232.88
340.93	235.88
341.158	226.88
341.386	235.88
341.614	230.88
341.842	225.88
342.07	223.88
342.298	221.88
342.526	224.88
342.754	226.88
342.981	218.88
343.209	217.88
343.437	232.88
343.665	256.88
343.893	267.88
344.12	276.88
344.348	276.88
344.576	235.88
344.804	240.88
345.031	219.88
345.259	237.88
345.487	218.88
345.714	214.88
345.942	211.88
346.17	226.88
346.397	238.88
346.625	224.88
346.853	200.88
347.08	220.88
347.308	232.88
347.535	234.88
347.763	226.88
347.99	219.88
348.218	229.88
348.445	215.88
348.673	221.88
348.9	213.88
349.128	229.88
349.355	214.88
349.583	214.88
349.81	229.88
350.037	222.88
350.265	234.88
350.492	224.88
350.72	216.88
350.947	201.88
351.174	225.88
351.402	209.88
351.629	212.88
351.856	200.88
352.083	220.88
352.311	214.88
352.538	215.88
352.765	221.88
352.992	225.88
353.22	212.88
353.447	212.88
353.674	226.88
353.901	212.88
354.128	211.88
354.355	202.88
354.583	208.88
354.81	227.88
355.037	210.88
355.264	214.88
355.491	218.88
355.718	221.88
355.945	214.88
356.172	205.88
356.399	225.88
356.626	209.88
356.853	225.88
357.08	215.88
357.307	222.88
357.534	202.88
357.761	202.88
357.988	212.88
358.215	207.88
358.441	203.88
358.668	219.88
358.895	212.88
359.122	212.88
359.349	213.88
359.576	233.88
359.802	211.88
360.029	228.88
360.256	220.88
360.483	216.88
360.709	215.88
360.936	208.88
361.163	216.88
361.39	209.88
361.616	225.88
361.843	206.88
362.07	207.88
362.296	224.88
362.523	212.88
362.749	216.88
362.976	210.88
363.203	217.88
363.429	217.88
363.656	214.88
363.882	203.88
364.109	206.88
364.335	205.88
364.562	215.88
364.788	210.88
365.015	205.88
365.241	205.88
365.468	229.88
365.694	211.88
365.92	210.88
366.147	201.88
366.373	213.88
366.599	205.88
366.826	231.88
367.052	211.88
367.278	220.88
367.505	221.88
367.731	220.88
367.957	221.88
368.184	212.88
368.41	223.88
368.636	208.88
368.862	219.88
369.089	201.88
369.315	206.88
369.541	196.88
369.767	206.88
369.993	204.88
370.219	226.88
370.445	208.88
370.672	220.88
370.898	224.88
371.124	221.88
371.35	220.88
371.576	222.88
371.802	235.88
372.028	236.88
372.254	225.88
372.48	214.88
372.706	231.88
372.932	238.88
373.158	222.88
373.384	231.88
373.61	224.88
373.835	242.88
374.061	236.88
374.287	236.88
374.513	240.88
374.739	243.88
374.965	233.88
375.191	248.88
375.416	234.88
375.642	218.88
375.868	233.88
376.094	244.88
376.319	227.88
376.545	226.88
376.771	246.88
376.997	231.88
377.222	234.88
377.448	231.88
377.674	220.88
377.899	235.88
378.125	217.88
378.35	229.88
378.576	199.88
378.802	220.88
379.027	219.88
379.253	229.88
379.478	228.88
379.704	212.88
379.929	226.88
380.155	236.88
380.38	233.88
380.606	218.88
380.831	221.88
381.057	226.88
381.282	216.88
381.507	210.88
381.733	213.88
381.958	226.88
382.184	250.88
382.409	225.88
382.634	223.88
382.86	247.88
383.085	227.88
383.31	242.88
383.535	236.88
383.761	250.88
383.986	259.88
384.211	242.88
384.436	260.88
384.662	260.88
384.887	262.88
385.112	253.88
385.337	265.88
385.562	260.88
385.787	284.88
386.013	245.88
386.238	226.88
386.463	264.88
386.688	260.88
386.913	238.88
387.138	246.88
387.363	261.88
387.588	254.88
387.813	250.88
388.038	257.88
388.263	260.88
388.488	255.88
388.713	258.88
388.938	255.88
389.163	237.88
389.387	232.88
389.612	225.88
389.837	242.88
390.062	235.88
390.287	266.88
390.512	262.88
390.736	248.88
390.961	267.88
391.186	246.88
391.411	270.88
391.636	276.88
391.86	287.88
392.085	300.88
392.31	281.88
392.534	274.88
392.759	269.88
392.984	267.88
393.208	277.88
393.433	270.88
393.658	258.88
393.882	276.88
394.107	284.88
394.331	259.88
394.556	262.88
394.78	273.88
395.005	272.88
395.229	260.88
395.454	272.88
395.678	288.88
395.903	306.88
396.127	294.88
396.352	269.88
396.576	248.88
396.801	256.88
397.025	268.88
397.249	264.88
397.474	274.88
397.698	278.88
397.922	285.88
398.147	265.88
398.371	280.88
398.595	290.88
398.82	294.88
399.044	319.88
399.268	350.88
399.492	376.88
399.717	461.88
399.941	458.88
400.165	395.88
400.389	345.88
400.613	328.88
400.837	322.88
401.062	305.88
401.286	291.88
401.51	292.88
401.734	292.88
401.958	313.88
402.182	309.88
402.406	312.88
402.63	305.88
402.854	314.88
403.078	334.88
403.302	354.88
403.526	350.88
403.75	365.88
403.974	347.88
404.198	350.88
404.422	355.88
404.645	345.88
404.869	320.88
405.093	350.88
405.317	324.88
405.541	324.88
405.765	310.88
405.988	346.88
406.212	332.88
406.436	331.88
406.66	340.88
406.883	324.88
407.107	345.88
407.331	374.88
407.555	382.88
407.778	374.88
408.002	377.88
408.226	374.88
408.449	332.88
408.673	344.88
408.896	329.88
409.12	334.88
409.344	331.88
409.567	338.88
409.791	354.88
410.014	348.88
410.238	330.88
410.461	335.88
410.685	327.88
410.908	331.88
411.132	346.88
411.355	295.88
411.578	310.88
411.802	300.88
412.025	306.88
412.249	311.88
412.472	311.88
412.695	287.88
412.919	293.88
413.142	293.88
413.365	304.88
413.589	290.88
413.812	322.88
414.035	302.88
414.258	299.88
414.482	303.88
414.705	311.88
414.928	301.88
415.151	294.88
415.374	296.88
415.597	289.88
415.821	276.88
416.044	293.88
416.267	280.88
416.49	289.88
416.713	308.88
416.936	307.88
417.159	295.88
417.382	291.88
417.605	285.88
417.828	296.88
418.051	300.88
418.274	322.88
418.497	298.88
418.72	315.88
418.943	286.88
419.166	307.88
419.389	326.88
419.611	320.88
419.834	312.88
420.057	313.88
420.28	315.88
420.503	291.88
420.726	295.88
420.948	304.88
421.171	276.88
421.394	299.88
421.617	315.88
421.839	310.88
422.062	306.88
422.285	292.88
422.507	294.88
422.73	304.88
422.953	296.88
423.175	291.88
423.398	301.88
423.621	321.88
423.843	312.88
424.066	318.88
424.288	313.88
424.511	307.88
424.733	306.88
424.956	312.88
425.178	308.88
425.401	292.88
425.623	291.88
425.846	298.88
426.068	297.88
426.291	297.88
426.513	286.88
426.735	269.88
426.958	256.88
427.18	278.88
427.402	296.88
427.625	273.88
427.847	260.88
428.069	276.88
428.292	251.88
428.514	254.88
428.736	273.88
428.958	265.88
429.181	259.88
429.403	277.88
429.625	265.88
429.847	247.88
430.069	259.88
430.292	245.88
430.514	257.88
430.736	263.88
430.958	270.88
431.18	265.88
431.402	282.88
431.624	273.88
431.846	274.88
432.068	282.88
432.29	270.88
432.512	278.88
432.734	270.88
432.956	274.88
433.178	274.88
433.4	275.88
433.622	281.88
433.844	285.88
434.066	274.88
434.287	264.88
434.509	284.88
434.731	289.88
434.953	309.88
435.175	297.88
435.397	294.88
435.618	283.88
435.84	276.88
436.062	261.88
436.284	243.88
436.505	266.88
436.727	277.88
436.949	250.88
437.17	265.88
437.392	265.88
437.614	278.88
437.835	258.88
438.057	268.88
438.278	251.88
438.5	254.88
438.721	253.88
438.943	250.88
439.165	285.88
439.386	276.88
439.608	275.88
439.829	278.88
440.05	268.88
440.272	275.88
440.493	272.88
440.715	282.88
440.936	267.88
441.158	274.88
441.379	286.88
441.6	313.88
441.822	309.88
442.043	298.88
442.264	290.88
442.486	294.88
442.707	294.88
442.928	284.88
443.149	275.88
443.371	299.88
443.592	299.88
443.813	304.88
444.034	314.88
444.255	313.88
444.476	328.88
444.698	343.88
444.919	353.88
445.14	445.88
445.361	378.88
445.582	299.88
445.803	288.88
446.024	280.88
446.245	293.88
446.466	291.88
446.687	266.88
446.908	268.88
447.129	247.88
447.35	266.88
447.571	266.88
447.792	254.88
448.013	252.88
448.234	272.88
448.455	228.88
448.675	243.88
448.896	242.88
449.117	248.88
449.338	240.88
449.559	227.88
449.779	231.88
450	264.88
450.221	273.88
450.442	244.88
450.662	240.88
450.883	274.88
451.104	270.88
451.324	258.88
451.545	264.88
451.766	276.88
451.986	264.88
452.207	272.88
452.428	245.88
452.648	244.88
452.869	235.88
453.089	258.88
453.31	237.88
453.53	248.88
453.751	253.88
453.971	253.88
454.192	235.88
454.412	236.88
454.633	270.88
454.853	257.88
455.073	245.88
455.294	247.88
455.514	237.88
455.734	230.88
455.955	228.88
456.175	226.88
456.395	228.88
456.616	231.88
456.836	225.88
457.056	245.88
457.276	232.88
457.497	235.88
457.717	229.88
457.937	236.88
458.157	240.88
458.377	246.88
458.598	254.88
458.818	242.88
459.038	257.88
459.258	272.88
459.478	262.88
459.698	264.88
459.918	285.88
460.138	283.88
460.358	304.88
460.578	321.88
460.798	323.88
461.018	318.88
461.238	313.88
461.458	314.88
461.678	305.88
461.898	315.88
462.118	316.88
462.338	339.88
462.558	325.88
462.777	360.88
462.997	379.88
463.217	404.88
463.437	405.88
463.657	348.88
463.876	354.88
464.096	370.88
464.316	362.88
464.536	366.88
464.755	364.88
464.975	340.88
465.195	322.88
465.414	317.88
465.634	298.88
465.854	280.88
466.073	269.88
466.293	263.88
466.512	285.88
466.732	267.88
466.951	267.88
467.171	260.88
467.391	246.88
467.61	254.88
467.829	265.88
468.049	245.88
468.268	244.88
468.488	255.88
468.707	248.88
468.927	245.88
469.146	255.88
469.365	256.88
469.585	265.88
469.804	266.88
470.023	271.88
470.243	277.88
470.462	280.88
470.681	272.88
470.901	280.88
471.12	276.88
471.339	257.88
471.558	261.88
471.777	252.88
471.997	242.88
472.216	263.88
472.435	262.88
472.654	251.88
472.873	234.88
473.092	245.88
473.311	266.88
473.53	263.88
473.749	254.88
473.968	268.88
474.187	261.88
474.406	251.88
474.625	261.88
474.844	257.88
475.063	275.88
475.282	260.88
475.501	256.88
475.72	261.88
475.939	265.88
476.158	256.88
476.377	250.88
476.596	271.88
476.814	270.88
477.033	261.88
477.252	257.88
477.471	263.88
477.69	268.88
477.908	273.88
478.127	276.88
478.346	296.88
478.564	304.88
478.783	300.88
479.002	300.88
479.22	315.88
479.439	305.88
479.658	295.88
479.876	312.88
480.095	284.88
480.313	321.88
480.532	336.88
480.751	328.88
480.969	327.88
481.188	292.88
481.406	290.88
481.624	268.88
481.843	293.88
482.061	275.88
482.28	282.88
482.498	281.88
482.717	281.88
482.935	292.88
483.153	276.88
483.372	281.88
483.59	286.88
483.808	313.88
484.027	299.88
484.245	294.88
484.463	308.88
484.681	294.88
484.9	292.88
485.118	322.88
485.336	305.88
485.554	305.88
485.772	329.88
485.99	300.88
486.209	314.88
486.427	309.88
486.645	319.88
486.863	316.88
487.081	318.88
487.299	314.88
487.517	282.88
487.735	290.88
487.953	304.88
488.171	298.88
488.389	300.88
488.607	302.88
488.825	293.88
489.043	300.88
489.261	308.88
489.479	304.88
489.696	299.88
489.914	306.88
490.132	310.88
490.35	318.88
490.568	296.88
490.786	313.88
491.003	326.88
491.221	312.88
491.439	309.88
491.657	298.88
491.874	310.88
492.092	323.88
492.31	298.88
492.527	328.88
492.745	324.88
492.963	311.88
493.18	299.88
493.398	305.88
493.615	307.88
493.833	314.88
494.05	321.88
494.268	309.88
494.485	325.88
494.703	308.88
494.92	313.88
495.138	311.88
495.355	308.88
495.573	321.88
495.79	336.88
496.008	296.88
496.225	317.88
496.442	324.88
496.66	326.88
496.877	329.88
497.094	354.88
497.312	326.88
497.529	350.88
497.746	330.88
497.963	348.88
498.181	369.88
498.398	386.88
498.615	392.88
498.832	426.88
499.049	446.88
499.267	484.88
499.484	534.88
499.701	556.88
499.918	655.88
500.135	730.88
500.352	828.88
500.569	874.88
500.786	873.88
501.003	793.88
501.22	703.88
501.437	632.88
501.654	563.88
501.871	521.88
502.088	474.88
502.305	444.88
502.522	443.88
502.739	411.88
502.956	396.88
