Data from 0.5MCu(NO3)2.Standard.Lamp.E10.CV._HRD10591_16-05-53-753.txt Node
Date: Mon Jul 22 16:05:53 EDT 2019
User: cochatt
Spectrometer: HR+D1059
Trigger mode: 1
Integration Time (sec): 1.000000E-1
Scans to average: 1
Electric dark correction enabled: true
Nonlinearity correction enabled: false
Boxcar width: 0
XAxis mode: Wavelengths
Number of Pixels in Spectrum: 2048
>>>>>Begin Spectral Data<<<<<
223.165	-17.81
223.4	-17.81
223.635	-17.81
223.869	-1.81
224.104	-13.81
224.338	-21.81
224.573	-16.81
224.808	-19.81
225.042	-22.81
225.277	-0.81
225.511	4.19
225.746	-5.81
225.98	6.19
226.215	16.19
226.449	9.19
226.683	31.19
226.918	23.19
227.152	31.19
227.387	41.19
227.621	27.19
227.856	56.19
228.09	39.19
228.324	54.19
228.559	52.19
228.793	53.19
229.027	73.19
229.262	76.19
229.496	82.19
229.73	83.19
229.964	86.19
230.199	77.19
230.433	88.19
230.667	97.19
230.901	93.19
231.136	80.19
231.37	84.19
231.604	98.19
231.838	85.19
232.072	97.19
232.306	90.19
232.541	103.19
232.775	86.19
233.009	88.19
233.243	95.19
233.477	92.19
233.711	97.19
233.945	87.19
234.179	99.19
234.413	89.19
234.647	99.19
234.881	87.19
235.115	98.19
235.349	98.19
235.583	101.19
235.817	81.19
236.051	85.19
236.285	95.19
236.519	98.19
236.753	103.19
236.987	99.19
237.221	102.19
237.455	92.19
237.689	94.19
237.922	103.19
238.156	93.19
238.39	87.19
238.624	88.19
238.858	98.19
239.091	96.19
239.325	104.19
239.559	94.19
239.793	75.19
240.027	96.19
240.26	98.19
240.494	104.19
240.728	95.19
240.961	100.19
241.195	93.19
241.429	109.19
241.662	101.19
241.896	104.19
242.13	113.19
242.363	100.19
242.597	92.19
242.83	97.19
243.064	114.19
243.298	95.19
243.531	107.19
243.765	113.19
243.998	84.19
244.232	113.19
244.465	110.19
244.699	115.19
244.932	90.19
245.166	97.19
245.399	104.19
245.633	121.19
245.866	106.19
246.099	126.19
246.333	120.19
246.566	115.19
246.8	108.19
247.033	110.19
247.266	104.19
247.5	116.19
247.733	112.19
247.966	113.19
248.2	99.19
248.433	113.19
248.666	122.19
248.899	104.19
249.133	102.19
249.366	111.19
249.599	124.19
249.832	122.19
250.066	121.19
250.299	122.19
250.532	124.19
250.765	119.19
250.998	129.19
251.231	122.19
251.465	120.19
251.698	122.19
251.931	122.19
252.164	130.19
252.397	120.19
252.63	139.19
252.863	122.19
253.096	120.19
253.329	123.19
253.562	135.19
253.795	126.19
254.028	136.19
254.261	117.19
254.494	117.19
254.727	134.19
254.96	138.19
255.193	117.19
255.426	122.19
255.659	128.19
255.892	137.19
256.124	127.19
256.357	122.19
256.59	135.19
256.823	119.19
257.056	130.19
257.289	141.19
257.521	132.19
257.754	134.19
257.987	141.19
258.22	127.19
258.452	124.19
258.685	131.19
258.918	136.19
259.151	144.19
259.383	138.19
259.616	138.19
259.849	138.19
260.081	138.19
260.314	139.19
260.547	137.19
260.779	145.19
261.012	138.19
261.244	138.19
261.477	141.19
261.71	130.19
261.942	136.19
262.175	147.19
262.407	127.19
262.64	153.19
262.872	138.19
263.105	148.19
263.337	148.19
263.57	149.19
263.802	150.19
264.035	151.19
264.267	174.19
264.499	154.19
264.732	153.19
264.964	144.19
265.197	146.19
265.429	154.19
265.661	152.19
265.894	159.19
266.126	162.19
266.358	151.19
266.591	155.19
266.823	160.19
267.055	144.19
267.287	150.19
267.52	169.19
267.752	164.19
267.984	161.19
268.216	162.19
268.448	157.19
268.681	168.19
268.913	166.19
269.145	166.19
269.377	169.19
269.609	163.19
269.841	162.19
270.073	188.19
270.306	154.19
270.538	164.19
270.77	171.19
271.002	163.19
271.234	163.19
271.466	169.19
271.698	163.19
271.93	165.19
272.162	163.19
272.394	172.19
272.626	162.19
272.858	162.19
273.09	167.19
273.322	176.19
273.553	156.19
273.785	180.19
274.017	148.19
274.249	158.19
274.481	167.19
274.713	166.19
274.945	154.19
275.176	164.19
275.408	178.19
275.64	163.19
275.872	162.19
276.104	176.19
276.335	176.19
276.567	171.19
276.799	181.19
277.031	178.19
277.262	186.19
277.494	168.19
277.726	178.19
277.957	186.19
278.189	178.19
278.421	188.19
278.652	178.19
278.884	195.19
279.115	180.19
279.347	186.19
279.579	170.19
279.81	178.19
280.042	191.19
280.273	191.19
280.505	187.19
280.736	182.19
280.968	189.19
281.199	199.19
281.431	186.19
281.662	197.19
281.894	195.19
282.125	186.19
282.356	200.19
282.588	185.19
282.819	192.19
283.051	181.19
283.282	184.19
283.513	187.19
283.745	201.19
283.976	186.19
284.207	212.19
284.439	187.19
284.67	185.19
284.901	183.19
285.132	196.19
285.364	200.19
285.595	206.19
285.826	208.19
286.057	178.19
286.288	190.19
286.52	209.19
286.751	197.19
286.982	200.19
287.213	211.19
287.444	200.19
287.675	212.19
287.906	203.19
288.138	202.19
288.369	182.19
288.6	196.19
288.831	201.19
289.062	212.19
289.293	200.19
289.524	194.19
289.755	199.19
289.986	216.19
290.217	208.19
290.448	212.19
290.679	226.19
290.91	211.19
291.141	199.19
291.371	204.19
291.602	207.19
291.833	208.19
292.064	198.19
292.295	210.19
292.526	204.19
292.757	227.19
292.987	206.19
293.218	214.19
293.449	209.19
293.68	217.19
293.91	207.19
294.141	233.19
294.372	210.19
294.603	222.19
294.833	214.19
295.064	213.19
295.295	213.19
295.525	223.19
295.756	214.19
295.987	231.19
296.217	204.19
296.448	234.19
296.679	222.19
296.909	234.19
297.14	212.19
297.37	244.19
297.601	235.19
297.831	219.19
298.062	227.19
298.292	238.19
298.523	230.19
298.753	239.19
298.984	227.19
299.214	236.19
299.445	241.19
299.675	234.19
299.905	236.19
300.136	208.19
300.366	226.19
300.597	222.19
300.827	231.19
301.057	239.19
301.288	236.19
301.518	250.19
301.748	250.19
301.979	226.19
302.209	228.19
302.439	224.19
302.669	230.19
302.9	241.19
303.13	241.19
303.36	242.19
303.59	250.19
303.82	240.19
304.051	252.19
304.281	214.19
304.511	244.19
304.741	249.19
304.971	235.19
305.201	246.19
305.431	230.19
305.661	259.19
305.891	227.19
306.121	242.19
306.352	232.19
306.582	234.19
306.812	224.19
307.042	242.19
307.272	230.19
307.502	218.19
307.731	232.19
307.961	229.19
308.191	238.19
308.421	222.19
308.651	221.19
308.881	241.19
309.111	240.19
309.341	234.19
309.571	228.19
309.8	227.19
310.03	226.19
310.26	220.19
310.49	225.19
310.72	232.19
310.949	231.19
311.179	234.19
311.409	225.19
311.639	256.19
311.868	245.19
312.098	232.19
312.328	240.19
312.557	262.19
312.787	251.19
313.017	240.19
313.246	260.19
313.476	238.19
313.706	265.19
313.935	250.19
314.165	242.19
314.394	254.19
314.624	240.19
314.853	242.19
315.083	265.19
315.312	242.19
315.542	240.19
315.771	262.19
316.001	249.19
316.23	244.19
316.46	235.19
316.689	247.19
316.919	235.19
317.148	258.19
317.377	244.19
317.607	242.19
317.836	244.19
318.065	231.19
318.295	251.19
318.524	254.19
318.753	254.19
318.983	232.19
319.212	234.19
319.441	254.19
319.67	240.19
319.9	253.19
320.129	245.19
320.358	233.19
320.587	229.19
320.816	241.19
321.046	248.19
321.275	233.19
321.504	252.19
321.733	242.19
321.962	244.19
322.191	233.19
322.42	246.19
322.649	257.19
322.878	254.19
323.108	258.19
323.337	244.19
323.566	224.19
323.795	235.19
324.024	265.19
324.253	242.19
324.482	256.19
324.71	242.19
324.939	249.19
325.168	256.19
325.397	250.19
325.626	244.19
325.855	265.19
326.084	263.19
326.313	262.19
326.542	265.19
326.77	276.19
326.999	271.19
327.228	274.19
327.457	272.19
327.686	244.19
327.914	281.19
328.143	269.19
328.372	266.19
328.6	280.19
328.829	265.19
329.058	258.19
329.287	246.19
329.515	273.19
329.744	283.19
329.972	276.19
330.201	250.19
330.43	267.19
330.658	267.19
330.887	281.19
331.115	270.19
331.344	287.19
331.572	285.19
331.801	286.19
332.03	281.19
332.258	294.19
332.486	284.19
332.715	295.19
332.943	331.19
333.172	350.19
333.4	333.19
333.629	349.19
333.857	349.19
334.085	336.19
334.314	334.19
334.542	330.19
334.771	321.19
334.999	323.19
335.227	313.19
335.455	318.19
335.684	310.19
335.912	322.19
336.14	297.19
336.369	307.19
336.597	324.19
336.825	313.19
337.053	305.19
337.281	284.19
337.51	290.19
337.738	310.19
337.966	286.19
338.194	280.19
338.422	297.19
338.65	268.19
338.878	285.19
339.106	293.19
339.334	284.19
339.562	271.19
339.79	275.19
340.018	255.19
340.246	271.19
340.474	276.19
340.702	263.19
340.93	263.19
341.158	267.19
341.386	273.19
341.614	271.19
341.842	268.19
342.07	249.19
342.298	275.19
342.526	277.19
342.754	281.19
342.981	281.19
343.209	290.19
343.437	296.19
343.665	307.19
343.893	338.19
344.12	334.19
344.348	307.19
344.576	311.19
344.804	320.19
345.031	283.19
345.259	272.19
345.487	278.19
345.714	270.19
345.942	265.19
346.17	270.19
346.397	282.19
346.625	285.19
346.853	278.19
347.08	256.19
347.308	279.19
347.535	258.19
347.763	293.19
347.99	262.19
348.218	280.19
348.445	261.19
348.673	258.19
348.9	259.19
349.128	274.19
349.355	273.19
349.583	264.19
349.81	270.19
350.037	240.19
350.265	246.19
350.492	254.19
350.72	263.19
350.947	261.19
351.174	256.19
351.402	258.19
351.629	248.19
351.856	233.19
352.083	246.19
352.311	260.19
352.538	246.19
352.765	262.19
352.992	262.19
353.22	260.19
353.447	258.19
353.674	265.19
353.901	246.19
354.128	260.19
354.355	279.19
354.583	242.19
354.81	247.19
355.037	250.19
355.264	254.19
355.491	255.19
355.718	258.19
355.945	275.19
356.172	252.19
356.399	244.19
356.626	262.19
356.853	248.19
357.08	252.19
357.307	255.19
357.534	273.19
357.761	278.19
357.988	262.19
358.215	267.19
358.441	254.19
358.668	257.19
358.895	254.19
359.122	263.19
359.349	254.19
359.576	257.19
359.802	265.19
360.029	248.19
360.256	256.19
360.483	262.19
360.709	256.19
360.936	253.19
361.163	276.19
361.39	263.19
361.616	262.19
361.843	265.19
362.07	254.19
362.296	250.19
362.523	261.19
362.749	258.19
362.976	255.19
363.203	266.19
363.429	242.19
363.656	246.19
363.882	236.19
364.109	250.19
364.335	245.19
364.562	257.19
364.788	244.19
365.015	266.19
365.241	252.19
365.468	250.19
365.694	227.19
365.92	274.19
366.147	261.19
366.373	245.19
366.599	247.19
366.826	259.19
367.052	249.19
367.278	259.19
367.505	244.19
367.731	254.19
367.957	256.19
368.184	276.19
368.41	262.19
368.636	254.19
368.862	248.19
369.089	258.19
369.315	258.19
369.541	263.19
369.767	257.19
369.993	253.19
370.219	256.19
370.445	258.19
370.672	251.19
370.898	276.19
371.124	268.19
371.35	266.19
371.576	250.19
371.802	273.19
372.028	268.19
372.254	269.19
372.48	274.19
372.706	256.19
372.932	273.19
373.158	277.19
373.384	288.19
373.61	280.19
373.835	255.19
374.061	279.19
374.287	282.19
374.513	266.19
374.739	264.19
374.965	297.19
375.191	290.19
375.416	288.19
375.642	291.19
375.868	278.19
376.094	282.19
376.319	262.19
376.545	256.19
376.771	271.19
376.997	261.19
377.222	263.19
377.448	263.19
377.674	280.19
377.899	277.19
378.125	267.19
378.35	275.19
378.576	258.19
378.802	268.19
379.027	272.19
379.253	265.19
379.478	273.19
379.704	258.19
379.929	275.19
380.155	266.19
380.38	274.19
380.606	281.19
380.831	259.19
381.057	272.19
381.282	266.19
381.507	263.19
381.733	276.19
381.958	250.19
382.184	263.19
382.409	271.19
382.634	285.19
382.86	275.19
383.085	282.19
383.31	297.19
383.535	297.19
383.761	291.19
383.986	286.19
384.211	296.19
384.436	309.19
384.662	310.19
384.887	319.19
385.112	323.19
385.337	327.19
385.562	318.19
385.787	327.19
386.013	341.19
386.238	319.19
386.463	321.19
386.688	321.19
386.913	315.19
387.138	308.19
387.363	310.19
387.588	296.19
387.813	315.19
388.038	304.19
388.263	312.19
388.488	326.19
388.713	318.19
388.938	298.19
389.163	318.19
389.387	311.19
389.612	297.19
389.837	302.19
390.062	314.19
390.287	306.19
390.512	314.19
390.736	306.19
390.961	310.19
391.186	333.19
391.411	316.19
391.636	321.19
391.86	356.19
392.085	353.19
392.31	337.19
392.534	327.19
392.759	338.19
392.984	315.19
393.208	313.19
393.433	332.19
393.658	339.19
393.882	318.19
394.107	319.19
394.331	308.19
394.556	326.19
394.78	312.19
395.005	338.19
395.229	336.19
395.454	316.19
395.678	338.19
395.903	327.19
396.127	331.19
396.352	334.19
396.576	321.19
396.801	320.19
397.025	312.19
397.249	344.19
397.474	327.19
397.698	342.19
397.922	343.19
398.147	332.19
398.371	346.19
398.595	351.19
398.82	350.19
399.044	378.19
399.268	434.19
399.492	485.19
399.717	534.19
399.941	551.19
400.165	486.19
400.389	421.19
400.613	401.19
400.837	372.19
401.062	363.19
401.286	368.19
401.51	367.19
401.734	355.19
401.958	391.19
402.182	362.19
402.406	371.19
402.63	398.19
402.854	423.19
403.078	402.19
403.302	422.19
403.526	410.19
403.75	428.19
403.974	453.19
404.198	444.19
404.422	437.19
404.645	439.19
404.869	414.19
405.093	417.19
405.317	402.19
405.541	404.19
405.765	388.19
405.988	378.19
406.212	424.19
406.436	402.19
406.66	406.19
406.883	400.19
407.107	448.19
407.331	471.19
407.555	458.19
407.778	460.19
408.002	454.19
408.226	432.19
408.449	430.19
408.673	419.19
408.896	400.19
409.12	412.19
409.344	420.19
409.567	410.19
409.791	418.19
410.014	404.19
410.238	419.19
410.461	420.19
410.685	414.19
410.908	384.19
411.132	388.19
411.355	386.19
411.578	380.19
411.802	372.19
412.025	377.19
412.249	367.19
412.472	372.19
412.695	380.19
412.919	364.19
413.142	370.19
413.365	360.19
413.589	376.19
413.812	358.19
414.035	370.19
414.258	358.19
414.482	368.19
414.705	368.19
414.928	359.19
415.151	366.19
415.374	370.19
415.597	370.19
415.821	372.19
416.044	346.19
416.267	360.19
416.49	358.19
416.713	361.19
416.936	375.19
417.159	380.19
417.382	370.19
417.605	376.19
417.828	377.19
418.051	365.19
418.274	386.19
418.497	352.19
418.72	378.19
418.943	370.19
419.166	369.19
419.389	403.19
419.611	409.19
419.834	398.19
420.057	378.19
420.28	367.19
420.503	373.19
420.726	353.19
420.948	363.19
421.171	382.19
421.394	348.19
421.617	363.19
421.839	384.19
422.062	367.19
422.285	382.19
422.507	376.19
422.73	382.19
422.953	376.19
423.175	388.19
423.398	373.19
423.621	405.19
423.843	407.19
424.066	385.19
424.288	392.19
424.511	394.19
424.733	375.19
424.956	383.19
425.178	387.19
425.401	366.19
425.623	371.19
425.846	339.19
426.068	332.19
426.291	352.19
426.513	347.19
426.735	337.19
426.958	348.19
427.18	332.19
427.402	334.19
427.625	352.19
427.847	325.19
428.069	341.19
428.292	322.19
428.514	324.19
428.736	317.19
428.958	324.19
429.181	334.19
429.403	321.19
429.625	304.19
429.847	324.19
430.069	309.19
430.292	315.19
430.514	322.19
430.736	320.19
430.958	345.19
431.18	322.19
431.402	336.19
431.624	312.19
431.846	322.19
432.068	332.19
432.29	355.19
432.512	324.19
432.734	339.19
432.956	330.19
433.178	332.19
433.4	336.19
433.622	325.19
433.844	327.19
434.066	326.19
434.287	344.19
434.509	365.19
434.731	355.19
434.953	392.19
435.175	392.19
435.397	368.19
435.618	363.19
435.84	345.19
436.062	342.19
436.284	345.19
436.505	337.19
436.727	326.19
436.949	332.19
437.17	331.19
437.392	332.19
437.614	338.19
437.835	322.19
438.057	293.19
438.278	297.19
438.5	335.19
438.721	311.19
438.943	314.19
439.165	336.19
439.386	345.19
439.608	301.19
439.829	308.19
440.05	316.19
440.272	329.19
440.493	315.19
440.715	323.19
440.936	339.19
441.158	345.19
441.379	342.19
441.6	351.19
441.822	360.19
442.043	362.19
442.264	365.19
442.486	355.19
442.707	351.19
442.928	375.19
443.149	338.19
443.371	343.19
443.592	362.19
443.813	384.19
444.034	360.19
444.255	386.19
444.476	400.19
444.698	418.19
444.919	427.19
445.14	516.19
445.361	443.19
445.582	375.19
445.803	359.19
446.024	357.19
446.245	342.19
446.466	348.19
446.687	313.19
446.908	332.19
447.129	340.19
447.35	328.19
447.571	318.19
447.792	338.19
448.013	314.19
448.234	302.19
448.455	298.19
448.675	298.19
448.896	309.19
449.117	320.19
449.338	285.19
449.559	296.19
449.779	305.19
450	311.19
450.221	318.19
450.442	278.19
450.662	314.19
450.883	321.19
451.104	331.19
451.324	308.19
451.545	312.19
451.766	307.19
451.986	307.19
452.207	306.19
452.428	315.19
452.648	303.19
452.869	287.19
453.089	293.19
453.31	300.19
453.53	278.19
453.751	284.19
453.971	298.19
454.192	312.19
454.412	292.19
454.633	292.19
454.853	288.19
455.073	284.19
455.294	275.19
455.514	289.19
455.734	300.19
455.955	283.19
456.175	300.19
456.395	279.19
456.616	302.19
456.836	267.19
457.056	287.19
457.276	288.19
457.497	305.19
457.717	310.19
457.937	282.19
458.157	290.19
458.377	303.19
458.598	294.19
458.818	313.19
459.038	325.19
459.258	321.19
459.478	321.19
459.698	346.19
459.918	334.19
460.138	362.19
460.358	377.19
460.578	380.19
460.798	386.19
461.018	390.19
461.238	379.19
461.458	397.19
461.678	373.19
461.898	399.19
462.118	372.19
462.338	407.19
462.558	430.19
462.777	421.19
462.997	451.19
463.217	518.19
463.437	524.19
463.657	469.19
463.876	450.19
464.096	419.19
464.316	434.19
464.536	444.19
464.755	425.19
464.975	421.19
465.195	393.19
465.414	361.19
465.634	343.19
465.854	339.19
466.073	342.19
466.293	342.19
466.512	322.19
466.732	319.19
466.951	326.19
467.171	307.19
467.391	302.19
467.61	308.19
467.829	309.19
468.049	305.19
468.268	300.19
468.488	299.19
468.707	300.19
468.927	312.19
469.146	305.19
469.365	309.19
469.585	320.19
469.804	301.19
470.023	325.19
470.243	331.19
470.462	348.19
470.681	348.19
470.901	351.19
471.12	338.19
471.339	318.19
471.558	323.19
471.777	333.19
471.997	326.19
472.216	319.19
472.435	322.19
472.654	298.19
472.873	302.19
473.092	306.19
473.311	297.19
473.53	319.19
473.749	300.19
473.968	308.19
474.187	289.19
474.406	310.19
474.625	302.19
474.844	309.19
475.063	310.19
475.282	303.19
475.501	311.19
475.72	318.19
475.939	316.19
476.158	315.19
476.377	322.19
476.596	324.19
476.814	294.19
477.033	324.19
477.252	317.19
477.471	340.19
477.69	359.19
477.908	342.19
478.127	359.19
478.346	359.19
478.564	366.19
478.783	362.19
479.002	388.19
479.22	380.19
479.439	362.19
479.658	364.19
479.876	362.19
480.095	394.19
480.313	392.19
480.532	419.19
480.751	407.19
480.969	378.19
481.188	378.19
481.406	362.19
481.624	362.19
481.843	333.19
482.061	352.19
482.28	340.19
482.498	343.19
482.717	343.19
482.935	328.19
483.153	340.19
483.372	342.19
483.59	348.19
483.808	359.19
484.027	354.19
484.245	360.19
484.463	347.19
484.681	347.19
484.9	371.19
485.118	370.19
485.336	372.19
485.554	370.19
485.772	383.19
485.99	384.19
486.209	380.19
486.427	382.19
486.645	390.19
486.863	393.19
487.081	389.19
487.299	373.19
487.517	384.19
487.735	386.19
487.953	385.19
488.171	353.19
488.389	387.19
488.607	378.19
488.825	363.19
489.043	361.19
489.261	375.19
489.479	389.19
489.696	394.19
489.914	362.19
490.132	358.19
490.35	356.19
490.568	357.19
490.786	362.19
491.003	364.19
491.221	354.19
491.439	355.19
491.657	370.19
491.874	378.19
492.092	393.19
492.31	385.19
492.527	360.19
492.745	371.19
492.963	378.19
493.18	376.19
493.398	376.19
493.615	386.19
493.833	361.19
494.05	383.19
494.268	380.19
494.485	396.19
494.703	380.19
494.92	382.19
495.138	391.19
495.355	376.19
495.573	386.19
495.79	380.19
496.008	381.19
496.225	387.19
496.442	392.19
496.66	403.19
496.877	407.19
497.094	419.19
497.312	401.19
497.529	414.19
497.746	432.19
497.963	438.19
498.181	430.19
498.398	480.19
498.615	485.19
498.832	538.19
499.049	565.19
499.267	609.19
499.484	648.19
499.701	717.19
499.918	830.19
500.135	934.19
500.352	1044.19
500.569	1162.19
500.786	1146.19
501.003	1028.19
501.22	930.19
501.437	835.19
501.654	725.19
501.871	662.19
502.088	596.19
502.305	573.19
502.522	528.19
502.739	507.19
502.956	503.19
