Data from 0.5MCu(NO3)2.Standard.Lamp.E10.CV._HRD10591_16-05-33-753.txt Node
Date: Mon Jul 22 16:05:33 EDT 2019
User: cochatt
Spectrometer: HR+D1059
Trigger mode: 1
Integration Time (sec): 1.000000E-1
Scans to average: 1
Electric dark correction enabled: true
Nonlinearity correction enabled: false
Boxcar width: 0
XAxis mode: Wavelengths
Number of Pixels in Spectrum: 2048
>>>>>Begin Spectral Data<<<<<
223.165	-21.31
223.4	-21.31
223.635	-21.31
223.869	-17.31
224.104	-25.31
224.338	-18.31
224.573	-14.31
224.808	-13.31
225.042	10.69
225.277	-1.31
225.511	-10.31
225.746	8.69
225.98	16.69
226.215	13.69
226.449	-0.31
226.683	10.69
226.918	21.69
227.152	39.69
227.387	23.69
227.621	29.69
227.856	49.69
228.09	51.69
228.324	32.69
228.559	60.69
228.793	64.69
229.027	70.69
229.262	62.69
229.496	70.69
229.73	77.69
229.964	73.69
230.199	83.69
230.433	53.69
230.667	84.69
230.901	84.69
231.136	83.69
231.37	88.69
231.604	74.69
231.838	91.69
232.072	91.69
232.306	85.69
232.541	94.69
232.775	89.69
233.009	86.69
233.243	104.69
233.477	91.69
233.711	93.69
233.945	89.69
234.179	91.69
234.413	86.69
234.647	89.69
234.881	85.69
235.115	88.69
235.349	84.69
235.583	92.69
235.817	91.69
236.051	84.69
236.285	83.69
236.519	93.69
236.753	87.69
236.987	93.69
237.221	82.69
237.455	76.69
237.689	98.69
237.922	92.69
238.156	92.69
238.39	87.69
238.624	77.69
238.858	90.69
239.091	86.69
239.325	104.69
239.559	89.69
239.793	93.69
240.027	77.69
240.26	87.69
240.494	84.69
240.728	83.69
240.961	102.69
241.195	103.69
241.429	82.69
241.662	90.69
241.896	89.69
242.13	76.69
242.363	93.69
242.597	87.69
242.83	83.69
243.064	98.69
243.298	111.69
243.531	87.69
243.765	90.69
243.998	93.69
244.232	95.69
244.465	100.69
244.699	85.69
244.932	95.69
245.166	86.69
245.399	102.69
245.633	93.69
245.866	112.69
246.099	95.69
246.333	89.69
246.566	104.69
246.8	104.69
247.033	105.69
247.266	111.69
247.5	103.69
247.733	102.69
247.966	84.69
248.2	101.69
248.433	116.69
248.666	105.69
248.899	103.69
249.133	102.69
249.366	88.69
249.599	107.69
249.832	118.69
250.066	104.69
250.299	99.69
250.532	102.69
250.765	112.69
250.998	106.69
251.231	99.69
251.465	114.69
251.698	119.69
251.931	109.69
252.164	99.69
252.397	99.69
252.63	102.69
252.863	98.69
253.096	125.69
253.329	111.69
253.562	101.69
253.795	104.69
254.028	104.69
254.261	110.69
254.494	98.69
254.727	125.69
254.96	116.69
255.193	103.69
255.426	109.69
255.659	123.69
255.892	105.69
256.124	115.69
256.357	104.69
256.59	116.69
256.823	111.69
257.056	116.69
257.289	124.69
257.521	111.69
257.754	122.69
257.987	109.69
258.22	121.69
258.452	117.69
258.685	119.69
258.918	110.69
259.151	123.69
259.383	124.69
259.616	115.69
259.849	125.69
260.081	117.69
260.314	115.69
260.547	111.69
260.779	109.69
261.012	125.69
261.244	103.69
261.477	120.69
261.71	127.69
261.942	114.69
262.175	129.69
262.407	133.69
262.64	131.69
262.872	133.69
263.105	124.69
263.337	113.69
263.57	131.69
263.802	120.69
264.035	122.69
264.267	143.69
264.499	111.69
264.732	126.69
264.964	134.69
265.197	121.69
265.429	118.69
265.661	125.69
265.894	129.69
266.126	137.69
266.358	142.69
266.591	129.69
266.823	131.69
267.055	117.69
267.287	139.69
267.52	123.69
267.752	126.69
267.984	125.69
268.216	139.69
268.448	138.69
268.681	153.69
268.913	137.69
269.145	128.69
269.377	118.69
269.609	127.69
269.841	144.69
270.073	139.69
270.306	144.69
270.538	135.69
270.77	125.69
271.002	130.69
271.234	128.69
271.466	139.69
271.698	135.69
271.93	146.69
272.162	136.69
272.394	133.69
272.626	144.69
272.858	133.69
273.09	145.69
273.322	144.69
273.553	126.69
273.785	135.69
274.017	137.69
274.249	140.69
274.481	133.69
274.713	120.69
274.945	143.69
275.176	141.69
275.408	145.69
275.64	153.69
275.872	137.69
276.104	157.69
276.335	133.69
276.567	139.69
276.799	136.69
277.031	133.69
277.262	142.69
277.494	153.69
277.726	133.69
277.957	157.69
278.189	142.69
278.421	128.69
278.652	158.69
278.884	153.69
279.115	157.69
279.347	138.69
279.579	151.69
279.81	159.69
280.042	140.69
280.273	152.69
280.505	165.69
280.736	144.69
280.968	154.69
281.199	137.69
281.431	154.69
281.662	160.69
281.894	144.69
282.125	154.69
282.356	148.69
282.588	148.69
282.819	156.69
283.051	154.69
283.282	147.69
283.513	146.69
283.745	146.69
283.976	170.69
284.207	145.69
284.439	162.69
284.67	170.69
284.901	153.69
285.132	173.69
285.364	162.69
285.595	169.69
285.826	152.69
286.057	173.69
286.288	157.69
286.52	161.69
286.751	178.69
286.982	158.69
287.213	154.69
287.444	128.69
287.675	164.69
287.906	170.69
288.138	169.69
288.369	169.69
288.6	162.69
288.831	158.69
289.062	177.69
289.293	141.69
289.524	168.69
289.755	166.69
289.986	168.69
290.217	161.69
290.448	144.69
290.679	160.69
290.91	185.69
291.141	157.69
291.371	173.69
291.602	147.69
291.833	178.69
292.064	179.69
292.295	178.69
292.526	165.69
292.757	170.69
292.987	173.69
293.218	171.69
293.449	182.69
293.68	162.69
293.91	163.69
294.141	175.69
294.372	177.69
294.603	166.69
294.833	182.69
295.064	174.69
295.295	169.69
295.525	186.69
295.756	186.69
295.987	183.69
296.217	203.69
296.448	170.69
296.679	181.69
296.909	183.69
297.14	192.69
297.37	175.69
297.601	175.69
297.831	185.69
298.062	176.69
298.292	192.69
298.523	198.69
298.753	190.69
298.984	189.69
299.214	178.69
299.445	180.69
299.675	194.69
299.905	184.69
300.136	181.69
300.366	186.69
300.597	193.69
300.827	185.69
301.057	192.69
301.288	179.69
301.518	198.69
301.748	186.69
301.979	211.69
302.209	196.69
302.439	191.69
302.669	183.69
302.9	177.69
303.13	187.69
303.36	183.69
303.59	201.69
303.82	198.69
304.051	200.69
304.281	165.69
304.511	184.69
304.741	195.69
304.971	194.69
305.201	189.69
305.431	180.69
305.661	185.69
305.891	196.69
306.121	179.69
306.352	183.69
306.582	174.69
306.812	179.69
307.042	184.69
307.272	186.69
307.502	181.69
307.731	195.69
307.961	194.69
308.191	177.69
308.421	202.69
308.651	197.69
308.881	182.69
309.111	203.69
309.341	195.69
309.571	181.69
309.8	185.69
310.03	198.69
310.26	202.69
310.49	194.69
310.72	192.69
310.949	201.69
311.179	167.69
311.409	190.69
311.639	194.69
311.868	200.69
312.098	186.69
312.328	174.69
312.557	193.69
312.787	194.69
313.017	198.69
313.246	211.69
313.476	199.69
313.706	203.69
313.935	198.69
314.165	185.69
314.394	186.69
314.624	196.69
314.853	187.69
315.083	195.69
315.312	197.69
315.542	200.69
315.771	197.69
316.001	192.69
316.23	191.69
316.46	185.69
316.689	189.69
316.919	183.69
317.148	205.69
317.377	199.69
317.607	214.69
317.836	199.69
318.065	187.69
318.295	179.69
318.524	185.69
318.753	176.69
318.983	175.69
319.212	177.69
319.441	194.69
319.67	197.69
319.9	195.69
320.129	191.69
320.358	167.69
320.587	188.69
320.816	193.69
321.046	181.69
321.275	181.69
321.504	189.69
321.733	198.69
321.962	197.69
322.191	184.69
322.42	194.69
322.649	199.69
322.878	201.69
323.108	203.69
323.337	185.69
323.566	178.69
323.795	198.69
324.024	206.69
324.253	223.69
324.482	196.69
324.71	180.69
324.939	189.69
325.168	201.69
325.397	197.69
325.626	205.69
325.855	217.69
326.084	208.69
326.313	183.69
326.542	203.69
326.77	211.69
326.999	187.69
327.228	220.69
327.457	203.69
327.686	222.69
327.914	207.69
328.143	213.69
328.372	196.69
328.6	185.69
328.829	208.69
329.058	223.69
329.287	206.69
329.515	198.69
329.744	197.69
329.972	196.69
330.201	218.69
330.43	216.69
330.658	222.69
330.887	213.69
331.115	220.69
331.344	209.69
331.572	213.69
331.801	218.69
332.03	222.69
332.258	224.69
332.486	238.69
332.715	222.69
332.943	236.69
333.172	257.69
333.4	248.69
333.629	261.69
333.857	271.69
334.085	254.69
334.314	240.69
334.542	244.69
334.771	247.69
334.999	251.69
335.227	226.69
335.455	248.69
335.684	241.69
335.912	247.69
336.14	228.69
336.369	229.69
336.597	244.69
336.825	242.69
337.053	245.69
337.281	241.69
337.51	234.69
337.738	217.69
337.966	218.69
338.194	224.69
338.422	214.69
338.65	216.69
338.878	233.69
339.106	223.69
339.334	217.69
339.562	222.69
339.79	226.69
340.018	215.69
340.246	210.69
340.474	201.69
340.702	208.69
340.93	206.69
341.158	203.69
341.386	206.69
341.614	228.69
341.842	210.69
342.07	214.69
342.298	209.69
342.526	209.69
342.754	203.69
342.981	209.69
343.209	214.69
343.437	244.69
343.665	233.69
343.893	253.69
344.12	239.69
344.348	245.69
344.576	214.69
344.804	245.69
345.031	234.69
345.259	216.69
345.487	233.69
345.714	202.69
345.942	211.69
346.17	224.69
346.397	213.69
346.625	212.69
346.853	203.69
347.08	194.69
347.308	195.69
347.535	203.69
347.763	207.69
347.99	214.69
348.218	206.69
348.445	207.69
348.673	205.69
348.9	208.69
349.128	215.69
349.355	198.69
349.583	210.69
349.81	194.69
350.037	197.69
350.265	187.69
350.492	201.69
350.72	213.69
350.947	200.69
351.174	198.69
351.402	217.69
351.629	194.69
351.856	208.69
352.083	189.69
352.311	187.69
352.538	179.69
352.765	193.69
352.992	197.69
353.22	206.69
353.447	189.69
353.674	195.69
353.901	207.69
354.128	209.69
354.355	195.69
354.583	204.69
354.81	211.69
355.037	197.69
355.264	191.69
355.491	209.69
355.718	208.69
355.945	207.69
356.172	211.69
356.399	197.69
356.626	182.69
356.853	196.69
357.08	197.69
357.307	203.69
357.534	199.69
357.761	186.69
357.988	211.69
358.215	192.69
358.441	198.69
358.668	198.69
358.895	202.69
359.122	183.69
359.349	217.69
359.576	194.69
359.802	200.69
360.029	194.69
360.256	207.69
360.483	187.69
360.709	201.69
360.936	197.69
361.163	194.69
361.39	201.69
361.616	219.69
361.843	215.69
362.07	192.69
362.296	194.69
362.523	206.69
362.749	194.69
362.976	181.69
363.203	191.69
363.429	195.69
363.656	206.69
363.882	219.69
364.109	198.69
364.335	201.69
364.562	210.69
364.788	186.69
365.015	212.69
365.241	205.69
365.468	204.69
365.694	187.69
365.92	187.69
366.147	192.69
366.373	186.69
366.599	207.69
366.826	203.69
367.052	194.69
367.278	208.69
367.505	205.69
367.731	191.69
367.957	203.69
368.184	211.69
368.41	200.69
368.636	208.69
368.862	202.69
369.089	189.69
369.315	206.69
369.541	194.69
369.767	199.69
369.993	204.69
370.219	186.69
370.445	213.69
370.672	210.69
370.898	217.69
371.124	219.69
371.35	200.69
371.576	207.69
371.802	221.69
372.028	222.69
372.254	213.69
372.48	215.69
372.706	206.69
372.932	209.69
373.158	218.69
373.384	226.69
373.61	222.69
373.835	218.69
374.061	216.69
374.287	228.69
374.513	205.69
374.739	215.69
374.965	223.69
375.191	226.69
375.416	226.69
375.642	231.69
375.868	239.69
376.094	221.69
376.319	209.69
376.545	210.69
376.771	231.69
376.997	230.69
377.222	195.69
377.448	207.69
377.674	211.69
377.899	216.69
378.125	206.69
378.35	212.69
378.576	200.69
378.802	199.69
379.027	209.69
379.253	225.69
379.478	208.69
379.704	191.69
379.929	211.69
380.155	211.69
380.38	206.69
380.606	206.69
380.831	211.69
381.057	206.69
381.282	205.69
381.507	201.69
381.733	213.69
381.958	218.69
382.184	214.69
382.409	215.69
382.634	194.69
382.86	230.69
383.085	236.69
383.31	237.69
383.535	230.69
383.761	229.69
383.986	222.69
384.211	255.69
384.436	241.69
384.662	223.69
384.887	247.69
385.112	249.69
385.337	234.69
385.562	250.69
385.787	242.69
386.013	253.69
386.238	246.69
386.463	239.69
386.688	216.69
386.913	238.69
387.138	231.69
387.363	228.69
387.588	246.69
387.813	214.69
388.038	238.69
388.263	241.69
388.488	238.69
388.713	246.69
388.938	227.69
389.163	234.69
389.387	217.69
389.612	224.69
389.837	218.69
390.062	216.69
390.287	225.69
390.512	204.69
390.736	208.69
390.961	203.69
391.186	238.69
391.411	239.69
391.636	261.69
391.86	263.69
392.085	263.69
392.31	252.69
392.534	257.69
392.759	266.69
392.984	236.69
393.208	249.69
393.433	243.69
393.658	247.69
393.882	271.69
394.107	250.69
394.331	238.69
394.556	243.69
394.78	241.69
395.005	239.69
395.229	232.69
395.454	247.69
395.678	255.69
395.903	257.69
396.127	266.69
396.352	253.69
396.576	243.69
396.801	245.69
397.025	247.69
397.249	241.69
397.474	256.69
397.698	240.69
397.922	242.69
398.147	265.69
398.371	243.69
398.595	274.69
398.82	260.69
399.044	289.69
399.268	315.69
399.492	359.69
399.717	427.69
399.941	401.69
400.165	369.69
400.389	315.69
400.613	288.69
400.837	285.69
401.062	296.69
401.286	279.69
401.51	278.69
401.734	276.69
401.958	273.69
402.182	282.69
402.406	298.69
402.63	303.69
402.854	286.69
403.078	293.69
403.302	292.69
403.526	320.69
403.75	319.69
403.974	324.69
404.198	326.69
404.422	319.69
404.645	309.69
404.869	302.69
405.093	309.69
405.317	309.69
405.541	314.69
405.765	309.69
405.988	308.69
406.212	297.69
406.436	305.69
406.66	293.69
406.883	296.69
407.107	326.69
407.331	355.69
407.555	342.69
407.778	367.69
408.002	338.69
408.226	321.69
408.449	330.69
408.673	310.69
408.896	320.69
409.12	318.69
409.344	295.69
409.567	314.69
409.791	308.69
410.014	318.69
410.238	313.69
410.461	307.69
410.685	317.69
410.908	308.69
411.132	295.69
411.355	272.69
411.578	271.69
411.802	279.69
412.025	282.69
412.249	286.69
412.472	297.69
412.695	307.69
412.919	267.69
413.142	291.69
413.365	282.69
413.589	274.69
413.812	261.69
414.035	264.69
414.258	275.69
414.482	296.69
414.705	285.69
414.928	293.69
415.151	291.69
415.374	279.69
415.597	273.69
415.821	282.69
416.044	269.69
416.267	290.69
416.49	263.69
416.713	283.69
416.936	281.69
417.159	274.69
417.382	271.69
417.605	273.69
417.828	264.69
418.051	279.69
418.274	275.69
418.497	276.69
418.72	285.69
418.943	294.69
419.166	308.69
419.389	314.69
419.611	306.69
419.834	302.69
420.057	281.69
420.28	277.69
420.503	265.69
420.726	262.69
420.948	259.69
421.171	267.69
421.394	262.69
421.617	271.69
421.839	261.69
422.062	274.69
422.285	267.69
422.507	288.69
422.73	287.69
422.953	299.69
423.175	291.69
423.398	283.69
423.621	298.69
423.843	305.69
424.066	291.69
424.288	317.69
424.511	283.69
424.733	271.69
424.956	278.69
425.178	287.69
425.401	282.69
425.623	274.69
425.846	259.69
426.068	265.69
426.291	271.69
426.513	260.69
426.735	287.69
426.958	287.69
427.18	270.69
427.402	254.69
427.625	262.69
427.847	266.69
428.069	263.69
428.292	257.69
428.514	230.69
428.736	264.69
428.958	247.69
429.181	255.69
429.403	247.69
429.625	249.69
429.847	243.69
430.069	265.69
430.292	255.69
430.514	249.69
430.736	250.69
430.958	245.69
431.18	242.69
431.402	249.69
431.624	249.69
431.846	249.69
432.068	250.69
432.29	258.69
432.512	267.69
432.734	257.69
432.956	251.69
433.178	259.69
433.4	234.69
433.622	240.69
433.844	253.69
434.066	256.69
434.287	236.69
434.509	261.69
434.731	260.69
434.953	270.69
435.175	251.69
435.397	282.69
435.618	262.69
435.84	259.69
436.062	272.69
436.284	253.69
436.505	246.69
436.727	270.69
436.949	249.69
437.17	249.69
437.392	243.69
437.614	246.69
437.835	254.69
438.057	242.69
438.278	241.69
438.5	238.69
438.721	227.69
438.943	250.69
439.165	265.69
439.386	245.69
439.608	245.69
439.829	252.69
440.05	243.69
440.272	255.69
440.493	255.69
440.715	254.69
440.936	261.69
441.158	270.69
441.379	265.69
441.6	275.69
441.822	266.69
442.043	276.69
442.264	272.69
442.486	273.69
442.707	280.69
442.928	283.69
443.149	274.69
443.371	294.69
443.592	285.69
443.813	277.69
444.034	282.69
444.255	266.69
444.476	309.69
444.698	305.69
444.919	334.69
445.14	445.69
445.361	344.69
445.582	299.69
445.803	278.69
446.024	247.69
446.245	289.69
446.466	251.69
446.687	256.69
446.908	257.69
447.129	244.69
447.35	234.69
447.571	250.69
447.792	231.69
448.013	239.69
448.234	248.69
448.455	240.69
448.675	224.69
448.896	242.69
449.117	226.69
449.338	238.69
449.559	240.69
449.779	217.69
450	219.69
450.221	234.69
450.442	229.69
450.662	232.69
450.883	241.69
451.104	235.69
451.324	249.69
451.545	253.69
451.766	253.69
451.986	267.69
452.207	225.69
452.428	224.69
452.648	228.69
452.869	219.69
453.089	235.69
453.31	228.69
453.53	221.69
453.751	229.69
453.971	221.69
454.192	246.69
454.412	246.69
454.633	225.69
454.853	248.69
455.073	214.69
455.294	226.69
455.514	232.69
455.734	251.69
455.955	213.69
456.175	221.69
456.395	222.69
456.616	232.69
456.836	214.69
457.056	229.69
457.276	205.69
457.497	228.69
457.717	228.69
457.937	222.69
458.157	221.69
458.377	234.69
458.598	239.69
458.818	238.69
459.038	256.69
459.258	237.69
459.478	245.69
459.698	248.69
459.918	266.69
460.138	264.69
460.358	286.69
460.578	286.69
460.798	306.69
461.018	293.69
461.238	307.69
461.458	281.69
461.678	282.69
461.898	287.69
462.118	292.69
462.338	311.69
462.558	318.69
462.777	329.69
462.997	352.69
463.217	377.69
463.437	384.69
463.657	337.69
463.876	326.69
464.096	333.69
464.316	342.69
464.536	339.69
464.755	314.69
464.975	321.69
465.195	287.69
465.414	287.69
465.634	276.69
465.854	254.69
466.073	257.69
466.293	244.69
466.512	266.69
466.732	241.69
466.951	257.69
467.171	257.69
467.391	263.69
467.61	262.69
467.829	251.69
468.049	246.69
468.268	229.69
468.488	259.69
468.707	245.69
468.927	238.69
469.146	228.69
469.365	238.69
469.585	258.69
469.804	243.69
470.023	270.69
470.243	268.69
470.462	259.69
470.681	273.69
470.901	253.69
471.12	237.69
471.339	244.69
471.558	245.69
471.777	247.69
471.997	258.69
472.216	256.69
472.435	239.69
472.654	223.69
472.873	238.69
473.092	230.69
473.311	229.69
473.53	246.69
473.749	237.69
473.968	244.69
474.187	243.69
474.406	234.69
474.625	232.69
474.844	242.69
475.063	229.69
475.282	237.69
475.501	256.69
475.72	235.69
475.939	240.69
476.158	259.69
476.377	231.69
476.596	234.69
476.814	244.69
477.033	245.69
477.252	253.69
477.471	263.69
477.69	258.69
477.908	271.69
478.127	265.69
478.346	269.69
478.564	295.69
478.783	291.69
479.002	310.69
479.22	283.69
479.439	290.69
479.658	293.69
479.876	279.69
480.095	287.69
480.313	305.69
480.532	293.69
480.751	313.69
480.969	303.69
481.188	285.69
481.406	289.69
481.624	279.69
481.843	281.69
482.061	266.69
482.28	261.69
482.498	277.69
482.717	261.69
482.935	271.69
483.153	253.69
483.372	280.69
483.59	274.69
483.808	269.69
484.027	261.69
484.245	277.69
484.463	258.69
484.681	273.69
484.9	283.69
485.118	282.69
485.336	298.69
485.554	299.69
485.772	286.69
485.99	301.69
486.209	287.69
486.427	309.69
486.645	283.69
486.863	299.69
487.081	274.69
487.299	287.69
487.517	294.69
487.735	285.69
487.953	289.69
488.171	285.69
488.389	285.69
488.607	294.69
488.825	283.69
489.043	274.69
489.261	281.69
489.479	281.69
489.696	272.69
489.914	280.69
490.132	294.69
490.35	285.69
490.568	289.69
490.786	284.69
491.003	272.69
491.221	298.69
491.439	292.69
491.657	284.69
491.874	296.69
492.092	277.69
492.31	278.69
492.527	293.69
492.745	279.69
492.963	289.69
493.18	291.69
493.398	285.69
493.615	285.69
493.833	283.69
494.05	298.69
494.268	302.69
494.485	308.69
494.703	307.69
494.92	305.69
495.138	286.69
495.355	285.69
495.573	279.69
495.79	302.69
496.008	312.69
496.225	297.69
496.442	299.69
496.66	309.69
496.877	319.69
497.094	314.69
497.312	319.69
497.529	331.69
497.746	329.69
497.963	349.69
498.181	352.69
498.398	341.69
498.615	361.69
498.832	405.69
499.049	422.69
499.267	447.69
499.484	480.69
499.701	548.69
499.918	597.69
500.135	688.69
500.352	794.69
500.569	839.69
500.786	815.69
501.003	752.69
501.22	670.69
501.437	582.69
501.654	517.69
501.871	481.69
502.088	433.69
502.305	395.69
502.522	387.69
502.739	408.69
502.956	350.69
503.172	361.69
