Data from 0.5MCu(NO3)2.Standard.Lamp.E10.CV._HRD10591_16-05-24-753.txt Node
Date: Mon Jul 22 16:05:24 EDT 2019
User: cochatt
Spectrometer: HR+D1059
Trigger mode: 1
Integration Time (sec): 1.000000E-1
Scans to average: 1
Electric dark correction enabled: true
Nonlinearity correction enabled: false
Boxcar width: 0
XAxis mode: Wavelengths
Number of Pixels in Spectrum: 2048
>>>>>Begin Spectral Data<<<<<
223.165	-0.88
223.4	-0.88
223.635	-0.88
223.869	-6.88
224.104	-27.88
224.338	-14.88
224.573	-10.88
224.808	-4.88
225.042	-12.88
225.277	-7.88
225.511	-4.88
225.746	-7.88
225.98	13.12
226.215	7.12
226.449	8.12
226.683	16.12
226.918	21.12
227.152	34.12
227.387	41.12
227.621	40.12
227.856	47.12
228.09	39.12
228.324	35.12
228.559	49.12
228.793	56.12
229.027	68.12
229.262	68.12
229.496	75.12
229.73	66.12
229.964	81.12
230.199	84.12
230.433	77.12
230.667	95.12
230.901	91.12
231.136	71.12
231.37	82.12
231.604	90.12
231.838	84.12
232.072	83.12
232.306	91.12
232.541	85.12
232.775	84.12
233.009	98.12
233.243	89.12
233.477	84.12
233.711	94.12
233.945	91.12
234.179	95.12
234.413	96.12
234.647	84.12
234.881	94.12
235.115	87.12
235.349	83.12
235.583	92.12
235.817	74.12
236.051	87.12
236.285	91.12
236.519	83.12
236.753	91.12
236.987	76.12
237.221	78.12
237.455	94.12
237.689	88.12
237.922	92.12
238.156	88.12
238.39	78.12
238.624	83.12
238.858	98.12
239.091	93.12
239.325	85.12
239.559	77.12
239.793	97.12
240.027	92.12
240.26	95.12
240.494	93.12
240.728	88.12
240.961	107.12
241.195	97.12
241.429	99.12
241.662	88.12
241.896	86.12
242.13	91.12
242.363	91.12
242.597	91.12
242.83	99.12
243.064	95.12
243.298	99.12
243.531	98.12
243.765	99.12
243.998	97.12
244.232	100.12
244.465	85.12
244.699	97.12
244.932	99.12
245.166	106.12
245.399	111.12
245.633	111.12
245.866	115.12
246.099	104.12
246.333	104.12
246.566	99.12
246.8	95.12
247.033	96.12
247.266	112.12
247.5	115.12
247.733	103.12
247.966	86.12
248.2	101.12
248.433	99.12
248.666	103.12
248.899	109.12
249.133	116.12
249.366	106.12
249.599	117.12
249.832	107.12
250.066	125.12
250.299	100.12
250.532	105.12
250.765	97.12
250.998	124.12
251.231	114.12
251.465	122.12
251.698	122.12
251.931	108.12
252.164	113.12
252.397	116.12
252.63	107.12
252.863	109.12
253.096	102.12
253.329	118.12
253.562	113.12
253.795	124.12
254.028	131.12
254.261	115.12
254.494	106.12
254.727	106.12
254.96	105.12
255.193	112.12
255.426	103.12
255.659	122.12
255.892	120.12
256.124	125.12
256.357	110.12
256.59	105.12
256.823	112.12
257.056	119.12
257.289	124.12
257.521	129.12
257.754	123.12
257.987	115.12
258.22	119.12
258.452	114.12
258.685	117.12
258.918	125.12
259.151	107.12
259.383	123.12
259.616	131.12
259.849	130.12
260.081	126.12
260.314	105.12
260.547	113.12
260.779	134.12
261.012	128.12
261.244	127.12
261.477	131.12
261.71	136.12
261.942	138.12
262.175	132.12
262.407	120.12
262.64	133.12
262.872	130.12
263.105	124.12
263.337	137.12
263.57	126.12
263.802	145.12
264.035	123.12
264.267	134.12
264.499	145.12
264.732	126.12
264.964	133.12
265.197	121.12
265.429	131.12
265.661	133.12
265.894	145.12
266.126	137.12
266.358	128.12
266.591	127.12
266.823	143.12
267.055	121.12
267.287	137.12
267.52	131.12
267.752	138.12
267.984	131.12
268.216	135.12
268.448	136.12
268.681	138.12
268.913	144.12
269.145	135.12
269.377	142.12
269.609	132.12
269.841	142.12
270.073	133.12
270.306	136.12
270.538	142.12
270.77	141.12
271.002	143.12
271.234	145.12
271.466	160.12
271.698	135.12
271.93	134.12
272.162	139.12
272.394	134.12
272.626	141.12
272.858	135.12
273.09	133.12
273.322	151.12
273.553	160.12
273.785	161.12
274.017	144.12
274.249	145.12
274.481	145.12
274.713	148.12
274.945	147.12
275.176	154.12
275.408	149.12
275.64	142.12
275.872	142.12
276.104	137.12
276.335	162.12
276.567	161.12
276.799	143.12
277.031	142.12
277.262	161.12
277.494	159.12
277.726	149.12
277.957	151.12
278.189	142.12
278.421	175.12
278.652	147.12
278.884	160.12
279.115	164.12
279.347	165.12
279.579	148.12
279.81	152.12
280.042	164.12
280.273	154.12
280.505	149.12
280.736	162.12
280.968	171.12
281.199	181.12
281.431	159.12
281.662	163.12
281.894	166.12
282.125	156.12
282.356	154.12
282.588	161.12
282.819	179.12
283.051	155.12
283.282	156.12
283.513	156.12
283.745	162.12
283.976	177.12
284.207	179.12
284.439	164.12
284.67	175.12
284.901	156.12
285.132	173.12
285.364	159.12
285.595	159.12
285.826	156.12
286.057	169.12
286.288	161.12
286.52	169.12
286.751	176.12
286.982	178.12
287.213	192.12
287.444	160.12
287.675	187.12
287.906	186.12
288.138	176.12
288.369	178.12
288.6	176.12
288.831	184.12
289.062	173.12
289.293	182.12
289.524	175.12
289.755	179.12
289.986	152.12
290.217	165.12
290.448	177.12
290.679	195.12
290.91	188.12
291.141	165.12
291.371	182.12
291.602	185.12
291.833	177.12
292.064	180.12
292.295	192.12
292.526	191.12
292.757	177.12
292.987	184.12
293.218	183.12
293.449	180.12
293.68	187.12
293.91	186.12
294.141	168.12
294.372	166.12
294.603	166.12
294.833	169.12
295.064	185.12
295.295	179.12
295.525	168.12
295.756	202.12
295.987	183.12
296.217	189.12
296.448	187.12
296.679	176.12
296.909	183.12
297.14	179.12
297.37	193.12
297.601	186.12
297.831	201.12
298.062	205.12
298.292	196.12
298.523	203.12
298.753	189.12
298.984	197.12
299.214	195.12
299.445	199.12
299.675	194.12
299.905	196.12
300.136	192.12
300.366	205.12
300.597	186.12
300.827	195.12
301.057	209.12
301.288	210.12
301.518	201.12
301.748	209.12
301.979	208.12
302.209	196.12
302.439	201.12
302.669	206.12
302.9	211.12
303.13	205.12
303.36	196.12
303.59	192.12
303.82	199.12
304.051	207.12
304.281	176.12
304.511	186.12
304.741	209.12
304.971	191.12
305.201	193.12
305.431	204.12
305.661	187.12
305.891	192.12
306.121	202.12
306.352	179.12
306.582	189.12
306.812	183.12
307.042	183.12
307.272	184.12
307.502	182.12
307.731	190.12
307.961	193.12
308.191	189.12
308.421	194.12
308.651	183.12
308.881	192.12
309.111	198.12
309.341	197.12
309.571	190.12
309.8	199.12
310.03	201.12
310.26	197.12
310.49	187.12
310.72	191.12
310.949	195.12
311.179	189.12
311.409	199.12
311.639	187.12
311.868	197.12
312.098	201.12
312.328	204.12
312.557	191.12
312.787	201.12
313.017	204.12
313.246	218.12
313.476	202.12
313.706	209.12
313.935	211.12
314.165	216.12
314.394	204.12
314.624	209.12
314.853	209.12
315.083	184.12
315.312	197.12
315.542	204.12
315.771	189.12
316.001	215.12
316.23	197.12
316.46	199.12
316.689	219.12
316.919	210.12
317.148	197.12
317.377	193.12
317.607	200.12
317.836	201.12
318.065	189.12
318.295	210.12
318.524	191.12
318.753	202.12
318.983	197.12
319.212	193.12
319.441	199.12
319.67	203.12
319.9	188.12
320.129	202.12
320.358	201.12
320.587	201.12
320.816	213.12
321.046	200.12
321.275	227.12
321.504	203.12
321.733	202.12
321.962	208.12
322.191	207.12
322.42	209.12
322.649	213.12
322.878	204.12
323.108	209.12
323.337	205.12
323.566	207.12
323.795	203.12
324.024	204.12
324.253	210.12
324.482	183.12
324.71	212.12
324.939	201.12
325.168	220.12
325.397	214.12
325.626	203.12
325.855	212.12
326.084	219.12
326.313	208.12
326.542	216.12
326.77	216.12
326.999	230.12
327.228	209.12
327.457	226.12
327.686	218.12
327.914	226.12
328.143	224.12
328.372	216.12
328.6	229.12
328.829	215.12
329.058	217.12
329.287	217.12
329.515	208.12
329.744	213.12
329.972	216.12
330.201	204.12
330.43	225.12
330.658	220.12
330.887	225.12
331.115	218.12
331.344	219.12
331.572	235.12
331.801	218.12
332.03	240.12
332.258	230.12
332.486	235.12
332.715	273.12
332.943	263.12
333.172	290.12
333.4	292.12
333.629	274.12
333.857	264.12
334.085	266.12
334.314	274.12
334.542	260.12
334.771	261.12
334.999	247.12
335.227	256.12
335.455	261.12
335.684	243.12
335.912	250.12
336.14	251.12
336.369	251.12
336.597	248.12
336.825	273.12
337.053	250.12
337.281	227.12
337.51	243.12
337.738	224.12
337.966	226.12
338.194	233.12
338.422	228.12
338.65	219.12
338.878	215.12
339.106	220.12
339.334	228.12
339.562	206.12
339.79	211.12
340.018	235.12
340.246	221.12
340.474	218.12
340.702	226.12
340.93	225.12
341.158	224.12
341.386	209.12
341.614	221.12
341.842	212.12
342.07	214.12
342.298	207.12
342.526	210.12
342.754	207.12
342.981	223.12
343.209	226.12
343.437	230.12
343.665	252.12
343.893	261.12
344.12	264.12
344.348	245.12
344.576	244.12
344.804	248.12
345.031	239.12
345.259	251.12
345.487	232.12
345.714	220.12
345.942	223.12
346.17	227.12
346.397	233.12
346.625	237.12
346.853	203.12
347.08	217.12
347.308	217.12
347.535	220.12
347.763	225.12
347.99	216.12
348.218	217.12
348.445	212.12
348.673	231.12
348.9	216.12
349.128	214.12
349.355	212.12
349.583	210.12
349.81	223.12
350.037	219.12
350.265	218.12
350.492	191.12
350.72	208.12
350.947	211.12
351.174	221.12
351.402	203.12
351.629	207.12
351.856	204.12
352.083	227.12
352.311	205.12
352.538	211.12
352.765	220.12
352.992	201.12
353.22	215.12
353.447	211.12
353.674	204.12
353.901	215.12
354.128	209.12
354.355	218.12
354.583	207.12
354.81	206.12
355.037	196.12
355.264	202.12
355.491	219.12
355.718	195.12
355.945	204.12
356.172	216.12
356.399	220.12
356.626	211.12
356.853	219.12
357.08	219.12
357.307	216.12
357.534	224.12
357.761	213.12
357.988	221.12
358.215	220.12
358.441	205.12
358.668	212.12
358.895	203.12
359.122	226.12
359.349	205.12
359.576	204.12
359.802	211.12
360.029	186.12
360.256	197.12
360.483	193.12
360.709	185.12
360.936	211.12
361.163	221.12
361.39	197.12
361.616	205.12
361.843	214.12
362.07	202.12
362.296	207.12
362.523	211.12
362.749	206.12
362.976	201.12
363.203	199.12
363.429	208.12
363.656	199.12
363.882	207.12
364.109	215.12
364.335	222.12
364.562	207.12
364.788	198.12
365.015	205.12
365.241	214.12
365.468	198.12
365.694	207.12
365.92	203.12
366.147	218.12
366.373	207.12
366.599	217.12
366.826	205.12
367.052	203.12
367.278	202.12
367.505	194.12
367.731	198.12
367.957	206.12
368.184	187.12
368.41	217.12
368.636	220.12
368.862	212.12
369.089	217.12
369.315	224.12
369.541	227.12
369.767	230.12
369.993	205.12
370.219	225.12
370.445	223.12
370.672	220.12
370.898	218.12
371.124	202.12
371.35	218.12
371.576	206.12
371.802	224.12
372.028	229.12
372.254	230.12
372.48	217.12
372.706	228.12
372.932	229.12
373.158	241.12
373.384	228.12
373.61	220.12
373.835	238.12
374.061	216.12
374.287	218.12
374.513	224.12
374.739	222.12
374.965	225.12
375.191	249.12
375.416	221.12
375.642	240.12
375.868	232.12
376.094	242.12
376.319	227.12
376.545	223.12
376.771	219.12
376.997	225.12
377.222	220.12
377.448	219.12
377.674	219.12
377.899	215.12
378.125	213.12
378.35	211.12
378.576	203.12
378.802	204.12
379.027	216.12
379.253	227.12
379.478	212.12
379.704	234.12
379.929	206.12
380.155	207.12
380.38	224.12
380.606	228.12
380.831	225.12
381.057	219.12
381.282	211.12
381.507	215.12
381.733	220.12
381.958	219.12
382.184	218.12
382.409	220.12
382.634	233.12
382.86	213.12
383.085	218.12
383.31	239.12
383.535	239.12
383.761	233.12
383.986	227.12
384.211	235.12
384.436	254.12
384.662	266.12
384.887	246.12
385.112	251.12
385.337	249.12
385.562	239.12
385.787	260.12
386.013	260.12
386.238	257.12
386.463	244.12
386.688	232.12
386.913	239.12
387.138	239.12
387.363	229.12
387.588	252.12
387.813	228.12
388.038	246.12
388.263	269.12
388.488	248.12
388.713	273.12
388.938	255.12
389.163	215.12
389.387	231.12
389.612	234.12
389.837	233.12
390.062	243.12
390.287	232.12
390.512	232.12
390.736	240.12
390.961	247.12
391.186	248.12
391.411	263.12
391.636	247.12
391.86	245.12
392.085	284.12
392.31	261.12
392.534	260.12
392.759	262.12
392.984	273.12
393.208	255.12
393.433	250.12
393.658	281.12
393.882	272.12
394.107	273.12
394.331	268.12
394.556	271.12
394.78	244.12
395.005	251.12
395.229	264.12
395.454	258.12
395.678	273.12
395.903	251.12
396.127	278.12
396.352	268.12
396.576	258.12
396.801	273.12
397.025	264.12
397.249	240.12
397.474	273.12
397.698	246.12
397.922	251.12
398.147	262.12
398.371	267.12
398.595	278.12
398.82	279.12
399.044	307.12
399.268	335.12
399.492	368.12
399.717	415.12
399.941	397.12
400.165	371.12
400.389	328.12
400.613	319.12
400.837	304.12
401.062	281.12
401.286	291.12
401.51	287.12
401.734	284.12
401.958	292.12
402.182	292.12
402.406	292.12
402.63	308.12
402.854	307.12
403.078	320.12
403.302	306.12
403.526	335.12
403.75	324.12
403.974	322.12
404.198	335.12
404.422	343.12
404.645	333.12
404.869	333.12
405.093	305.12
405.317	311.12
405.541	325.12
405.765	307.12
405.988	299.12
406.212	301.12
406.436	311.12
406.66	301.12
406.883	329.12
407.107	333.12
407.331	358.12
407.555	375.12
407.778	368.12
408.002	368.12
408.226	335.12
408.449	342.12
408.673	323.12
408.896	330.12
409.12	337.12
409.344	333.12
409.567	316.12
409.791	327.12
410.014	339.12
410.238	321.12
410.461	328.12
410.685	326.12
410.908	320.12
411.132	319.12
411.355	296.12
411.578	310.12
411.802	295.12
412.025	298.12
412.249	318.12
412.472	303.12
412.695	277.12
412.919	289.12
413.142	289.12
413.365	292.12
413.589	290.12
413.812	297.12
414.035	284.12
414.258	281.12
414.482	282.12
414.705	292.12
414.928	298.12
415.151	292.12
415.374	304.12
415.597	278.12
415.821	293.12
416.044	286.12
416.267	263.12
416.49	296.12
416.713	276.12
416.936	279.12
417.159	285.12
417.382	299.12
417.605	279.12
417.828	284.12
418.051	297.12
418.274	307.12
418.497	284.12
418.72	287.12
418.943	311.12
419.166	312.12
419.389	316.12
419.611	328.12
419.834	301.12
420.057	293.12
420.28	274.12
420.503	292.12
420.726	296.12
420.948	287.12
421.171	268.12
421.394	279.12
421.617	288.12
421.839	271.12
422.062	299.12
422.285	298.12
422.507	305.12
422.73	296.12
422.953	291.12
423.175	320.12
423.398	317.12
423.621	287.12
423.843	307.12
424.066	325.12
424.288	291.12
424.511	300.12
424.733	293.12
424.956	291.12
425.178	281.12
425.401	299.12
425.623	297.12
425.846	280.12
426.068	268.12
426.291	273.12
426.513	288.12
426.735	261.12
426.958	277.12
427.18	255.12
427.402	244.12
427.625	254.12
427.847	265.12
428.069	263.12
428.292	264.12
428.514	257.12
428.736	249.12
428.958	261.12
429.181	255.12
429.403	264.12
429.625	251.12
429.847	257.12
430.069	241.12
430.292	251.12
430.514	263.12
430.736	248.12
430.958	242.12
431.18	253.12
431.402	240.12
431.624	245.12
431.846	259.12
432.068	273.12
432.29	282.12
432.512	264.12
432.734	257.12
432.956	260.12
433.178	275.12
433.4	259.12
433.622	257.12
433.844	259.12
434.066	269.12
434.287	280.12
434.509	276.12
434.731	293.12
434.953	307.12
435.175	296.12
435.397	284.12
435.618	276.12
435.84	263.12
436.062	267.12
436.284	263.12
436.505	244.12
436.727	259.12
436.949	261.12
437.17	256.12
437.392	243.12
437.614	271.12
437.835	252.12
438.057	242.12
438.278	251.12
438.5	250.12
438.721	255.12
438.943	260.12
439.165	252.12
439.386	238.12
439.608	236.12
439.829	242.12
440.05	253.12
440.272	261.12
440.493	255.12
440.715	278.12
440.936	263.12
441.158	290.12
441.379	278.12
441.6	291.12
441.822	295.12
442.043	296.12
442.264	292.12
442.486	273.12
442.707	281.12
442.928	278.12
443.149	276.12
443.371	272.12
443.592	286.12
443.813	292.12
444.034	289.12
444.255	291.12
444.476	305.12
444.698	304.12
444.919	340.12
445.14	440.12
445.361	360.12
445.582	293.12
445.803	277.12
446.024	279.12
446.245	279.12
446.466	264.12
446.687	275.12
446.908	267.12
447.129	262.12
447.35	248.12
447.571	261.12
447.792	256.12
448.013	249.12
448.234	251.12
448.455	241.12
448.675	264.12
448.896	231.12
449.117	261.12
449.338	242.12
449.559	231.12
449.779	255.12
450	248.12
450.221	237.12
450.442	231.12
450.662	239.12
450.883	238.12
451.104	257.12
451.324	245.12
451.545	251.12
451.766	255.12
451.986	257.12
452.207	245.12
452.428	226.12
452.648	247.12
452.869	241.12
453.089	215.12
453.31	247.12
453.53	235.12
453.751	237.12
453.971	252.12
454.192	221.12
454.412	215.12
454.633	221.12
454.853	230.12
455.073	227.12
455.294	228.12
455.514	218.12
455.734	218.12
455.955	225.12
456.175	219.12
456.395	223.12
456.616	232.12
456.836	239.12
457.056	234.12
457.276	217.12
457.497	237.12
457.717	219.12
457.937	214.12
458.157	227.12
458.377	235.12
458.598	242.12
458.818	243.12
459.038	265.12
459.258	256.12
459.478	258.12
459.698	253.12
459.918	263.12
460.138	281.12
460.358	293.12
460.578	298.12
460.798	292.12
461.018	300.12
461.238	320.12
461.458	323.12
461.678	293.12
461.898	304.12
462.118	290.12
462.338	299.12
462.558	324.12
462.777	345.12
462.997	345.12
463.217	390.12
463.437	387.12
463.657	352.12
463.876	354.12
464.096	338.12
464.316	335.12
464.536	357.12
464.755	331.12
464.975	322.12
465.195	312.12
465.414	300.12
465.634	277.12
465.854	283.12
466.073	281.12
466.293	276.12
466.512	261.12
466.732	249.12
466.951	248.12
467.171	244.12
467.391	273.12
467.61	248.12
467.829	258.12
468.049	259.12
468.268	233.12
468.488	250.12
468.707	244.12
468.927	250.12
469.146	235.12
469.365	246.12
469.585	236.12
469.804	259.12
470.023	243.12
470.243	260.12
470.462	284.12
470.681	268.12
470.901	263.12
471.12	261.12
471.339	267.12
471.558	237.12
471.777	260.12
471.997	255.12
472.216	246.12
472.435	234.12
472.654	261.12
472.873	245.12
473.092	244.12
473.311	260.12
473.53	257.12
473.749	236.12
473.968	245.12
474.187	246.12
474.406	252.12
474.625	240.12
474.844	239.12
475.063	228.12
475.282	226.12
475.501	239.12
475.72	242.12
475.939	242.12
476.158	244.12
476.377	258.12
476.596	240.12
476.814	242.12
477.033	268.12
477.252	260.12
477.471	273.12
477.69	273.12
477.908	276.12
478.127	275.12
478.346	267.12
478.564	289.12
478.783	287.12
479.002	300.12
479.22	306.12
479.439	307.12
479.658	298.12
479.876	303.12
480.095	285.12
480.313	289.12
480.532	308.12
480.751	321.12
480.969	309.12
481.188	291.12
481.406	301.12
481.624	270.12
481.843	277.12
482.061	278.12
482.28	267.12
482.498	298.12
482.717	267.12
482.935	271.12
483.153	275.12
483.372	280.12
483.59	279.12
483.808	282.12
484.027	268.12
484.245	287.12
484.463	275.12
484.681	289.12
484.9	279.12
485.118	285.12
485.336	289.12
485.554	292.12
485.772	297.12
485.99	295.12
486.209	295.12
486.427	287.12
486.645	315.12
486.863	276.12
487.081	295.12
487.299	302.12
487.517	275.12
487.735	298.12
487.953	287.12
488.171	277.12
488.389	292.12
488.607	287.12
488.825	307.12
489.043	289.12
489.261	293.12
489.479	283.12
489.696	282.12
489.914	291.12
490.132	299.12
490.35	295.12
490.568	290.12
490.786	304.12
491.003	292.12
491.221	296.12
491.439	298.12
491.657	311.12
491.874	292.12
492.092	281.12
492.31	297.12
492.527	287.12
492.745	297.12
492.963	307.12
493.18	297.12
493.398	285.12
493.615	297.12
493.833	312.12
494.05	307.12
494.268	302.12
494.485	323.12
494.703	296.12
494.92	307.12
495.138	290.12
495.355	291.12
495.573	317.12
495.79	311.12
496.008	309.12
496.225	315.12
496.442	309.12
496.66	304.12
496.877	312.12
497.094	314.12
497.312	323.12
497.529	325.12
497.746	351.12
497.963	346.12
498.181	356.12
498.398	362.12
498.615	378.12
498.832	407.12
499.049	428.12
499.267	480.12
499.484	505.12
499.701	567.12
499.918	605.12
500.135	704.12
500.352	800.12
500.569	876.12
500.786	851.12
501.003	763.12
501.22	670.12
501.437	591.12
501.654	546.12
501.871	480.12
502.088	463.12
502.305	419.12
502.522	399.12
502.739	378.12
502.956	365.12
503.172	375.12
