Data from 0.5MCu(NO3)2.Standard.Lamp.E10.CV._HRD10591_16-04-16-753.txt Node
Date: Mon Jul 22 16:04:16 EDT 2019
User: cochatt
Spectrometer: HR+D1059
Trigger mode: 1
Integration Time (sec): 1.000000E-1
Scans to average: 1
Electric dark correction enabled: true
Nonlinearity correction enabled: false
Boxcar width: 0
XAxis mode: Wavelengths
Number of Pixels in Spectrum: 2048
>>>>>Begin Spectral Data<<<<<
223.165	-23.62
223.4	-23.62
223.635	-23.62
223.869	-16.62
224.104	-16.62
224.338	3.38
224.573	-15.62
224.808	-10.62
225.042	-13.62
225.277	-6.62
225.511	-8.62
225.746	16.38
225.98	-0.62
226.215	7.38
226.449	13.38
226.683	27.38
226.918	13.38
227.152	31.38
227.387	30.38
227.621	37.38
227.856	49.38
228.09	56.38
228.324	64.38
228.559	63.38
228.793	78.38
229.027	67.38
229.262	75.38
229.496	71.38
229.73	75.38
229.964	70.38
230.199	83.38
230.433	77.38
230.667	78.38
230.901	96.38
231.136	81.38
231.37	96.38
231.604	97.38
231.838	97.38
232.072	96.38
232.306	89.38
232.541	84.38
232.775	87.38
233.009	87.38
233.243	86.38
233.477	88.38
233.711	85.38
233.945	85.38
234.179	81.38
234.413	83.38
234.647	96.38
234.881	91.38
235.115	86.38
235.349	80.38
235.583	81.38
235.817	92.38
236.051	81.38
236.285	89.38
236.519	89.38
236.753	93.38
236.987	106.38
237.221	99.38
237.455	97.38
237.689	80.38
237.922	89.38
238.156	91.38
238.39	98.38
238.624	88.38
238.858	91.38
239.091	89.38
239.325	85.38
239.559	80.38
239.793	76.38
240.027	100.38
240.26	87.38
240.494	96.38
240.728	92.38
240.961	79.38
241.195	95.38
241.429	90.38
241.662	110.38
241.896	88.38
242.13	97.38
242.363	82.38
242.597	100.38
242.83	93.38
243.064	106.38
243.298	83.38
243.531	104.38
243.765	98.38
243.998	101.38
244.232	91.38
244.465	101.38
244.699	88.38
244.932	90.38
245.166	92.38
245.399	111.38
245.633	85.38
245.866	104.38
246.099	95.38
246.333	97.38
246.566	99.38
246.8	103.38
247.033	106.38
247.266	99.38
247.5	91.38
247.733	95.38
247.966	96.38
248.2	95.38
248.433	112.38
248.666	109.38
248.899	102.38
249.133	103.38
249.366	114.38
249.599	110.38
249.832	103.38
250.066	98.38
250.299	105.38
250.532	107.38
250.765	103.38
250.998	108.38
251.231	113.38
251.465	102.38
251.698	106.38
251.931	119.38
252.164	110.38
252.397	123.38
252.63	112.38
252.863	101.38
253.096	103.38
253.329	110.38
253.562	120.38
253.795	99.38
254.028	101.38
254.261	108.38
254.494	117.38
254.727	111.38
254.96	109.38
255.193	105.38
255.426	106.38
255.659	104.38
255.892	110.38
256.124	102.38
256.357	108.38
256.59	116.38
256.823	114.38
257.056	125.38
257.289	115.38
257.521	127.38
257.754	123.38
257.987	111.38
258.22	116.38
258.452	120.38
258.685	122.38
258.918	108.38
259.151	119.38
259.383	130.38
259.616	112.38
259.849	110.38
260.081	109.38
260.314	121.38
260.547	131.38
260.779	105.38
261.012	122.38
261.244	124.38
261.477	130.38
261.71	135.38
261.942	122.38
262.175	111.38
262.407	123.38
262.64	119.38
262.872	121.38
263.105	119.38
263.337	129.38
263.57	128.38
263.802	126.38
264.035	124.38
264.267	129.38
264.499	128.38
264.732	116.38
264.964	119.38
265.197	115.38
265.429	115.38
265.661	119.38
265.894	129.38
266.126	116.38
266.358	127.38
266.591	121.38
266.823	125.38
267.055	117.38
267.287	133.38
267.52	131.38
267.752	136.38
267.984	129.38
268.216	126.38
268.448	123.38
268.681	128.38
268.913	136.38
269.145	126.38
269.377	119.38
269.609	137.38
269.841	133.38
270.073	127.38
270.306	136.38
270.538	123.38
270.77	134.38
271.002	124.38
271.234	132.38
271.466	133.38
271.698	134.38
271.93	122.38
272.162	141.38
272.394	136.38
272.626	148.38
272.858	117.38
273.09	131.38
273.322	142.38
273.553	121.38
273.785	130.38
274.017	130.38
274.249	143.38
274.481	142.38
274.713	139.38
274.945	142.38
275.176	142.38
275.408	142.38
275.64	129.38
275.872	135.38
276.104	134.38
276.335	131.38
276.567	120.38
276.799	127.38
277.031	134.38
277.262	130.38
277.494	150.38
277.726	119.38
277.957	135.38
278.189	137.38
278.421	140.38
278.652	142.38
278.884	138.38
279.115	140.38
279.347	133.38
279.579	140.38
279.81	152.38
280.042	142.38
280.273	137.38
280.505	128.38
280.736	132.38
280.968	139.38
281.199	155.38
281.431	138.38
281.662	137.38
281.894	144.38
282.125	145.38
282.356	140.38
282.588	136.38
282.819	144.38
283.051	150.38
283.282	141.38
283.513	150.38
283.745	152.38
283.976	148.38
284.207	159.38
284.439	143.38
284.67	155.38
284.901	144.38
285.132	141.38
285.364	138.38
285.595	150.38
285.826	160.38
286.057	143.38
286.288	151.38
286.52	163.38
286.751	149.38
286.982	157.38
287.213	143.38
287.444	149.38
287.675	146.38
287.906	143.38
288.138	146.38
288.369	164.38
288.6	157.38
288.831	158.38
289.062	163.38
289.293	140.38
289.524	160.38
289.755	169.38
289.986	168.38
290.217	154.38
290.448	159.38
290.679	150.38
290.91	168.38
291.141	151.38
291.371	158.38
291.602	149.38
291.833	182.38
292.064	151.38
292.295	173.38
292.526	158.38
292.757	141.38
292.987	139.38
293.218	157.38
293.449	162.38
293.68	166.38
293.91	173.38
294.141	167.38
294.372	154.38
294.603	181.38
294.833	159.38
295.064	157.38
295.295	170.38
295.525	162.38
295.756	166.38
295.987	162.38
296.217	171.38
296.448	168.38
296.679	170.38
296.909	184.38
297.14	158.38
297.37	182.38
297.601	165.38
297.831	168.38
298.062	175.38
298.292	182.38
298.523	172.38
298.753	175.38
298.984	175.38
299.214	161.38
299.445	182.38
299.675	151.38
299.905	152.38
300.136	168.38
300.366	175.38
300.597	168.38
300.827	171.38
301.057	186.38
301.288	167.38
301.518	174.38
301.748	166.38
301.979	165.38
302.209	195.38
302.439	188.38
302.669	188.38
302.9	163.38
303.13	162.38
303.36	188.38
303.59	170.38
303.82	183.38
304.051	168.38
304.281	171.38
304.511	183.38
304.741	180.38
304.971	186.38
305.201	180.38
305.431	159.38
305.661	171.38
305.891	181.38
306.121	178.38
306.352	182.38
306.582	182.38
306.812	174.38
307.042	164.38
307.272	158.38
307.502	164.38
307.731	175.38
307.961	178.38
308.191	176.38
308.421	157.38
308.651	189.38
308.881	174.38
309.111	153.38
309.341	170.38
309.571	180.38
309.8	167.38
310.03	177.38
310.26	164.38
310.49	183.38
310.72	171.38
310.949	182.38
311.179	173.38
311.409	188.38
311.639	174.38
311.868	168.38
312.098	167.38
312.328	187.38
312.557	196.38
312.787	177.38
313.017	173.38
313.246	189.38
313.476	192.38
313.706	196.38
313.935	189.38
314.165	174.38
314.394	194.38
314.624	186.38
314.853	184.38
315.083	185.38
315.312	180.38
315.542	183.38
315.771	186.38
316.001	190.38
316.23	175.38
316.46	171.38
316.689	168.38
316.919	183.38
317.148	176.38
317.377	187.38
317.607	188.38
317.836	172.38
318.065	183.38
318.295	182.38
318.524	174.38
318.753	187.38
318.983	178.38
319.212	179.38
319.441	181.38
319.67	168.38
319.9	171.38
320.129	183.38
320.358	174.38
320.587	174.38
320.816	182.38
321.046	195.38
321.275	180.38
321.504	183.38
321.733	184.38
321.962	165.38
322.191	199.38
322.42	176.38
322.649	185.38
322.878	186.38
323.108	184.38
323.337	185.38
323.566	184.38
323.795	178.38
324.024	187.38
324.253	166.38
324.482	175.38
324.71	192.38
324.939	191.38
325.168	183.38
325.397	180.38
325.626	186.38
325.855	177.38
326.084	173.38
326.313	186.38
326.542	208.38
326.77	206.38
326.999	204.38
327.228	184.38
327.457	180.38
327.686	191.38
327.914	198.38
328.143	173.38
328.372	171.38
328.6	200.38
328.829	174.38
329.058	192.38
329.287	200.38
329.515	170.38
329.744	191.38
329.972	188.38
330.201	182.38
330.43	179.38
330.658	199.38
330.887	191.38
331.115	196.38
331.344	176.38
331.572	196.38
331.801	191.38
332.03	197.38
332.258	221.38
332.486	213.38
332.715	221.38
332.943	201.38
333.172	221.38
333.4	243.38
333.629	239.38
333.857	239.38
334.085	229.38
334.314	219.38
334.542	215.38
334.771	209.38
334.999	223.38
335.227	207.38
335.455	221.38
335.684	207.38
335.912	204.38
336.14	210.38
336.369	198.38
336.597	208.38
336.825	197.38
337.053	203.38
337.281	186.38
337.51	202.38
337.738	206.38
337.966	207.38
338.194	198.38
338.422	195.38
338.65	186.38
338.878	196.38
339.106	195.38
339.334	198.38
339.562	201.38
339.79	196.38
340.018	189.38
340.246	180.38
340.474	185.38
340.702	200.38
340.93	190.38
341.158	200.38
341.386	186.38
341.614	188.38
341.842	206.38
342.07	200.38
342.298	208.38
342.526	191.38
342.754	186.38
342.981	202.38
343.209	213.38
343.437	205.38
343.665	192.38
343.893	202.38
344.12	234.38
344.348	208.38
344.576	213.38
344.804	211.38
345.031	195.38
345.259	211.38
345.487	196.38
345.714	175.38
345.942	190.38
346.17	191.38
346.397	172.38
346.625	202.38
346.853	206.38
347.08	191.38
347.308	189.38
347.535	198.38
347.763	208.38
347.99	192.38
348.218	200.38
348.445	188.38
348.673	193.38
348.9	192.38
349.128	194.38
349.355	202.38
349.583	177.38
349.81	178.38
350.037	172.38
350.265	195.38
350.492	187.38
350.72	186.38
350.947	164.38
351.174	182.38
351.402	194.38
351.629	170.38
351.856	186.38
352.083	186.38
352.311	175.38
352.538	170.38
352.765	177.38
352.992	190.38
353.22	188.38
353.447	184.38
353.674	175.38
353.901	168.38
354.128	172.38
354.355	186.38
354.583	180.38
354.81	176.38
355.037	175.38
355.264	178.38
355.491	186.38
355.718	187.38
355.945	181.38
356.172	179.38
356.399	200.38
356.626	186.38
356.853	187.38
357.08	189.38
357.307	182.38
357.534	182.38
357.761	192.38
357.988	181.38
358.215	182.38
358.441	185.38
358.668	175.38
358.895	188.38
359.122	172.38
359.349	186.38
359.576	184.38
359.802	174.38
360.029	183.38
360.256	174.38
360.483	187.38
360.709	190.38
360.936	197.38
361.163	186.38
361.39	173.38
361.616	191.38
361.843	187.38
362.07	186.38
362.296	182.38
362.523	195.38
362.749	175.38
362.976	174.38
363.203	179.38
363.429	182.38
363.656	187.38
363.882	179.38
364.109	188.38
364.335	180.38
364.562	174.38
364.788	176.38
365.015	190.38
365.241	175.38
365.468	180.38
365.694	170.38
365.92	178.38
366.147	197.38
366.373	179.38
366.599	181.38
366.826	186.38
367.052	198.38
367.278	186.38
367.505	190.38
367.731	189.38
367.957	171.38
368.184	189.38
368.41	196.38
368.636	198.38
368.862	189.38
369.089	180.38
369.315	198.38
369.541	192.38
369.767	194.38
369.993	186.38
370.219	190.38
370.445	188.38
370.672	195.38
370.898	204.38
371.124	203.38
371.35	196.38
371.576	211.38
371.802	199.38
372.028	190.38
372.254	179.38
372.48	198.38
372.706	176.38
372.932	211.38
373.158	185.38
373.384	207.38
373.61	191.38
373.835	187.38
374.061	197.38
374.287	186.38
374.513	183.38
374.739	182.38
374.965	207.38
375.191	205.38
375.416	225.38
375.642	203.38
375.868	205.38
376.094	207.38
376.319	204.38
376.545	194.38
376.771	200.38
376.997	185.38
377.222	184.38
377.448	206.38
377.674	195.38
377.899	192.38
378.125	205.38
378.35	189.38
378.576	171.38
378.802	197.38
379.027	203.38
379.253	199.38
379.478	213.38
379.704	179.38
379.929	192.38
380.155	174.38
380.38	188.38
380.606	191.38
380.831	207.38
381.057	184.38
381.282	193.38
381.507	198.38
381.733	211.38
381.958	198.38
382.184	192.38
382.409	207.38
382.634	204.38
382.86	198.38
383.085	196.38
383.31	203.38
383.535	216.38
383.761	212.38
383.986	196.38
384.211	205.38
384.436	211.38
384.662	225.38
384.887	223.38
385.112	216.38
385.337	200.38
385.562	212.38
385.787	217.38
386.013	237.38
386.238	220.38
386.463	231.38
386.688	208.38
386.913	200.38
387.138	223.38
387.363	198.38
387.588	227.38
387.813	212.38
388.038	211.38
388.263	207.38
388.488	220.38
388.713	206.38
388.938	216.38
389.163	204.38
389.387	221.38
389.612	208.38
389.837	226.38
390.062	222.38
390.287	220.38
390.512	213.38
390.736	219.38
390.961	223.38
391.186	221.38
391.411	213.38
391.636	234.38
391.86	226.38
392.085	237.38
392.31	243.38
392.534	240.38
392.759	225.38
392.984	246.38
393.208	225.38
393.433	239.38
393.658	234.38
393.882	219.38
394.107	224.38
394.331	227.38
394.556	222.38
394.78	224.38
395.005	237.38
395.229	221.38
395.454	221.38
395.678	233.38
395.903	231.38
396.127	231.38
396.352	230.38
396.576	223.38
396.801	223.38
397.025	222.38
397.249	220.38
397.474	237.38
397.698	235.38
397.922	223.38
398.147	230.38
398.371	229.38
398.595	247.38
398.82	262.38
399.044	266.38
399.268	299.38
399.492	336.38
399.717	357.38
399.941	346.38
400.165	292.38
400.389	282.38
400.613	268.38
400.837	249.38
401.062	248.38
401.286	245.38
401.51	250.38
401.734	260.38
401.958	240.38
402.182	260.38
402.406	268.38
402.63	277.38
402.854	264.38
403.078	282.38
403.302	259.38
403.526	270.38
403.75	293.38
403.974	290.38
404.198	293.38
404.422	283.38
404.645	272.38
404.869	276.38
405.093	292.38
405.317	273.38
405.541	283.38
405.765	250.38
405.988	270.38
406.212	275.38
406.436	284.38
406.66	271.38
406.883	287.38
407.107	282.38
407.331	315.38
407.555	302.38
407.778	310.38
408.002	293.38
408.226	304.38
408.449	287.38
408.673	282.38
408.896	273.38
409.12	271.38
409.344	299.38
409.567	273.38
409.791	278.38
410.014	265.38
410.238	277.38
410.461	286.38
410.685	272.38
410.908	250.38
411.132	253.38
411.355	248.38
411.578	266.38
411.802	270.38
412.025	279.38
412.249	242.38
412.472	264.38
412.695	266.38
412.919	261.38
413.142	250.38
413.365	249.38
413.589	265.38
413.812	265.38
414.035	247.38
414.258	246.38
414.482	248.38
414.705	259.38
414.928	248.38
415.151	243.38
415.374	261.38
415.597	248.38
415.821	252.38
416.044	266.38
416.267	241.38
416.49	261.38
416.713	247.38
416.936	244.38
417.159	250.38
417.382	243.38
417.605	251.38
417.828	257.38
418.051	252.38
418.274	254.38
418.497	250.38
418.72	265.38
418.943	260.38
419.166	260.38
419.389	278.38
419.611	252.38
419.834	262.38
420.057	262.38
420.28	261.38
420.503	263.38
420.726	263.38
420.948	252.38
421.171	268.38
421.394	246.38
421.617	250.38
421.839	257.38
422.062	248.38
422.285	243.38
422.507	253.38
422.73	265.38
422.953	267.38
423.175	272.38
423.398	270.38
423.621	266.38
423.843	254.38
424.066	282.38
424.288	246.38
424.511	276.38
424.733	287.38
424.956	255.38
425.178	260.38
425.401	262.38
425.623	254.38
425.846	233.38
426.068	237.38
426.291	256.38
426.513	248.38
426.735	236.38
426.958	237.38
427.18	221.38
427.402	245.38
427.625	245.38
427.847	218.38
428.069	213.38
428.292	223.38
428.514	232.38
428.736	224.38
428.958	229.38
429.181	244.38
429.403	233.38
429.625	245.38
429.847	208.38
430.069	226.38
430.292	214.38
430.514	214.38
430.736	240.38
430.958	230.38
431.18	241.38
431.402	238.38
431.624	234.38
431.846	236.38
432.068	242.38
432.29	219.38
432.512	246.38
432.734	246.38
432.956	239.38
433.178	226.38
433.4	218.38
433.622	231.38
433.844	251.38
434.066	217.38
434.287	227.38
434.509	238.38
434.731	251.38
434.953	246.38
435.175	275.38
435.397	246.38
435.618	258.38
435.84	231.38
436.062	212.38
436.284	233.38
436.505	225.38
436.727	222.38
436.949	232.38
437.17	233.38
437.392	228.38
437.614	227.38
437.835	220.38
438.057	228.38
438.278	231.38
438.5	213.38
438.721	232.38
438.943	226.38
439.165	216.38
439.386	223.38
439.608	241.38
439.829	222.38
440.05	230.38
440.272	232.38
440.493	208.38
440.715	236.38
440.936	243.38
441.158	231.38
441.379	231.38
441.6	253.38
441.822	237.38
442.043	231.38
442.264	260.38
442.486	252.38
442.707	243.38
442.928	228.38
443.149	257.38
443.371	257.38
443.592	245.38
443.813	238.38
444.034	266.38
444.255	234.38
444.476	287.38
444.698	290.38
444.919	316.38
445.14	396.38
445.361	327.38
445.582	246.38
445.803	238.38
446.024	256.38
446.245	233.38
446.466	229.38
446.687	233.38
446.908	223.38
447.129	220.38
447.35	214.38
447.571	225.38
447.792	223.38
448.013	226.38
448.234	223.38
448.455	220.38
448.675	207.38
448.896	224.38
449.117	222.38
449.338	222.38
449.559	219.38
449.779	210.38
450	216.38
450.221	218.38
450.442	227.38
450.662	221.38
450.883	226.38
451.104	223.38
451.324	242.38
451.545	217.38
451.766	207.38
451.986	223.38
452.207	228.38
452.428	222.38
452.648	199.38
452.869	213.38
453.089	210.38
453.31	218.38
453.53	222.38
453.751	201.38
453.971	203.38
454.192	205.38
454.412	212.38
454.633	225.38
454.853	230.38
455.073	204.38
455.294	229.38
455.514	197.38
455.734	215.38
455.955	214.38
456.175	212.38
456.395	204.38
456.616	202.38
456.836	195.38
457.056	209.38
457.276	198.38
457.497	216.38
457.717	197.38
457.937	208.38
458.157	216.38
458.377	211.38
458.598	218.38
458.818	220.38
459.038	219.38
459.258	226.38
459.478	251.38
459.698	238.38
459.918	251.38
460.138	230.38
460.358	248.38
460.578	293.38
460.798	279.38
461.018	274.38
461.238	268.38
461.458	262.38
461.678	246.38
461.898	257.38
462.118	270.38
462.338	263.38
462.558	279.38
462.777	291.38
462.997	316.38
463.217	344.38
463.437	344.38
463.657	310.38
463.876	317.38
464.096	307.38
464.316	316.38
464.536	294.38
464.755	297.38
464.975	278.38
465.195	268.38
465.414	270.38
465.634	247.38
465.854	230.38
466.073	242.38
466.293	235.38
466.512	239.38
466.732	247.38
466.951	234.38
467.171	216.38
467.391	237.38
467.61	218.38
467.829	235.38
468.049	229.38
468.268	219.38
468.488	222.38
468.707	230.38
468.927	212.38
469.146	218.38
469.365	245.38
469.585	231.38
469.804	232.38
470.023	232.38
470.243	252.38
470.462	245.38
470.681	246.38
470.901	224.38
471.12	217.38
471.339	230.38
471.558	232.38
471.777	220.38
471.997	225.38
472.216	234.38
472.435	213.38
472.654	214.38
472.873	217.38
473.092	221.38
473.311	208.38
473.53	220.38
473.749	223.38
473.968	228.38
474.187	204.38
474.406	198.38
474.625	216.38
474.844	224.38
475.063	217.38
475.282	230.38
475.501	221.38
475.72	214.38
475.939	197.38
476.158	215.38
476.377	223.38
476.596	249.38
476.814	239.38
477.033	223.38
477.252	236.38
477.471	234.38
477.69	226.38
477.908	227.38
478.127	243.38
478.346	259.38
478.564	244.38
478.783	246.38
479.002	254.38
479.22	259.38
479.439	262.38
479.658	268.38
479.876	252.38
480.095	260.38
480.313	270.38
480.532	289.38
480.751	280.38
480.969	249.38
481.188	241.38
481.406	256.38
481.624	234.38
481.843	238.38
482.061	243.38
482.28	242.38
482.498	232.38
482.717	251.38
482.935	258.38
483.153	242.38
483.372	255.38
483.59	236.38
483.808	238.38
484.027	254.38
484.245	264.38
484.463	249.38
484.681	248.38
484.9	260.38
485.118	257.38
485.336	262.38
485.554	270.38
485.772	259.38
485.99	252.38
486.209	269.38
486.427	251.38
486.645	272.38
486.863	264.38
487.081	270.38
487.299	255.38
487.517	267.38
487.735	284.38
487.953	266.38
488.171	246.38
488.389	262.38
488.607	245.38
488.825	262.38
489.043	281.38
489.261	259.38
489.479	249.38
489.696	244.38
489.914	247.38
490.132	259.38
490.35	258.38
490.568	268.38
490.786	248.38
491.003	270.38
491.221	268.38
491.439	262.38
491.657	275.38
491.874	264.38
492.092	275.38
492.31	227.38
492.527	260.38
492.745	265.38
492.963	264.38
493.18	272.38
493.398	283.38
493.615	274.38
493.833	271.38
494.05	270.38
494.268	262.38
494.485	264.38
494.703	271.38
494.92	266.38
495.138	256.38
495.355	264.38
495.573	259.38
495.79	271.38
496.008	284.38
496.225	270.38
496.442	286.38
496.66	294.38
496.877	295.38
497.094	271.38
497.312	278.38
497.529	287.38
497.746	293.38
497.963	295.38
498.181	324.38
498.398	321.38
498.615	340.38
498.832	356.38
499.049	381.38
499.267	420.38
499.484	425.38
499.701	470.38
499.918	504.38
500.135	606.38
500.352	695.38
500.569	716.38
500.786	710.38
501.003	645.38
501.22	586.38
501.437	511.38
501.654	448.38
501.871	438.38
502.088	397.38
502.305	371.38
502.522	346.38
502.739	356.38
502.956	329.38
503.172	321.38
