Data from 0.5MCu(NO3)2.Standard.Lamp.E10.CV._HRD10591_16-06-51-754.txt Node
Date: Mon Jul 22 16:06:51 EDT 2019
User: cochatt
Spectrometer: HR+D1059
Trigger mode: 1
Integration Time (sec): 1.000000E-1
Scans to average: 1
Electric dark correction enabled: true
Nonlinearity correction enabled: false
Boxcar width: 0
XAxis mode: Wavelengths
Number of Pixels in Spectrum: 2048
>>>>>Begin Spectral Data<<<<<
223.165	-11.44
223.4	-11.44
223.635	-11.44
223.869	-17.44
224.104	-16.44
224.338	-24.44
224.573	-19.44
224.808	3.56
225.042	-10.44
225.277	-0.44
225.511	-7.44
225.746	-2.44
225.98	9.56
226.215	9.56
226.449	11.56
226.683	12.56
226.918	26.56
227.152	36.56
227.387	33.56
227.621	35.56
227.856	44.56
228.09	56.56
228.324	58.56
228.559	61.56
228.793	54.56
229.027	67.56
229.262	63.56
229.496	64.56
229.73	79.56
229.964	86.56
230.199	83.56
230.433	77.56
230.667	71.56
230.901	67.56
231.136	87.56
231.37	90.56
231.604	87.56
231.838	88.56
232.072	90.56
232.306	97.56
232.541	101.56
232.775	80.56
233.009	82.56
233.243	100.56
233.477	87.56
233.711	89.56
233.945	78.56
234.179	93.56
234.413	75.56
234.647	81.56
234.881	88.56
235.115	92.56
235.349	78.56
235.583	93.56
235.817	84.56
236.051	81.56
236.285	80.56
236.519	91.56
236.753	89.56
236.987	73.56
237.221	91.56
237.455	88.56
237.689	81.56
237.922	86.56
238.156	88.56
238.39	101.56
238.624	100.56
238.858	101.56
239.091	88.56
239.325	89.56
239.559	76.56
239.793	84.56
240.027	73.56
240.26	85.56
240.494	89.56
240.728	84.56
240.961	87.56
241.195	88.56
241.429	101.56
241.662	87.56
241.896	81.56
242.13	84.56
242.363	92.56
242.597	94.56
242.83	76.56
243.064	89.56
243.298	92.56
243.531	88.56
243.765	94.56
243.998	81.56
244.232	102.56
244.465	96.56
244.699	99.56
244.932	86.56
245.166	103.56
245.399	103.56
245.633	100.56
245.866	109.56
246.099	107.56
246.333	89.56
246.566	93.56
246.8	87.56
247.033	87.56
247.266	105.56
247.5	100.56
247.733	98.56
247.966	101.56
248.2	100.56
248.433	95.56
248.666	94.56
248.899	113.56
249.133	113.56
249.366	108.56
249.599	95.56
249.832	114.56
250.066	95.56
250.299	100.56
250.532	103.56
250.765	112.56
250.998	97.56
251.231	119.56
251.465	108.56
251.698	105.56
251.931	77.56
252.164	94.56
252.397	113.56
252.63	118.56
252.863	112.56
253.096	107.56
253.329	113.56
253.562	111.56
253.795	104.56
254.028	107.56
254.261	106.56
254.494	112.56
254.727	110.56
254.96	121.56
255.193	104.56
255.426	99.56
255.659	96.56
255.892	101.56
256.124	96.56
256.357	104.56
256.59	108.56
256.823	105.56
257.056	116.56
257.289	107.56
257.521	115.56
257.754	105.56
257.987	105.56
258.22	113.56
258.452	123.56
258.685	111.56
258.918	115.56
259.151	99.56
259.383	106.56
259.616	111.56
259.849	107.56
260.081	117.56
260.314	107.56
260.547	109.56
260.779	115.56
261.012	119.56
261.244	132.56
261.477	120.56
261.71	113.56
261.942	102.56
262.175	133.56
262.407	125.56
262.64	133.56
262.872	119.56
263.105	120.56
263.337	98.56
263.57	123.56
263.802	120.56
264.035	117.56
264.267	123.56
264.499	126.56
264.732	128.56
264.964	111.56
265.197	118.56
265.429	121.56
265.661	131.56
265.894	105.56
266.126	138.56
266.358	129.56
266.591	127.56
266.823	132.56
267.055	128.56
267.287	142.56
267.52	127.56
267.752	130.56
267.984	128.56
268.216	122.56
268.448	127.56
268.681	114.56
268.913	124.56
269.145	134.56
269.377	116.56
269.609	129.56
269.841	126.56
270.073	125.56
270.306	123.56
270.538	126.56
270.77	106.56
271.002	120.56
271.234	130.56
271.466	121.56
271.698	116.56
271.93	121.56
272.162	125.56
272.394	125.56
272.626	129.56
272.858	131.56
273.09	140.56
273.322	147.56
273.553	135.56
273.785	143.56
274.017	136.56
274.249	135.56
274.481	125.56
274.713	141.56
274.945	127.56
275.176	114.56
275.408	136.56
275.64	137.56
275.872	125.56
276.104	136.56
276.335	136.56
276.567	134.56
276.799	136.56
277.031	119.56
277.262	122.56
277.494	137.56
277.726	133.56
277.957	123.56
278.189	137.56
278.421	151.56
278.652	137.56
278.884	131.56
279.115	144.56
279.347	144.56
279.579	140.56
279.81	148.56
280.042	134.56
280.273	151.56
280.505	150.56
280.736	164.56
280.968	154.56
281.199	155.56
281.431	125.56
281.662	133.56
281.894	149.56
282.125	157.56
282.356	142.56
282.588	143.56
282.819	133.56
283.051	143.56
283.282	138.56
283.513	147.56
283.745	145.56
283.976	154.56
284.207	137.56
284.439	139.56
284.67	145.56
284.901	155.56
285.132	163.56
285.364	147.56
285.595	151.56
285.826	151.56
286.057	145.56
286.288	152.56
286.52	161.56
286.751	146.56
286.982	135.56
287.213	145.56
287.444	154.56
287.675	137.56
287.906	150.56
288.138	161.56
288.369	150.56
288.6	160.56
288.831	151.56
289.062	156.56
289.293	153.56
289.524	157.56
289.755	154.56
289.986	159.56
290.217	152.56
290.448	159.56
290.679	149.56
290.91	167.56
291.141	143.56
291.371	156.56
291.602	157.56
291.833	161.56
292.064	159.56
292.295	162.56
292.526	147.56
292.757	147.56
292.987	152.56
293.218	167.56
293.449	145.56
293.68	161.56
293.91	166.56
294.141	155.56
294.372	149.56
294.603	160.56
294.833	140.56
295.064	145.56
295.295	176.56
295.525	161.56
295.756	163.56
295.987	181.56
296.217	181.56
296.448	176.56
296.679	164.56
296.909	160.56
297.14	154.56
297.37	169.56
297.601	174.56
297.831	159.56
298.062	159.56
298.292	165.56
298.523	167.56
298.753	166.56
298.984	166.56
299.214	172.56
299.445	166.56
299.675	184.56
299.905	159.56
300.136	173.56
300.366	168.56
300.597	171.56
300.827	169.56
301.057	175.56
301.288	188.56
301.518	165.56
301.748	167.56
301.979	176.56
302.209	168.56
302.439	177.56
302.669	164.56
302.9	197.56
303.13	168.56
303.36	173.56
303.59	157.56
303.82	163.56
304.051	178.56
304.281	178.56
304.511	159.56
304.741	161.56
304.971	170.56
305.201	188.56
305.431	168.56
305.661	185.56
305.891	181.56
306.121	177.56
306.352	171.56
306.582	171.56
306.812	179.56
307.042	177.56
307.272	169.56
307.502	181.56
307.731	172.56
307.961	163.56
308.191	180.56
308.421	184.56
308.651	179.56
308.881	185.56
309.111	179.56
309.341	147.56
309.571	172.56
309.8	171.56
310.03	168.56
310.26	179.56
310.49	177.56
310.72	163.56
310.949	175.56
311.179	183.56
311.409	156.56
311.639	179.56
311.868	167.56
312.098	165.56
312.328	195.56
312.557	165.56
312.787	167.56
313.017	191.56
313.246	181.56
313.476	177.56
313.706	184.56
313.935	164.56
314.165	181.56
314.394	179.56
314.624	189.56
314.853	182.56
315.083	196.56
315.312	171.56
315.542	178.56
315.771	185.56
316.001	172.56
316.23	192.56
316.46	170.56
316.689	187.56
316.919	159.56
317.148	187.56
317.377	170.56
317.607	166.56
317.836	176.56
318.065	173.56
318.295	198.56
318.524	178.56
318.753	173.56
318.983	183.56
319.212	170.56
319.441	170.56
319.67	175.56
319.9	173.56
320.129	194.56
320.358	181.56
320.587	184.56
320.816	171.56
321.046	181.56
321.275	187.56
321.504	180.56
321.733	185.56
321.962	181.56
322.191	187.56
322.42	186.56
322.649	177.56
322.878	181.56
323.108	167.56
323.337	180.56
323.566	184.56
323.795	171.56
324.024	168.56
324.253	195.56
324.482	180.56
324.71	175.56
324.939	181.56
325.168	193.56
325.397	175.56
325.626	199.56
325.855	181.56
326.084	172.56
326.313	198.56
326.542	180.56
326.77	187.56
326.999	193.56
327.228	183.56
327.457	177.56
327.686	176.56
327.914	185.56
328.143	189.56
328.372	199.56
328.6	187.56
328.829	192.56
329.058	193.56
329.287	188.56
329.515	168.56
329.744	188.56
329.972	184.56
330.201	196.56
330.43	182.56
330.658	179.56
330.887	193.56
331.115	191.56
331.344	195.56
331.572	202.56
331.801	187.56
332.03	203.56
332.258	205.56
332.486	218.56
332.715	217.56
332.943	210.56
333.172	209.56
333.4	235.56
333.629	236.56
333.857	229.56
334.085	233.56
334.314	241.56
334.542	241.56
334.771	224.56
334.999	217.56
335.227	224.56
335.455	216.56
335.684	211.56
335.912	221.56
336.14	204.56
336.369	200.56
336.597	203.56
336.825	191.56
337.053	205.56
337.281	217.56
337.51	196.56
337.738	187.56
337.966	213.56
338.194	204.56
338.422	210.56
338.65	209.56
338.878	209.56
339.106	199.56
339.334	192.56
339.562	185.56
339.79	199.56
340.018	193.56
340.246	184.56
340.474	192.56
340.702	186.56
340.93	194.56
341.158	187.56
341.386	200.56
341.614	195.56
341.842	197.56
342.07	203.56
342.298	187.56
342.526	189.56
342.754	189.56
342.981	192.56
343.209	210.56
343.437	193.56
343.665	209.56
343.893	227.56
344.12	242.56
344.348	215.56
344.576	191.56
344.804	204.56
345.031	205.56
345.259	211.56
345.487	192.56
345.714	204.56
345.942	182.56
346.17	185.56
346.397	192.56
346.625	182.56
346.853	189.56
347.08	192.56
347.308	185.56
347.535	202.56
347.763	201.56
347.99	199.56
348.218	194.56
348.445	205.56
348.673	188.56
348.9	181.56
349.128	199.56
349.355	181.56
349.583	198.56
349.81	168.56
350.037	168.56
350.265	196.56
350.492	178.56
350.72	184.56
350.947	183.56
351.174	177.56
351.402	192.56
351.629	178.56
351.856	164.56
352.083	194.56
352.311	175.56
352.538	177.56
352.765	162.56
352.992	164.56
353.22	177.56
353.447	179.56
353.674	187.56
353.901	191.56
354.128	176.56
354.355	170.56
354.583	182.56
354.81	175.56
355.037	181.56
355.264	186.56
355.491	196.56
355.718	165.56
355.945	183.56
356.172	180.56
356.399	183.56
356.626	194.56
356.853	175.56
357.08	177.56
357.307	177.56
357.534	169.56
357.761	173.56
357.988	165.56
358.215	173.56
358.441	181.56
358.668	172.56
358.895	191.56
359.122	192.56
359.349	191.56
359.576	186.56
359.802	193.56
360.029	196.56
360.256	181.56
360.483	181.56
360.709	192.56
360.936	208.56
361.163	193.56
361.39	175.56
361.616	182.56
361.843	157.56
362.07	193.56
362.296	179.56
362.523	170.56
362.749	185.56
362.976	182.56
363.203	175.56
363.429	186.56
363.656	181.56
363.882	164.56
364.109	192.56
364.335	176.56
364.562	172.56
364.788	185.56
365.015	172.56
365.241	194.56
365.468	188.56
365.694	178.56
365.92	197.56
366.147	180.56
366.373	175.56
366.599	181.56
366.826	172.56
367.052	183.56
367.278	181.56
367.505	179.56
367.731	177.56
367.957	176.56
368.184	177.56
368.41	183.56
368.636	182.56
368.862	186.56
369.089	189.56
369.315	173.56
369.541	196.56
369.767	185.56
369.993	187.56
370.219	196.56
370.445	175.56
370.672	176.56
370.898	200.56
371.124	170.56
371.35	185.56
371.576	197.56
371.802	183.56
372.028	189.56
372.254	198.56
372.48	192.56
372.706	193.56
372.932	181.56
373.158	205.56
373.384	204.56
373.61	196.56
373.835	192.56
374.061	201.56
374.287	219.56
374.513	191.56
374.739	202.56
374.965	209.56
375.191	215.56
375.416	209.56
375.642	204.56
375.868	210.56
376.094	202.56
376.319	193.56
376.545	191.56
376.771	168.56
376.997	201.56
377.222	194.56
377.448	181.56
377.674	186.56
377.899	180.56
378.125	189.56
378.35	191.56
378.576	170.56
378.802	186.56
379.027	189.56
379.253	189.56
379.478	203.56
379.704	179.56
379.929	194.56
380.155	201.56
380.38	188.56
380.606	179.56
380.831	198.56
381.057	201.56
381.282	176.56
381.507	192.56
381.733	190.56
381.958	204.56
382.184	198.56
382.409	191.56
382.634	196.56
382.86	210.56
383.085	198.56
383.31	194.56
383.535	209.56
383.761	202.56
383.986	207.56
384.211	205.56
384.436	215.56
384.662	201.56
384.887	213.56
385.112	215.56
385.337	211.56
385.562	231.56
385.787	231.56
386.013	226.56
386.238	217.56
386.463	222.56
386.688	185.56
386.913	219.56
387.138	220.56
387.363	236.56
387.588	189.56
387.813	207.56
388.038	218.56
388.263	211.56
388.488	199.56
388.713	226.56
388.938	202.56
389.163	208.56
389.387	210.56
389.612	216.56
389.837	212.56
390.062	209.56
390.287	194.56
390.512	194.56
390.736	210.56
390.961	217.56
391.186	216.56
391.411	222.56
391.636	215.56
391.86	230.56
392.085	217.56
392.31	232.56
392.534	225.56
392.759	226.56
392.984	222.56
393.208	223.56
393.433	216.56
393.658	232.56
393.882	223.56
394.107	232.56
394.331	220.56
394.556	220.56
394.78	225.56
395.005	239.56
395.229	228.56
395.454	245.56
395.678	239.56
395.903	236.56
396.127	231.56
396.352	213.56
396.576	229.56
396.801	223.56
397.025	230.56
397.249	230.56
397.474	229.56
397.698	219.56
397.922	240.56
398.147	221.56
398.371	251.56
398.595	235.56
398.82	245.56
399.044	271.56
399.268	281.56
399.492	325.56
399.717	351.56
399.941	355.56
400.165	314.56
400.389	276.56
400.613	255.56
400.837	272.56
401.062	251.56
401.286	236.56
401.51	235.56
401.734	228.56
401.958	231.56
402.182	259.56
402.406	279.56
402.63	257.56
402.854	271.56
403.078	265.56
403.302	277.56
403.526	295.56
403.75	289.56
403.974	296.56
404.198	296.56
404.422	267.56
404.645	300.56
404.869	289.56
405.093	269.56
405.317	280.56
405.541	268.56
405.765	260.56
405.988	266.56
406.212	275.56
406.436	273.56
406.66	269.56
406.883	275.56
407.107	279.56
407.331	321.56
407.555	319.56
407.778	322.56
408.002	287.56
408.226	287.56
408.449	262.56
408.673	279.56
408.896	280.56
409.12	289.56
409.344	282.56
409.567	269.56
409.791	261.56
410.014	274.56
410.238	275.56
410.461	285.56
410.685	265.56
410.908	268.56
411.132	259.56
411.355	245.56
411.578	260.56
411.802	258.56
412.025	253.56
412.249	276.56
412.472	248.56
412.695	241.56
412.919	244.56
413.142	227.56
413.365	259.56
413.589	257.56
413.812	242.56
414.035	232.56
414.258	258.56
414.482	228.56
414.705	245.56
414.928	262.56
415.151	237.56
415.374	238.56
415.597	247.56
415.821	239.56
416.044	253.56
416.267	254.56
416.49	241.56
416.713	241.56
416.936	257.56
417.159	239.56
417.382	235.56
417.605	241.56
417.828	264.56
418.051	252.56
418.274	241.56
418.497	257.56
418.72	260.56
418.943	262.56
419.166	262.56
419.389	276.56
419.611	293.56
419.834	251.56
420.057	240.56
420.28	258.56
420.503	248.56
420.726	247.56
420.948	255.56
421.171	240.56
421.394	253.56
421.617	259.56
421.839	255.56
422.062	245.56
422.285	253.56
422.507	262.56
422.73	253.56
422.953	260.56
423.175	265.56
423.398	267.56
423.621	259.56
423.843	232.56
424.066	226.56
424.288	258.56
424.511	256.56
424.733	259.56
424.956	262.56
425.178	248.56
425.401	251.56
425.623	251.56
425.846	217.56
426.068	226.56
426.291	227.56
426.513	232.56
426.735	220.56
426.958	236.56
427.18	229.56
427.402	242.56
427.625	222.56
427.847	223.56
428.069	219.56
428.292	225.56
428.514	219.56
428.736	210.56
428.958	202.56
429.181	218.56
429.403	211.56
429.625	206.56
429.847	210.56
430.069	201.56
430.292	225.56
430.514	225.56
430.736	236.56
430.958	225.56
431.18	234.56
431.402	203.56
431.624	217.56
431.846	219.56
432.068	242.56
432.29	229.56
432.512	220.56
432.734	223.56
432.956	224.56
433.178	237.56
433.4	227.56
433.622	223.56
433.844	224.56
434.066	207.56
434.287	206.56
434.509	244.56
434.731	242.56
434.953	259.56
435.175	247.56
435.397	255.56
435.618	232.56
435.84	233.56
436.062	233.56
436.284	216.56
436.505	225.56
436.727	231.56
436.949	227.56
437.17	230.56
437.392	217.56
437.614	214.56
437.835	214.56
438.057	231.56
438.278	204.56
438.5	227.56
438.721	230.56
438.943	216.56
439.165	216.56
439.386	216.56
439.608	209.56
439.829	223.56
440.05	209.56
440.272	210.56
440.493	244.56
440.715	227.56
440.936	223.56
441.158	239.56
441.379	243.56
441.6	229.56
441.822	259.56
442.043	234.56
442.264	249.56
442.486	234.56
442.707	249.56
442.928	236.56
443.149	244.56
443.371	253.56
443.592	256.56
443.813	265.56
444.034	248.56
444.255	255.56
444.476	253.56
444.698	274.56
444.919	320.56
445.14	358.56
445.361	287.56
445.582	263.56
445.803	230.56
446.024	240.56
446.245	240.56
446.466	212.56
446.687	219.56
446.908	211.56
447.129	202.56
447.35	221.56
447.571	233.56
447.792	239.56
448.013	202.56
448.234	211.56
448.455	214.56
448.675	211.56
448.896	218.56
449.117	210.56
449.338	207.56
449.559	195.56
449.779	213.56
450	201.56
450.221	217.56
450.442	218.56
450.662	216.56
450.883	228.56
451.104	236.56
451.324	227.56
451.545	223.56
451.766	233.56
451.986	225.56
452.207	218.56
452.428	206.56
452.648	215.56
452.869	205.56
453.089	205.56
453.31	219.56
453.53	214.56
453.751	218.56
453.971	199.56
454.192	213.56
454.412	201.56
454.633	200.56
454.853	213.56
455.073	198.56
455.294	202.56
455.514	208.56
455.734	219.56
455.955	212.56
456.175	195.56
456.395	202.56
456.616	213.56
456.836	191.56
457.056	196.56
457.276	210.56
457.497	192.56
457.717	211.56
457.937	206.56
458.157	201.56
458.377	189.56
458.598	216.56
458.818	211.56
459.038	233.56
459.258	235.56
459.478	251.56
459.698	225.56
459.918	211.56
460.138	233.56
460.358	267.56
460.578	262.56
460.798	268.56
461.018	262.56
461.238	257.56
461.458	263.56
461.678	251.56
461.898	261.56
462.118	255.56
462.338	248.56
462.558	285.56
462.777	279.56
462.997	309.56
463.217	335.56
463.437	336.56
463.657	307.56
463.876	291.56
464.096	283.56
464.316	295.56
464.536	295.56
464.755	295.56
464.975	284.56
465.195	281.56
465.414	241.56
465.634	236.56
465.854	236.56
466.073	218.56
466.293	237.56
466.512	228.56
466.732	225.56
466.951	212.56
467.171	222.56
467.391	232.56
467.61	215.56
467.829	214.56
468.049	223.56
468.268	196.56
468.488	222.56
468.707	211.56
468.927	206.56
469.146	208.56
469.365	237.56
469.585	231.56
469.804	242.56
470.023	240.56
470.243	231.56
470.462	243.56
470.681	234.56
470.901	257.56
471.12	238.56
471.339	223.56
471.558	215.56
471.777	218.56
471.997	200.56
472.216	207.56
472.435	217.56
472.654	210.56
472.873	200.56
473.092	220.56
473.311	205.56
473.53	225.56
473.749	203.56
473.968	217.56
474.187	209.56
474.406	217.56
474.625	221.56
474.844	205.56
475.063	219.56
475.282	225.56
475.501	215.56
475.72	226.56
475.939	217.56
476.158	209.56
476.377	229.56
476.596	230.56
476.814	220.56
477.033	225.56
477.252	233.56
477.471	226.56
477.69	223.56
477.908	237.56
478.127	237.56
478.346	246.56
478.564	242.56
478.783	243.56
479.002	240.56
479.22	256.56
479.439	231.56
479.658	246.56
479.876	240.56
480.095	252.56
480.313	280.56
480.532	268.56
480.751	273.56
480.969	277.56
481.188	245.56
481.406	244.56
481.624	245.56
481.843	231.56
482.061	244.56
482.28	239.56
482.498	237.56
482.717	234.56
482.935	239.56
483.153	235.56
483.372	235.56
483.59	240.56
483.808	243.56
484.027	246.56
484.245	245.56
484.463	257.56
484.681	269.56
484.9	253.56
485.118	271.56
485.336	248.56
485.554	244.56
485.772	252.56
485.99	242.56
486.209	280.56
486.427	258.56
486.645	251.56
486.863	246.56
487.081	249.56
487.299	250.56
487.517	261.56
487.735	257.56
487.953	247.56
488.171	255.56
488.389	247.56
488.607	247.56
488.825	256.56
489.043	233.56
489.261	243.56
489.479	252.56
489.696	259.56
489.914	242.56
490.132	248.56
490.35	245.56
490.568	251.56
490.786	250.56
491.003	257.56
491.221	244.56
491.439	248.56
491.657	246.56
491.874	265.56
492.092	245.56
492.31	251.56
492.527	247.56
492.745	277.56
492.963	258.56
493.18	260.56
493.398	260.56
493.615	253.56
493.833	272.56
494.05	242.56
494.268	266.56
494.485	284.56
494.703	257.56
494.92	243.56
495.138	258.56
495.355	261.56
495.573	284.56
495.79	282.56
496.008	269.56
496.225	256.56
496.442	277.56
496.66	276.56
496.877	269.56
497.094	280.56
497.312	265.56
497.529	267.56
497.746	292.56
497.963	278.56
498.181	285.56
498.398	306.56
498.615	316.56
498.832	350.56
499.049	372.56
499.267	385.56
499.484	431.56
499.701	466.56
499.918	511.56
500.135	557.56
500.352	668.56
500.569	714.56
500.786	676.56
501.003	647.56
501.22	553.56
501.437	507.56
501.654	455.56
501.871	399.56
502.088	387.56
502.305	368.56
502.522	345.56
502.739	331.56
502.956	337.56
503.172	293.56
