Data from 0.5MCu(NO3)2.Standard.Lamp.E10.CV._HRD10591_16-03-53-753.txt Node
Date: Mon Jul 22 16:03:53 EDT 2019
User: cochatt
Spectrometer: HR+D1059
Trigger mode: 1
Integration Time (sec): 1.000000E-1
Scans to average: 1
Electric dark correction enabled: true
Nonlinearity correction enabled: false
Boxcar width: 0
XAxis mode: Wavelengths
Number of Pixels in Spectrum: 2048
>>>>>Begin Spectral Data<<<<<
223.165	-10.56
223.4	-10.56
223.635	-10.56
223.869	-27.56
224.104	-10.56
224.338	-17.56
224.573	-15.56
224.808	-7.56
225.042	-2.56
225.277	-4.56
225.511	-10.56
225.746	13.44
225.98	-4.56
226.215	13.44
226.449	7.44
226.683	15.44
226.918	25.44
227.152	36.44
227.387	53.44
227.621	33.44
227.856	42.44
228.09	41.44
228.324	41.44
228.559	58.44
228.793	57.44
229.027	72.44
229.262	68.44
229.496	81.44
229.73	78.44
229.964	76.44
230.199	88.44
230.433	89.44
230.667	58.44
230.901	74.44
231.136	85.44
231.37	84.44
231.604	83.44
231.838	81.44
232.072	94.44
232.306	86.44
232.541	92.44
232.775	86.44
233.009	94.44
233.243	85.44
233.477	80.44
233.711	83.44
233.945	92.44
234.179	87.44
234.413	79.44
234.647	88.44
234.881	79.44
235.115	97.44
235.349	87.44
235.583	93.44
235.817	101.44
236.051	97.44
236.285	84.44
236.519	80.44
236.753	79.44
236.987	88.44
237.221	89.44
237.455	90.44
237.689	74.44
237.922	89.44
238.156	95.44
238.39	89.44
238.624	94.44
238.858	82.44
239.091	92.44
239.325	86.44
239.559	93.44
239.793	86.44
240.027	88.44
240.26	90.44
240.494	83.44
240.728	76.44
240.961	79.44
241.195	105.44
241.429	90.44
241.662	95.44
241.896	103.44
242.13	96.44
242.363	105.44
242.597	87.44
242.83	97.44
243.064	97.44
243.298	83.44
243.531	81.44
243.765	98.44
243.998	91.44
244.232	92.44
244.465	98.44
244.699	98.44
244.932	89.44
245.166	82.44
245.399	93.44
245.633	113.44
245.866	99.44
246.099	110.44
246.333	86.44
246.566	96.44
246.8	95.44
247.033	93.44
247.266	91.44
247.5	95.44
247.733	103.44
247.966	108.44
248.2	97.44
248.433	94.44
248.666	97.44
248.899	100.44
249.133	94.44
249.366	114.44
249.599	107.44
249.832	114.44
250.066	99.44
250.299	83.44
250.532	114.44
250.765	100.44
250.998	97.44
251.231	100.44
251.465	98.44
251.698	98.44
251.931	113.44
252.164	108.44
252.397	112.44
252.63	104.44
252.863	115.44
253.096	99.44
253.329	100.44
253.562	108.44
253.795	109.44
254.028	121.44
254.261	110.44
254.494	107.44
254.727	99.44
254.96	102.44
255.193	121.44
255.426	102.44
255.659	128.44
255.892	120.44
256.124	109.44
256.357	112.44
256.59	96.44
256.823	118.44
257.056	115.44
257.289	114.44
257.521	109.44
257.754	114.44
257.987	118.44
258.22	124.44
258.452	121.44
258.685	99.44
258.918	92.44
259.151	116.44
259.383	100.44
259.616	118.44
259.849	104.44
260.081	113.44
260.314	109.44
260.547	113.44
260.779	104.44
261.012	115.44
261.244	113.44
261.477	126.44
261.71	103.44
261.942	120.44
262.175	104.44
262.407	126.44
262.64	112.44
262.872	113.44
263.105	121.44
263.337	109.44
263.57	109.44
263.802	118.44
264.035	120.44
264.267	126.44
264.499	122.44
264.732	113.44
264.964	117.44
265.197	123.44
265.429	117.44
265.661	134.44
265.894	114.44
266.126	106.44
266.358	130.44
266.591	126.44
266.823	120.44
267.055	118.44
267.287	140.44
267.52	125.44
267.752	125.44
267.984	109.44
268.216	130.44
268.448	136.44
268.681	130.44
268.913	123.44
269.145	138.44
269.377	130.44
269.609	116.44
269.841	118.44
270.073	124.44
270.306	120.44
270.538	132.44
270.77	129.44
271.002	128.44
271.234	137.44
271.466	141.44
271.698	138.44
271.93	140.44
272.162	123.44
272.394	129.44
272.626	134.44
272.858	130.44
273.09	141.44
273.322	129.44
273.553	118.44
273.785	128.44
274.017	113.44
274.249	121.44
274.481	128.44
274.713	132.44
274.945	122.44
275.176	130.44
275.408	136.44
275.64	134.44
275.872	131.44
276.104	128.44
276.335	122.44
276.567	116.44
276.799	123.44
277.031	145.44
277.262	137.44
277.494	147.44
277.726	124.44
277.957	127.44
278.189	143.44
278.421	127.44
278.652	135.44
278.884	147.44
279.115	133.44
279.347	134.44
279.579	151.44
279.81	133.44
280.042	125.44
280.273	133.44
280.505	150.44
280.736	136.44
280.968	153.44
281.199	129.44
281.431	140.44
281.662	140.44
281.894	132.44
282.125	125.44
282.356	140.44
282.588	135.44
282.819	136.44
283.051	139.44
283.282	145.44
283.513	152.44
283.745	151.44
283.976	148.44
284.207	155.44
284.439	154.44
284.67	154.44
284.901	149.44
285.132	126.44
285.364	151.44
285.595	147.44
285.826	138.44
286.057	152.44
286.288	159.44
286.52	152.44
286.751	149.44
286.982	143.44
287.213	145.44
287.444	155.44
287.675	144.44
287.906	168.44
288.138	140.44
288.369	146.44
288.6	162.44
288.831	150.44
289.062	167.44
289.293	142.44
289.524	166.44
289.755	152.44
289.986	158.44
290.217	168.44
290.448	165.44
290.679	156.44
290.91	166.44
291.141	148.44
291.371	158.44
291.602	177.44
291.833	157.44
292.064	165.44
292.295	152.44
292.526	150.44
292.757	156.44
292.987	149.44
293.218	170.44
293.449	155.44
293.68	153.44
293.91	152.44
294.141	145.44
294.372	161.44
294.603	164.44
294.833	156.44
295.064	158.44
295.295	146.44
295.525	155.44
295.756	147.44
295.987	152.44
296.217	163.44
296.448	167.44
296.679	157.44
296.909	155.44
297.14	156.44
297.37	159.44
297.601	161.44
297.831	154.44
298.062	160.44
298.292	167.44
298.523	180.44
298.753	163.44
298.984	170.44
299.214	164.44
299.445	156.44
299.675	168.44
299.905	165.44
300.136	168.44
300.366	173.44
300.597	158.44
300.827	165.44
301.057	152.44
301.288	169.44
301.518	171.44
301.748	189.44
301.979	171.44
302.209	162.44
302.439	170.44
302.669	178.44
302.9	164.44
303.13	156.44
303.36	171.44
303.59	171.44
303.82	172.44
304.051	174.44
304.281	174.44
304.511	185.44
304.741	173.44
304.971	177.44
305.201	169.44
305.431	165.44
305.661	168.44
305.891	159.44
306.121	166.44
306.352	165.44
306.582	171.44
306.812	167.44
307.042	164.44
307.272	178.44
307.502	154.44
307.731	182.44
307.961	157.44
308.191	180.44
308.421	167.44
308.651	166.44
308.881	172.44
309.111	173.44
309.341	170.44
309.571	166.44
309.8	160.44
310.03	164.44
310.26	165.44
310.49	160.44
310.72	157.44
310.949	174.44
311.179	164.44
311.409	168.44
311.639	160.44
311.868	165.44
312.098	174.44
312.328	170.44
312.557	187.44
312.787	158.44
313.017	164.44
313.246	155.44
313.476	170.44
313.706	192.44
313.935	156.44
314.165	160.44
314.394	193.44
314.624	178.44
314.853	147.44
315.083	172.44
315.312	167.44
315.542	184.44
315.771	184.44
316.001	183.44
316.23	177.44
316.46	172.44
316.689	176.44
316.919	150.44
317.148	169.44
317.377	188.44
317.607	194.44
317.836	176.44
318.065	168.44
318.295	173.44
318.524	172.44
318.753	192.44
318.983	164.44
319.212	173.44
319.441	170.44
319.67	178.44
319.9	178.44
320.129	171.44
320.358	178.44
320.587	180.44
320.816	169.44
321.046	162.44
321.275	187.44
321.504	182.44
321.733	181.44
321.962	174.44
322.191	173.44
322.42	180.44
322.649	184.44
322.878	148.44
323.108	158.44
323.337	171.44
323.566	172.44
323.795	173.44
324.024	177.44
324.253	192.44
324.482	185.44
324.71	186.44
324.939	177.44
325.168	205.44
325.397	186.44
325.626	192.44
325.855	185.44
326.084	198.44
326.313	188.44
326.542	180.44
326.77	182.44
326.999	190.44
327.228	164.44
327.457	180.44
327.686	183.44
327.914	175.44
328.143	203.44
328.372	209.44
328.6	189.44
328.829	195.44
329.058	200.44
329.287	178.44
329.515	189.44
329.744	180.44
329.972	189.44
330.201	192.44
330.43	192.44
330.658	184.44
330.887	196.44
331.115	183.44
331.344	185.44
331.572	187.44
331.801	204.44
332.03	207.44
332.258	201.44
332.486	202.44
332.715	208.44
332.943	218.44
333.172	212.44
333.4	213.44
333.629	227.44
333.857	247.44
334.085	235.44
334.314	217.44
334.542	226.44
334.771	213.44
334.999	204.44
335.227	210.44
335.455	187.44
335.684	224.44
335.912	217.44
336.14	217.44
336.369	214.44
336.597	200.44
336.825	220.44
337.053	202.44
337.281	206.44
337.51	213.44
337.738	216.44
337.966	203.44
338.194	218.44
338.422	196.44
338.65	202.44
338.878	203.44
339.106	201.44
339.334	186.44
339.562	194.44
339.79	192.44
340.018	177.44
340.246	186.44
340.474	206.44
340.702	190.44
340.93	184.44
341.158	195.44
341.386	180.44
341.614	173.44
341.842	196.44
342.07	182.44
342.298	197.44
342.526	188.44
342.754	184.44
342.981	192.44
343.209	194.44
343.437	204.44
343.665	231.44
343.893	219.44
344.12	232.44
344.348	224.44
344.576	213.44
344.804	205.44
345.031	202.44
345.259	177.44
345.487	192.44
345.714	206.44
345.942	184.44
346.17	181.44
346.397	169.44
346.625	183.44
346.853	171.44
347.08	179.44
347.308	183.44
347.535	186.44
347.763	196.44
347.99	185.44
348.218	202.44
348.445	196.44
348.673	193.44
348.9	184.44
349.128	186.44
349.355	196.44
349.583	205.44
349.81	170.44
350.037	196.44
350.265	180.44
350.492	185.44
350.72	179.44
350.947	184.44
351.174	186.44
351.402	176.44
351.629	187.44
351.856	183.44
352.083	170.44
352.311	178.44
352.538	185.44
352.765	177.44
352.992	178.44
353.22	162.44
353.447	177.44
353.674	186.44
353.901	189.44
354.128	158.44
354.355	167.44
354.583	186.44
354.81	188.44
355.037	180.44
355.264	190.44
355.491	176.44
355.718	195.44
355.945	183.44
356.172	170.44
356.399	181.44
356.626	194.44
356.853	190.44
357.08	195.44
357.307	180.44
357.534	169.44
357.761	178.44
357.988	176.44
358.215	172.44
358.441	196.44
358.668	188.44
358.895	178.44
359.122	166.44
359.349	193.44
359.576	178.44
359.802	176.44
360.029	185.44
360.256	192.44
360.483	175.44
360.709	168.44
360.936	173.44
361.163	180.44
361.39	166.44
361.616	163.44
361.843	181.44
362.07	182.44
362.296	174.44
362.523	180.44
362.749	187.44
362.976	186.44
363.203	171.44
363.429	200.44
363.656	181.44
363.882	176.44
364.109	196.44
364.335	179.44
364.562	185.44
364.788	173.44
365.015	171.44
365.241	169.44
365.468	183.44
365.694	168.44
365.92	187.44
366.147	180.44
366.373	166.44
366.599	186.44
366.826	164.44
367.052	191.44
367.278	165.44
367.505	185.44
367.731	184.44
367.957	170.44
368.184	184.44
368.41	196.44
368.636	183.44
368.862	178.44
369.089	183.44
369.315	193.44
369.541	192.44
369.767	182.44
369.993	177.44
370.219	178.44
370.445	181.44
370.672	178.44
370.898	187.44
371.124	195.44
371.35	193.44
371.576	186.44
371.802	170.44
372.028	187.44
372.254	202.44
372.48	180.44
372.706	199.44
372.932	179.44
373.158	195.44
373.384	200.44
373.61	200.44
373.835	193.44
374.061	203.44
374.287	198.44
374.513	199.44
374.739	200.44
374.965	209.44
375.191	210.44
375.416	199.44
375.642	201.44
375.868	202.44
376.094	196.44
376.319	196.44
376.545	196.44
376.771	200.44
376.997	207.44
377.222	194.44
377.448	191.44
377.674	193.44
377.899	182.44
378.125	194.44
378.35	188.44
378.576	192.44
378.802	190.44
379.027	200.44
379.253	209.44
379.478	192.44
379.704	205.44
379.929	197.44
380.155	194.44
380.38	178.44
380.606	211.44
380.831	180.44
381.057	173.44
381.282	184.44
381.507	197.44
381.733	181.44
381.958	190.44
382.184	186.44
382.409	199.44
382.634	196.44
382.86	192.44
383.085	193.44
383.31	200.44
383.535	204.44
383.761	213.44
383.986	220.44
384.211	210.44
384.436	196.44
384.662	227.44
384.887	214.44
385.112	218.44
385.337	204.44
385.562	212.44
385.787	204.44
386.013	227.44
386.238	226.44
386.463	204.44
386.688	225.44
386.913	218.44
387.138	210.44
387.363	209.44
387.588	219.44
387.813	198.44
388.038	197.44
388.263	226.44
388.488	222.44
388.713	217.44
388.938	208.44
389.163	212.44
389.387	230.44
389.612	200.44
389.837	202.44
390.062	215.44
390.287	219.44
390.512	228.44
390.736	217.44
390.961	206.44
391.186	217.44
391.411	232.44
391.636	231.44
391.86	227.44
392.085	229.44
392.31	233.44
392.534	220.44
392.759	203.44
392.984	200.44
393.208	231.44
393.433	236.44
393.658	236.44
393.882	234.44
394.107	240.44
394.331	237.44
394.556	223.44
394.78	249.44
395.005	243.44
395.229	227.44
395.454	224.44
395.678	229.44
395.903	229.44
396.127	220.44
396.352	219.44
396.576	219.44
396.801	225.44
397.025	230.44
397.249	219.44
397.474	231.44
397.698	213.44
397.922	231.44
398.147	237.44
398.371	221.44
398.595	245.44
398.82	255.44
399.044	248.44
399.268	274.44
399.492	326.44
399.717	368.44
399.941	359.44
400.165	307.44
400.389	304.44
400.613	265.44
400.837	259.44
401.062	227.44
401.286	258.44
401.51	225.44
401.734	243.44
401.958	244.44
402.182	263.44
402.406	254.44
402.63	274.44
402.854	290.44
403.078	283.44
403.302	288.44
403.526	278.44
403.75	283.44
403.974	290.44
404.198	301.44
404.422	290.44
404.645	293.44
404.869	269.44
405.093	269.44
405.317	285.44
405.541	269.44
405.765	266.44
405.988	265.44
406.212	256.44
406.436	266.44
406.66	286.44
406.883	299.44
407.107	303.44
407.331	304.44
407.555	314.44
407.778	288.44
408.002	284.44
408.226	305.44
408.449	307.44
408.673	276.44
408.896	265.44
409.12	282.44
409.344	264.44
409.567	285.44
409.791	297.44
410.014	283.44
410.238	275.44
410.461	278.44
410.685	284.44
410.908	270.44
411.132	286.44
411.355	255.44
411.578	272.44
411.802	260.44
412.025	252.44
412.249	275.44
412.472	270.44
412.695	271.44
412.919	247.44
413.142	242.44
413.365	245.44
413.589	226.44
413.812	239.44
414.035	245.44
414.258	256.44
414.482	267.44
414.705	260.44
414.928	247.44
415.151	246.44
415.374	243.44
415.597	266.44
415.821	246.44
416.044	265.44
416.267	249.44
416.49	244.44
416.713	247.44
416.936	244.44
417.159	237.44
417.382	224.44
417.605	244.44
417.828	253.44
418.051	249.44
418.274	245.44
418.497	243.44
418.72	248.44
418.943	262.44
419.166	250.44
419.389	294.44
419.611	291.44
419.834	272.44
420.057	243.44
420.28	242.44
420.503	252.44
420.726	261.44
420.948	258.44
421.171	256.44
421.394	237.44
421.617	268.44
421.839	242.44
422.062	237.44
422.285	243.44
422.507	250.44
422.73	258.44
422.953	247.44
423.175	267.44
423.398	277.44
423.621	265.44
423.843	264.44
424.066	265.44
424.288	272.44
424.511	252.44
424.733	250.44
424.956	256.44
425.178	240.44
425.401	244.44
425.623	237.44
425.846	248.44
426.068	240.44
426.291	249.44
426.513	259.44
426.735	244.44
426.958	247.44
427.18	222.44
427.402	245.44
427.625	237.44
427.847	233.44
428.069	240.44
428.292	228.44
428.514	239.44
428.736	212.44
428.958	216.44
429.181	226.44
429.403	225.44
429.625	232.44
429.847	212.44
430.069	234.44
430.292	221.44
430.514	216.44
430.736	223.44
430.958	227.44
431.18	246.44
431.402	226.44
431.624	243.44
431.846	221.44
432.068	224.44
432.29	237.44
432.512	226.44
432.734	216.44
432.956	226.44
433.178	236.44
433.4	213.44
433.622	236.44
433.844	241.44
434.066	236.44
434.287	229.44
434.509	240.44
434.731	221.44
434.953	262.44
435.175	250.44
435.397	241.44
435.618	228.44
435.84	231.44
436.062	222.44
436.284	214.44
436.505	227.44
436.727	242.44
436.949	213.44
437.17	241.44
437.392	237.44
437.614	216.44
437.835	217.44
438.057	226.44
438.278	221.44
438.5	222.44
438.721	220.44
438.943	232.44
439.165	236.44
439.386	220.44
439.608	216.44
439.829	228.44
440.05	219.44
440.272	221.44
440.493	216.44
440.715	213.44
440.936	218.44
441.158	254.44
441.379	260.44
441.6	236.44
441.822	254.44
442.043	259.44
442.264	226.44
442.486	250.44
442.707	241.44
442.928	252.44
443.149	243.44
443.371	250.44
443.592	238.44
443.813	246.44
444.034	270.44
444.255	243.44
444.476	264.44
444.698	278.44
444.919	285.44
445.14	426.44
445.361	337.44
445.582	247.44
445.803	234.44
446.024	246.44
446.245	218.44
446.466	228.44
446.687	237.44
446.908	216.44
447.129	242.44
447.35	230.44
447.571	219.44
447.792	204.44
448.013	213.44
448.234	204.44
448.455	217.44
448.675	214.44
448.896	206.44
449.117	204.44
449.338	215.44
449.559	210.44
449.779	211.44
450	229.44
450.221	205.44
450.442	185.44
450.662	211.44
450.883	208.44
451.104	208.44
451.324	216.44
451.545	237.44
451.766	224.44
451.986	213.44
452.207	198.44
452.428	218.44
452.648	229.44
452.869	205.44
453.089	211.44
453.31	212.44
453.53	204.44
453.751	218.44
453.971	211.44
454.192	213.44
454.412	205.44
454.633	221.44
454.853	217.44
455.073	205.44
455.294	213.44
455.514	214.44
455.734	210.44
455.955	208.44
456.175	210.44
456.395	191.44
456.616	207.44
456.836	202.44
457.056	194.44
457.276	198.44
457.497	214.44
457.717	197.44
457.937	193.44
458.157	205.44
458.377	205.44
458.598	206.44
458.818	202.44
459.038	232.44
459.258	229.44
459.478	228.44
459.698	236.44
459.918	238.44
460.138	244.44
460.358	267.44
460.578	265.44
460.798	259.44
461.018	264.44
461.238	264.44
461.458	266.44
461.678	266.44
461.898	266.44
462.118	241.44
462.338	276.44
462.558	278.44
462.777	280.44
462.997	306.44
463.217	325.44
463.437	343.44
463.657	335.44
463.876	307.44
464.096	299.44
464.316	285.44
464.536	294.44
464.755	297.44
464.975	261.44
465.195	282.44
465.414	270.44
465.634	241.44
465.854	256.44
466.073	234.44
466.293	226.44
466.512	224.44
466.732	227.44
466.951	201.44
467.171	232.44
467.391	235.44
467.61	220.44
467.829	217.44
468.049	199.44
468.268	213.44
468.488	216.44
468.707	233.44
468.927	227.44
469.146	233.44
469.365	228.44
469.585	212.44
469.804	226.44
470.023	243.44
470.243	226.44
470.462	229.44
470.681	229.44
470.901	241.44
471.12	226.44
471.339	218.44
471.558	240.44
471.777	236.44
471.997	215.44
472.216	222.44
472.435	207.44
472.654	221.44
472.873	225.44
473.092	232.44
473.311	208.44
473.53	210.44
473.749	224.44
473.968	220.44
474.187	229.44
474.406	214.44
474.625	220.44
474.844	208.44
475.063	217.44
475.282	224.44
475.501	215.44
475.72	220.44
475.939	224.44
476.158	217.44
476.377	212.44
476.596	203.44
476.814	245.44
477.033	226.44
477.252	241.44
477.471	229.44
477.69	256.44
477.908	264.44
478.127	240.44
478.346	261.44
478.564	256.44
478.783	241.44
479.002	266.44
479.22	255.44
479.439	265.44
479.658	259.44
479.876	258.44
480.095	254.44
480.313	276.44
480.532	269.44
480.751	275.44
480.969	267.44
481.188	263.44
481.406	262.44
481.624	235.44
481.843	242.44
482.061	231.44
482.28	243.44
482.498	236.44
482.717	219.44
482.935	233.44
483.153	244.44
483.372	254.44
483.59	256.44
483.808	245.44
484.027	230.44
484.245	248.44
484.463	242.44
484.681	268.44
484.9	269.44
485.118	245.44
485.336	269.44
485.554	261.44
485.772	269.44
485.99	256.44
486.209	264.44
486.427	262.44
486.645	238.44
486.863	270.44
487.081	265.44
487.299	231.44
487.517	240.44
487.735	242.44
487.953	262.44
488.171	241.44
488.389	241.44
488.607	254.44
488.825	254.44
489.043	269.44
489.261	243.44
489.479	245.44
489.696	257.44
489.914	263.44
490.132	247.44
490.35	257.44
490.568	270.44
490.786	270.44
491.003	264.44
491.221	270.44
491.439	267.44
491.657	269.44
491.874	257.44
492.092	259.44
492.31	271.44
492.527	269.44
492.745	274.44
492.963	264.44
493.18	270.44
493.398	282.44
493.615	288.44
493.833	274.44
494.05	272.44
494.268	276.44
494.485	268.44
494.703	281.44
494.92	274.44
495.138	257.44
495.355	274.44
495.573	255.44
495.79	253.44
496.008	273.44
496.225	265.44
496.442	278.44
496.66	278.44
496.877	285.44
497.094	269.44
497.312	281.44
497.529	298.44
497.746	295.44
497.963	307.44
498.181	297.44
498.398	312.44
498.615	327.44
498.832	355.44
499.049	368.44
499.267	388.44
499.484	430.44
499.701	453.44
499.918	538.44
500.135	587.44
500.352	682.44
500.569	710.44
500.786	692.44
501.003	657.44
501.22	584.44
501.437	521.44
501.654	464.44
501.871	408.44
502.088	396.44
502.305	368.44
502.522	346.44
502.739	357.44
502.956	337.44
503.172	320.44
503.389	316.44
