Data from 0.5MCu(NO3)2.Standard.Lamp.E10.CV._HRD10591_16-04-47-753.txt Node
Date: Mon Jul 22 16:04:47 EDT 2019
User: cochatt
Spectrometer: HR+D1059
Trigger mode: 1
Integration Time (sec): 1.000000E-1
Scans to average: 1
Electric dark correction enabled: true
Nonlinearity correction enabled: false
Boxcar width: 0
XAxis mode: Wavelengths
Number of Pixels in Spectrum: 2048
>>>>>Begin Spectral Data<<<<<
223.165	-10.38
223.4	-10.38
223.635	-10.38
223.869	-23.38
224.104	-27.38
224.338	-14.38
224.573	-19.38
224.808	-7.38
225.042	3.62
225.277	-17.38
225.511	-4.38
225.746	-0.38
225.98	12.62
226.215	6.62
226.449	24.62
226.683	10.62
226.918	32.62
227.152	33.62
227.387	35.62
227.621	31.62
227.856	48.62
228.09	33.62
228.324	54.62
228.559	61.62
228.793	55.62
229.027	60.62
229.262	71.62
229.496	52.62
229.73	68.62
229.964	69.62
230.199	81.62
230.433	97.62
230.667	85.62
230.901	85.62
231.136	92.62
231.37	85.62
231.604	88.62
231.838	90.62
232.072	105.62
232.306	93.62
232.541	99.62
232.775	84.62
233.009	98.62
233.243	101.62
233.477	98.62
233.711	84.62
233.945	93.62
234.179	82.62
234.413	89.62
234.647	104.62
234.881	95.62
235.115	104.62
235.349	79.62
235.583	90.62
235.817	87.62
236.051	90.62
236.285	76.62
236.519	92.62
236.753	81.62
236.987	96.62
237.221	90.62
237.455	77.62
237.689	78.62
237.922	99.62
238.156	87.62
238.39	91.62
238.624	104.62
238.858	87.62
239.091	97.62
239.325	97.62
239.559	90.62
239.793	99.62
240.027	101.62
240.26	91.62
240.494	91.62
240.728	102.62
240.961	91.62
241.195	88.62
241.429	94.62
241.662	91.62
241.896	94.62
242.13	101.62
242.363	97.62
242.597	97.62
242.83	91.62
243.064	101.62
243.298	99.62
243.531	92.62
243.765	89.62
243.998	106.62
244.232	109.62
244.465	108.62
244.699	111.62
244.932	115.62
245.166	114.62
245.399	92.62
245.633	105.62
245.866	118.62
246.099	115.62
246.333	111.62
246.566	93.62
246.8	109.62
247.033	109.62
247.266	107.62
247.5	113.62
247.733	103.62
247.966	107.62
248.2	103.62
248.433	116.62
248.666	100.62
248.899	113.62
249.133	115.62
249.366	116.62
249.599	108.62
249.832	97.62
250.066	127.62
250.299	117.62
250.532	111.62
250.765	112.62
250.998	120.62
251.231	113.62
251.465	109.62
251.698	99.62
251.931	114.62
252.164	121.62
252.397	124.62
252.63	116.62
252.863	128.62
253.096	124.62
253.329	120.62
253.562	113.62
253.795	116.62
254.028	132.62
254.261	115.62
254.494	123.62
254.727	121.62
254.96	131.62
255.193	124.62
255.426	130.62
255.659	126.62
255.892	113.62
256.124	125.62
256.357	121.62
256.59	115.62
256.823	133.62
257.056	124.62
257.289	129.62
257.521	138.62
257.754	122.62
257.987	119.62
258.22	128.62
258.452	141.62
258.685	130.62
258.918	121.62
259.151	126.62
259.383	118.62
259.616	123.62
259.849	122.62
260.081	121.62
260.314	131.62
260.547	119.62
260.779	109.62
261.012	112.62
261.244	129.62
261.477	132.62
261.71	131.62
261.942	146.62
262.175	143.62
262.407	132.62
262.64	140.62
262.872	135.62
263.105	137.62
263.337	129.62
263.57	144.62
263.802	139.62
264.035	139.62
264.267	146.62
264.499	147.62
264.732	154.62
264.964	146.62
265.197	138.62
265.429	144.62
265.661	130.62
265.894	139.62
266.126	135.62
266.358	141.62
266.591	143.62
266.823	156.62
267.055	150.62
267.287	143.62
267.52	132.62
267.752	143.62
267.984	129.62
268.216	147.62
268.448	142.62
268.681	155.62
268.913	136.62
269.145	143.62
269.377	157.62
269.609	149.62
269.841	141.62
270.073	131.62
270.306	158.62
270.538	140.62
270.77	142.62
271.002	165.62
271.234	149.62
271.466	148.62
271.698	159.62
271.93	143.62
272.162	153.62
272.394	159.62
272.626	156.62
272.858	151.62
273.09	136.62
273.322	138.62
273.553	147.62
273.785	145.62
274.017	165.62
274.249	163.62
274.481	146.62
274.713	155.62
274.945	156.62
275.176	157.62
275.408	157.62
275.64	167.62
275.872	160.62
276.104	160.62
276.335	157.62
276.567	161.62
276.799	152.62
277.031	158.62
277.262	163.62
277.494	175.62
277.726	145.62
277.957	159.62
278.189	153.62
278.421	160.62
278.652	163.62
278.884	165.62
279.115	161.62
279.347	163.62
279.579	169.62
279.81	167.62
280.042	157.62
280.273	184.62
280.505	154.62
280.736	169.62
280.968	166.62
281.199	168.62
281.431	165.62
281.662	176.62
281.894	161.62
282.125	177.62
282.356	175.62
282.588	176.62
282.819	173.62
283.051	166.62
283.282	181.62
283.513	177.62
283.745	173.62
283.976	175.62
284.207	170.62
284.439	177.62
284.67	177.62
284.901	181.62
285.132	185.62
285.364	168.62
285.595	181.62
285.826	188.62
286.057	189.62
286.288	195.62
286.52	196.62
286.751	173.62
286.982	184.62
287.213	183.62
287.444	203.62
287.675	180.62
287.906	181.62
288.138	191.62
288.369	180.62
288.6	178.62
288.831	180.62
289.062	183.62
289.293	181.62
289.524	197.62
289.755	185.62
289.986	198.62
290.217	184.62
290.448	194.62
290.679	188.62
290.91	189.62
291.141	189.62
291.371	185.62
291.602	188.62
291.833	193.62
292.064	194.62
292.295	186.62
292.526	179.62
292.757	193.62
292.987	192.62
293.218	183.62
293.449	183.62
293.68	193.62
293.91	205.62
294.141	212.62
294.372	197.62
294.603	196.62
294.833	200.62
295.064	186.62
295.295	197.62
295.525	196.62
295.756	183.62
295.987	191.62
296.217	194.62
296.448	196.62
296.679	185.62
296.909	209.62
297.14	202.62
297.37	205.62
297.601	204.62
297.831	204.62
298.062	208.62
298.292	208.62
298.523	197.62
298.753	218.62
298.984	208.62
299.214	203.62
299.445	217.62
299.675	210.62
299.905	225.62
300.136	194.62
300.366	214.62
300.597	202.62
300.827	200.62
301.057	225.62
301.288	208.62
301.518	223.62
301.748	226.62
301.979	239.62
302.209	205.62
302.439	219.62
302.669	212.62
302.9	195.62
303.13	208.62
303.36	202.62
303.59	208.62
303.82	234.62
304.051	224.62
304.281	209.62
304.511	202.62
304.741	212.62
304.971	214.62
305.201	209.62
305.431	210.62
305.661	204.62
305.891	187.62
306.121	210.62
306.352	199.62
306.582	215.62
306.812	216.62
307.042	209.62
307.272	207.62
307.502	195.62
307.731	199.62
307.961	202.62
308.191	214.62
308.421	210.62
308.651	196.62
308.881	188.62
309.111	194.62
309.341	204.62
309.571	211.62
309.8	213.62
310.03	195.62
310.26	219.62
310.49	207.62
310.72	203.62
310.949	195.62
311.179	197.62
311.409	204.62
311.639	212.62
311.868	214.62
312.098	214.62
312.328	209.62
312.557	216.62
312.787	222.62
313.017	210.62
313.246	221.62
313.476	213.62
313.706	209.62
313.935	195.62
314.165	226.62
314.394	231.62
314.624	214.62
314.853	219.62
315.083	218.62
315.312	218.62
315.542	205.62
315.771	199.62
316.001	221.62
316.23	218.62
316.46	209.62
316.689	201.62
316.919	222.62
317.148	224.62
317.377	217.62
317.607	217.62
317.836	231.62
318.065	209.62
318.295	206.62
318.524	211.62
318.753	209.62
318.983	205.62
319.212	210.62
319.441	214.62
319.67	211.62
319.9	209.62
320.129	213.62
320.358	215.62
320.587	233.62
320.816	224.62
321.046	207.62
321.275	215.62
321.504	202.62
321.733	224.62
321.962	207.62
322.191	220.62
322.42	201.62
322.649	211.62
322.878	202.62
323.108	222.62
323.337	208.62
323.566	221.62
323.795	226.62
324.024	239.62
324.253	219.62
324.482	227.62
324.71	209.62
324.939	240.62
325.168	225.62
325.397	227.62
325.626	239.62
325.855	234.62
326.084	229.62
326.313	235.62
326.542	223.62
326.77	243.62
326.999	237.62
327.228	217.62
327.457	234.62
327.686	255.62
327.914	239.62
328.143	237.62
328.372	244.62
328.6	244.62
328.829	247.62
329.058	236.62
329.287	225.62
329.515	234.62
329.744	230.62
329.972	242.62
330.201	227.62
330.43	229.62
330.658	239.62
330.887	236.62
331.115	258.62
331.344	236.62
331.572	246.62
331.801	253.62
332.03	240.62
332.258	255.62
332.486	246.62
332.715	267.62
332.943	269.62
333.172	279.62
333.4	290.62
333.629	296.62
333.857	293.62
334.085	294.62
334.314	303.62
334.542	280.62
334.771	283.62
334.999	265.62
335.227	276.62
335.455	273.62
335.684	260.62
335.912	265.62
336.14	270.62
336.369	270.62
336.597	274.62
336.825	279.62
337.053	257.62
337.281	267.62
337.51	248.62
337.738	264.62
337.966	253.62
338.194	258.62
338.422	247.62
338.65	230.62
338.878	246.62
339.106	234.62
339.334	259.62
339.562	234.62
339.79	222.62
340.018	217.62
340.246	244.62
340.474	237.62
340.702	234.62
340.93	244.62
341.158	236.62
341.386	231.62
341.614	229.62
341.842	253.62
342.07	231.62
342.298	234.62
342.526	233.62
342.754	242.62
342.981	227.62
343.209	246.62
343.437	249.62
343.665	265.62
343.893	288.62
344.12	290.62
344.348	261.62
344.576	256.62
344.804	268.62
345.031	248.62
345.259	242.62
345.487	256.62
345.714	229.62
345.942	224.62
346.17	243.62
346.397	234.62
346.625	233.62
346.853	232.62
347.08	218.62
347.308	234.62
347.535	231.62
347.763	239.62
347.99	231.62
348.218	254.62
348.445	212.62
348.673	240.62
348.9	240.62
349.128	221.62
349.355	232.62
349.583	228.62
349.81	236.62
350.037	231.62
350.265	204.62
350.492	223.62
350.72	236.62
350.947	205.62
351.174	236.62
351.402	227.62
351.629	232.62
351.856	221.62
352.083	237.62
352.311	210.62
352.538	214.62
352.765	218.62
352.992	235.62
353.22	211.62
353.447	212.62
353.674	225.62
353.901	232.62
354.128	217.62
354.355	235.62
354.583	236.62
354.81	243.62
355.037	221.62
355.264	234.62
355.491	234.62
355.718	229.62
355.945	226.62
356.172	226.62
356.399	224.62
356.626	221.62
356.853	223.62
357.08	218.62
357.307	212.62
357.534	223.62
357.761	240.62
357.988	233.62
358.215	214.62
358.441	216.62
358.668	223.62
358.895	233.62
359.122	230.62
359.349	237.62
359.576	217.62
359.802	230.62
360.029	219.62
360.256	215.62
360.483	224.62
360.709	215.62
360.936	219.62
361.163	219.62
361.39	222.62
361.616	220.62
361.843	202.62
362.07	225.62
362.296	229.62
362.523	224.62
362.749	232.62
362.976	229.62
363.203	225.62
363.429	231.62
363.656	220.62
363.882	221.62
364.109	224.62
364.335	229.62
364.562	215.62
364.788	201.62
365.015	241.62
365.241	225.62
365.468	232.62
365.694	219.62
365.92	211.62
366.147	213.62
366.373	216.62
366.599	213.62
366.826	220.62
367.052	219.62
367.278	210.62
367.505	217.62
367.731	212.62
367.957	228.62
368.184	228.62
368.41	224.62
368.636	219.62
368.862	237.62
369.089	223.62
369.315	219.62
369.541	225.62
369.767	214.62
369.993	240.62
370.219	235.62
370.445	230.62
370.672	208.62
370.898	210.62
371.124	243.62
371.35	243.62
371.576	254.62
371.802	245.62
372.028	259.62
372.254	229.62
372.48	240.62
372.706	244.62
372.932	258.62
373.158	244.62
373.384	226.62
373.61	232.62
373.835	237.62
374.061	218.62
374.287	226.62
374.513	244.62
374.739	235.62
374.965	241.62
375.191	241.62
375.416	280.62
375.642	247.62
375.868	246.62
376.094	239.62
376.319	228.62
376.545	247.62
376.771	236.62
376.997	239.62
377.222	224.62
377.448	241.62
377.674	243.62
377.899	248.62
378.125	224.62
378.35	240.62
378.576	229.62
378.802	229.62
379.027	216.62
379.253	252.62
379.478	239.62
379.704	223.62
379.929	233.62
380.155	228.62
380.38	208.62
380.606	226.62
380.831	223.62
381.057	227.62
381.282	235.62
381.507	241.62
381.733	254.62
381.958	245.62
382.184	235.62
382.409	251.62
382.634	239.62
382.86	243.62
383.085	245.62
383.31	246.62
383.535	251.62
383.761	235.62
383.986	262.62
384.211	266.62
384.436	254.62
384.662	272.62
384.887	273.62
385.112	277.62
385.337	288.62
385.562	272.62
385.787	262.62
386.013	280.62
386.238	267.62
386.463	280.62
386.688	266.62
386.913	271.62
387.138	265.62
387.363	272.62
387.588	277.62
387.813	270.62
388.038	263.62
388.263	256.62
388.488	253.62
388.713	249.62
388.938	262.62
389.163	253.62
389.387	262.62
389.612	258.62
389.837	279.62
390.062	275.62
390.287	256.62
390.512	263.62
390.736	263.62
390.961	260.62
391.186	281.62
391.411	282.62
391.636	285.62
391.86	292.62
392.085	284.62
392.31	275.62
392.534	281.62
392.759	279.62
392.984	292.62
393.208	283.62
393.433	284.62
393.658	278.62
393.882	288.62
394.107	280.62
394.331	282.62
394.556	276.62
394.78	280.62
395.005	276.62
395.229	272.62
395.454	287.62
395.678	297.62
395.903	299.62
396.127	281.62
396.352	270.62
396.576	270.62
396.801	282.62
397.025	276.62
397.249	275.62
397.474	291.62
397.698	265.62
397.922	274.62
398.147	284.62
398.371	283.62
398.595	311.62
398.82	325.62
399.044	334.62
399.268	364.62
399.492	419.62
399.717	468.62
399.941	473.62
400.165	398.62
400.389	389.62
400.613	325.62
400.837	323.62
401.062	329.62
401.286	298.62
401.51	317.62
401.734	333.62
401.958	338.62
402.182	312.62
402.406	321.62
402.63	336.62
402.854	350.62
403.078	335.62
403.302	343.62
403.526	379.62
403.75	363.62
403.974	365.62
404.198	369.62
404.422	382.62
404.645	348.62
404.869	363.62
405.093	364.62
405.317	350.62
405.541	347.62
405.765	334.62
405.988	347.62
406.212	348.62
406.436	346.62
406.66	364.62
406.883	358.62
407.107	368.62
407.331	389.62
407.555	419.62
407.778	373.62
408.002	407.62
408.226	403.62
408.449	367.62
408.673	356.62
408.896	369.62
409.12	345.62
409.344	361.62
409.567	352.62
409.791	359.62
410.014	353.62
410.238	367.62
410.461	345.62
410.685	361.62
410.908	353.62
411.132	337.62
411.355	332.62
411.578	318.62
411.802	338.62
412.025	310.62
412.249	335.62
412.472	348.62
412.695	308.62
412.919	312.62
413.142	308.62
413.365	292.62
413.589	313.62
413.812	303.62
414.035	314.62
414.258	323.62
414.482	305.62
414.705	322.62
414.928	314.62
415.151	315.62
415.374	318.62
415.597	329.62
415.821	306.62
416.044	309.62
416.267	319.62
416.49	335.62
416.713	295.62
416.936	330.62
417.159	313.62
417.382	342.62
417.605	312.62
417.828	310.62
418.051	324.62
418.274	311.62
418.497	308.62
418.72	310.62
418.943	334.62
419.166	345.62
419.389	350.62
419.611	333.62
419.834	327.62
420.057	327.62
420.28	316.62
420.503	300.62
420.726	305.62
420.948	292.62
421.171	320.62
421.394	300.62
421.617	310.62
421.839	324.62
422.062	329.62
422.285	307.62
422.507	317.62
422.73	309.62
422.953	326.62
423.175	336.62
423.398	312.62
423.621	327.62
423.843	335.62
424.066	333.62
424.288	330.62
424.511	327.62
424.733	318.62
424.956	314.62
425.178	308.62
425.401	316.62
425.623	321.62
425.846	320.62
426.068	310.62
426.291	304.62
426.513	309.62
426.735	304.62
426.958	300.62
427.18	291.62
427.402	288.62
427.625	295.62
427.847	285.62
428.069	284.62
428.292	292.62
428.514	289.62
428.736	278.62
428.958	288.62
429.181	275.62
429.403	283.62
429.625	288.62
429.847	271.62
430.069	291.62
430.292	292.62
430.514	281.62
430.736	282.62
430.958	264.62
431.18	267.62
431.402	278.62
431.624	269.62
431.846	282.62
432.068	289.62
432.29	288.62
432.512	276.62
432.734	314.62
432.956	284.62
433.178	293.62
433.4	289.62
433.622	259.62
433.844	290.62
434.066	296.62
434.287	307.62
434.509	295.62
434.731	328.62
434.953	321.62
435.175	327.62
435.397	311.62
435.618	291.62
435.84	284.62
436.062	288.62
436.284	301.62
436.505	291.62
436.727	268.62
436.949	295.62
437.17	290.62
437.392	279.62
437.614	277.62
437.835	276.62
438.057	278.62
438.278	257.62
438.5	278.62
438.721	281.62
438.943	280.62
439.165	289.62
439.386	287.62
439.608	284.62
439.829	274.62
440.05	298.62
440.272	284.62
440.493	294.62
440.715	281.62
440.936	298.62
441.158	301.62
441.379	293.62
441.6	307.62
441.822	315.62
442.043	323.62
442.264	317.62
442.486	311.62
442.707	297.62
442.928	300.62
443.149	308.62
443.371	291.62
443.592	292.62
443.813	318.62
444.034	333.62
444.255	331.62
444.476	338.62
444.698	350.62
444.919	356.62
445.14	497.62
445.361	388.62
445.582	315.62
445.803	308.62
446.024	297.62
446.245	316.62
446.466	288.62
446.687	279.62
446.908	284.62
447.129	269.62
447.35	279.62
447.571	291.62
447.792	273.62
448.013	255.62
448.234	264.62
448.455	269.62
448.675	275.62
448.896	276.62
449.117	262.62
449.338	252.62
449.559	268.62
449.779	265.62
450	272.62
450.221	273.62
450.442	274.62
450.662	269.62
450.883	255.62
451.104	276.62
451.324	276.62
451.545	275.62
451.766	288.62
451.986	266.62
452.207	275.62
452.428	259.62
452.648	271.62
452.869	251.62
453.089	256.62
453.31	261.62
453.53	258.62
453.751	263.62
453.971	261.62
454.192	243.62
454.412	273.62
454.633	260.62
454.853	249.62
455.073	251.62
455.294	261.62
455.514	247.62
455.734	255.62
455.955	251.62
456.175	259.62
456.395	255.62
456.616	275.62
456.836	230.62
457.056	226.62
457.276	237.62
457.497	245.62
457.717	249.62
457.937	252.62
458.157	241.62
458.377	254.62
458.598	255.62
458.818	273.62
459.038	272.62
459.258	289.62
459.478	266.62
459.698	301.62
459.918	315.62
460.138	330.62
460.358	339.62
460.578	333.62
460.798	339.62
461.018	322.62
461.238	335.62
461.458	304.62
461.678	322.62
461.898	329.62
462.118	327.62
462.338	347.62
462.558	358.62
462.777	356.62
462.997	400.62
463.217	443.62
463.437	420.62
463.657	395.62
463.876	376.62
464.096	397.62
464.316	356.62
464.536	385.62
464.755	377.62
464.975	364.62
465.195	351.62
465.414	324.62
465.634	313.62
465.854	311.62
466.073	306.62
466.293	299.62
466.512	279.62
466.732	296.62
466.951	274.62
467.171	275.62
467.391	273.62
467.61	261.62
467.829	283.62
468.049	287.62
468.268	266.62
468.488	290.62
468.707	263.62
468.927	275.62
469.146	259.62
469.365	263.62
469.585	271.62
469.804	279.62
470.023	297.62
470.243	286.62
470.462	291.62
470.681	290.62
470.901	288.62
471.12	297.62
471.339	281.62
471.558	288.62
471.777	284.62
471.997	289.62
472.216	269.62
472.435	263.62
472.654	257.62
472.873	258.62
473.092	257.62
473.311	269.62
473.53	262.62
473.749	279.62
473.968	250.62
474.187	279.62
474.406	276.62
474.625	280.62
474.844	274.62
475.063	270.62
475.282	260.62
475.501	266.62
475.72	268.62
475.939	277.62
476.158	283.62
476.377	288.62
476.596	288.62
476.814	280.62
477.033	297.62
477.252	288.62
477.471	281.62
477.69	314.62
477.908	300.62
478.127	305.62
478.346	295.62
478.564	323.62
478.783	316.62
479.002	337.62
479.22	305.62
479.439	325.62
479.658	322.62
479.876	311.62
480.095	328.62
480.313	344.62
480.532	347.62
480.751	355.62
480.969	326.62
481.188	326.62
481.406	321.62
481.624	307.62
481.843	306.62
482.061	300.62
482.28	289.62
482.498	301.62
482.717	294.62
482.935	307.62
483.153	298.62
483.372	302.62
483.59	299.62
483.808	315.62
484.027	296.62
484.245	307.62
484.463	303.62
484.681	311.62
484.9	332.62
485.118	314.62
485.336	315.62
485.554	316.62
485.772	326.62
485.99	321.62
486.209	325.62
486.427	319.62
486.645	337.62
486.863	327.62
487.081	307.62
487.299	333.62
487.517	325.62
487.735	320.62
487.953	322.62
488.171	330.62
488.389	320.62
488.607	315.62
488.825	314.62
489.043	320.62
489.261	311.62
489.479	337.62
489.696	303.62
489.914	317.62
490.132	317.62
490.35	330.62
490.568	334.62
490.786	324.62
491.003	307.62
491.221	331.62
491.439	315.62
491.657	310.62
491.874	330.62
492.092	337.62
492.31	337.62
492.527	321.62
492.745	334.62
492.963	342.62
493.18	326.62
493.398	347.62
493.615	316.62
493.833	304.62
494.05	339.62
494.268	336.62
494.485	346.62
494.703	336.62
494.92	345.62
495.138	328.62
495.355	345.62
495.573	333.62
495.79	321.62
496.008	325.62
496.225	356.62
496.442	344.62
496.66	353.62
496.877	348.62
497.094	344.62
497.312	358.62
497.529	361.62
497.746	357.62
497.963	373.62
498.181	404.62
498.398	413.62
498.615	444.62
498.832	457.62
499.049	484.62
499.267	496.62
499.484	559.62
499.701	626.62
499.918	671.62
500.135	777.62
500.352	884.62
500.569	939.62
500.786	928.62
501.003	876.62
501.22	777.62
501.437	682.62
501.654	599.62
501.871	549.62
502.088	492.62
502.305	469.62
502.522	465.62
502.739	449.62
502.956	417.62
