Data from 0.5MCu(NO3)2.Standard.Lamp.E10.CV._HRD10591_16-03-54-752.txt Node
Date: Mon Jul 22 16:03:54 EDT 2019
User: cochatt
Spectrometer: HR+D1059
Trigger mode: 1
Integration Time (sec): 1.000000E-1
Scans to average: 1
Electric dark correction enabled: true
Nonlinearity correction enabled: false
Boxcar width: 0
XAxis mode: Wavelengths
Number of Pixels in Spectrum: 2048
>>>>>Begin Spectral Data<<<<<
223.165	-13
223.4	-13
223.635	-13
223.869	-26
224.104	-9
224.338	-19
224.573	-25
224.808	-8
225.042	-9
225.277	-3
225.511	5
225.746	0
225.98	17
226.215	20
226.449	14
226.683	13
226.918	16
227.152	27
227.387	35
227.621	32
227.856	34
228.09	49
228.324	47
228.559	54
228.793	68
229.027	53
229.262	60
229.496	74
229.73	84
229.964	70
230.199	79
230.433	98
230.667	78
230.901	64
231.136	87
231.37	76
231.604	93
231.838	88
232.072	87
232.306	85
232.541	83
232.775	100
233.009	81
233.243	83
233.477	85
233.711	92
233.945	103
234.179	85
234.413	91
234.647	90
234.881	95
235.115	88
235.349	96
235.583	81
235.817	88
236.051	73
236.285	84
236.519	85
236.753	76
236.987	82
237.221	103
237.455	85
237.689	92
237.922	97
238.156	102
238.39	84
238.624	103
238.858	96
239.091	84
239.325	86
239.559	88
239.793	103
240.027	98
240.26	104
240.494	104
240.728	74
240.961	94
241.195	89
241.429	91
241.662	93
241.896	105
242.13	94
242.363	92
242.597	96
242.83	92
243.064	97
243.298	103
243.531	97
243.765	101
243.998	83
244.232	101
244.465	104
244.699	99
244.932	100
245.166	103
245.399	102
245.633	108
245.866	113
246.099	107
246.333	105
246.566	96
246.8	107
247.033	93
247.266	93
247.5	93
247.733	107
247.966	100
248.2	111
248.433	125
248.666	113
248.899	117
249.133	96
249.366	115
249.599	104
249.832	108
250.066	103
250.299	113
250.532	97
250.765	112
250.998	119
251.231	102
251.465	110
251.698	121
251.931	114
252.164	118
252.397	108
252.63	109
252.863	124
253.096	115
253.329	113
253.562	126
253.795	119
254.028	105
254.261	101
254.494	123
254.727	112
254.96	124
255.193	105
255.426	117
255.659	99
255.892	105
256.124	117
256.357	112
256.59	122
256.823	109
257.056	107
257.289	111
257.521	132
257.754	112
257.987	106
258.22	125
258.452	115
258.685	123
258.918	120
259.151	122
259.383	118
259.616	118
259.849	126
260.081	124
260.314	114
260.547	128
260.779	121
261.012	115
261.244	117
261.477	125
261.71	131
261.942	127
262.175	122
262.407	129
262.64	129
262.872	122
263.105	136
263.337	115
263.57	128
263.802	132
264.035	126
264.267	126
264.499	127
264.732	136
264.964	131
265.197	129
265.429	138
265.661	131
265.894	134
266.126	123
266.358	139
266.591	128
266.823	137
267.055	137
267.287	125
267.52	148
267.752	144
267.984	127
268.216	153
268.448	149
268.681	135
268.913	136
269.145	137
269.377	137
269.609	132
269.841	141
270.073	142
270.306	119
270.538	132
270.77	142
271.002	143
271.234	141
271.466	145
271.698	142
271.93	141
272.162	147
272.394	146
272.626	134
272.858	139
273.09	141
273.322	138
273.553	149
273.785	152
274.017	154
274.249	140
274.481	124
274.713	145
274.945	136
275.176	139
275.408	150
275.64	153
275.872	141
276.104	154
276.335	140
276.567	146
276.799	149
277.031	164
277.262	133
277.494	144
277.726	152
277.957	154
278.189	146
278.421	146
278.652	140
278.884	152
279.115	146
279.347	152
279.579	156
279.81	150
280.042	146
280.273	163
280.505	150
280.736	153
280.968	157
281.199	148
281.431	169
281.662	151
281.894	153
282.125	147
282.356	174
282.588	146
282.819	146
283.051	153
283.282	152
283.513	163
283.745	151
283.976	153
284.207	167
284.439	168
284.67	163
284.901	161
285.132	180
285.364	180
285.595	181
285.826	168
286.057	170
286.288	164
286.52	153
286.751	166
286.982	176
287.213	180
287.444	181
287.675	174
287.906	182
288.138	171
288.369	171
288.6	171
288.831	160
289.062	169
289.293	153
289.524	165
289.755	178
289.986	186
290.217	180
290.448	174
290.679	172
290.91	180
291.141	179
291.371	178
291.602	173
291.833	166
292.064	170
292.295	182
292.526	188
292.757	173
292.987	160
293.218	179
293.449	184
293.68	187
293.91	171
294.141	178
294.372	167
294.603	174
294.833	180
295.064	175
295.295	173
295.525	182
295.756	178
295.987	188
296.217	192
296.448	190
296.679	193
296.909	176
297.14	191
297.37	174
297.601	184
297.831	182
298.062	184
298.292	192
298.523	192
298.753	198
298.984	194
299.214	185
299.445	189
299.675	187
299.905	204
300.136	208
300.366	190
300.597	172
300.827	195
301.057	196
301.288	199
301.518	215
301.748	189
301.979	196
302.209	196
302.439	199
302.669	185
302.9	200
303.13	206
303.36	186
303.59	193
303.82	201
304.051	207
304.281	187
304.511	197
304.741	200
304.971	204
305.201	196
305.431	186
305.661	187
305.891	202
306.121	198
306.352	212
306.582	187
306.812	186
307.042	197
307.272	190
307.502	187
307.731	196
307.961	199
308.191	194
308.421	189
308.651	199
308.881	196
309.111	194
309.341	188
309.571	194
309.8	180
310.03	194
310.26	182
310.49	195
310.72	191
310.949	186
311.179	181
311.409	189
311.639	203
311.868	192
312.098	208
312.328	180
312.557	206
312.787	198
313.017	208
313.246	209
313.476	195
313.706	197
313.935	201
314.165	196
314.394	194
314.624	217
314.853	202
315.083	203
315.312	189
315.542	197
315.771	195
316.001	186
316.23	207
316.46	207
316.689	209
316.919	189
317.148	185
317.377	206
317.607	202
317.836	200
318.065	207
318.295	208
318.524	195
318.753	198
318.983	189
319.212	216
319.441	191
319.67	192
319.9	166
320.129	196
320.358	192
320.587	184
320.816	206
321.046	199
321.275	198
321.504	201
321.733	212
321.962	209
322.191	207
322.42	196
322.649	201
322.878	206
323.108	197
323.337	206
323.566	216
323.795	197
324.024	212
324.253	199
324.482	214
324.71	203
324.939	194
325.168	194
325.397	211
325.626	203
325.855	206
326.084	226
326.313	190
326.542	223
326.77	221
326.999	218
327.228	213
327.457	190
327.686	215
327.914	210
328.143	217
328.372	209
328.6	216
328.829	217
329.058	194
329.287	210
329.515	215
329.744	214
329.972	208
330.201	216
330.43	217
330.658	219
330.887	216
331.115	223
331.344	230
331.572	226
331.801	218
332.03	228
332.258	245
332.486	249
332.715	258
332.943	253
333.172	257
333.4	286
333.629	272
333.857	257
334.085	256
334.314	257
334.542	248
334.771	255
334.999	237
335.227	254
335.455	240
335.684	241
335.912	240
336.14	237
336.369	256
336.597	241
336.825	240
337.053	251
337.281	234
337.51	232
337.738	246
337.966	228
338.194	232
338.422	214
338.65	233
338.878	217
339.106	243
339.334	228
339.562	217
339.79	209
340.018	209
340.246	223
340.474	227
340.702	232
340.93	212
341.158	220
341.386	217
341.614	205
341.842	203
342.07	215
342.298	217
342.526	216
342.754	210
342.981	212
343.209	209
343.437	224
343.665	245
343.893	261
344.12	260
344.348	238
344.576	244
344.804	235
345.031	234
345.259	239
345.487	236
345.714	210
345.942	230
346.17	213
346.397	215
346.625	211
346.853	214
347.08	215
347.308	232
347.535	220
347.763	222
347.99	203
348.218	221
348.445	199
348.673	221
348.9	192
349.128	213
349.355	204
349.583	213
349.81	220
350.037	223
350.265	202
350.492	216
350.72	219
350.947	220
351.174	227
351.402	198
351.629	206
351.856	210
352.083	198
352.311	199
352.538	197
352.765	194
352.992	208
353.22	225
353.447	199
353.674	205
353.901	194
354.128	199
354.355	204
354.583	218
354.81	199
355.037	213
355.264	201
355.491	223
355.718	209
355.945	216
356.172	205
356.399	201
356.626	208
356.853	208
357.08	214
357.307	209
357.534	206
357.761	198
357.988	203
358.215	195
358.441	197
358.668	221
358.895	202
359.122	178
359.349	210
359.576	202
359.802	197
360.029	204
360.256	213
360.483	215
360.709	201
360.936	202
361.163	228
361.39	202
361.616	215
361.843	209
362.07	202
362.296	212
362.523	199
362.749	219
362.976	199
363.203	198
363.429	201
363.656	203
363.882	195
364.109	212
364.335	201
364.562	206
364.788	194
365.015	198
365.241	198
365.468	222
365.694	196
365.92	194
366.147	194
366.373	196
366.599	213
366.826	205
367.052	195
367.278	206
367.505	210
367.731	211
367.957	193
368.184	203
368.41	206
368.636	205
368.862	214
369.089	213
369.315	197
369.541	210
369.767	199
369.993	200
370.219	218
370.445	204
370.672	216
370.898	217
371.124	220
371.35	211
371.576	217
371.802	220
372.028	204
372.254	226
372.48	224
372.706	228
372.932	236
373.158	202
373.384	220
373.61	220
373.835	205
374.061	210
374.287	222
374.513	226
374.739	226
374.965	241
375.191	250
375.416	236
375.642	242
375.868	227
376.094	221
376.319	220
376.545	211
376.771	224
376.997	214
377.222	236
377.448	209
377.674	221
377.899	210
378.125	187
378.35	201
378.576	203
378.802	215
379.027	221
379.253	230
379.478	206
379.704	220
379.929	208
380.155	206
380.38	220
380.606	220
380.831	207
381.057	210
381.282	232
381.507	201
381.733	226
381.958	207
382.184	214
382.409	214
382.634	209
382.86	208
383.085	221
383.31	244
383.535	245
383.761	233
383.986	240
384.211	231
384.436	241
384.662	269
384.887	249
385.112	256
385.337	229
385.562	259
385.787	222
386.013	242
386.238	256
386.463	253
386.688	254
386.913	234
387.138	253
387.363	238
387.588	250
387.813	253
388.038	252
388.263	247
388.488	245
388.713	238
388.938	208
389.163	234
389.387	229
389.612	234
389.837	249
390.062	230
390.287	256
390.512	250
390.736	228
390.961	252
391.186	258
391.411	246
391.636	256
391.86	249
392.085	249
392.31	244
392.534	248
392.759	262
392.984	260
393.208	265
393.433	244
393.658	257
393.882	250
394.107	270
394.331	249
394.556	253
394.78	270
395.005	264
395.229	268
395.454	245
395.678	262
395.903	269
396.127	264
396.352	258
396.576	249
396.801	251
397.025	244
397.249	270
397.474	274
397.698	250
397.922	248
398.147	259
398.371	276
398.595	269
398.82	284
399.044	295
399.268	325
399.492	384
399.717	419
399.941	398
400.165	381
400.389	346
400.613	298
400.837	298
401.062	289
401.286	293
401.51	302
401.734	286
401.958	283
402.182	312
402.406	289
402.63	291
402.854	319
403.078	288
403.302	317
403.526	314
403.75	329
403.974	339
404.198	336
404.422	332
404.645	332
404.869	337
405.093	322
405.317	312
405.541	315
405.765	307
405.988	299
406.212	320
406.436	290
406.66	304
406.883	306
407.107	325
407.331	345
407.555	346
407.778	351
408.002	348
408.226	339
408.449	315
408.673	315
408.896	318
409.12	312
409.344	322
409.567	315
409.791	341
410.014	345
410.238	309
410.461	322
410.685	313
410.908	302
411.132	308
411.355	282
411.578	288
411.802	292
412.025	288
412.249	318
412.472	297
412.695	288
412.919	282
413.142	305
413.365	278
413.589	291
413.812	268
414.035	289
414.258	282
414.482	300
414.705	299
414.928	306
415.151	291
415.374	282
415.597	281
415.821	297
416.044	289
416.267	290
416.49	270
416.713	275
416.936	280
417.159	294
417.382	278
417.605	269
417.828	284
418.051	278
418.274	297
418.497	298
418.72	298
418.943	283
419.166	315
419.389	334
419.611	297
419.834	302
420.057	317
420.28	306
420.503	279
420.726	278
420.948	283
421.171	268
421.394	269
421.617	275
421.839	275
422.062	288
422.285	265
422.507	280
422.73	292
422.953	307
423.175	299
423.398	292
423.621	295
423.843	297
424.066	301
424.288	292
424.511	297
424.733	300
424.956	297
425.178	288
425.401	280
425.623	286
425.846	279
426.068	268
426.291	291
426.513	288
426.735	274
426.958	261
427.18	267
427.402	249
427.625	253
427.847	276
428.069	269
428.292	260
428.514	252
428.736	252
428.958	255
429.181	256
429.403	249
429.625	246
429.847	256
430.069	256
430.292	271
430.514	263
430.736	262
430.958	260
431.18	262
431.402	254
431.624	237
431.846	250
432.068	266
432.29	253
432.512	268
432.734	235
432.956	250
433.178	265
433.4	251
433.622	246
433.844	260
434.066	249
434.287	271
434.509	288
434.731	284
434.953	292
435.175	298
435.397	275
435.618	274
435.84	262
436.062	256
436.284	252
436.505	258
436.727	258
436.949	241
437.17	263
437.392	251
437.614	235
437.835	229
438.057	258
438.278	249
438.5	234
438.721	246
438.943	254
439.165	257
439.386	248
439.608	239
439.829	252
440.05	264
440.272	260
440.493	265
440.715	256
440.936	274
441.158	285
441.379	276
441.6	272
441.822	302
442.043	287
442.264	287
442.486	284
442.707	279
442.928	278
443.149	282
443.371	272
443.592	295
443.813	298
444.034	293
444.255	277
444.476	315
444.698	312
444.919	321
445.14	453
445.361	370
445.582	278
445.803	294
446.024	275
446.245	258
446.466	262
446.687	266
446.908	249
447.129	246
447.35	244
447.571	245
447.792	243
448.013	241
448.234	254
448.455	249
448.675	231
448.896	225
449.117	240
449.338	241
449.559	232
449.779	231
450	241
450.221	228
450.442	259
450.662	229
450.883	240
451.104	260
451.324	259
451.545	252
451.766	237
451.986	245
452.207	240
452.428	260
452.648	262
452.869	240
453.089	234
453.31	240
453.53	235
453.751	225
453.971	234
454.192	247
454.412	250
454.633	230
454.853	235
455.073	224
455.294	253
455.514	240
455.734	215
455.955	214
456.175	228
456.395	233
456.616	225
456.836	231
457.056	216
457.276	221
457.497	221
457.717	230
457.937	227
458.157	230
458.377	256
458.598	229
458.818	249
459.038	243
459.258	268
459.478	270
459.698	257
459.918	276
460.138	275
460.358	276
460.578	317
460.798	304
461.018	293
461.238	298
461.458	294
461.678	283
461.898	290
462.118	301
462.338	308
462.558	333
462.777	317
462.997	364
463.217	384
463.437	386
463.657	350
463.876	356
464.096	329
464.316	358
464.536	366
464.755	348
464.975	320
465.195	312
465.414	304
465.634	270
465.854	271
466.073	265
466.293	269
466.512	264
466.732	250
466.951	238
467.171	262
467.391	250
467.61	263
467.829	245
468.049	261
468.268	265
468.488	251
468.707	237
468.927	245
469.146	224
469.365	256
469.585	257
469.804	246
470.023	248
470.243	267
470.462	280
470.681	274
470.901	235
471.12	237
471.339	254
471.558	250
471.777	257
471.997	261
472.216	257
472.435	236
472.654	252
472.873	246
473.092	232
473.311	255
473.53	245
473.749	257
473.968	255
474.187	243
474.406	236
474.625	262
474.844	235
475.063	242
475.282	234
475.501	243
475.72	245
475.939	243
476.158	248
476.377	246
476.596	237
476.814	264
477.033	253
477.252	254
477.471	260
477.69	262
477.908	281
478.127	281
478.346	270
478.564	276
478.783	277
479.002	300
479.22	304
479.439	293
479.658	302
479.876	292
480.095	299
480.313	297
480.532	314
480.751	350
480.969	328
481.188	320
481.406	292
481.624	293
481.843	274
482.061	256
482.28	276
482.498	257
482.717	276
482.935	278
483.153	296
483.372	272
483.59	286
483.808	272
484.027	269
484.245	277
484.463	290
484.681	307
484.9	304
485.118	301
485.336	293
485.554	283
485.772	295
485.99	297
486.209	296
486.427	293
486.645	297
486.863	318
487.081	300
487.299	285
487.517	302
487.735	288
487.953	289
488.171	285
488.389	270
488.607	292
488.825	277
489.043	283
489.261	287
489.479	289
489.696	302
489.914	299
490.132	292
490.35	277
490.568	282
490.786	300
491.003	273
491.221	290
491.439	292
491.657	283
491.874	301
492.092	283
492.31	283
492.527	291
492.745	290
492.963	287
493.18	296
493.398	288
493.615	284
493.833	302
494.05	287
494.268	294
494.485	304
494.703	298
494.92	314
495.138	320
495.355	298
495.573	309
495.79	305
496.008	304
496.225	308
496.442	309
496.66	301
496.877	323
497.094	312
497.312	328
497.529	317
497.746	336
497.963	323
498.181	348
498.398	363
498.615	372
498.832	410
499.049	426
499.267	465
499.484	496
499.701	542
499.918	600
500.135	699
500.352	796
500.569	836
500.786	838
501.003	768
501.22	686
501.437	602
501.654	533
501.871	479
502.088	441
502.305	416
502.522	398
502.739	389
502.956	372
503.172	356
503.389	342
503.606	354
503.823	318
504.04	323
504.256	329
504.473	347
504.69	365
504.907	359
505.123	312
505.34	317
505.557	309
505.773	309
505.99	286
506.207	312
506.423	299
506.64	282
506.856	280
507.073	274
507.289	282
507.506	273
507.722	262
507.939	270
508.155	294
508.372	250
508.588	275
508.805	262
509.021	260
509.238	273
509.454	268
509.67	267
509.887	268
510.103	256
510.319	279
510.536	279
510.752	246
510.968	275
511.184	260
511.401	266
511.617	269
511.833	263
512.049	245
512.265	247
512.481	261
512.698	253
512.914	251
513.13	254
513.346	249
513.562	260
513.778	270
513.994	278
514.21	276
514.426	274
514.642	263
514.858	263
515.074	267
515.29	278
515.506	265
515.721	267
515.937	282
516.153	269
516.369	284
516.585	296
516.801	291
517.016	299
517.232	322
517.448	344
517.664	349
517.879	353
518.095	352
518.311	321
518.527	335
518.742	322
518.958	306
519.173	294
519.389	280
519.605	288
519.82	292
520.036	268
520.251	257
520.467	272
520.682	267
520.898	252
521.113	266
521.329	260
521.544	260
521.76	261
521.975	260
522.19	252
522.406	257
522.621	247
522.836	236
523.052	250
523.267	241
523.482	229
523.698	244
523.913	252
524.128	235
524.343	243
524.559	251
524.774	247
524.989	256
525.204	236
525.419	256
525.634	243
525.849	254
526.064	241
526.28	260
526.495	246
526.71	241
526.925	247
527.14	240
527.355	240
527.57	237
527.785	248
527.999	242
528.214	246
528.429	246
528.644	254
528.859	264
529.074	240
529.289	245
529.503	243
529.718	232
529.933	233
530.148	256
530.363	244
530.577	232
530.792	258
531.007	224
531.221	237
531.436	248
531.651	226
531.865	254
532.08	230
532.295	225
532.509	248
532.724	248
532.938	254
533.153	241
533.367	233
533.582	259
533.796	245
534.011	244
534.225	225
534.44	226
534.654	248
534.868	223
535.083	226
535.297	237
535.511	241
535.726	249
535.94	262
536.154	239
536.369	223
536.583	225
536.797	221
537.011	225
537.225	216
537.44	221
537.654	235
537.868	230
538.082	225
538.296	240
538.51	232
538.724	227
538.938	215
539.153	225
539.367	242
539.581	222
539.795	232
540.009	242
540.222	208
540.436	237
540.65	222
540.864	226
541.078	232
541.292	220
541.506	242
541.72	237
541.934	235
542.147	226
542.361	236
542.575	225
542.789	237
543.002	227
543.216	240
543.43	224
543.644	221
543.857	219
544.071	235
544.285	216
544.498	238
544.712	222
544.925	243
545.139	238
545.352	249
545.566	244
545.779	243
545.993	235
546.206	268
546.42	220
546.633	228
546.847	234
547.06	232
547.274	252
547.487	234
547.7	225
547.914	228
548.127	222
548.34	230
548.554	237
548.767	244
548.98	262
549.193	244
549.407	225
549.62	226
549.833	239
550.046	241
550.259	261
550.473	225
550.686	221
550.899	219
551.112	238
551.325	217
551.538	220
551.751	223
551.964	231
552.177	243
552.39	230
552.603	248
552.816	262
553.029	258
553.242	263
553.455	263
553.667	271
553.88	263
554.093	255
554.306	259
554.519	222
554.732	215
554.944	251
555.157	226
555.37	241
555.583	221
555.795	230
556.008	211
556.221	212
556.433	225
556.646	227
556.859	199
557.071	214
557.284	220
557.496	207
557.709	213
557.921	210
558.134	206
558.346	212
558.559	213
558.771	209
558.984	212
559.196	215
559.409	218
559.621	213
559.833	198
560.046	214
560.258	206
560.47	218
560.683	204
560.895	202
561.107	197
561.32	209
561.532	200
561.744	201
561.956	210
562.168	212
562.381	200
562.593	216
562.805	189
563.017	208
563.229	194
563.441	213
563.653	211
563.865	211
564.077	200
564.289	214
564.501	217
564.713	222
564.925	210
