Data from 0.5MCu(NO3)2.Standard.Lamp.E10.CV._HRD10591_16-04-13-754.txt Node
Date: Mon Jul 22 16:04:13 EDT 2019
User: cochatt
Spectrometer: HR+D1059
Trigger mode: 1
Integration Time (sec): 1.000000E-1
Scans to average: 1
Electric dark correction enabled: true
Nonlinearity correction enabled: false
Boxcar width: 0
XAxis mode: Wavelengths
Number of Pixels in Spectrum: 2048
>>>>>Begin Spectral Data<<<<<
223.165	-16.62
223.4	-16.62
223.635	-16.62
223.869	-24.62
224.104	-22.62
224.338	-5.62
224.573	-25.62
224.808	-14.62
225.042	1.38
225.277	-4.62
225.511	-9.62
225.746	14.38
225.98	10.38
226.215	5.38
226.449	22.38
226.683	5.38
226.918	27.38
227.152	37.38
227.387	51.38
227.621	45.38
227.856	51.38
228.09	47.38
228.324	49.38
228.559	55.38
228.793	45.38
229.027	66.38
229.262	72.38
229.496	70.38
229.73	82.38
229.964	78.38
230.199	70.38
230.433	75.38
230.667	89.38
230.901	76.38
231.136	86.38
231.37	85.38
231.604	87.38
231.838	90.38
232.072	86.38
232.306	77.38
232.541	70.38
232.775	98.38
233.009	83.38
233.243	94.38
233.477	88.38
233.711	91.38
233.945	90.38
234.179	91.38
234.413	82.38
234.647	87.38
234.881	78.38
235.115	85.38
235.349	91.38
235.583	90.38
235.817	89.38
236.051	80.38
236.285	81.38
236.519	72.38
236.753	81.38
236.987	85.38
237.221	93.38
237.455	82.38
237.689	91.38
237.922	90.38
238.156	89.38
238.39	89.38
238.624	93.38
238.858	83.38
239.091	71.38
239.325	95.38
239.559	86.38
239.793	84.38
240.027	94.38
240.26	78.38
240.494	99.38
240.728	96.38
240.961	86.38
241.195	90.38
241.429	99.38
241.662	93.38
241.896	93.38
242.13	81.38
242.363	92.38
242.597	101.38
242.83	102.38
243.064	102.38
243.298	81.38
243.531	88.38
243.765	92.38
243.998	105.38
244.232	84.38
244.465	93.38
244.699	85.38
244.932	93.38
245.166	110.38
245.399	104.38
245.633	85.38
245.866	82.38
246.099	111.38
246.333	96.38
246.566	106.38
246.8	90.38
247.033	106.38
247.266	90.38
247.5	93.38
247.733	105.38
247.966	97.38
248.2	103.38
248.433	91.38
248.666	86.38
248.899	101.38
249.133	96.38
249.366	102.38
249.599	104.38
249.832	104.38
250.066	101.38
250.299	103.38
250.532	100.38
250.765	95.38
250.998	110.38
251.231	89.38
251.465	102.38
251.698	106.38
251.931	104.38
252.164	96.38
252.397	97.38
252.63	106.38
252.863	112.38
253.096	99.38
253.329	114.38
253.562	95.38
253.795	107.38
254.028	98.38
254.261	84.38
254.494	104.38
254.727	97.38
254.96	99.38
255.193	107.38
255.426	105.38
255.659	112.38
255.892	119.38
256.124	113.38
256.357	94.38
256.59	109.38
256.823	110.38
257.056	105.38
257.289	109.38
257.521	115.38
257.754	118.38
257.987	126.38
258.22	105.38
258.452	117.38
258.685	111.38
258.918	111.38
259.151	117.38
259.383	115.38
259.616	114.38
259.849	117.38
260.081	125.38
260.314	113.38
260.547	109.38
260.779	112.38
261.012	106.38
261.244	113.38
261.477	119.38
261.71	113.38
261.942	117.38
262.175	114.38
262.407	106.38
262.64	102.38
262.872	118.38
263.105	115.38
263.337	133.38
263.57	120.38
263.802	113.38
264.035	117.38
264.267	104.38
264.499	99.38
264.732	127.38
264.964	105.38
265.197	125.38
265.429	112.38
265.661	123.38
265.894	115.38
266.126	127.38
266.358	119.38
266.591	125.38
266.823	122.38
267.055	112.38
267.287	133.38
267.52	120.38
267.752	135.38
267.984	102.38
268.216	132.38
268.448	122.38
268.681	121.38
268.913	118.38
269.145	132.38
269.377	137.38
269.609	131.38
269.841	115.38
270.073	130.38
270.306	114.38
270.538	139.38
270.77	121.38
271.002	138.38
271.234	118.38
271.466	133.38
271.698	120.38
271.93	122.38
272.162	137.38
272.394	127.38
272.626	134.38
272.858	138.38
273.09	126.38
273.322	129.38
273.553	139.38
273.785	145.38
274.017	130.38
274.249	129.38
274.481	129.38
274.713	134.38
274.945	138.38
275.176	131.38
275.408	130.38
275.64	139.38
275.872	121.38
276.104	150.38
276.335	127.38
276.567	129.38
276.799	122.38
277.031	144.38
277.262	147.38
277.494	150.38
277.726	127.38
277.957	120.38
278.189	147.38
278.421	142.38
278.652	133.38
278.884	151.38
279.115	137.38
279.347	142.38
279.579	138.38
279.81	135.38
280.042	135.38
280.273	141.38
280.505	144.38
280.736	140.38
280.968	145.38
281.199	143.38
281.431	130.38
281.662	132.38
281.894	138.38
282.125	155.38
282.356	134.38
282.588	133.38
282.819	149.38
283.051	150.38
283.282	161.38
283.513	149.38
283.745	150.38
283.976	157.38
284.207	135.38
284.439	138.38
284.67	145.38
284.901	153.38
285.132	144.38
285.364	121.38
285.595	142.38
285.826	153.38
286.057	162.38
286.288	145.38
286.52	151.38
286.751	161.38
286.982	137.38
287.213	161.38
287.444	154.38
287.675	151.38
287.906	141.38
288.138	147.38
288.369	147.38
288.6	145.38
288.831	157.38
289.062	149.38
289.293	147.38
289.524	153.38
289.755	171.38
289.986	149.38
290.217	163.38
290.448	155.38
290.679	150.38
290.91	169.38
291.141	150.38
291.371	163.38
291.602	165.38
291.833	152.38
292.064	164.38
292.295	163.38
292.526	151.38
292.757	158.38
292.987	146.38
293.218	166.38
293.449	153.38
293.68	149.38
293.91	161.38
294.141	165.38
294.372	161.38
294.603	170.38
294.833	153.38
295.064	176.38
295.295	163.38
295.525	176.38
295.756	159.38
295.987	165.38
296.217	153.38
296.448	159.38
296.679	173.38
296.909	168.38
297.14	164.38
297.37	173.38
297.601	174.38
297.831	156.38
298.062	166.38
298.292	164.38
298.523	174.38
298.753	176.38
298.984	167.38
299.214	164.38
299.445	171.38
299.675	158.38
299.905	173.38
300.136	153.38
300.366	140.38
300.597	170.38
300.827	177.38
301.057	152.38
301.288	182.38
301.518	166.38
301.748	172.38
301.979	187.38
302.209	175.38
302.439	182.38
302.669	165.38
302.9	164.38
303.13	171.38
303.36	173.38
303.59	173.38
303.82	149.38
304.051	178.38
304.281	154.38
304.511	177.38
304.741	171.38
304.971	173.38
305.201	176.38
305.431	171.38
305.661	191.38
305.891	186.38
306.121	173.38
306.352	166.38
306.582	166.38
306.812	161.38
307.042	158.38
307.272	161.38
307.502	152.38
307.731	168.38
307.961	167.38
308.191	177.38
308.421	183.38
308.651	162.38
308.881	154.38
309.111	154.38
309.341	174.38
309.571	170.38
309.8	182.38
310.03	169.38
310.26	168.38
310.49	143.38
310.72	161.38
310.949	174.38
311.179	179.38
311.409	169.38
311.639	165.38
311.868	172.38
312.098	161.38
312.328	165.38
312.557	174.38
312.787	169.38
313.017	186.38
313.246	185.38
313.476	173.38
313.706	183.38
313.935	177.38
314.165	197.38
314.394	156.38
314.624	184.38
314.853	165.38
315.083	177.38
315.312	191.38
315.542	163.38
315.771	185.38
316.001	176.38
316.23	162.38
316.46	169.38
316.689	174.38
316.919	168.38
317.148	187.38
317.377	182.38
317.607	163.38
317.836	175.38
318.065	171.38
318.295	188.38
318.524	183.38
318.753	171.38
318.983	176.38
319.212	190.38
319.441	181.38
319.67	180.38
319.9	163.38
320.129	187.38
320.358	181.38
320.587	163.38
320.816	170.38
321.046	177.38
321.275	175.38
321.504	185.38
321.733	173.38
321.962	166.38
322.191	198.38
322.42	156.38
322.649	175.38
322.878	179.38
323.108	193.38
323.337	165.38
323.566	174.38
323.795	185.38
324.024	174.38
324.253	166.38
324.482	186.38
324.71	184.38
324.939	188.38
325.168	182.38
325.397	162.38
325.626	173.38
325.855	175.38
326.084	179.38
326.313	202.38
326.542	185.38
326.77	197.38
326.999	190.38
327.228	193.38
327.457	182.38
327.686	174.38
327.914	194.38
328.143	170.38
328.372	185.38
328.6	199.38
328.829	185.38
329.058	177.38
329.287	178.38
329.515	159.38
329.744	193.38
329.972	180.38
330.201	180.38
330.43	198.38
330.658	202.38
330.887	188.38
331.115	195.38
331.344	211.38
331.572	200.38
331.801	189.38
332.03	199.38
332.258	218.38
332.486	219.38
332.715	187.38
332.943	223.38
333.172	235.38
333.4	248.38
333.629	228.38
333.857	229.38
334.085	237.38
334.314	225.38
334.542	238.38
334.771	204.38
334.999	208.38
335.227	218.38
335.455	215.38
335.684	214.38
335.912	228.38
336.14	206.38
336.369	206.38
336.597	224.38
336.825	215.38
337.053	222.38
337.281	204.38
337.51	205.38
337.738	198.38
337.966	184.38
338.194	208.38
338.422	209.38
338.65	206.38
338.878	190.38
339.106	209.38
339.334	185.38
339.562	199.38
339.79	205.38
340.018	189.38
340.246	198.38
340.474	188.38
340.702	183.38
340.93	215.38
341.158	203.38
341.386	186.38
341.614	197.38
341.842	202.38
342.07	186.38
342.298	186.38
342.526	192.38
342.754	193.38
342.981	195.38
343.209	209.38
343.437	216.38
343.665	214.38
343.893	219.38
344.12	241.38
344.348	222.38
344.576	199.38
344.804	199.38
345.031	210.38
345.259	200.38
345.487	201.38
345.714	195.38
345.942	197.38
346.17	186.38
346.397	188.38
346.625	197.38
346.853	180.38
347.08	184.38
347.308	178.38
347.535	207.38
347.763	194.38
347.99	186.38
348.218	192.38
348.445	194.38
348.673	177.38
348.9	189.38
349.128	189.38
349.355	166.38
349.583	195.38
349.81	185.38
350.037	182.38
350.265	186.38
350.492	173.38
350.72	185.38
350.947	197.38
351.174	193.38
351.402	177.38
351.629	189.38
351.856	185.38
352.083	181.38
352.311	193.38
352.538	164.38
352.765	186.38
352.992	178.38
353.22	197.38
353.447	185.38
353.674	189.38
353.901	185.38
354.128	166.38
354.355	177.38
354.583	191.38
354.81	186.38
355.037	189.38
355.264	189.38
355.491	186.38
355.718	189.38
355.945	191.38
356.172	179.38
356.399	191.38
356.626	194.38
356.853	169.38
357.08	188.38
357.307	191.38
357.534	178.38
357.761	178.38
357.988	180.38
358.215	193.38
358.441	185.38
358.668	181.38
358.895	182.38
359.122	165.38
359.349	179.38
359.576	179.38
359.802	185.38
360.029	179.38
360.256	193.38
360.483	178.38
360.709	182.38
360.936	179.38
361.163	167.38
361.39	176.38
361.616	181.38
361.843	189.38
362.07	186.38
362.296	202.38
362.523	168.38
362.749	175.38
362.976	175.38
363.203	193.38
363.429	187.38
363.656	193.38
363.882	185.38
364.109	190.38
364.335	184.38
364.562	185.38
364.788	185.38
365.015	175.38
365.241	191.38
365.468	182.38
365.694	179.38
365.92	181.38
366.147	176.38
366.373	183.38
366.599	184.38
366.826	169.38
367.052	187.38
367.278	183.38
367.505	189.38
367.731	186.38
367.957	178.38
368.184	178.38
368.41	177.38
368.636	182.38
368.862	183.38
369.089	193.38
369.315	188.38
369.541	185.38
369.767	202.38
369.993	184.38
370.219	195.38
370.445	190.38
370.672	201.38
370.898	193.38
371.124	193.38
371.35	200.38
371.576	188.38
371.802	194.38
372.028	185.38
372.254	192.38
372.48	182.38
372.706	188.38
372.932	200.38
373.158	221.38
373.384	192.38
373.61	198.38
373.835	198.38
374.061	193.38
374.287	203.38
374.513	194.38
374.739	200.38
374.965	203.38
375.191	204.38
375.416	211.38
375.642	208.38
375.868	213.38
376.094	195.38
376.319	180.38
376.545	205.38
376.771	194.38
376.997	193.38
377.222	204.38
377.448	207.38
377.674	203.38
377.899	195.38
378.125	189.38
378.35	209.38
378.576	181.38
378.802	183.38
379.027	186.38
379.253	185.38
379.478	175.38
379.704	183.38
379.929	207.38
380.155	193.38
380.38	196.38
380.606	184.38
380.831	177.38
381.057	190.38
381.282	196.38
381.507	177.38
381.733	192.38
381.958	182.38
382.184	195.38
382.409	179.38
382.634	201.38
382.86	200.38
383.085	207.38
383.31	208.38
383.535	202.38
383.761	235.38
383.986	212.38
384.211	237.38
384.436	219.38
384.662	215.38
384.887	204.38
385.112	223.38
385.337	213.38
385.562	218.38
385.787	226.38
386.013	234.38
386.238	214.38
386.463	218.38
386.688	212.38
386.913	207.38
387.138	228.38
387.363	214.38
387.588	208.38
387.813	210.38
388.038	219.38
388.263	222.38
388.488	217.38
388.713	208.38
388.938	221.38
389.163	207.38
389.387	221.38
389.612	215.38
389.837	217.38
390.062	212.38
390.287	207.38
390.512	213.38
390.736	210.38
390.961	206.38
391.186	208.38
391.411	224.38
391.636	217.38
391.86	230.38
392.085	226.38
392.31	237.38
392.534	226.38
392.759	241.38
392.984	211.38
393.208	230.38
393.433	228.38
393.658	219.38
393.882	220.38
394.107	226.38
394.331	214.38
394.556	210.38
394.78	244.38
395.005	231.38
395.229	214.38
395.454	238.38
395.678	234.38
395.903	232.38
396.127	229.38
396.352	204.38
396.576	237.38
396.801	213.38
397.025	233.38
397.249	216.38
397.474	263.38
397.698	256.38
397.922	230.38
398.147	217.38
398.371	221.38
398.595	237.38
398.82	255.38
399.044	271.38
399.268	293.38
399.492	320.38
399.717	338.38
399.941	365.38
400.165	322.38
400.389	289.38
400.613	258.38
400.837	276.38
401.062	247.38
401.286	256.38
401.51	257.38
401.734	251.38
401.958	253.38
402.182	256.38
402.406	269.38
402.63	254.38
402.854	271.38
403.078	287.38
403.302	280.38
403.526	267.38
403.75	288.38
403.974	314.38
404.198	303.38
404.422	289.38
404.645	277.38
404.869	276.38
405.093	294.38
405.317	274.38
405.541	272.38
405.765	258.38
405.988	275.38
406.212	254.38
406.436	273.38
406.66	289.38
406.883	282.38
407.107	286.38
407.331	318.38
407.555	315.38
407.778	311.38
408.002	324.38
408.226	294.38
408.449	286.38
408.673	289.38
408.896	274.38
409.12	273.38
409.344	279.38
409.567	285.38
409.791	293.38
410.014	276.38
410.238	288.38
410.461	286.38
410.685	293.38
410.908	273.38
411.132	274.38
411.355	269.38
411.578	256.38
411.802	268.38
412.025	260.38
412.249	262.38
412.472	253.38
412.695	243.38
412.919	261.38
413.142	259.38
413.365	265.38
413.589	275.38
413.812	252.38
414.035	251.38
414.258	237.38
414.482	266.38
414.705	264.38
414.928	271.38
415.151	262.38
415.374	238.38
415.597	265.38
415.821	248.38
416.044	258.38
416.267	239.38
416.49	240.38
416.713	247.38
416.936	251.38
417.159	243.38
417.382	249.38
417.605	268.38
417.828	259.38
418.051	253.38
418.274	231.38
418.497	239.38
418.72	256.38
418.943	246.38
419.166	265.38
419.389	288.38
419.611	280.38
419.834	260.38
420.057	271.38
420.28	244.38
420.503	273.38
420.726	248.38
420.948	238.38
421.171	267.38
421.394	261.38
421.617	269.38
421.839	250.38
422.062	250.38
422.285	233.38
422.507	268.38
422.73	265.38
422.953	258.38
423.175	273.38
423.398	281.38
423.621	278.38
423.843	265.38
424.066	281.38
424.288	283.38
424.511	264.38
424.733	256.38
424.956	253.38
425.178	254.38
425.401	242.38
425.623	245.38
425.846	267.38
426.068	253.38
426.291	240.38
426.513	230.38
426.735	229.38
426.958	237.38
427.18	229.38
427.402	241.38
427.625	240.38
427.847	229.38
428.069	233.38
428.292	228.38
428.514	240.38
428.736	230.38
428.958	239.38
429.181	231.38
429.403	221.38
429.625	222.38
429.847	213.38
430.069	218.38
430.292	231.38
430.514	240.38
430.736	224.38
430.958	232.38
431.18	222.38
431.402	222.38
431.624	211.38
431.846	235.38
432.068	263.38
432.29	228.38
432.512	238.38
432.734	251.38
432.956	202.38
433.178	242.38
433.4	234.38
433.622	243.38
433.844	240.38
434.066	241.38
434.287	240.38
434.509	241.38
434.731	248.38
434.953	263.38
435.175	251.38
435.397	262.38
435.618	236.38
435.84	210.38
436.062	221.38
436.284	223.38
436.505	237.38
436.727	239.38
436.949	218.38
437.17	228.38
437.392	210.38
437.614	238.38
437.835	219.38
438.057	207.38
438.278	226.38
438.5	211.38
438.721	211.38
438.943	211.38
439.165	221.38
439.386	221.38
439.608	230.38
439.829	225.38
440.05	243.38
440.272	237.38
440.493	224.38
440.715	255.38
440.936	243.38
441.158	231.38
441.379	233.38
441.6	255.38
441.822	253.38
442.043	263.38
442.264	257.38
442.486	246.38
442.707	234.38
442.928	263.38
443.149	257.38
443.371	272.38
443.592	243.38
443.813	258.38
444.034	247.38
444.255	282.38
444.476	253.38
444.698	305.38
444.919	302.38
445.14	399.38
445.361	342.38
445.582	275.38
445.803	248.38
446.024	247.38
446.245	247.38
446.466	223.38
446.687	227.38
446.908	228.38
447.129	225.38
447.35	239.38
447.571	227.38
447.792	213.38
448.013	207.38
448.234	217.38
448.455	192.38
448.675	207.38
448.896	215.38
449.117	218.38
449.338	222.38
449.559	221.38
449.779	225.38
450	215.38
450.221	226.38
450.442	203.38
450.662	206.38
450.883	203.38
451.104	227.38
451.324	216.38
451.545	244.38
451.766	209.38
451.986	207.38
452.207	221.38
452.428	224.38
452.648	216.38
452.869	199.38
453.089	219.38
453.31	210.38
453.53	203.38
453.751	199.38
453.971	208.38
454.192	212.38
454.412	213.38
454.633	207.38
454.853	213.38
455.073	190.38
455.294	208.38
455.514	200.38
455.734	224.38
455.955	209.38
456.175	200.38
456.395	218.38
456.616	199.38
456.836	196.38
457.056	203.38
457.276	202.38
457.497	212.38
457.717	185.38
457.937	208.38
458.157	212.38
458.377	224.38
458.598	219.38
458.818	211.38
459.038	214.38
459.258	243.38
459.478	234.38
459.698	237.38
459.918	245.38
460.138	253.38
460.358	248.38
460.578	258.38
460.798	270.38
461.018	273.38
461.238	263.38
461.458	261.38
461.678	251.38
461.898	258.38
462.118	271.38
462.338	273.38
462.558	296.38
462.777	285.38
462.997	313.38
463.217	346.38
463.437	353.38
463.657	323.38
463.876	302.38
464.096	303.38
464.316	313.38
464.536	306.38
464.755	284.38
464.975	280.38
465.195	291.38
465.414	272.38
465.634	243.38
465.854	224.38
466.073	241.38
466.293	240.38
466.512	237.38
466.732	222.38
466.951	234.38
467.171	227.38
467.391	224.38
467.61	217.38
467.829	242.38
468.049	221.38
468.268	219.38
468.488	243.38
468.707	229.38
468.927	222.38
469.146	222.38
469.365	213.38
469.585	233.38
469.804	239.38
470.023	242.38
470.243	245.38
470.462	245.38
470.681	254.38
470.901	243.38
471.12	231.38
471.339	229.38
471.558	237.38
471.777	230.38
471.997	228.38
472.216	221.38
472.435	214.38
472.654	211.38
472.873	222.38
473.092	219.38
473.311	221.38
473.53	209.38
473.749	233.38
473.968	231.38
474.187	211.38
474.406	207.38
474.625	223.38
474.844	223.38
475.063	219.38
475.282	210.38
475.501	218.38
475.72	232.38
475.939	241.38
476.158	234.38
476.377	235.38
476.596	226.38
476.814	228.38
477.033	221.38
477.252	234.38
477.471	219.38
477.69	247.38
477.908	262.38
478.127	237.38
478.346	244.38
478.564	259.38
478.783	256.38
479.002	260.38
479.22	255.38
479.439	264.38
479.658	245.38
479.876	264.38
480.095	260.38
480.313	277.38
480.532	286.38
480.751	289.38
480.969	257.38
481.188	260.38
481.406	260.38
481.624	229.38
481.843	239.38
482.061	249.38
482.28	226.38
482.498	265.38
482.717	245.38
482.935	248.38
483.153	246.38
483.372	247.38
483.59	231.38
483.808	242.38
484.027	239.38
484.245	266.38
484.463	263.38
484.681	271.38
484.9	248.38
485.118	276.38
485.336	279.38
485.554	278.38
485.772	282.38
485.99	256.38
486.209	273.38
486.427	252.38
486.645	274.38
486.863	282.38
487.081	268.38
487.299	261.38
487.517	266.38
487.735	270.38
487.953	256.38
488.171	257.38
488.389	265.38
488.607	256.38
488.825	265.38
489.043	254.38
489.261	265.38
489.479	265.38
489.696	262.38
489.914	263.38
490.132	274.38
490.35	245.38
490.568	257.38
490.786	263.38
491.003	274.38
491.221	262.38
491.439	255.38
491.657	265.38
491.874	261.38
492.092	272.38
492.31	265.38
492.527	265.38
492.745	254.38
492.963	264.38
493.18	267.38
493.398	287.38
493.615	276.38
493.833	277.38
494.05	263.38
494.268	275.38
494.485	262.38
494.703	270.38
494.92	280.38
495.138	266.38
495.355	270.38
495.573	274.38
495.79	272.38
496.008	289.38
496.225	278.38
496.442	281.38
496.66	265.38
496.877	267.38
497.094	281.38
497.312	274.38
497.529	279.38
497.746	297.38
497.963	304.38
498.181	303.38
498.398	331.38
498.615	333.38
498.832	346.38
499.049	392.38
499.267	420.38
499.484	438.38
499.701	490.38
499.918	538.38
500.135	605.38
500.352	699.38
500.569	715.38
500.786	730.38
501.003	680.38
501.22	622.38
501.437	526.38
501.654	464.38
501.871	410.38
502.088	401.38
502.305	372.38
502.522	354.38
502.739	326.38
502.956	334.38
503.172	311.38
503.389	305.38
