Data from 0.5MCu(NO3)2.Standard.Lamp.E10.CV._HRD10591_16-04-56-753.txt Node
Date: Mon Jul 22 16:04:56 EDT 2019
User: cochatt
Spectrometer: HR+D1059
Trigger mode: 1
Integration Time (sec): 1.000000E-1
Scans to average: 1
Electric dark correction enabled: true
Nonlinearity correction enabled: false
Boxcar width: 0
XAxis mode: Wavelengths
Number of Pixels in Spectrum: 2048
>>>>>Begin Spectral Data<<<<<
223.165	-17.31
223.4	-17.31
223.635	-17.31
223.869	-8.31
224.104	-18.31
224.338	-23.31
224.573	-16.31
224.808	-18.31
225.042	-9.31
225.277	-1.31
225.511	4.69
225.746	5.69
225.98	0.69
226.215	1.69
226.449	10.69
226.683	23.69
226.918	34.69
227.152	30.69
227.387	26.69
227.621	29.69
227.856	39.69
228.09	37.69
228.324	55.69
228.559	44.69
228.793	62.69
229.027	77.69
229.262	76.69
229.496	83.69
229.73	78.69
229.964	92.69
230.199	73.69
230.433	74.69
230.667	87.69
230.901	91.69
231.136	91.69
231.37	95.69
231.604	83.69
231.838	85.69
232.072	87.69
232.306	81.69
232.541	102.69
232.775	79.69
233.009	92.69
233.243	88.69
233.477	90.69
233.711	99.69
233.945	93.69
234.179	85.69
234.413	93.69
234.647	96.69
234.881	89.69
235.115	104.69
235.349	88.69
235.583	91.69
235.817	80.69
236.051	89.69
236.285	77.69
236.519	85.69
236.753	95.69
236.987	91.69
237.221	89.69
237.455	102.69
237.689	101.69
237.922	87.69
238.156	84.69
238.39	99.69
238.624	99.69
238.858	85.69
239.091	72.69
239.325	94.69
239.559	78.69
239.793	81.69
240.027	84.69
240.26	101.69
240.494	96.69
240.728	103.69
240.961	73.69
241.195	100.69
241.429	89.69
241.662	96.69
241.896	104.69
242.13	104.69
242.363	94.69
242.597	102.69
242.83	90.69
243.064	101.69
243.298	91.69
243.531	98.69
243.765	89.69
243.998	84.69
244.232	105.69
244.465	109.69
244.699	103.69
244.932	95.69
245.166	110.69
245.399	89.69
245.633	82.69
245.866	104.69
246.099	110.69
246.333	110.69
246.566	110.69
246.8	98.69
247.033	110.69
247.266	103.69
247.5	98.69
247.733	100.69
247.966	111.69
248.2	111.69
248.433	100.69
248.666	108.69
248.899	109.69
249.133	93.69
249.366	101.69
249.599	95.69
249.832	114.69
250.066	104.69
250.299	114.69
250.532	95.69
250.765	120.69
250.998	115.69
251.231	106.69
251.465	123.69
251.698	115.69
251.931	118.69
252.164	106.69
252.397	103.69
252.63	108.69
252.863	103.69
253.096	111.69
253.329	118.69
253.562	105.69
253.795	88.69
254.028	111.69
254.261	115.69
254.494	108.69
254.727	105.69
254.96	104.69
255.193	120.69
255.426	117.69
255.659	109.69
255.892	115.69
256.124	124.69
256.357	112.69
256.59	122.69
256.823	101.69
257.056	105.69
257.289	114.69
257.521	124.69
257.754	103.69
257.987	121.69
258.22	125.69
258.452	102.69
258.685	120.69
258.918	120.69
259.151	110.69
259.383	116.69
259.616	108.69
259.849	114.69
260.081	131.69
260.314	119.69
260.547	122.69
260.779	126.69
261.012	125.69
261.244	106.69
261.477	122.69
261.71	108.69
261.942	138.69
262.175	112.69
262.407	114.69
262.64	118.69
262.872	115.69
263.105	132.69
263.337	105.69
263.57	111.69
263.802	122.69
264.035	128.69
264.267	123.69
264.499	128.69
264.732	127.69
264.964	117.69
265.197	124.69
265.429	135.69
265.661	124.69
265.894	130.69
266.126	128.69
266.358	116.69
266.591	117.69
266.823	122.69
267.055	131.69
267.287	118.69
267.52	134.69
267.752	113.69
267.984	124.69
268.216	144.69
268.448	130.69
268.681	129.69
268.913	152.69
269.145	131.69
269.377	135.69
269.609	141.69
269.841	126.69
270.073	128.69
270.306	139.69
270.538	130.69
270.77	127.69
271.002	135.69
271.234	128.69
271.466	128.69
271.698	143.69
271.93	127.69
272.162	140.69
272.394	152.69
272.626	138.69
272.858	124.69
273.09	130.69
273.322	130.69
273.553	142.69
273.785	132.69
274.017	143.69
274.249	121.69
274.481	128.69
274.713	144.69
274.945	133.69
275.176	138.69
275.408	126.69
275.64	132.69
275.872	151.69
276.104	151.69
276.335	151.69
276.567	125.69
276.799	136.69
277.031	137.69
277.262	138.69
277.494	134.69
277.726	133.69
277.957	135.69
278.189	136.69
278.421	141.69
278.652	134.69
278.884	146.69
279.115	143.69
279.347	140.69
279.579	139.69
279.81	148.69
280.042	158.69
280.273	169.69
280.505	147.69
280.736	147.69
280.968	137.69
281.199	150.69
281.431	151.69
281.662	141.69
281.894	136.69
282.125	141.69
282.356	148.69
282.588	146.69
282.819	147.69
283.051	146.69
283.282	143.69
283.513	156.69
283.745	144.69
283.976	149.69
284.207	158.69
284.439	164.69
284.67	157.69
284.901	146.69
285.132	154.69
285.364	149.69
285.595	148.69
285.826	156.69
286.057	162.69
286.288	156.69
286.52	148.69
286.751	133.69
286.982	155.69
287.213	164.69
287.444	157.69
287.675	149.69
287.906	160.69
288.138	171.69
288.369	162.69
288.6	166.69
288.831	157.69
289.062	176.69
289.293	162.69
289.524	163.69
289.755	178.69
289.986	148.69
290.217	150.69
290.448	168.69
290.679	167.69
290.91	158.69
291.141	162.69
291.371	149.69
291.602	171.69
291.833	158.69
292.064	161.69
292.295	166.69
292.526	162.69
292.757	163.69
292.987	178.69
293.218	159.69
293.449	158.69
293.68	167.69
293.91	161.69
294.141	167.69
294.372	175.69
294.603	171.69
294.833	176.69
295.064	180.69
295.295	157.69
295.525	177.69
295.756	170.69
295.987	158.69
296.217	165.69
296.448	170.69
296.679	166.69
296.909	174.69
297.14	182.69
297.37	174.69
297.601	182.69
297.831	182.69
298.062	178.69
298.292	174.69
298.523	161.69
298.753	164.69
298.984	187.69
299.214	166.69
299.445	171.69
299.675	163.69
299.905	173.69
300.136	171.69
300.366	164.69
300.597	182.69
300.827	175.69
301.057	186.69
301.288	178.69
301.518	164.69
301.748	189.69
301.979	183.69
302.209	196.69
302.439	184.69
302.669	163.69
302.9	178.69
303.13	178.69
303.36	174.69
303.59	160.69
303.82	169.69
304.051	176.69
304.281	175.69
304.511	198.69
304.741	174.69
304.971	182.69
305.201	168.69
305.431	186.69
305.661	172.69
305.891	160.69
306.121	188.69
306.352	175.69
306.582	186.69
306.812	170.69
307.042	171.69
307.272	172.69
307.502	183.69
307.731	161.69
307.961	177.69
308.191	190.69
308.421	183.69
308.651	192.69
308.881	187.69
309.111	170.69
309.341	178.69
309.571	178.69
309.8	173.69
310.03	186.69
310.26	174.69
310.49	178.69
310.72	168.69
310.949	189.69
311.179	190.69
311.409	164.69
311.639	173.69
311.868	168.69
312.098	189.69
312.328	172.69
312.557	183.69
312.787	188.69
313.017	167.69
313.246	200.69
313.476	190.69
313.706	185.69
313.935	173.69
314.165	181.69
314.394	175.69
314.624	184.69
314.853	196.69
315.083	183.69
315.312	172.69
315.542	179.69
315.771	189.69
316.001	197.69
316.23	188.69
316.46	174.69
316.689	187.69
316.919	165.69
317.148	173.69
317.377	188.69
317.607	174.69
317.836	188.69
318.065	197.69
318.295	169.69
318.524	168.69
318.753	166.69
318.983	164.69
319.212	178.69
319.441	178.69
319.67	174.69
319.9	175.69
320.129	181.69
320.358	168.69
320.587	186.69
320.816	186.69
321.046	178.69
321.275	201.69
321.504	170.69
321.733	186.69
321.962	184.69
322.191	178.69
322.42	187.69
322.649	171.69
322.878	186.69
323.108	194.69
323.337	193.69
323.566	178.69
323.795	189.69
324.024	194.69
324.253	178.69
324.482	162.69
324.71	187.69
324.939	180.69
325.168	178.69
325.397	198.69
325.626	199.69
325.855	198.69
326.084	196.69
326.313	180.69
326.542	196.69
326.77	192.69
326.999	190.69
327.228	193.69
327.457	191.69
327.686	208.69
327.914	192.69
328.143	192.69
328.372	187.69
328.6	194.69
328.829	178.69
329.058	192.69
329.287	179.69
329.515	180.69
329.744	200.69
329.972	182.69
330.201	199.69
330.43	196.69
330.658	194.69
330.887	204.69
331.115	191.69
331.344	191.69
331.572	228.69
331.801	203.69
332.03	196.69
332.258	222.69
332.486	200.69
332.715	230.69
332.943	225.69
333.172	244.69
333.4	249.69
333.629	242.69
333.857	230.69
334.085	228.69
334.314	220.69
334.542	233.69
334.771	229.69
334.999	225.69
335.227	208.69
335.455	234.69
335.684	232.69
335.912	220.69
336.14	216.69
336.369	218.69
336.597	218.69
336.825	225.69
337.053	219.69
337.281	219.69
337.51	205.69
337.738	222.69
337.966	201.69
338.194	197.69
338.422	219.69
338.65	211.69
338.878	199.69
339.106	202.69
339.334	204.69
339.562	216.69
339.79	215.69
340.018	188.69
340.246	194.69
340.474	196.69
340.702	197.69
340.93	186.69
341.158	213.69
341.386	198.69
341.614	192.69
341.842	196.69
342.07	186.69
342.298	204.69
342.526	198.69
342.754	188.69
342.981	198.69
343.209	198.69
343.437	206.69
343.665	222.69
343.893	234.69
344.12	239.69
344.348	222.69
344.576	222.69
344.804	200.69
345.031	200.69
345.259	194.69
345.487	202.69
345.714	190.69
345.942	185.69
346.17	183.69
346.397	182.69
346.625	202.69
346.853	201.69
347.08	197.69
347.308	199.69
347.535	207.69
347.763	199.69
347.99	199.69
348.218	189.69
348.445	189.69
348.673	187.69
348.9	198.69
349.128	190.69
349.355	180.69
349.583	191.69
349.81	168.69
350.037	185.69
350.265	186.69
350.492	176.69
350.72	190.69
350.947	185.69
351.174	189.69
351.402	193.69
351.629	177.69
351.856	193.69
352.083	180.69
352.311	194.69
352.538	192.69
352.765	192.69
352.992	183.69
353.22	196.69
353.447	191.69
353.674	194.69
353.901	189.69
354.128	170.69
354.355	192.69
354.583	182.69
354.81	187.69
355.037	182.69
355.264	187.69
355.491	205.69
355.718	218.69
355.945	190.69
356.172	194.69
356.399	206.69
356.626	175.69
356.853	196.69
357.08	207.69
357.307	182.69
357.534	178.69
357.761	194.69
357.988	183.69
358.215	178.69
358.441	182.69
358.668	178.69
358.895	176.69
359.122	195.69
359.349	206.69
359.576	187.69
359.802	185.69
360.029	189.69
360.256	185.69
360.483	178.69
360.709	183.69
360.936	188.69
361.163	188.69
361.39	191.69
361.616	187.69
361.843	171.69
362.07	195.69
362.296	182.69
362.523	191.69
362.749	184.69
362.976	186.69
363.203	189.69
363.429	186.69
363.656	195.69
363.882	176.69
364.109	178.69
364.335	186.69
364.562	186.69
364.788	184.69
365.015	203.69
365.241	187.69
365.468	175.69
365.694	200.69
365.92	191.69
366.147	176.69
366.373	174.69
366.599	194.69
366.826	184.69
367.052	184.69
367.278	187.69
367.505	185.69
367.731	189.69
367.957	196.69
368.184	180.69
368.41	176.69
368.636	194.69
368.862	191.69
369.089	172.69
369.315	204.69
369.541	202.69
369.767	196.69
369.993	201.69
370.219	194.69
370.445	190.69
370.672	197.69
370.898	188.69
371.124	191.69
371.35	196.69
371.576	211.69
371.802	201.69
372.028	207.69
372.254	190.69
372.48	195.69
372.706	199.69
372.932	212.69
373.158	213.69
373.384	205.69
373.61	194.69
373.835	202.69
374.061	195.69
374.287	195.69
374.513	192.69
374.739	200.69
374.965	199.69
375.191	194.69
375.416	217.69
375.642	219.69
375.868	216.69
376.094	204.69
376.319	179.69
376.545	205.69
376.771	210.69
376.997	202.69
377.222	185.69
377.448	207.69
377.674	206.69
377.899	197.69
378.125	184.69
378.35	190.69
378.576	190.69
378.802	183.69
379.027	196.69
379.253	191.69
379.478	196.69
379.704	191.69
379.929	205.69
380.155	188.69
380.38	193.69
380.606	184.69
380.831	202.69
381.057	194.69
381.282	192.69
381.507	178.69
381.733	207.69
381.958	189.69
382.184	198.69
382.409	175.69
382.634	184.69
382.86	201.69
383.085	200.69
383.31	219.69
383.535	209.69
383.761	213.69
383.986	220.69
384.211	214.69
384.436	220.69
384.662	211.69
384.887	204.69
385.112	218.69
385.337	225.69
385.562	219.69
385.787	229.69
386.013	236.69
386.238	209.69
386.463	216.69
386.688	218.69
386.913	224.69
387.138	215.69
387.363	213.69
387.588	205.69
387.813	222.69
388.038	221.69
388.263	221.69
388.488	231.69
388.713	222.69
388.938	213.69
389.163	202.69
389.387	222.69
389.612	200.69
389.837	214.69
390.062	205.69
390.287	210.69
390.512	224.69
390.736	207.69
390.961	220.69
391.186	225.69
391.411	228.69
391.636	219.69
391.86	231.69
392.085	236.69
392.31	230.69
392.534	232.69
392.759	227.69
392.984	227.69
393.208	236.69
393.433	221.69
393.658	233.69
393.882	230.69
394.107	238.69
394.331	221.69
394.556	215.69
394.78	229.69
395.005	229.69
395.229	223.69
395.454	226.69
395.678	216.69
395.903	235.69
396.127	231.69
396.352	230.69
396.576	207.69
396.801	218.69
397.025	236.69
397.249	242.69
397.474	232.69
397.698	240.69
397.922	234.69
398.147	234.69
398.371	232.69
398.595	246.69
398.82	235.69
399.044	262.69
399.268	280.69
399.492	314.69
399.717	356.69
399.941	353.69
400.165	318.69
400.389	280.69
400.613	248.69
400.837	263.69
401.062	233.69
401.286	249.69
401.51	251.69
401.734	247.69
401.958	246.69
402.182	255.69
402.406	252.69
402.63	252.69
402.854	267.69
403.078	276.69
403.302	262.69
403.526	279.69
403.75	281.69
403.974	306.69
404.198	292.69
404.422	280.69
404.645	282.69
404.869	294.69
405.093	285.69
405.317	278.69
405.541	282.69
405.765	284.69
405.988	259.69
406.212	264.69
406.436	261.69
406.66	290.69
406.883	280.69
407.107	282.69
407.331	301.69
407.555	315.69
407.778	299.69
408.002	322.69
408.226	285.69
408.449	278.69
408.673	283.69
408.896	254.69
409.12	265.69
409.344	279.69
409.567	277.69
409.791	272.69
410.014	279.69
410.238	282.69
410.461	271.69
410.685	271.69
410.908	270.69
411.132	269.69
411.355	263.69
411.578	252.69
411.802	239.69
412.025	246.69
412.249	271.69
412.472	258.69
412.695	250.69
412.919	247.69
413.142	247.69
413.365	240.69
413.589	239.69
413.812	253.69
414.035	239.69
414.258	242.69
414.482	250.69
414.705	247.69
414.928	249.69
415.151	256.69
415.374	252.69
415.597	260.69
415.821	257.69
416.044	251.69
416.267	250.69
416.49	239.69
416.713	246.69
416.936	243.69
417.159	247.69
417.382	259.69
417.605	243.69
417.828	246.69
418.051	250.69
418.274	267.69
418.497	254.69
418.72	258.69
418.943	245.69
419.166	267.69
419.389	293.69
419.611	279.69
419.834	269.69
420.057	254.69
420.28	256.69
420.503	261.69
420.726	228.69
420.948	253.69
421.171	268.69
421.394	274.69
421.617	261.69
421.839	242.69
422.062	251.69
422.285	261.69
422.507	264.69
422.73	245.69
422.953	263.69
423.175	254.69
423.398	266.69
423.621	278.69
423.843	269.69
424.066	264.69
424.288	256.69
424.511	254.69
424.733	269.69
424.956	261.69
425.178	244.69
425.401	230.69
425.623	240.69
425.846	238.69
426.068	232.69
426.291	255.69
426.513	228.69
426.735	250.69
426.958	238.69
427.18	223.69
427.402	229.69
427.625	216.69
427.847	239.69
428.069	223.69
428.292	235.69
428.514	234.69
428.736	231.69
428.958	221.69
429.181	233.69
429.403	223.69
429.625	220.69
429.847	224.69
430.069	206.69
430.292	229.69
430.514	229.69
430.736	217.69
430.958	216.69
431.18	231.69
431.402	219.69
431.624	243.69
431.846	238.69
432.068	209.69
432.29	237.69
432.512	226.69
432.734	225.69
432.956	232.69
433.178	227.69
433.4	224.69
433.622	244.69
433.844	231.69
434.066	238.69
434.287	226.69
434.509	243.69
434.731	264.69
434.953	263.69
435.175	260.69
435.397	248.69
435.618	234.69
435.84	239.69
436.062	225.69
436.284	227.69
436.505	220.69
436.727	218.69
436.949	229.69
437.17	214.69
437.392	214.69
437.614	213.69
437.835	203.69
438.057	226.69
438.278	226.69
438.5	220.69
438.721	224.69
438.943	234.69
439.165	215.69
439.386	212.69
439.608	221.69
439.829	218.69
440.05	211.69
440.272	225.69
440.493	234.69
440.715	231.69
440.936	233.69
441.158	247.69
441.379	243.69
441.6	242.69
441.822	249.69
442.043	246.69
442.264	234.69
442.486	227.69
442.707	224.69
442.928	243.69
443.149	235.69
443.371	252.69
443.592	226.69
443.813	266.69
444.034	254.69
444.255	264.69
444.476	266.69
444.698	274.69
444.919	303.69
445.14	413.69
445.361	327.69
445.582	255.69
445.803	227.69
446.024	227.69
446.245	234.69
446.466	230.69
446.687	225.69
446.908	220.69
447.129	236.69
447.35	220.69
447.571	196.69
447.792	218.69
448.013	217.69
448.234	200.69
448.455	223.69
448.675	211.69
448.896	213.69
449.117	211.69
449.338	211.69
449.559	204.69
449.779	221.69
450	234.69
450.221	217.69
450.442	218.69
450.662	235.69
450.883	211.69
451.104	236.69
451.324	220.69
451.545	214.69
451.766	217.69
451.986	193.69
452.207	227.69
452.428	227.69
452.648	208.69
452.869	216.69
453.089	218.69
453.31	223.69
453.53	191.69
453.751	227.69
453.971	210.69
454.192	216.69
454.412	207.69
454.633	191.69
454.853	207.69
455.073	206.69
455.294	198.69
455.514	199.69
455.734	201.69
455.955	219.69
456.175	217.69
456.395	206.69
456.616	203.69
456.836	201.69
457.056	210.69
457.276	198.69
457.497	206.69
457.717	206.69
457.937	220.69
458.157	206.69
458.377	196.69
458.598	188.69
458.818	208.69
459.038	229.69
459.258	245.69
459.478	230.69
459.698	225.69
459.918	256.69
460.138	237.69
460.358	256.69
460.578	258.69
460.798	250.69
461.018	255.69
461.238	257.69
461.458	264.69
461.678	245.69
461.898	267.69
462.118	261.69
462.338	298.69
462.558	283.69
462.777	290.69
462.997	304.69
463.217	351.69
463.437	333.69
463.657	310.69
463.876	292.69
464.096	312.69
464.316	286.69
464.536	295.69
464.755	297.69
464.975	302.69
465.195	276.69
465.414	260.69
465.634	242.69
465.854	255.69
466.073	232.69
466.293	238.69
466.512	218.69
466.732	232.69
466.951	218.69
467.171	230.69
467.391	200.69
467.61	217.69
467.829	212.69
468.049	219.69
468.268	222.69
468.488	218.69
468.707	219.69
468.927	228.69
469.146	238.69
469.365	235.69
469.585	227.69
469.804	231.69
470.023	221.69
470.243	232.69
470.462	226.69
470.681	262.69
470.901	232.69
471.12	235.69
471.339	217.69
471.558	215.69
471.777	233.69
471.997	226.69
472.216	235.69
472.435	219.69
472.654	200.69
472.873	203.69
473.092	220.69
473.311	204.69
473.53	201.69
473.749	199.69
473.968	213.69
474.187	208.69
474.406	211.69
474.625	206.69
474.844	200.69
475.063	222.69
475.282	220.69
475.501	214.69
475.72	209.69
475.939	209.69
476.158	210.69
476.377	214.69
476.596	234.69
476.814	218.69
477.033	240.69
477.252	214.69
477.471	221.69
477.69	237.69
477.908	234.69
478.127	238.69
478.346	262.69
478.564	240.69
478.783	237.69
479.002	252.69
479.22	265.69
479.439	278.69
479.658	273.69
479.876	259.69
480.095	264.69
480.313	259.69
480.532	270.69
480.751	266.69
480.969	277.69
481.188	244.69
481.406	256.69
481.624	253.69
481.843	238.69
482.061	242.69
482.28	237.69
482.498	235.69
482.717	246.69
482.935	231.69
483.153	242.69
483.372	248.69
483.59	242.69
483.808	254.69
484.027	246.69
484.245	260.69
484.463	248.69
484.681	252.69
484.9	260.69
485.118	244.69
485.336	248.69
485.554	252.69
485.772	270.69
485.99	263.69
486.209	256.69
486.427	268.69
486.645	265.69
486.863	252.69
487.081	254.69
487.299	266.69
487.517	269.69
487.735	258.69
487.953	255.69
488.171	258.69
488.389	259.69
488.607	260.69
488.825	255.69
489.043	256.69
489.261	252.69
489.479	268.69
489.696	246.69
489.914	229.69
490.132	229.69
490.35	266.69
490.568	245.69
490.786	251.69
491.003	253.69
491.221	233.69
491.439	258.69
491.657	256.69
491.874	261.69
492.092	264.69
492.31	270.69
492.527	245.69
492.745	257.69
492.963	274.69
493.18	257.69
493.398	273.69
493.615	265.69
493.833	275.69
494.05	262.69
494.268	258.69
494.485	255.69
494.703	263.69
494.92	272.69
495.138	264.69
495.355	277.69
495.573	261.69
495.79	255.69
496.008	272.69
496.225	282.69
496.442	271.69
496.66	290.69
496.877	281.69
497.094	285.69
497.312	279.69
497.529	299.69
497.746	314.69
497.963	297.69
498.181	316.69
498.398	314.69
498.615	326.69
498.832	343.69
499.049	346.69
499.267	376.69
499.484	416.69
499.701	464.69
499.918	516.69
500.135	584.69
500.352	651.69
500.569	687.69
500.786	692.69
501.003	650.69
501.22	584.69
501.437	512.69
501.654	453.69
501.871	416.69
502.088	382.69
502.305	363.69
502.522	360.69
502.739	338.69
502.956	326.69
503.172	307.69
