Data from 0.5MCu(NO3)2.Standard.Lamp.E10.CV._HRD10591_16-05-52-753.txt Node
Date: Mon Jul 22 16:05:52 EDT 2019
User: cochatt
Spectrometer: HR+D1059
Trigger mode: 1
Integration Time (sec): 1.000000E-1
Scans to average: 1
Electric dark correction enabled: true
Nonlinearity correction enabled: false
Boxcar width: 0
XAxis mode: Wavelengths
Number of Pixels in Spectrum: 2048
>>>>>Begin Spectral Data<<<<<
223.165	-20.94
223.4	-20.94
223.635	-20.94
223.869	-25.94
224.104	-35.94
224.338	-28.94
224.573	-13.94
224.808	-2.94
225.042	-9.94
225.277	-4.94
225.511	-2.94
225.746	14.06
225.98	12.06
226.215	16.06
226.449	9.06
226.683	20.06
226.918	32.06
227.152	43.06
227.387	24.06
227.621	35.06
227.856	31.06
228.09	57.06
228.324	48.06
228.559	69.06
228.793	53.06
229.027	82.06
229.262	76.06
229.496	75.06
229.73	76.06
229.964	78.06
230.199	88.06
230.433	85.06
230.667	102.06
230.901	83.06
231.136	93.06
231.37	92.06
231.604	91.06
231.838	86.06
232.072	96.06
232.306	97.06
232.541	98.06
232.775	85.06
233.009	92.06
233.243	100.06
233.477	85.06
233.711	92.06
233.945	80.06
234.179	94.06
234.413	101.06
234.647	88.06
234.881	94.06
235.115	100.06
235.349	93.06
235.583	82.06
235.817	97.06
236.051	90.06
236.285	84.06
236.519	91.06
236.753	84.06
236.987	92.06
237.221	109.06
237.455	102.06
237.689	104.06
237.922	103.06
238.156	97.06
238.39	99.06
238.624	100.06
238.858	100.06
239.091	113.06
239.325	107.06
239.559	96.06
239.793	96.06
240.027	106.06
240.26	97.06
240.494	94.06
240.728	111.06
240.961	95.06
241.195	85.06
241.429	96.06
241.662	107.06
241.896	89.06
242.13	99.06
242.363	91.06
242.597	99.06
242.83	106.06
243.064	110.06
243.298	94.06
243.531	102.06
243.765	108.06
243.998	95.06
244.232	110.06
244.465	89.06
244.699	92.06
244.932	120.06
245.166	103.06
245.399	97.06
245.633	108.06
245.866	101.06
246.099	120.06
246.333	122.06
246.566	119.06
246.8	112.06
247.033	111.06
247.266	123.06
247.5	116.06
247.733	99.06
247.966	109.06
248.2	107.06
248.433	117.06
248.666	125.06
248.899	127.06
249.133	123.06
249.366	112.06
249.599	108.06
249.832	89.06
250.066	125.06
250.299	125.06
250.532	124.06
250.765	115.06
250.998	123.06
251.231	114.06
251.465	124.06
251.698	116.06
251.931	121.06
252.164	128.06
252.397	124.06
252.63	124.06
252.863	115.06
253.096	123.06
253.329	130.06
253.562	122.06
253.795	127.06
254.028	134.06
254.261	128.06
254.494	125.06
254.727	119.06
254.96	131.06
255.193	127.06
255.426	130.06
255.659	125.06
255.892	144.06
256.124	139.06
256.357	136.06
256.59	148.06
256.823	144.06
257.056	135.06
257.289	136.06
257.521	142.06
257.754	127.06
257.987	116.06
258.22	132.06
258.452	133.06
258.685	130.06
258.918	131.06
259.151	119.06
259.383	141.06
259.616	112.06
259.849	133.06
260.081	141.06
260.314	127.06
260.547	136.06
260.779	115.06
261.012	123.06
261.244	136.06
261.477	137.06
261.71	126.06
261.942	128.06
262.175	135.06
262.407	132.06
262.64	140.06
262.872	131.06
263.105	142.06
263.337	135.06
263.57	145.06
263.802	132.06
264.035	120.06
264.267	125.06
264.499	150.06
264.732	133.06
264.964	141.06
265.197	151.06
265.429	146.06
265.661	143.06
265.894	138.06
266.126	147.06
266.358	137.06
266.591	141.06
266.823	148.06
267.055	164.06
267.287	141.06
267.52	139.06
267.752	139.06
267.984	159.06
268.216	155.06
268.448	146.06
268.681	155.06
268.913	150.06
269.145	110.06
269.377	143.06
269.609	148.06
269.841	145.06
270.073	149.06
270.306	158.06
270.538	145.06
270.77	168.06
271.002	161.06
271.234	152.06
271.466	150.06
271.698	149.06
271.93	160.06
272.162	150.06
272.394	164.06
272.626	157.06
272.858	145.06
273.09	155.06
273.322	139.06
273.553	149.06
273.785	165.06
274.017	159.06
274.249	164.06
274.481	163.06
274.713	156.06
274.945	156.06
275.176	160.06
275.408	159.06
275.64	136.06
275.872	160.06
276.104	168.06
276.335	155.06
276.567	179.06
276.799	166.06
277.031	153.06
277.262	165.06
277.494	164.06
277.726	159.06
277.957	157.06
278.189	185.06
278.421	177.06
278.652	166.06
278.884	169.06
279.115	165.06
279.347	167.06
279.579	167.06
279.81	184.06
280.042	167.06
280.273	168.06
280.505	169.06
280.736	180.06
280.968	174.06
281.199	179.06
281.431	171.06
281.662	176.06
281.894	188.06
282.125	197.06
282.356	177.06
282.588	187.06
282.819	201.06
283.051	177.06
283.282	177.06
283.513	178.06
283.745	179.06
283.976	163.06
284.207	168.06
284.439	195.06
284.67	166.06
284.901	183.06
285.132	181.06
285.364	199.06
285.595	180.06
285.826	190.06
286.057	190.06
286.288	179.06
286.52	192.06
286.751	191.06
286.982	173.06
287.213	198.06
287.444	191.06
287.675	187.06
287.906	205.06
288.138	203.06
288.369	193.06
288.6	205.06
288.831	199.06
289.062	193.06
289.293	194.06
289.524	197.06
289.755	193.06
289.986	205.06
290.217	193.06
290.448	200.06
290.679	188.06
290.91	195.06
291.141	194.06
291.371	196.06
291.602	191.06
291.833	199.06
292.064	192.06
292.295	187.06
292.526	198.06
292.757	194.06
292.987	180.06
293.218	189.06
293.449	175.06
293.68	195.06
293.91	199.06
294.141	191.06
294.372	206.06
294.603	204.06
294.833	199.06
295.064	204.06
295.295	227.06
295.525	199.06
295.756	198.06
295.987	200.06
296.217	196.06
296.448	208.06
296.679	198.06
296.909	192.06
297.14	205.06
297.37	206.06
297.601	207.06
297.831	201.06
298.062	213.06
298.292	214.06
298.523	224.06
298.753	239.06
298.984	225.06
299.214	221.06
299.445	205.06
299.675	211.06
299.905	212.06
300.136	216.06
300.366	207.06
300.597	212.06
300.827	223.06
301.057	220.06
301.288	233.06
301.518	235.06
301.748	224.06
301.979	234.06
302.209	218.06
302.439	200.06
302.669	217.06
302.9	216.06
303.13	239.06
303.36	207.06
303.59	211.06
303.82	206.06
304.051	212.06
304.281	235.06
304.511	223.06
304.741	220.06
304.971	213.06
305.201	216.06
305.431	244.06
305.661	229.06
305.891	197.06
306.121	219.06
306.352	226.06
306.582	208.06
306.812	212.06
307.042	208.06
307.272	209.06
307.502	206.06
307.731	222.06
307.961	207.06
308.191	200.06
308.421	209.06
308.651	212.06
308.881	217.06
309.111	209.06
309.341	215.06
309.571	227.06
309.8	223.06
310.03	210.06
310.26	209.06
310.49	207.06
310.72	215.06
310.949	221.06
311.179	218.06
311.409	223.06
311.639	213.06
311.868	222.06
312.098	210.06
312.328	234.06
312.557	226.06
312.787	231.06
313.017	224.06
313.246	235.06
313.476	219.06
313.706	222.06
313.935	234.06
314.165	226.06
314.394	243.06
314.624	225.06
314.853	232.06
315.083	236.06
315.312	220.06
315.542	230.06
315.771	221.06
316.001	234.06
316.23	235.06
316.46	215.06
316.689	228.06
316.919	236.06
317.148	227.06
317.377	243.06
317.607	228.06
317.836	226.06
318.065	225.06
318.295	232.06
318.524	231.06
318.753	224.06
318.983	221.06
319.212	213.06
319.441	233.06
319.67	226.06
319.9	226.06
320.129	232.06
320.358	234.06
320.587	224.06
320.816	237.06
321.046	229.06
321.275	226.06
321.504	227.06
321.733	224.06
321.962	227.06
322.191	235.06
322.42	208.06
322.649	221.06
322.878	232.06
323.108	215.06
323.337	214.06
323.566	231.06
323.795	231.06
324.024	227.06
324.253	229.06
324.482	241.06
324.71	232.06
324.939	227.06
325.168	241.06
325.397	213.06
325.626	228.06
325.855	244.06
326.084	246.06
326.313	238.06
326.542	247.06
326.77	260.06
326.999	241.06
327.228	236.06
327.457	235.06
327.686	257.06
327.914	246.06
328.143	239.06
328.372	233.06
328.6	246.06
328.829	246.06
329.058	223.06
329.287	235.06
329.515	239.06
329.744	237.06
329.972	256.06
330.201	249.06
330.43	240.06
330.658	255.06
330.887	238.06
331.115	243.06
331.344	271.06
331.572	268.06
331.801	241.06
332.03	256.06
332.258	267.06
332.486	271.06
332.715	288.06
332.943	285.06
333.172	311.06
333.4	295.06
333.629	302.06
333.857	318.06
334.085	303.06
334.314	297.06
334.542	308.06
334.771	292.06
334.999	277.06
335.227	297.06
335.455	271.06
335.684	274.06
335.912	291.06
336.14	278.06
336.369	286.06
336.597	289.06
336.825	287.06
337.053	296.06
337.281	281.06
337.51	270.06
337.738	276.06
337.966	274.06
338.194	251.06
338.422	258.06
338.65	243.06
338.878	264.06
339.106	246.06
339.334	272.06
339.562	250.06
339.79	252.06
340.018	235.06
340.246	243.06
340.474	246.06
340.702	247.06
340.93	251.06
341.158	247.06
341.386	254.06
341.614	249.06
341.842	241.06
342.07	250.06
342.298	247.06
342.526	248.06
342.754	248.06
342.981	265.06
343.209	257.06
343.437	244.06
343.665	266.06
343.893	277.06
344.12	299.06
344.348	276.06
344.576	267.06
344.804	274.06
345.031	266.06
345.259	255.06
345.487	249.06
345.714	257.06
345.942	236.06
346.17	254.06
346.397	249.06
346.625	249.06
346.853	233.06
347.08	208.06
347.308	243.06
347.535	252.06
347.763	277.06
347.99	264.06
348.218	249.06
348.445	240.06
348.673	240.06
348.9	236.06
349.128	227.06
349.355	229.06
349.583	226.06
349.81	218.06
350.037	240.06
350.265	231.06
350.492	230.06
350.72	219.06
350.947	244.06
351.174	240.06
351.402	230.06
351.629	239.06
351.856	238.06
352.083	226.06
352.311	220.06
352.538	224.06
352.765	240.06
352.992	235.06
353.22	240.06
353.447	225.06
353.674	234.06
353.901	237.06
354.128	229.06
354.355	224.06
354.583	235.06
354.81	234.06
355.037	223.06
355.264	236.06
355.491	225.06
355.718	218.06
355.945	231.06
356.172	243.06
356.399	238.06
356.626	238.06
356.853	220.06
357.08	254.06
357.307	228.06
357.534	243.06
357.761	221.06
357.988	235.06
358.215	246.06
358.441	239.06
358.668	220.06
358.895	231.06
359.122	224.06
359.349	218.06
359.576	233.06
359.802	225.06
360.029	225.06
360.256	232.06
360.483	223.06
360.709	230.06
360.936	239.06
361.163	243.06
361.39	239.06
361.616	237.06
361.843	237.06
362.07	224.06
362.296	235.06
362.523	238.06
362.749	240.06
362.976	230.06
363.203	234.06
363.429	232.06
363.656	231.06
363.882	216.06
364.109	243.06
364.335	220.06
364.562	245.06
364.788	219.06
365.015	228.06
365.241	238.06
365.468	244.06
365.694	227.06
365.92	246.06
366.147	238.06
366.373	248.06
366.599	228.06
366.826	224.06
367.052	227.06
367.278	232.06
367.505	223.06
367.731	246.06
367.957	236.06
368.184	246.06
368.41	228.06
368.636	244.06
368.862	234.06
369.089	237.06
369.315	235.06
369.541	234.06
369.767	253.06
369.993	234.06
370.219	231.06
370.445	248.06
370.672	244.06
370.898	235.06
371.124	245.06
371.35	260.06
371.576	248.06
371.802	247.06
372.028	239.06
372.254	237.06
372.48	249.06
372.706	257.06
372.932	228.06
373.158	239.06
373.384	256.06
373.61	243.06
373.835	236.06
374.061	250.06
374.287	271.06
374.513	237.06
374.739	249.06
374.965	281.06
375.191	260.06
375.416	270.06
375.642	250.06
375.868	269.06
376.094	270.06
376.319	254.06
376.545	248.06
376.771	260.06
376.997	258.06
377.222	266.06
377.448	265.06
377.674	239.06
377.899	251.06
378.125	221.06
378.35	243.06
378.576	239.06
378.802	226.06
379.027	268.06
379.253	248.06
379.478	254.06
379.704	243.06
379.929	239.06
380.155	238.06
380.38	243.06
380.606	245.06
380.831	234.06
381.057	247.06
381.282	235.06
381.507	229.06
381.733	247.06
381.958	225.06
382.184	263.06
382.409	241.06
382.634	243.06
382.86	253.06
383.085	280.06
383.31	265.06
383.535	264.06
383.761	244.06
383.986	252.06
384.211	255.06
384.436	280.06
384.662	279.06
384.887	295.06
385.112	276.06
385.337	286.06
385.562	289.06
385.787	280.06
386.013	296.06
386.238	285.06
386.463	282.06
386.688	287.06
386.913	271.06
387.138	283.06
387.363	302.06
387.588	269.06
387.813	265.06
388.038	285.06
388.263	281.06
388.488	294.06
388.713	276.06
388.938	270.06
389.163	251.06
389.387	280.06
389.612	285.06
389.837	271.06
390.062	276.06
390.287	269.06
390.512	265.06
390.736	278.06
390.961	279.06
391.186	284.06
391.411	280.06
391.636	286.06
391.86	295.06
392.085	302.06
392.31	319.06
392.534	302.06
392.759	296.06
392.984	309.06
393.208	294.06
393.433	284.06
393.658	290.06
393.882	305.06
394.107	300.06
394.331	291.06
394.556	300.06
394.78	304.06
395.005	296.06
395.229	286.06
395.454	313.06
395.678	307.06
395.903	298.06
396.127	285.06
396.352	291.06
396.576	289.06
396.801	273.06
397.025	296.06
397.249	295.06
397.474	295.06
397.698	296.06
397.922	287.06
398.147	304.06
398.371	296.06
398.595	310.06
398.82	308.06
399.044	363.06
399.268	387.06
399.492	452.06
399.717	484.06
399.941	485.06
400.165	396.06
400.389	380.06
400.613	351.06
400.837	342.06
401.062	335.06
401.286	333.06
401.51	325.06
401.734	333.06
401.958	325.06
402.182	333.06
402.406	345.06
402.63	356.06
402.854	349.06
403.078	343.06
403.302	379.06
403.526	367.06
403.75	377.06
403.974	385.06
404.198	379.06
404.422	379.06
404.645	382.06
404.869	357.06
405.093	378.06
405.317	347.06
405.541	345.06
405.765	341.06
405.988	359.06
406.212	366.06
406.436	359.06
406.66	350.06
406.883	366.06
407.107	388.06
407.331	387.06
407.555	433.06
407.778	409.06
408.002	403.06
408.226	397.06
408.449	382.06
408.673	354.06
408.896	361.06
409.12	364.06
409.344	361.06
409.567	369.06
409.791	372.06
410.014	369.06
410.238	373.06
410.461	371.06
410.685	347.06
410.908	346.06
411.132	345.06
411.355	346.06
411.578	352.06
411.802	345.06
412.025	327.06
412.249	329.06
412.472	338.06
412.695	341.06
412.919	321.06
413.142	324.06
413.365	335.06
413.589	323.06
413.812	336.06
414.035	324.06
414.258	331.06
414.482	327.06
414.705	325.06
414.928	333.06
415.151	328.06
415.374	336.06
415.597	345.06
415.821	320.06
416.044	313.06
416.267	322.06
416.49	320.06
416.713	328.06
416.936	325.06
417.159	320.06
417.382	329.06
417.605	328.06
417.828	325.06
418.051	336.06
418.274	321.06
418.497	327.06
418.72	326.06
418.943	334.06
419.166	368.06
419.389	375.06
419.611	381.06
419.834	337.06
420.057	333.06
420.28	328.06
420.503	305.06
420.726	331.06
420.948	339.06
421.171	329.06
421.394	321.06
421.617	319.06
421.839	324.06
422.062	323.06
422.285	325.06
422.507	329.06
422.73	348.06
422.953	341.06
423.175	347.06
423.398	346.06
423.621	344.06
423.843	337.06
424.066	345.06
424.288	340.06
424.511	348.06
424.733	331.06
424.956	316.06
425.178	326.06
425.401	317.06
425.623	316.06
425.846	332.06
426.068	321.06
426.291	309.06
426.513	298.06
426.735	323.06
426.958	301.06
427.18	323.06
427.402	303.06
427.625	308.06
427.847	304.06
428.069	301.06
428.292	312.06
428.514	292.06
428.736	299.06
428.958	285.06
429.181	286.06
429.403	292.06
429.625	284.06
429.847	284.06
430.069	284.06
430.292	298.06
430.514	293.06
430.736	294.06
430.958	303.06
431.18	286.06
431.402	297.06
431.624	292.06
431.846	312.06
432.068	299.06
432.29	290.06
432.512	297.06
432.734	299.06
432.956	292.06
433.178	286.06
433.4	281.06
433.622	296.06
433.844	272.06
434.066	292.06
434.287	297.06
434.509	308.06
434.731	327.06
434.953	327.06
435.175	321.06
435.397	328.06
435.618	312.06
435.84	302.06
436.062	311.06
436.284	286.06
436.505	275.06
436.727	288.06
436.949	305.06
437.17	293.06
437.392	294.06
437.614	293.06
437.835	273.06
438.057	279.06
438.278	294.06
438.5	280.06
438.721	259.06
438.943	280.06
439.165	283.06
439.386	304.06
439.608	288.06
439.829	294.06
440.05	294.06
440.272	287.06
440.493	279.06
440.715	294.06
440.936	302.06
441.158	305.06
441.379	317.06
441.6	318.06
441.822	355.06
442.043	321.06
442.264	312.06
442.486	318.06
442.707	323.06
442.928	332.06
443.149	320.06
443.371	327.06
443.592	332.06
443.813	332.06
444.034	337.06
444.255	330.06
444.476	355.06
444.698	358.06
444.919	377.06
445.14	442.06
445.361	373.06
445.582	337.06
445.803	307.06
446.024	296.06
446.245	300.06
446.466	298.06
446.687	293.06
446.908	302.06
447.129	291.06
447.35	296.06
447.571	277.06
447.792	272.06
448.013	298.06
448.234	261.06
448.455	262.06
448.675	277.06
448.896	271.06
449.117	260.06
449.338	276.06
449.559	274.06
449.779	269.06
450	271.06
450.221	279.06
450.442	288.06
450.662	279.06
450.883	284.06
451.104	296.06
451.324	279.06
451.545	279.06
451.766	289.06
451.986	281.06
452.207	297.06
452.428	269.06
452.648	277.06
452.869	271.06
453.089	266.06
453.31	265.06
453.53	275.06
453.751	266.06
453.971	266.06
454.192	270.06
454.412	266.06
454.633	263.06
454.853	261.06
455.073	278.06
455.294	252.06
455.514	267.06
455.734	240.06
455.955	259.06
456.175	259.06
456.395	260.06
456.616	245.06
456.836	262.06
457.056	260.06
457.276	249.06
457.497	281.06
457.717	253.06
457.937	248.06
458.157	270.06
458.377	267.06
458.598	260.06
458.818	292.06
459.038	288.06
459.258	284.06
459.478	286.06
459.698	323.06
459.918	313.06
460.138	310.06
460.358	335.06
460.578	346.06
460.798	337.06
461.018	335.06
461.238	325.06
461.458	325.06
461.678	327.06
461.898	336.06
462.118	331.06
462.338	342.06
462.558	378.06
462.777	369.06
462.997	407.06
463.217	455.06
463.437	436.06
463.657	420.06
463.876	377.06
464.096	376.06
464.316	393.06
464.536	392.06
464.755	393.06
464.975	367.06
465.195	362.06
465.414	335.06
465.634	317.06
465.854	301.06
466.073	324.06
466.293	313.06
466.512	304.06
466.732	295.06
466.951	292.06
467.171	287.06
467.391	304.06
467.61	287.06
467.829	303.06
468.049	310.06
468.268	294.06
468.488	272.06
468.707	266.06
468.927	275.06
469.146	261.06
469.365	280.06
469.585	287.06
469.804	263.06
470.023	291.06
470.243	291.06
470.462	299.06
470.681	313.06
470.901	291.06
471.12	295.06
471.339	284.06
471.558	307.06
471.777	294.06
471.997	291.06
472.216	290.06
472.435	282.06
472.654	280.06
472.873	279.06
473.092	285.06
473.311	273.06
473.53	280.06
473.749	274.06
473.968	278.06
474.187	271.06
474.406	265.06
474.625	277.06
474.844	275.06
475.063	273.06
475.282	268.06
475.501	272.06
475.72	261.06
475.939	283.06
476.158	291.06
476.377	281.06
476.596	274.06
476.814	277.06
477.033	263.06
477.252	313.06
477.471	307.06
477.69	317.06
477.908	302.06
478.127	323.06
478.346	319.06
478.564	324.06
478.783	329.06
479.002	344.06
479.22	347.06
479.439	324.06
479.658	324.06
479.876	311.06
480.095	332.06
480.313	340.06
480.532	361.06
480.751	355.06
480.969	347.06
481.188	330.06
481.406	341.06
481.624	334.06
481.843	301.06
482.061	323.06
482.28	305.06
482.498	313.06
482.717	331.06
482.935	324.06
483.153	312.06
483.372	308.06
483.59	302.06
483.808	310.06
484.027	320.06
484.245	324.06
484.463	310.06
484.681	345.06
484.9	341.06
485.118	320.06
485.336	340.06
485.554	330.06
485.772	332.06
485.99	342.06
486.209	351.06
486.427	358.06
486.645	335.06
486.863	346.06
487.081	340.06
487.299	332.06
487.517	316.06
487.735	330.06
487.953	334.06
488.171	327.06
488.389	320.06
488.607	331.06
488.825	319.06
489.043	330.06
489.261	360.06
489.479	334.06
489.696	339.06
489.914	331.06
490.132	330.06
490.35	306.06
490.568	315.06
490.786	348.06
491.003	337.06
491.221	344.06
491.439	331.06
491.657	339.06
491.874	354.06
492.092	340.06
492.31	326.06
492.527	334.06
492.745	350.06
492.963	344.06
493.18	325.06
493.398	350.06
493.615	345.06
493.833	345.06
494.05	345.06
494.268	352.06
494.485	349.06
494.703	348.06
494.92	340.06
495.138	326.06
495.355	330.06
495.573	347.06
495.79	347.06
496.008	343.06
496.225	333.06
496.442	368.06
496.66	348.06
496.877	356.06
497.094	366.06
497.312	382.06
497.529	367.06
497.746	371.06
497.963	391.06
498.181	393.06
498.398	409.06
498.615	449.06
498.832	462.06
499.049	480.06
499.267	529.06
499.484	569.06
499.701	639.06
499.918	707.06
500.135	812.06
500.352	933.06
500.569	987.06
500.786	973.06
501.003	878.06
501.22	793.06
501.437	699.06
501.654	621.06
501.871	569.06
502.088	521.06
502.305	494.06
502.522	455.06
502.739	433.06
502.956	406.06
