Data from 0.5MCu(NO3)2.Standard.Lamp.E10.CV._HRD10591_16-04-43-753.txt Node
Date: Mon Jul 22 16:04:43 EDT 2019
User: cochatt
Spectrometer: HR+D1059
Trigger mode: 1
Integration Time (sec): 1.000000E-1
Scans to average: 1
Electric dark correction enabled: true
Nonlinearity correction enabled: false
Boxcar width: 0
XAxis mode: Wavelengths
Number of Pixels in Spectrum: 2048
>>>>>Begin Spectral Data<<<<<
223.165	-19.69
223.4	-19.69
223.635	-19.69
223.869	-10.69
224.104	-21.69
224.338	1.31
224.573	-13.69
224.808	-7.69
225.042	-5.69
225.277	0.31
225.511	-18.69
225.746	2.31
225.98	-7.69
226.215	15.31
226.449	15.31
226.683	18.31
226.918	22.31
227.152	30.31
227.387	35.31
227.621	47.31
227.856	54.31
228.09	52.31
228.324	35.31
228.559	67.31
228.793	63.31
229.027	66.31
229.262	67.31
229.496	69.31
229.73	84.31
229.964	88.31
230.199	86.31
230.433	94.31
230.667	98.31
230.901	88.31
231.136	89.31
231.37	82.31
231.604	91.31
231.838	90.31
232.072	85.31
232.306	88.31
232.541	102.31
232.775	95.31
233.009	93.31
233.243	93.31
233.477	102.31
233.711	76.31
233.945	87.31
234.179	103.31
234.413	93.31
234.647	97.31
234.881	99.31
235.115	93.31
235.349	82.31
235.583	92.31
235.817	95.31
236.051	96.31
236.285	79.31
236.519	83.31
236.753	98.31
236.987	92.31
237.221	88.31
237.455	84.31
237.689	96.31
237.922	89.31
238.156	95.31
238.39	102.31
238.624	89.31
238.858	94.31
239.091	117.31
239.325	99.31
239.559	109.31
239.793	98.31
240.027	104.31
240.26	99.31
240.494	100.31
240.728	97.31
240.961	97.31
241.195	100.31
241.429	101.31
241.662	90.31
241.896	95.31
242.13	97.31
242.363	99.31
242.597	93.31
242.83	92.31
243.064	94.31
243.298	95.31
243.531	101.31
243.765	100.31
243.998	102.31
244.232	111.31
244.465	92.31
244.699	107.31
244.932	98.31
245.166	94.31
245.399	105.31
245.633	87.31
245.866	108.31
246.099	106.31
246.333	90.31
246.566	102.31
246.8	99.31
247.033	97.31
247.266	113.31
247.5	108.31
247.733	113.31
247.966	90.31
248.2	101.31
248.433	101.31
248.666	102.31
248.899	108.31
249.133	102.31
249.366	104.31
249.599	108.31
249.832	108.31
250.066	121.31
250.299	103.31
250.532	115.31
250.765	103.31
250.998	106.31
251.231	118.31
251.465	117.31
251.698	107.31
251.931	117.31
252.164	107.31
252.397	121.31
252.63	113.31
252.863	98.31
253.096	127.31
253.329	117.31
253.562	121.31
253.795	112.31
254.028	121.31
254.261	113.31
254.494	110.31
254.727	107.31
254.96	109.31
255.193	110.31
255.426	110.31
255.659	122.31
255.892	124.31
256.124	109.31
256.357	111.31
256.59	106.31
256.823	108.31
257.056	119.31
257.289	120.31
257.521	117.31
257.754	116.31
257.987	114.31
258.22	130.31
258.452	117.31
258.685	122.31
258.918	131.31
259.151	130.31
259.383	130.31
259.616	118.31
259.849	121.31
260.081	128.31
260.314	129.31
260.547	117.31
260.779	125.31
261.012	115.31
261.244	121.31
261.477	150.31
261.71	150.31
261.942	116.31
262.175	125.31
262.407	124.31
262.64	121.31
262.872	132.31
263.105	134.31
263.337	132.31
263.57	117.31
263.802	124.31
264.035	138.31
264.267	141.31
264.499	121.31
264.732	125.31
264.964	143.31
265.197	134.31
265.429	134.31
265.661	134.31
265.894	130.31
266.126	130.31
266.358	136.31
266.591	152.31
266.823	145.31
267.055	129.31
267.287	121.31
267.52	142.31
267.752	142.31
267.984	133.31
268.216	145.31
268.448	138.31
268.681	135.31
268.913	135.31
269.145	134.31
269.377	136.31
269.609	135.31
269.841	143.31
270.073	126.31
270.306	139.31
270.538	142.31
270.77	142.31
271.002	130.31
271.234	150.31
271.466	160.31
271.698	142.31
271.93	129.31
272.162	144.31
272.394	149.31
272.626	146.31
272.858	145.31
273.09	156.31
273.322	158.31
273.553	143.31
273.785	161.31
274.017	144.31
274.249	138.31
274.481	143.31
274.713	146.31
274.945	149.31
275.176	134.31
275.408	153.31
275.64	149.31
275.872	141.31
276.104	144.31
276.335	156.31
276.567	141.31
276.799	148.31
277.031	151.31
277.262	147.31
277.494	164.31
277.726	156.31
277.957	142.31
278.189	152.31
278.421	144.31
278.652	152.31
278.884	164.31
279.115	153.31
279.347	155.31
279.579	163.31
279.81	158.31
280.042	156.31
280.273	158.31
280.505	165.31
280.736	159.31
280.968	157.31
281.199	156.31
281.431	149.31
281.662	163.31
281.894	159.31
282.125	143.31
282.356	174.31
282.588	171.31
282.819	165.31
283.051	164.31
283.282	179.31
283.513	155.31
283.745	170.31
283.976	179.31
284.207	167.31
284.439	158.31
284.67	164.31
284.901	181.31
285.132	164.31
285.364	165.31
285.595	159.31
285.826	167.31
286.057	179.31
286.288	173.31
286.52	163.31
286.751	167.31
286.982	163.31
287.213	169.31
287.444	161.31
287.675	180.31
287.906	174.31
288.138	167.31
288.369	189.31
288.6	177.31
288.831	173.31
289.062	163.31
289.293	183.31
289.524	178.31
289.755	161.31
289.986	170.31
290.217	185.31
290.448	166.31
290.679	170.31
290.91	173.31
291.141	189.31
291.371	165.31
291.602	169.31
291.833	172.31
292.064	181.31
292.295	179.31
292.526	187.31
292.757	188.31
292.987	178.31
293.218	171.31
293.449	169.31
293.68	178.31
293.91	174.31
294.141	171.31
294.372	172.31
294.603	169.31
294.833	200.31
295.064	186.31
295.295	170.31
295.525	171.31
295.756	190.31
295.987	179.31
296.217	166.31
296.448	179.31
296.679	193.31
296.909	177.31
297.14	184.31
297.37	193.31
297.601	174.31
297.831	173.31
298.062	198.31
298.292	197.31
298.523	187.31
298.753	184.31
298.984	189.31
299.214	205.31
299.445	195.31
299.675	198.31
299.905	196.31
300.136	197.31
300.366	204.31
300.597	200.31
300.827	193.31
301.057	177.31
301.288	185.31
301.518	193.31
301.748	210.31
301.979	206.31
302.209	202.31
302.439	205.31
302.669	182.31
302.9	205.31
303.13	207.31
303.36	207.31
303.59	194.31
303.82	187.31
304.051	199.31
304.281	210.31
304.511	208.31
304.741	191.31
304.971	198.31
305.201	204.31
305.431	203.31
305.661	206.31
305.891	192.31
306.121	203.31
306.352	193.31
306.582	195.31
306.812	196.31
307.042	189.31
307.272	182.31
307.502	196.31
307.731	189.31
307.961	183.31
308.191	184.31
308.421	193.31
308.651	184.31
308.881	185.31
309.111	202.31
309.341	189.31
309.571	197.31
309.8	200.31
310.03	198.31
310.26	186.31
310.49	183.31
310.72	184.31
310.949	198.31
311.179	190.31
311.409	207.31
311.639	199.31
311.868	198.31
312.098	173.31
312.328	189.31
312.557	203.31
312.787	206.31
313.017	194.31
313.246	204.31
313.476	187.31
313.706	189.31
313.935	188.31
314.165	206.31
314.394	201.31
314.624	192.31
314.853	203.31
315.083	197.31
315.312	200.31
315.542	207.31
315.771	201.31
316.001	194.31
316.23	191.31
316.46	188.31
316.689	206.31
316.919	201.31
317.148	188.31
317.377	192.31
317.607	206.31
317.836	195.31
318.065	180.31
318.295	202.31
318.524	194.31
318.753	186.31
318.983	198.31
319.212	199.31
319.441	195.31
319.67	189.31
319.9	204.31
320.129	185.31
320.358	204.31
320.587	201.31
320.816	190.31
321.046	186.31
321.275	201.31
321.504	201.31
321.733	201.31
321.962	197.31
322.191	204.31
322.42	199.31
322.649	198.31
322.878	210.31
323.108	214.31
323.337	202.31
323.566	202.31
323.795	207.31
324.024	193.31
324.253	205.31
324.482	216.31
324.71	201.31
324.939	214.31
325.168	207.31
325.397	223.31
325.626	197.31
325.855	210.31
326.084	214.31
326.313	236.31
326.542	220.31
326.77	209.31
326.999	211.31
327.228	217.31
327.457	198.31
327.686	215.31
327.914	206.31
328.143	210.31
328.372	213.31
328.6	206.31
328.829	198.31
329.058	212.31
329.287	222.31
329.515	215.31
329.744	227.31
329.972	210.31
330.201	213.31
330.43	222.31
330.658	218.31
330.887	213.31
331.115	224.31
331.344	229.31
331.572	233.31
331.801	227.31
332.03	228.31
332.258	248.31
332.486	236.31
332.715	249.31
332.943	249.31
333.172	263.31
333.4	266.31
333.629	273.31
333.857	264.31
334.085	273.31
334.314	259.31
334.542	275.31
334.771	258.31
334.999	253.31
335.227	253.31
335.455	266.31
335.684	237.31
335.912	243.31
336.14	267.31
336.369	241.31
336.597	237.31
336.825	246.31
337.053	253.31
337.281	247.31
337.51	234.31
337.738	246.31
337.966	221.31
338.194	222.31
338.422	222.31
338.65	218.31
338.878	218.31
339.106	242.31
339.334	227.31
339.562	238.31
339.79	202.31
340.018	216.31
340.246	213.31
340.474	219.31
340.702	213.31
340.93	220.31
341.158	219.31
341.386	206.31
341.614	222.31
341.842	221.31
342.07	219.31
342.298	228.31
342.526	198.31
342.754	210.31
342.981	221.31
343.209	241.31
343.437	231.31
343.665	243.31
343.893	253.31
344.12	260.31
344.348	265.31
344.576	240.31
344.804	222.31
345.031	231.31
345.259	223.31
345.487	214.31
345.714	229.31
345.942	217.31
346.17	237.31
346.397	209.31
346.625	219.31
346.853	216.31
347.08	201.31
347.308	221.31
347.535	213.31
347.763	224.31
347.99	217.31
348.218	223.31
348.445	210.31
348.673	213.31
348.9	212.31
349.128	214.31
349.355	208.31
349.583	207.31
349.81	197.31
350.037	205.31
350.265	199.31
350.492	215.31
350.72	208.31
350.947	227.31
351.174	210.31
351.402	205.31
351.629	210.31
351.856	193.31
352.083	198.31
352.311	216.31
352.538	205.31
352.765	214.31
352.992	206.31
353.22	217.31
353.447	205.31
353.674	212.31
353.901	199.31
354.128	205.31
354.355	210.31
354.583	202.31
354.81	212.31
355.037	204.31
355.264	211.31
355.491	202.31
355.718	195.31
355.945	206.31
356.172	197.31
356.399	222.31
356.626	202.31
356.853	198.31
357.08	196.31
357.307	203.31
357.534	220.31
357.761	204.31
357.988	220.31
358.215	211.31
358.441	216.31
358.668	214.31
358.895	230.31
359.122	206.31
359.349	202.31
359.576	221.31
359.802	202.31
360.029	211.31
360.256	213.31
360.483	205.31
360.709	198.31
360.936	225.31
361.163	220.31
361.39	193.31
361.616	219.31
361.843	216.31
362.07	219.31
362.296	205.31
362.523	219.31
362.749	217.31
362.976	204.31
363.203	210.31
363.429	206.31
363.656	207.31
363.882	198.31
364.109	215.31
364.335	211.31
364.562	207.31
364.788	205.31
365.015	204.31
365.241	195.31
365.468	201.31
365.694	206.31
365.92	186.31
366.147	194.31
366.373	209.31
366.599	197.31
366.826	206.31
367.052	211.31
367.278	206.31
367.505	202.31
367.731	205.31
367.957	215.31
368.184	206.31
368.41	209.31
368.636	213.31
368.862	206.31
369.089	213.31
369.315	213.31
369.541	223.31
369.767	201.31
369.993	219.31
370.219	224.31
370.445	226.31
370.672	215.31
370.898	203.31
371.124	211.31
371.35	211.31
371.576	218.31
371.802	220.31
372.028	235.31
372.254	236.31
372.48	205.31
372.706	222.31
372.932	221.31
373.158	226.31
373.384	226.31
373.61	215.31
373.835	228.31
374.061	212.31
374.287	225.31
374.513	215.31
374.739	221.31
374.965	235.31
375.191	248.31
375.416	225.31
375.642	244.31
375.868	215.31
376.094	224.31
376.319	218.31
376.545	214.31
376.771	232.31
376.997	220.31
377.222	217.31
377.448	215.31
377.674	220.31
377.899	236.31
378.125	210.31
378.35	207.31
378.576	210.31
378.802	208.31
379.027	210.31
379.253	228.31
379.478	196.31
379.704	207.31
379.929	222.31
380.155	218.31
380.38	219.31
380.606	211.31
380.831	218.31
381.057	209.31
381.282	210.31
381.507	223.31
381.733	216.31
381.958	208.31
382.184	215.31
382.409	215.31
382.634	219.31
382.86	220.31
383.085	237.31
383.31	211.31
383.535	211.31
383.761	217.31
383.986	237.31
384.211	230.31
384.436	238.31
384.662	247.31
384.887	244.31
385.112	243.31
385.337	230.31
385.562	242.31
385.787	251.31
386.013	248.31
386.238	246.31
386.463	224.31
386.688	230.31
386.913	229.31
387.138	234.31
387.363	243.31
387.588	248.31
387.813	237.31
388.038	245.31
388.263	254.31
388.488	241.31
388.713	258.31
388.938	233.31
389.163	232.31
389.387	241.31
389.612	249.31
389.837	230.31
390.062	245.31
390.287	239.31
390.512	241.31
390.736	237.31
390.961	236.31
391.186	228.31
391.411	257.31
391.636	251.31
391.86	265.31
392.085	271.31
392.31	282.31
392.534	263.31
392.759	274.31
392.984	254.31
393.208	257.31
393.433	265.31
393.658	257.31
393.882	243.31
394.107	257.31
394.331	236.31
394.556	255.31
394.78	251.31
395.005	268.31
395.229	261.31
395.454	262.31
395.678	257.31
395.903	253.31
396.127	255.31
396.352	253.31
396.576	250.31
396.801	254.31
397.025	254.31
397.249	265.31
397.474	275.31
397.698	267.31
397.922	263.31
398.147	261.31
398.371	255.31
398.595	245.31
398.82	279.31
399.044	291.31
399.268	314.31
399.492	385.31
399.717	424.31
399.941	426.31
400.165	352.31
400.389	329.31
400.613	308.31
400.837	295.31
401.062	306.31
401.286	307.31
401.51	283.31
401.734	289.31
401.958	286.31
402.182	303.31
402.406	297.31
402.63	298.31
402.854	314.31
403.078	309.31
403.302	310.31
403.526	333.31
403.75	341.31
403.974	333.31
404.198	327.31
404.422	338.31
404.645	324.31
404.869	318.31
405.093	319.31
405.317	312.31
405.541	311.31
405.765	331.31
405.988	301.31
406.212	311.31
406.436	329.31
406.66	317.31
406.883	321.31
407.107	350.31
407.331	353.31
407.555	362.31
407.778	362.31
408.002	339.31
408.226	339.31
408.449	322.31
408.673	331.31
408.896	315.31
409.12	292.31
409.344	323.31
409.567	340.31
409.791	321.31
410.014	318.31
410.238	308.31
410.461	309.31
410.685	295.31
410.908	328.31
411.132	307.31
411.355	297.31
411.578	287.31
411.802	291.31
412.025	303.31
412.249	317.31
412.472	311.31
412.695	280.31
412.919	294.31
413.142	287.31
413.365	292.31
413.589	270.31
413.812	292.31
414.035	284.31
414.258	277.31
414.482	267.31
414.705	287.31
414.928	294.31
415.151	294.31
415.374	286.31
415.597	286.31
415.821	292.31
416.044	281.31
416.267	268.31
416.49	271.31
416.713	268.31
416.936	257.31
417.159	279.31
417.382	289.31
417.605	293.31
417.828	300.31
418.051	299.31
418.274	276.31
418.497	293.31
418.72	277.31
418.943	277.31
419.166	292.31
419.389	324.31
419.611	301.31
419.834	296.31
420.057	300.31
420.28	282.31
420.503	297.31
420.726	289.31
420.948	289.31
421.171	312.31
421.394	275.31
421.617	284.31
421.839	293.31
422.062	278.31
422.285	282.31
422.507	296.31
422.73	276.31
422.953	298.31
423.175	288.31
423.398	285.31
423.621	305.31
423.843	302.31
424.066	305.31
424.288	309.31
424.511	305.31
424.733	313.31
424.956	288.31
425.178	279.31
425.401	286.31
425.623	286.31
425.846	296.31
426.068	290.31
426.291	257.31
426.513	250.31
426.735	270.31
426.958	254.31
427.18	262.31
427.402	291.31
427.625	282.31
427.847	255.31
428.069	243.31
428.292	259.31
428.514	271.31
428.736	262.31
428.958	264.31
429.181	226.31
429.403	231.31
429.625	261.31
429.847	263.31
430.069	261.31
430.292	255.31
430.514	253.31
430.736	242.31
430.958	249.31
431.18	247.31
431.402	261.31
431.624	260.31
431.846	267.31
432.068	253.31
432.29	271.31
432.512	259.31
432.734	267.31
432.956	258.31
433.178	269.31
433.4	254.31
433.622	263.31
433.844	267.31
434.066	255.31
434.287	258.31
434.509	260.31
434.731	276.31
434.953	289.31
435.175	293.31
435.397	304.31
435.618	255.31
435.84	273.31
436.062	254.31
436.284	243.31
436.505	253.31
436.727	249.31
436.949	249.31
437.17	256.31
437.392	251.31
437.614	248.31
437.835	262.31
438.057	251.31
438.278	242.31
438.5	250.31
438.721	250.31
438.943	256.31
439.165	238.31
439.386	232.31
439.608	256.31
439.829	275.31
440.05	262.31
440.272	256.31
440.493	256.31
440.715	257.31
440.936	275.31
441.158	263.31
441.379	275.31
441.6	282.31
441.822	294.31
442.043	297.31
442.264	268.31
442.486	278.31
442.707	283.31
442.928	263.31
443.149	286.31
443.371	291.31
443.592	275.31
443.813	302.31
444.034	280.31
444.255	277.31
444.476	315.31
444.698	317.31
444.919	339.31
445.14	423.31
445.361	356.31
445.582	305.31
445.803	284.31
446.024	278.31
446.245	273.31
446.466	250.31
446.687	265.31
446.908	246.31
447.129	271.31
447.35	274.31
447.571	264.31
447.792	257.31
448.013	235.31
448.234	251.31
448.455	245.31
448.675	238.31
448.896	243.31
449.117	241.31
449.338	238.31
449.559	239.31
449.779	231.31
450	230.31
450.221	236.31
450.442	243.31
450.662	247.31
450.883	232.31
451.104	231.31
451.324	252.31
451.545	249.31
451.766	256.31
451.986	241.31
452.207	243.31
452.428	250.31
452.648	228.31
452.869	243.31
453.089	241.31
453.31	231.31
453.53	256.31
453.751	242.31
453.971	227.31
454.192	220.31
454.412	226.31
454.633	227.31
454.853	243.31
455.073	228.31
455.294	229.31
455.514	226.31
455.734	233.31
455.955	246.31
456.175	225.31
456.395	231.31
456.616	235.31
456.836	214.31
457.056	237.31
457.276	234.31
457.497	237.31
457.717	218.31
457.937	231.31
458.157	237.31
458.377	227.31
458.598	233.31
458.818	238.31
459.038	238.31
459.258	262.31
459.478	257.31
459.698	266.31
459.918	271.31
460.138	284.31
460.358	287.31
460.578	299.31
460.798	284.31
461.018	290.31
461.238	281.31
461.458	298.31
461.678	283.31
461.898	290.31
462.118	296.31
462.338	318.31
462.558	313.31
462.777	327.31
462.997	350.31
463.217	377.31
463.437	385.31
463.657	377.31
463.876	341.31
464.096	348.31
464.316	353.31
464.536	335.31
464.755	357.31
464.975	316.31
465.195	330.31
465.414	300.31
465.634	271.31
465.854	257.31
466.073	261.31
466.293	262.31
466.512	265.31
466.732	243.31
466.951	250.31
467.171	258.31
467.391	244.31
467.61	245.31
467.829	260.31
468.049	265.31
468.268	254.31
468.488	237.31
468.707	249.31
468.927	251.31
469.146	258.31
469.365	235.31
469.585	240.31
469.804	251.31
470.023	265.31
470.243	264.31
470.462	272.31
470.681	269.31
470.901	238.31
471.12	275.31
471.339	236.31
471.558	243.31
471.777	271.31
471.997	241.31
472.216	257.31
472.435	251.31
472.654	249.31
472.873	250.31
473.092	241.31
473.311	244.31
473.53	234.31
473.749	233.31
473.968	238.31
474.187	225.31
474.406	254.31
474.625	249.31
474.844	248.31
475.063	258.31
475.282	247.31
475.501	242.31
475.72	241.31
475.939	242.31
476.158	260.31
476.377	241.31
476.596	231.31
476.814	251.31
477.033	270.31
477.252	274.31
477.471	255.31
477.69	268.31
477.908	271.31
478.127	267.31
478.346	284.31
478.564	291.31
478.783	287.31
479.002	300.31
479.22	291.31
479.439	311.31
479.658	284.31
479.876	296.31
480.095	305.31
480.313	318.31
480.532	346.31
480.751	313.31
480.969	294.31
481.188	280.31
481.406	268.31
481.624	291.31
481.843	268.31
482.061	266.31
482.28	261.31
482.498	279.31
482.717	265.31
482.935	275.31
483.153	269.31
483.372	269.31
483.59	279.31
483.808	284.31
484.027	275.31
484.245	281.31
484.463	277.31
484.681	281.31
484.9	282.31
485.118	285.31
485.336	272.31
485.554	284.31
485.772	282.31
485.99	292.31
486.209	305.31
486.427	297.31
486.645	283.31
486.863	308.31
487.081	298.31
487.299	295.31
487.517	301.31
487.735	297.31
487.953	299.31
488.171	279.31
488.389	300.31
488.607	287.31
488.825	286.31
489.043	283.31
489.261	293.31
489.479	276.31
489.696	284.31
489.914	275.31
490.132	284.31
490.35	301.31
490.568	293.31
490.786	289.31
491.003	270.31
491.221	313.31
491.439	286.31
491.657	280.31
491.874	300.31
492.092	302.31
492.31	289.31
492.527	305.31
492.745	289.31
492.963	305.31
493.18	316.31
493.398	303.31
493.615	303.31
493.833	312.31
494.05	303.31
494.268	309.31
494.485	299.31
494.703	303.31
494.92	319.31
495.138	296.31
495.355	301.31
495.573	316.31
495.79	288.31
496.008	317.31
496.225	311.31
496.442	311.31
496.66	321.31
496.877	313.31
497.094	301.31
497.312	317.31
497.529	324.31
497.746	341.31
497.963	342.31
498.181	344.31
498.398	364.31
498.615	369.31
498.832	385.31
499.049	434.31
499.267	469.31
499.484	481.31
499.701	574.31
499.918	591.31
500.135	674.31
500.352	790.31
500.569	807.31
500.786	813.31
501.003	782.31
501.22	686.31
501.437	606.31
501.654	527.31
501.871	487.31
502.088	450.31
502.305	418.31
502.522	391.31
502.739	385.31
502.956	382.31
