Data from 0.5MCu(NO3)2.Standard.Lamp.E10.CV._HRD10591_16-03-58-754.txt Node
Date: Mon Jul 22 16:03:58 EDT 2019
User: cochatt
Spectrometer: HR+D1059
Trigger mode: 1
Integration Time (sec): 1.000000E-1
Scans to average: 1
Electric dark correction enabled: true
Nonlinearity correction enabled: false
Boxcar width: 0
XAxis mode: Wavelengths
Number of Pixels in Spectrum: 2048
>>>>>Begin Spectral Data<<<<<
223.165	-13.69
223.4	-13.69
223.635	-13.69
223.869	-16.69
224.104	-15.69
224.338	-6.69
224.573	-17.69
224.808	-7.69
225.042	-9.69
225.277	0.31
225.511	7.31
225.746	-4.69
225.98	-4.69
226.215	23.31
226.449	20.31
226.683	16.31
226.918	13.31
227.152	16.31
227.387	33.31
227.621	41.31
227.856	37.31
228.09	47.31
228.324	39.31
228.559	43.31
228.793	55.31
229.027	67.31
229.262	62.31
229.496	64.31
229.73	68.31
229.964	78.31
230.199	81.31
230.433	73.31
230.667	71.31
230.901	78.31
231.136	81.31
231.37	79.31
231.604	90.31
231.838	83.31
232.072	87.31
232.306	94.31
232.541	95.31
232.775	86.31
233.009	98.31
233.243	94.31
233.477	92.31
233.711	96.31
233.945	84.31
234.179	99.31
234.413	89.31
234.647	90.31
234.881	92.31
235.115	90.31
235.349	89.31
235.583	91.31
235.817	94.31
236.051	83.31
236.285	85.31
236.519	91.31
236.753	102.31
236.987	83.31
237.221	85.31
237.455	96.31
237.689	91.31
237.922	95.31
238.156	92.31
238.39	98.31
238.624	88.31
238.858	95.31
239.091	90.31
239.325	80.31
239.559	103.31
239.793	90.31
240.027	101.31
240.26	80.31
240.494	94.31
240.728	104.31
240.961	94.31
241.195	86.31
241.429	109.31
241.662	109.31
241.896	92.31
242.13	109.31
242.363	95.31
242.597	108.31
242.83	97.31
243.064	96.31
243.298	96.31
243.531	96.31
243.765	105.31
243.998	102.31
244.232	93.31
244.465	113.31
244.699	109.31
244.932	119.31
245.166	98.31
245.399	100.31
245.633	112.31
245.866	111.31
246.099	113.31
246.333	108.31
246.566	123.31
246.8	113.31
247.033	82.31
247.266	97.31
247.5	100.31
247.733	111.31
247.966	112.31
248.2	120.31
248.433	113.31
248.666	112.31
248.899	105.31
249.133	101.31
249.366	107.31
249.599	108.31
249.832	115.31
250.066	129.31
250.299	120.31
250.532	121.31
250.765	105.31
250.998	114.31
251.231	120.31
251.465	113.31
251.698	107.31
251.931	108.31
252.164	126.31
252.397	103.31
252.63	120.31
252.863	120.31
253.096	111.31
253.329	127.31
253.562	115.31
253.795	128.31
254.028	128.31
254.261	120.31
254.494	107.31
254.727	125.31
254.96	131.31
255.193	117.31
255.426	131.31
255.659	121.31
255.892	114.31
256.124	120.31
256.357	137.31
256.59	127.31
256.823	122.31
257.056	131.31
257.289	121.31
257.521	121.31
257.754	124.31
257.987	143.31
258.22	131.31
258.452	124.31
258.685	133.31
258.918	126.31
259.151	139.31
259.383	143.31
259.616	131.31
259.849	126.31
260.081	113.31
260.314	128.31
260.547	139.31
260.779	143.31
261.012	131.31
261.244	131.31
261.477	128.31
261.71	131.31
261.942	131.31
262.175	131.31
262.407	136.31
262.64	150.31
262.872	136.31
263.105	145.31
263.337	149.31
263.57	136.31
263.802	159.31
264.035	143.31
264.267	144.31
264.499	142.31
264.732	153.31
264.964	135.31
265.197	144.31
265.429	150.31
265.661	143.31
265.894	137.31
266.126	145.31
266.358	141.31
266.591	152.31
266.823	149.31
267.055	162.31
267.287	147.31
267.52	148.31
267.752	150.31
267.984	158.31
268.216	140.31
268.448	154.31
268.681	147.31
268.913	153.31
269.145	151.31
269.377	164.31
269.609	149.31
269.841	155.31
270.073	171.31
270.306	156.31
270.538	143.31
270.77	149.31
271.002	159.31
271.234	139.31
271.466	148.31
271.698	159.31
271.93	168.31
272.162	153.31
272.394	168.31
272.626	152.31
272.858	148.31
273.09	160.31
273.322	157.31
273.553	149.31
273.785	160.31
274.017	165.31
274.249	169.31
274.481	162.31
274.713	175.31
274.945	160.31
275.176	157.31
275.408	160.31
275.64	151.31
275.872	172.31
276.104	165.31
276.335	164.31
276.567	157.31
276.799	167.31
277.031	166.31
277.262	181.31
277.494	173.31
277.726	168.31
277.957	173.31
278.189	177.31
278.421	145.31
278.652	163.31
278.884	175.31
279.115	164.31
279.347	181.31
279.579	185.31
279.81	181.31
280.042	169.31
280.273	172.31
280.505	178.31
280.736	181.31
280.968	179.31
281.199	174.31
281.431	171.31
281.662	191.31
281.894	184.31
282.125	184.31
282.356	193.31
282.588	197.31
282.819	196.31
283.051	194.31
283.282	191.31
283.513	189.31
283.745	192.31
283.976	175.31
284.207	175.31
284.439	181.31
284.67	188.31
284.901	179.31
285.132	183.31
285.364	176.31
285.595	184.31
285.826	201.31
286.057	182.31
286.288	191.31
286.52	189.31
286.751	185.31
286.982	187.31
287.213	183.31
287.444	189.31
287.675	201.31
287.906	200.31
288.138	201.31
288.369	205.31
288.6	205.31
288.831	206.31
289.062	193.31
289.293	208.31
289.524	192.31
289.755	210.31
289.986	190.31
290.217	204.31
290.448	195.31
290.679	194.31
290.91	198.31
291.141	208.31
291.371	202.31
291.602	200.31
291.833	190.31
292.064	189.31
292.295	197.31
292.526	189.31
292.757	212.31
292.987	206.31
293.218	195.31
293.449	196.31
293.68	207.31
293.91	203.31
294.141	205.31
294.372	195.31
294.603	192.31
294.833	219.31
295.064	201.31
295.295	223.31
295.525	209.31
295.756	215.31
295.987	213.31
296.217	198.31
296.448	213.31
296.679	206.31
296.909	239.31
297.14	221.31
297.37	237.31
297.601	239.31
297.831	218.31
298.062	215.31
298.292	226.31
298.523	219.31
298.753	222.31
298.984	232.31
299.214	220.31
299.445	221.31
299.675	201.31
299.905	220.31
300.136	217.31
300.366	224.31
300.597	217.31
300.827	220.31
301.057	229.31
301.288	244.31
301.518	239.31
301.748	245.31
301.979	228.31
302.209	229.31
302.439	228.31
302.669	220.31
302.9	227.31
303.13	243.31
303.36	222.31
303.59	238.31
303.82	235.31
304.051	223.31
304.281	206.31
304.511	209.31
304.741	231.31
304.971	221.31
305.201	215.31
305.431	222.31
305.661	247.31
305.891	233.31
306.121	223.31
306.352	229.31
306.582	199.31
306.812	210.31
307.042	207.31
307.272	227.31
307.502	211.31
307.731	240.31
307.961	222.31
308.191	218.31
308.421	236.31
308.651	227.31
308.881	237.31
309.111	211.31
309.341	225.31
309.571	248.31
309.8	230.31
310.03	221.31
310.26	229.31
310.49	216.31
310.72	225.31
310.949	240.31
311.179	228.31
311.409	231.31
311.639	221.31
311.868	235.31
312.098	217.31
312.328	221.31
312.557	239.31
312.787	241.31
313.017	229.31
313.246	228.31
313.476	233.31
313.706	238.31
313.935	249.31
314.165	244.31
314.394	250.31
314.624	240.31
314.853	229.31
315.083	219.31
315.312	238.31
315.542	250.31
315.771	232.31
316.001	248.31
316.23	242.31
316.46	234.31
316.689	233.31
316.919	228.31
317.148	232.31
317.377	232.31
317.607	228.31
317.836	251.31
318.065	227.31
318.295	224.31
318.524	225.31
318.753	229.31
318.983	244.31
319.212	219.31
319.441	212.31
319.67	232.31
319.9	244.31
320.129	227.31
320.358	246.31
320.587	241.31
320.816	233.31
321.046	239.31
321.275	221.31
321.504	249.31
321.733	253.31
321.962	244.31
322.191	236.31
322.42	239.31
322.649	232.31
322.878	229.31
323.108	238.31
323.337	239.31
323.566	238.31
323.795	232.31
324.024	249.31
324.253	241.31
324.482	232.31
324.71	251.31
324.939	246.31
325.168	248.31
325.397	258.31
325.626	244.31
325.855	261.31
326.084	250.31
326.313	261.31
326.542	255.31
326.77	258.31
326.999	262.31
327.228	239.31
327.457	234.31
327.686	253.31
327.914	262.31
328.143	273.31
328.372	251.31
328.6	239.31
328.829	253.31
329.058	262.31
329.287	259.31
329.515	264.31
329.744	253.31
329.972	260.31
330.201	262.31
330.43	260.31
330.658	261.31
330.887	266.31
331.115	267.31
331.344	278.31
331.572	275.31
331.801	287.31
332.03	291.31
332.258	310.31
332.486	301.31
332.715	298.31
332.943	295.31
333.172	323.31
333.4	315.31
333.629	341.31
333.857	340.31
334.085	328.31
334.314	294.31
334.542	333.31
334.771	324.31
334.999	302.31
335.227	300.31
335.455	307.31
335.684	318.31
335.912	309.31
336.14	296.31
336.369	293.31
336.597	304.31
336.825	309.31
337.053	285.31
337.281	276.31
337.51	287.31
337.738	285.31
337.966	285.31
338.194	264.31
338.422	255.31
338.65	269.31
338.878	281.31
339.106	274.31
339.334	286.31
339.562	280.31
339.79	267.31
340.018	259.31
340.246	273.31
340.474	276.31
340.702	264.31
340.93	262.31
341.158	260.31
341.386	273.31
341.614	269.31
341.842	269.31
342.07	261.31
342.298	276.31
342.526	264.31
342.754	279.31
342.981	251.31
343.209	256.31
343.437	295.31
343.665	287.31
343.893	323.31
344.12	321.31
344.348	313.31
344.576	284.31
344.804	277.31
345.031	260.31
345.259	257.31
345.487	255.31
345.714	270.31
345.942	242.31
346.17	253.31
346.397	246.31
346.625	257.31
346.853	275.31
347.08	240.31
347.308	259.31
347.535	258.31
347.763	264.31
347.99	263.31
348.218	263.31
348.445	241.31
348.673	263.31
348.9	251.31
349.128	242.31
349.355	240.31
349.583	262.31
349.81	247.31
350.037	257.31
350.265	238.31
350.492	247.31
350.72	236.31
350.947	226.31
351.174	251.31
351.402	253.31
351.629	239.31
351.856	240.31
352.083	243.31
352.311	246.31
352.538	252.31
352.765	240.31
352.992	255.31
353.22	248.31
353.447	242.31
353.674	245.31
353.901	241.31
354.128	258.31
354.355	241.31
354.583	272.31
354.81	224.31
355.037	249.31
355.264	244.31
355.491	225.31
355.718	223.31
355.945	228.31
356.172	254.31
356.399	235.31
356.626	249.31
356.853	230.31
357.08	255.31
357.307	261.31
357.534	262.31
357.761	239.31
357.988	253.31
358.215	250.31
358.441	238.31
358.668	245.31
358.895	253.31
359.122	236.31
359.349	261.31
359.576	247.31
359.802	252.31
360.029	240.31
360.256	264.31
360.483	244.31
360.709	254.31
360.936	229.31
361.163	247.31
361.39	255.31
361.616	239.31
361.843	228.31
362.07	229.31
362.296	248.31
362.523	230.31
362.749	246.31
362.976	246.31
363.203	237.31
363.429	236.31
363.656	235.31
363.882	245.31
364.109	241.31
364.335	230.31
364.562	237.31
364.788	251.31
365.015	248.31
365.241	248.31
365.468	231.31
365.694	235.31
365.92	259.31
366.147	246.31
366.373	221.31
366.599	221.31
366.826	221.31
367.052	232.31
367.278	240.31
367.505	249.31
367.731	247.31
367.957	244.31
368.184	242.31
368.41	243.31
368.636	236.31
368.862	222.31
369.089	248.31
369.315	241.31
369.541	241.31
369.767	252.31
369.993	251.31
370.219	252.31
370.445	256.31
370.672	224.31
370.898	251.31
371.124	250.31
371.35	250.31
371.576	251.31
371.802	263.31
372.028	279.31
372.254	254.31
372.48	252.31
372.706	294.31
372.932	271.31
373.158	253.31
373.384	277.31
373.61	264.31
373.835	259.31
374.061	255.31
374.287	262.31
374.513	270.31
374.739	294.31
374.965	283.31
375.191	279.31
375.416	279.31
375.642	259.31
375.868	259.31
376.094	276.31
376.319	261.31
376.545	258.31
376.771	263.31
376.997	274.31
377.222	255.31
377.448	253.31
377.674	274.31
377.899	255.31
378.125	261.31
378.35	243.31
378.576	277.31
378.802	249.31
379.027	262.31
379.253	255.31
379.478	263.31
379.704	245.31
379.929	263.31
380.155	255.31
380.38	265.31
380.606	253.31
380.831	254.31
381.057	276.31
381.282	243.31
381.507	259.31
381.733	272.31
381.958	265.31
382.184	255.31
382.409	280.31
382.634	283.31
382.86	253.31
383.085	278.31
383.31	258.31
383.535	287.31
383.761	297.31
383.986	287.31
384.211	287.31
384.436	304.31
384.662	301.31
384.887	320.31
385.112	311.31
385.337	307.31
385.562	301.31
385.787	300.31
386.013	309.31
386.238	289.31
386.463	313.31
386.688	293.31
386.913	290.31
387.138	299.31
387.363	299.31
387.588	294.31
387.813	289.31
388.038	287.31
388.263	303.31
388.488	301.31
388.713	290.31
388.938	278.31
389.163	294.31
389.387	293.31
389.612	290.31
389.837	299.31
390.062	276.31
390.287	291.31
390.512	305.31
390.736	292.31
390.961	291.31
391.186	305.31
391.411	305.31
391.636	312.31
391.86	313.31
392.085	351.31
392.31	334.31
392.534	322.31
392.759	308.31
392.984	294.31
393.208	305.31
393.433	316.31
393.658	314.31
393.882	290.31
394.107	311.31
394.331	309.31
394.556	314.31
394.78	301.31
395.005	315.31
395.229	326.31
395.454	325.31
395.678	333.31
395.903	346.31
396.127	308.31
396.352	323.31
396.576	315.31
396.801	297.31
397.025	291.31
397.249	320.31
397.474	328.31
397.698	314.31
397.922	315.31
398.147	296.31
398.371	323.31
398.595	344.31
398.82	361.31
399.044	385.31
399.268	404.31
399.492	478.31
399.717	527.31
399.941	533.31
400.165	484.31
400.389	407.31
400.613	389.31
400.837	377.31
401.062	366.31
401.286	359.31
401.51	355.31
401.734	345.31
401.958	368.31
402.182	363.31
402.406	359.31
402.63	371.31
402.854	381.31
403.078	390.31
403.302	405.31
403.526	405.31
403.75	428.31
403.974	444.31
404.198	427.31
404.422	425.31
404.645	404.31
404.869	411.31
405.093	404.31
405.317	377.31
405.541	390.31
405.765	382.31
405.988	374.31
406.212	365.31
406.436	390.31
406.66	390.31
406.883	393.31
407.107	416.31
407.331	448.31
407.555	452.31
407.778	452.31
408.002	436.31
408.226	422.31
408.449	402.31
408.673	412.31
408.896	375.31
409.12	385.31
409.344	403.31
409.567	405.31
409.791	407.31
410.014	399.31
410.238	399.31
410.461	412.31
410.685	387.31
410.908	385.31
411.132	393.31
411.355	384.31
411.578	368.31
411.802	370.31
412.025	357.31
412.249	382.31
412.472	360.31
412.695	366.31
412.919	356.31
413.142	344.31
413.365	357.31
413.589	342.31
413.812	345.31
414.035	352.31
414.258	370.31
414.482	352.31
414.705	341.31
414.928	343.31
415.151	360.31
415.374	354.31
415.597	352.31
415.821	340.31
416.044	324.31
416.267	331.31
416.49	319.31
416.713	331.31
416.936	329.31
417.159	336.31
417.382	331.31
417.605	358.31
417.828	369.31
418.051	353.31
418.274	340.31
418.497	343.31
418.72	363.31
418.943	358.31
419.166	367.31
419.389	379.31
419.611	388.31
419.834	372.31
420.057	365.31
420.28	387.31
420.503	353.31
420.726	340.31
420.948	347.31
421.171	343.31
421.394	347.31
421.617	329.31
421.839	345.31
422.062	358.31
422.285	345.31
422.507	357.31
422.73	371.31
422.953	360.31
423.175	362.31
423.398	379.31
423.621	372.31
423.843	379.31
424.066	384.31
424.288	369.31
424.511	373.31
424.733	352.31
424.956	348.31
425.178	364.31
425.401	341.31
425.623	342.31
425.846	341.31
426.068	333.31
426.291	342.31
426.513	341.31
426.735	317.31
426.958	331.31
427.18	312.31
427.402	303.31
427.625	321.31
427.847	318.31
428.069	308.31
428.292	320.31
428.514	309.31
428.736	302.31
428.958	324.31
429.181	303.31
429.403	304.31
429.625	321.31
429.847	321.31
430.069	317.31
430.292	304.31
430.514	315.31
430.736	292.31
430.958	289.31
431.18	316.31
431.402	328.31
431.624	321.31
431.846	294.31
432.068	322.31
432.29	335.31
432.512	319.31
432.734	325.31
432.956	327.31
433.178	333.31
433.4	318.31
433.622	343.31
433.844	322.31
434.066	310.31
434.287	320.31
434.509	343.31
434.731	340.31
434.953	346.31
435.175	359.31
435.397	370.31
435.618	344.31
435.84	330.31
436.062	312.31
436.284	337.31
436.505	321.31
436.727	296.31
436.949	326.31
437.17	309.31
437.392	316.31
437.614	315.31
437.835	297.31
438.057	319.31
438.278	295.31
438.5	303.31
438.721	303.31
438.943	307.31
439.165	302.31
439.386	313.31
439.608	303.31
439.829	315.31
440.05	323.31
440.272	315.31
440.493	332.31
440.715	332.31
440.936	339.31
441.158	329.31
441.379	339.31
441.6	341.31
441.822	353.31
442.043	352.31
442.264	351.31
442.486	328.31
442.707	337.31
442.928	342.31
443.149	336.31
443.371	341.31
443.592	364.31
443.813	326.31
444.034	339.31
444.255	357.31
444.476	387.31
444.698	397.31
444.919	399.31
445.14	534.31
445.361	433.31
445.582	359.31
445.803	340.31
446.024	315.31
446.245	335.31
446.466	314.31
446.687	327.31
446.908	332.31
447.129	299.31
447.35	292.31
447.571	304.31
447.792	301.31
448.013	312.31
448.234	289.31
448.455	285.31
448.675	306.31
448.896	284.31
449.117	292.31
449.338	283.31
449.559	292.31
449.779	284.31
450	290.31
450.221	289.31
450.442	294.31
450.662	293.31
450.883	297.31
451.104	313.31
451.324	308.31
451.545	295.31
451.766	318.31
451.986	305.31
452.207	299.31
452.428	288.31
452.648	289.31
452.869	288.31
453.089	306.31
453.31	296.31
453.53	291.31
453.751	289.31
453.971	287.31
454.192	272.31
454.412	271.31
454.633	245.31
454.853	276.31
455.073	266.31
455.294	289.31
455.514	281.31
455.734	271.31
455.955	277.31
456.175	262.31
456.395	275.31
456.616	276.31
456.836	281.31
457.056	279.31
457.276	266.31
457.497	277.31
457.717	288.31
457.937	275.31
458.157	275.31
458.377	277.31
458.598	283.31
458.818	281.31
459.038	315.31
459.258	312.31
459.478	343.31
459.698	318.31
459.918	350.31
460.138	369.31
460.358	354.31
460.578	373.31
460.798	388.31
461.018	353.31
461.238	371.31
461.458	363.31
461.678	353.31
461.898	361.31
462.118	360.31
462.338	399.31
462.558	397.31
462.777	401.31
462.997	453.31
463.217	482.31
463.437	495.31
463.657	457.31
463.876	411.31
464.096	405.31
464.316	441.31
464.536	427.31
464.755	436.31
464.975	412.31
465.195	387.31
465.414	376.31
465.634	333.31
465.854	317.31
466.073	334.31
466.293	328.31
466.512	286.31
466.732	294.31
466.951	319.31
467.171	317.31
467.391	316.31
467.61	300.31
467.829	310.31
468.049	301.31
468.268	303.31
468.488	299.31
468.707	288.31
468.927	303.31
469.146	284.31
469.365	303.31
469.585	305.31
469.804	308.31
470.023	322.31
470.243	312.31
470.462	336.31
470.681	326.31
470.901	339.31
471.12	341.31
471.339	316.31
471.558	301.31
471.777	301.31
471.997	308.31
472.216	305.31
472.435	304.31
472.654	302.31
472.873	292.31
473.092	290.31
473.311	297.31
473.53	302.31
473.749	284.31
473.968	301.31
474.187	306.31
474.406	295.31
474.625	303.31
474.844	299.31
475.063	306.31
475.282	304.31
475.501	294.31
475.72	312.31
475.939	311.31
476.158	306.31
476.377	313.31
476.596	322.31
476.814	296.31
477.033	313.31
477.252	319.31
477.471	325.31
477.69	327.31
477.908	341.31
478.127	325.31
478.346	341.31
478.564	361.31
478.783	368.31
479.002	376.31
479.22	376.31
479.439	368.31
479.658	356.31
479.876	347.31
480.095	381.31
480.313	389.31
480.532	403.31
480.751	402.31
480.969	376.31
481.188	366.31
481.406	347.31
481.624	343.31
481.843	325.31
482.061	339.31
482.28	339.31
482.498	328.31
482.717	356.31
482.935	344.31
483.153	338.31
483.372	319.31
483.59	328.31
483.808	342.31
484.027	355.31
484.245	359.31
484.463	346.31
484.681	368.31
484.9	366.31
485.118	348.31
485.336	358.31
485.554	369.31
485.772	369.31
485.99	366.31
486.209	371.31
486.427	370.31
486.645	385.31
486.863	375.31
487.081	378.31
487.299	356.31
487.517	369.31
487.735	342.31
487.953	375.31
488.171	353.31
488.389	353.31
488.607	351.31
488.825	356.31
489.043	350.31
489.261	353.31
489.479	364.31
489.696	355.31
489.914	373.31
490.132	369.31
490.35	351.31
490.568	358.31
490.786	358.31
491.003	350.31
491.221	355.31
491.439	355.31
491.657	348.31
491.874	383.31
492.092	365.31
492.31	365.31
492.527	365.31
492.745	363.31
492.963	363.31
493.18	355.31
493.398	382.31
493.615	383.31
493.833	369.31
494.05	381.31
494.268	366.31
494.485	376.31
494.703	369.31
494.92	379.31
495.138	383.31
495.355	368.31
495.573	385.31
495.79	359.31
496.008	369.31
496.225	379.31
496.442	373.31
496.66	392.31
496.877	392.31
497.094	377.31
497.312	423.31
497.529	412.31
497.746	410.31
497.963	422.31
498.181	445.31
498.398	437.31
498.615	479.31
498.832	507.31
499.049	561.31
499.267	606.31
499.484	645.31
499.701	704.31
499.918	797.31
500.135	920.31
500.352	1055.31
500.569	1097.31
500.786	1147.31
501.003	986.31
501.22	917.31
501.437	811.31
501.654	685.31
501.871	608.31
502.088	573.31
502.305	546.31
502.522	501.31
502.739	503.31
502.956	467.31
