Data from 0.5MCu(NO3)2.Standard.Lamp.E10.CV._HRD10591_16-04-01-753.txt Node
Date: Mon Jul 22 16:04:01 EDT 2019
User: cochatt
Spectrometer: HR+D1059
Trigger mode: 1
Integration Time (sec): 1.000000E-1
Scans to average: 1
Electric dark correction enabled: true
Nonlinearity correction enabled: false
Boxcar width: 0
XAxis mode: Wavelengths
Number of Pixels in Spectrum: 2048
>>>>>Begin Spectral Data<<<<<
223.165	-6.75
223.4	-6.75
223.635	-6.75
223.869	-7.75
224.104	-10.75
224.338	-10.75
224.573	-24.75
224.808	-9.75
225.042	-12.75
225.277	-14.75
225.511	-2.75
225.746	-8.75
225.98	-1.75
226.215	-0.75
226.449	14.25
226.683	23.25
226.918	29.25
227.152	45.25
227.387	44.25
227.621	56.25
227.856	46.25
228.09	44.25
228.324	66.25
228.559	51.25
228.793	52.25
229.027	65.25
229.262	70.25
229.496	68.25
229.73	76.25
229.964	85.25
230.199	69.25
230.433	74.25
230.667	85.25
230.901	80.25
231.136	81.25
231.37	91.25
231.604	76.25
231.838	85.25
232.072	90.25
232.306	86.25
232.541	77.25
232.775	90.25
233.009	82.25
233.243	68.25
233.477	98.25
233.711	99.25
233.945	92.25
234.179	90.25
234.413	85.25
234.647	82.25
234.881	79.25
235.115	87.25
235.349	85.25
235.583	105.25
235.817	88.25
236.051	104.25
236.285	89.25
236.519	95.25
236.753	75.25
236.987	65.25
237.221	89.25
237.455	98.25
237.689	82.25
237.922	83.25
238.156	94.25
238.39	77.25
238.624	87.25
238.858	74.25
239.091	86.25
239.325	78.25
239.559	81.25
239.793	97.25
240.027	94.25
240.26	87.25
240.494	80.25
240.728	90.25
240.961	87.25
241.195	85.25
241.429	85.25
241.662	79.25
241.896	94.25
242.13	97.25
242.363	107.25
242.597	96.25
242.83	92.25
243.064	91.25
243.298	97.25
243.531	85.25
243.765	80.25
243.998	85.25
244.232	93.25
244.465	102.25
244.699	100.25
244.932	104.25
245.166	98.25
245.399	98.25
245.633	107.25
245.866	100.25
246.099	94.25
246.333	106.25
246.566	95.25
246.8	97.25
247.033	105.25
247.266	104.25
247.5	93.25
247.733	100.25
247.966	105.25
248.2	103.25
248.433	91.25
248.666	98.25
248.899	100.25
249.133	110.25
249.366	99.25
249.599	95.25
249.832	98.25
250.066	87.25
250.299	110.25
250.532	101.25
250.765	108.25
250.998	95.25
251.231	103.25
251.465	103.25
251.698	100.25
251.931	108.25
252.164	109.25
252.397	111.25
252.63	112.25
252.863	113.25
253.096	96.25
253.329	100.25
253.562	97.25
253.795	98.25
254.028	100.25
254.261	118.25
254.494	103.25
254.727	114.25
254.96	115.25
255.193	110.25
255.426	119.25
255.659	117.25
255.892	100.25
256.124	117.25
256.357	109.25
256.59	109.25
256.823	105.25
257.056	115.25
257.289	104.25
257.521	101.25
257.754	114.25
257.987	113.25
258.22	110.25
258.452	112.25
258.685	99.25
258.918	115.25
259.151	108.25
259.383	116.25
259.616	102.25
259.849	120.25
260.081	109.25
260.314	129.25
260.547	108.25
260.779	125.25
261.012	111.25
261.244	121.25
261.477	113.25
261.71	111.25
261.942	125.25
262.175	126.25
262.407	108.25
262.64	131.25
262.872	125.25
263.105	120.25
263.337	127.25
263.57	127.25
263.802	110.25
264.035	125.25
264.267	130.25
264.499	123.25
264.732	128.25
264.964	132.25
265.197	135.25
265.429	116.25
265.661	116.25
265.894	125.25
266.126	135.25
266.358	125.25
266.591	127.25
266.823	124.25
267.055	129.25
267.287	129.25
267.52	132.25
267.752	129.25
267.984	104.25
268.216	134.25
268.448	135.25
268.681	122.25
268.913	124.25
269.145	132.25
269.377	148.25
269.609	134.25
269.841	137.25
270.073	131.25
270.306	131.25
270.538	136.25
270.77	135.25
271.002	119.25
271.234	125.25
271.466	131.25
271.698	134.25
271.93	127.25
272.162	137.25
272.394	125.25
272.626	145.25
272.858	133.25
273.09	122.25
273.322	139.25
273.553	140.25
273.785	121.25
274.017	118.25
274.249	123.25
274.481	133.25
274.713	118.25
274.945	135.25
275.176	133.25
275.408	131.25
275.64	145.25
275.872	136.25
276.104	126.25
276.335	116.25
276.567	143.25
276.799	138.25
277.031	143.25
277.262	120.25
277.494	129.25
277.726	128.25
277.957	135.25
278.189	137.25
278.421	132.25
278.652	137.25
278.884	151.25
279.115	126.25
279.347	124.25
279.579	132.25
279.81	146.25
280.042	131.25
280.273	150.25
280.505	146.25
280.736	145.25
280.968	137.25
281.199	129.25
281.431	151.25
281.662	161.25
281.894	137.25
282.125	132.25
282.356	154.25
282.588	139.25
282.819	149.25
283.051	140.25
283.282	138.25
283.513	145.25
283.745	142.25
283.976	159.25
284.207	153.25
284.439	135.25
284.67	154.25
284.901	149.25
285.132	150.25
285.364	137.25
285.595	152.25
285.826	153.25
286.057	141.25
286.288	142.25
286.52	157.25
286.751	167.25
286.982	159.25
287.213	163.25
287.444	153.25
287.675	148.25
287.906	159.25
288.138	160.25
288.369	142.25
288.6	146.25
288.831	149.25
289.062	156.25
289.293	156.25
289.524	173.25
289.755	170.25
289.986	169.25
290.217	165.25
290.448	157.25
290.679	165.25
290.91	148.25
291.141	158.25
291.371	168.25
291.602	145.25
291.833	154.25
292.064	166.25
292.295	164.25
292.526	151.25
292.757	166.25
292.987	168.25
293.218	162.25
293.449	159.25
293.68	155.25
293.91	149.25
294.141	163.25
294.372	152.25
294.603	163.25
294.833	150.25
295.064	152.25
295.295	139.25
295.525	158.25
295.756	179.25
295.987	163.25
296.217	164.25
296.448	168.25
296.679	166.25
296.909	164.25
297.14	157.25
297.37	174.25
297.601	163.25
297.831	156.25
298.062	168.25
298.292	156.25
298.523	160.25
298.753	179.25
298.984	185.25
299.214	161.25
299.445	177.25
299.675	179.25
299.905	182.25
300.136	161.25
300.366	166.25
300.597	177.25
300.827	186.25
301.057	162.25
301.288	174.25
301.518	169.25
301.748	183.25
301.979	173.25
302.209	177.25
302.439	163.25
302.669	179.25
302.9	158.25
303.13	169.25
303.36	177.25
303.59	187.25
303.82	174.25
304.051	173.25
304.281	167.25
304.511	178.25
304.741	168.25
304.971	173.25
305.201	178.25
305.431	169.25
305.661	173.25
305.891	161.25
306.121	161.25
306.352	170.25
306.582	158.25
306.812	175.25
307.042	170.25
307.272	150.25
307.502	167.25
307.731	187.25
307.961	184.25
308.191	168.25
308.421	169.25
308.651	170.25
308.881	180.25
309.111	171.25
309.341	167.25
309.571	187.25
309.8	176.25
310.03	167.25
310.26	165.25
310.49	169.25
310.72	173.25
310.949	175.25
311.179	172.25
311.409	166.25
311.639	167.25
311.868	167.25
312.098	185.25
312.328	171.25
312.557	166.25
312.787	178.25
313.017	179.25
313.246	169.25
313.476	171.25
313.706	168.25
313.935	180.25
314.165	179.25
314.394	178.25
314.624	180.25
314.853	186.25
315.083	184.25
315.312	175.25
315.542	178.25
315.771	179.25
316.001	178.25
316.23	186.25
316.46	169.25
316.689	179.25
316.919	171.25
317.148	166.25
317.377	170.25
317.607	163.25
317.836	170.25
318.065	182.25
318.295	172.25
318.524	173.25
318.753	187.25
318.983	168.25
319.212	167.25
319.441	178.25
319.67	159.25
319.9	171.25
320.129	193.25
320.358	181.25
320.587	183.25
320.816	185.25
321.046	172.25
321.275	184.25
321.504	178.25
321.733	180.25
321.962	193.25
322.191	180.25
322.42	173.25
322.649	174.25
322.878	181.25
323.108	201.25
323.337	180.25
323.566	162.25
323.795	181.25
324.024	177.25
324.253	185.25
324.482	174.25
324.71	179.25
324.939	191.25
325.168	183.25
325.397	198.25
325.626	177.25
325.855	190.25
326.084	194.25
326.313	185.25
326.542	195.25
326.77	194.25
326.999	183.25
327.228	198.25
327.457	186.25
327.686	206.25
327.914	183.25
328.143	196.25
328.372	179.25
328.6	180.25
328.829	188.25
329.058	182.25
329.287	190.25
329.515	182.25
329.744	192.25
329.972	190.25
330.201	188.25
330.43	195.25
330.658	170.25
330.887	199.25
331.115	196.25
331.344	188.25
331.572	187.25
331.801	197.25
332.03	199.25
332.258	215.25
332.486	199.25
332.715	214.25
332.943	216.25
333.172	231.25
333.4	222.25
333.629	242.25
333.857	229.25
334.085	235.25
334.314	226.25
334.542	224.25
334.771	212.25
334.999	213.25
335.227	222.25
335.455	221.25
335.684	219.25
335.912	221.25
336.14	214.25
336.369	225.25
336.597	223.25
336.825	196.25
337.053	211.25
337.281	203.25
337.51	214.25
337.738	188.25
337.966	209.25
338.194	202.25
338.422	204.25
338.65	198.25
338.878	193.25
339.106	181.25
339.334	190.25
339.562	198.25
339.79	200.25
340.018	181.25
340.246	176.25
340.474	185.25
340.702	198.25
340.93	187.25
341.158	197.25
341.386	196.25
341.614	197.25
341.842	196.25
342.07	181.25
342.298	179.25
342.526	174.25
342.754	194.25
342.981	185.25
343.209	193.25
343.437	194.25
343.665	214.25
343.893	237.25
344.12	233.25
344.348	206.25
344.576	225.25
344.804	190.25
345.031	209.25
345.259	189.25
345.487	191.25
345.714	184.25
345.942	186.25
346.17	189.25
346.397	194.25
346.625	205.25
346.853	193.25
347.08	201.25
347.308	186.25
347.535	200.25
347.763	175.25
347.99	207.25
348.218	200.25
348.445	210.25
348.673	184.25
348.9	196.25
349.128	187.25
349.355	185.25
349.583	182.25
349.81	188.25
350.037	177.25
350.265	180.25
350.492	190.25
350.72	191.25
350.947	195.25
351.174	179.25
351.402	184.25
351.629	177.25
351.856	172.25
352.083	180.25
352.311	187.25
352.538	184.25
352.765	179.25
352.992	197.25
353.22	181.25
353.447	187.25
353.674	183.25
353.901	188.25
354.128	173.25
354.355	183.25
354.583	197.25
354.81	179.25
355.037	193.25
355.264	190.25
355.491	200.25
355.718	204.25
355.945	168.25
356.172	166.25
356.399	183.25
356.626	177.25
356.853	186.25
357.08	175.25
357.307	186.25
357.534	193.25
357.761	187.25
357.988	196.25
358.215	189.25
358.441	187.25
358.668	169.25
358.895	195.25
359.122	182.25
359.349	173.25
359.576	161.25
359.802	183.25
360.029	191.25
360.256	185.25
360.483	191.25
360.709	179.25
360.936	196.25
361.163	191.25
361.39	192.25
361.616	171.25
361.843	188.25
362.07	193.25
362.296	180.25
362.523	183.25
362.749	187.25
362.976	180.25
363.203	174.25
363.429	183.25
363.656	191.25
363.882	197.25
364.109	173.25
364.335	178.25
364.562	185.25
364.788	182.25
365.015	163.25
365.241	179.25
365.468	188.25
365.694	178.25
365.92	186.25
366.147	172.25
366.373	183.25
366.599	175.25
366.826	201.25
367.052	193.25
367.278	180.25
367.505	191.25
367.731	186.25
367.957	186.25
368.184	186.25
368.41	185.25
368.636	182.25
368.862	179.25
369.089	179.25
369.315	178.25
369.541	194.25
369.767	194.25
369.993	183.25
370.219	197.25
370.445	175.25
370.672	197.25
370.898	197.25
371.124	195.25
371.35	201.25
371.576	182.25
371.802	184.25
372.028	200.25
372.254	199.25
372.48	199.25
372.706	212.25
372.932	204.25
373.158	197.25
373.384	193.25
373.61	199.25
373.835	191.25
374.061	199.25
374.287	197.25
374.513	195.25
374.739	199.25
374.965	209.25
375.191	202.25
375.416	218.25
375.642	199.25
375.868	214.25
376.094	214.25
376.319	183.25
376.545	193.25
376.771	204.25
376.997	191.25
377.222	190.25
377.448	201.25
377.674	195.25
377.899	214.25
378.125	184.25
378.35	179.25
378.576	207.25
378.802	187.25
379.027	199.25
379.253	203.25
379.478	192.25
379.704	178.25
379.929	194.25
380.155	190.25
380.38	196.25
380.606	202.25
380.831	187.25
381.057	192.25
381.282	194.25
381.507	189.25
381.733	192.25
381.958	197.25
382.184	205.25
382.409	173.25
382.634	194.25
382.86	187.25
383.085	204.25
383.31	194.25
383.535	204.25
383.761	222.25
383.986	204.25
384.211	225.25
384.436	222.25
384.662	226.25
384.887	226.25
385.112	200.25
385.337	218.25
385.562	241.25
385.787	230.25
386.013	217.25
386.238	225.25
386.463	232.25
386.688	215.25
386.913	205.25
387.138	201.25
387.363	201.25
387.588	220.25
387.813	215.25
388.038	207.25
388.263	217.25
388.488	230.25
388.713	225.25
388.938	205.25
389.163	206.25
389.387	211.25
389.612	211.25
389.837	196.25
390.062	202.25
390.287	207.25
390.512	210.25
390.736	207.25
390.961	215.25
391.186	213.25
391.411	223.25
391.636	228.25
391.86	232.25
392.085	245.25
392.31	231.25
392.534	226.25
392.759	232.25
392.984	230.25
393.208	218.25
393.433	230.25
393.658	210.25
393.882	229.25
394.107	217.25
394.331	234.25
394.556	234.25
394.78	236.25
395.005	197.25
395.229	218.25
395.454	234.25
395.678	232.25
395.903	220.25
396.127	244.25
396.352	212.25
396.576	219.25
396.801	219.25
397.025	231.25
397.249	236.25
397.474	237.25
397.698	241.25
397.922	226.25
398.147	241.25
398.371	231.25
398.595	234.25
398.82	248.25
399.044	246.25
399.268	266.25
399.492	327.25
399.717	365.25
399.941	368.25
400.165	315.25
400.389	289.25
400.613	281.25
400.837	263.25
401.062	259.25
401.286	258.25
401.51	267.25
401.734	244.25
401.958	264.25
402.182	234.25
402.406	254.25
402.63	270.25
402.854	257.25
403.078	261.25
403.302	263.25
403.526	287.25
403.75	290.25
403.974	302.25
404.198	282.25
404.422	294.25
404.645	297.25
404.869	293.25
405.093	280.25
405.317	270.25
405.541	280.25
405.765	275.25
405.988	271.25
406.212	294.25
406.436	260.25
406.66	267.25
406.883	285.25
407.107	266.25
407.331	294.25
407.555	307.25
407.778	305.25
408.002	302.25
408.226	277.25
408.449	283.25
408.673	281.25
408.896	301.25
409.12	276.25
409.344	275.25
409.567	270.25
409.791	290.25
410.014	295.25
410.238	261.25
410.461	276.25
410.685	281.25
410.908	271.25
411.132	285.25
411.355	264.25
411.578	261.25
411.802	248.25
412.025	269.25
412.249	260.25
412.472	270.25
412.695	249.25
412.919	237.25
413.142	256.25
413.365	251.25
413.589	243.25
413.812	244.25
414.035	249.25
414.258	267.25
414.482	249.25
414.705	260.25
414.928	263.25
415.151	249.25
415.374	251.25
415.597	256.25
415.821	252.25
416.044	261.25
416.267	239.25
416.49	255.25
416.713	249.25
416.936	231.25
417.159	255.25
417.382	261.25
417.605	261.25
417.828	242.25
418.051	254.25
418.274	263.25
418.497	251.25
418.72	265.25
418.943	271.25
419.166	288.25
419.389	269.25
419.611	280.25
419.834	275.25
420.057	246.25
420.28	271.25
420.503	251.25
420.726	263.25
420.948	261.25
421.171	253.25
421.394	259.25
421.617	229.25
421.839	252.25
422.062	238.25
422.285	257.25
422.507	237.25
422.73	243.25
422.953	235.25
423.175	263.25
423.398	248.25
423.621	279.25
423.843	262.25
424.066	277.25
424.288	281.25
424.511	266.25
424.733	251.25
424.956	256.25
425.178	261.25
425.401	283.25
425.623	242.25
425.846	245.25
426.068	248.25
426.291	227.25
426.513	236.25
426.735	237.25
426.958	239.25
427.18	227.25
427.402	234.25
427.625	236.25
427.847	238.25
428.069	224.25
428.292	241.25
428.514	233.25
428.736	222.25
428.958	211.25
429.181	224.25
429.403	222.25
429.625	230.25
429.847	232.25
430.069	236.25
430.292	223.25
430.514	234.25
430.736	209.25
430.958	236.25
431.18	227.25
431.402	228.25
431.624	207.25
431.846	243.25
432.068	235.25
432.29	243.25
432.512	226.25
432.734	233.25
432.956	237.25
433.178	232.25
433.4	233.25
433.622	234.25
433.844	248.25
434.066	226.25
434.287	225.25
434.509	242.25
434.731	263.25
434.953	258.25
435.175	251.25
435.397	238.25
435.618	252.25
435.84	229.25
436.062	217.25
436.284	233.25
436.505	217.25
436.727	227.25
436.949	250.25
437.17	215.25
437.392	228.25
437.614	222.25
437.835	233.25
438.057	220.25
438.278	224.25
438.5	221.25
438.721	232.25
438.943	229.25
439.165	207.25
439.386	222.25
439.608	235.25
439.829	230.25
440.05	226.25
440.272	229.25
440.493	219.25
440.715	233.25
440.936	215.25
441.158	236.25
441.379	231.25
441.6	263.25
441.822	282.25
442.043	247.25
442.264	243.25
442.486	244.25
442.707	247.25
442.928	261.25
443.149	237.25
443.371	213.25
443.592	227.25
443.813	248.25
444.034	259.25
444.255	272.25
444.476	258.25
444.698	283.25
444.919	299.25
445.14	411.25
445.361	334.25
445.582	252.25
445.803	249.25
446.024	231.25
446.245	226.25
446.466	233.25
446.687	232.25
446.908	223.25
447.129	218.25
447.35	221.25
447.571	226.25
447.792	232.25
448.013	220.25
448.234	217.25
448.455	211.25
448.675	221.25
448.896	209.25
449.117	209.25
449.338	200.25
449.559	221.25
449.779	227.25
450	229.25
450.221	211.25
450.442	210.25
450.662	206.25
450.883	200.25
451.104	210.25
451.324	220.25
451.545	222.25
451.766	227.25
451.986	213.25
452.207	206.25
452.428	220.25
452.648	225.25
452.869	197.25
453.089	222.25
453.31	196.25
453.53	215.25
453.751	228.25
453.971	217.25
454.192	213.25
454.412	202.25
454.633	202.25
454.853	207.25
455.073	205.25
455.294	214.25
455.514	209.25
455.734	198.25
455.955	197.25
456.175	198.25
456.395	204.25
456.616	207.25
456.836	191.25
457.056	206.25
457.276	194.25
457.497	216.25
457.717	211.25
457.937	210.25
458.157	200.25
458.377	212.25
458.598	208.25
458.818	208.25
459.038	210.25
459.258	231.25
459.478	238.25
459.698	235.25
459.918	236.25
460.138	263.25
460.358	257.25
460.578	251.25
460.798	249.25
461.018	272.25
461.238	261.25
461.458	284.25
461.678	267.25
461.898	258.25
462.118	264.25
462.338	271.25
462.558	283.25
462.777	289.25
462.997	326.25
463.217	343.25
463.437	338.25
463.657	307.25
463.876	310.25
464.096	299.25
464.316	302.25
464.536	299.25
464.755	305.25
464.975	290.25
465.195	270.25
465.414	261.25
465.634	244.25
465.854	233.25
466.073	239.25
466.293	228.25
466.512	246.25
466.732	237.25
466.951	233.25
467.171	226.25
467.391	228.25
467.61	225.25
467.829	233.25
468.049	217.25
468.268	233.25
468.488	230.25
468.707	228.25
468.927	221.25
469.146	207.25
469.365	229.25
469.585	223.25
469.804	230.25
470.023	226.25
470.243	246.25
470.462	217.25
470.681	241.25
470.901	229.25
471.12	233.25
471.339	222.25
471.558	219.25
471.777	241.25
471.997	229.25
472.216	217.25
472.435	228.25
472.654	210.25
472.873	210.25
473.092	206.25
473.311	214.25
473.53	197.25
473.749	203.25
473.968	218.25
474.187	205.25
474.406	216.25
474.625	214.25
474.844	212.25
475.063	203.25
475.282	223.25
475.501	218.25
475.72	216.25
475.939	220.25
476.158	212.25
476.377	232.25
476.596	217.25
476.814	223.25
477.033	231.25
477.252	241.25
477.471	236.25
477.69	241.25
477.908	240.25
478.127	252.25
478.346	251.25
478.564	245.25
478.783	248.25
479.002	250.25
479.22	239.25
479.439	257.25
479.658	278.25
479.876	246.25
480.095	262.25
480.313	265.25
480.532	266.25
480.751	282.25
480.969	281.25
481.188	250.25
481.406	261.25
481.624	259.25
481.843	248.25
482.061	253.25
482.28	245.25
482.498	245.25
482.717	230.25
482.935	251.25
483.153	239.25
483.372	221.25
483.59	236.25
483.808	255.25
484.027	241.25
484.245	232.25
484.463	251.25
484.681	253.25
484.9	266.25
485.118	258.25
485.336	264.25
485.554	253.25
485.772	257.25
485.99	268.25
486.209	269.25
486.427	258.25
486.645	246.25
486.863	281.25
487.081	264.25
487.299	269.25
487.517	275.25
487.735	257.25
487.953	255.25
488.171	249.25
488.389	256.25
488.607	261.25
488.825	238.25
489.043	242.25
489.261	243.25
489.479	251.25
489.696	262.25
489.914	251.25
490.132	260.25
490.35	251.25
490.568	245.25
490.786	267.25
491.003	248.25
491.221	241.25
491.439	260.25
491.657	269.25
491.874	277.25
492.092	237.25
492.31	253.25
492.527	253.25
492.745	251.25
492.963	269.25
493.18	277.25
493.398	279.25
493.615	287.25
493.833	261.25
494.05	270.25
494.268	259.25
494.485	276.25
494.703	270.25
494.92	271.25
495.138	266.25
495.355	273.25
495.573	269.25
495.79	273.25
496.008	278.25
496.225	254.25
496.442	263.25
496.66	264.25
496.877	275.25
497.094	307.25
497.312	291.25
497.529	282.25
497.746	310.25
497.963	306.25
498.181	291.25
498.398	302.25
498.615	345.25
498.832	336.25
499.049	364.25
499.267	409.25
499.484	415.25
499.701	481.25
499.918	527.25
500.135	596.25
500.352	680.25
500.569	721.25
500.786	673.25
501.003	645.25
501.22	575.25
501.437	513.25
501.654	450.25
501.871	416.25
502.088	376.25
502.305	365.25
502.522	342.25
502.739	334.25
502.956	340.25
503.172	329.25
503.389	300.25
