Data from 0.5MCu(NO3)2.Standard.Lamp.E10.CV._HRD10591_16-04-31-753.txt Node
Date: Mon Jul 22 16:04:31 EDT 2019
User: cochatt
Spectrometer: HR+D1059
Trigger mode: 1
Integration Time (sec): 1.000000E-1
Scans to average: 1
Electric dark correction enabled: true
Nonlinearity correction enabled: false
Boxcar width: 0
XAxis mode: Wavelengths
Number of Pixels in Spectrum: 2048
>>>>>Begin Spectral Data<<<<<
223.165	-9.56
223.4	-9.56
223.635	-9.56
223.869	-19.56
224.104	-8.56
224.338	-3.56
224.573	-15.56
224.808	-17.56
225.042	-10.56
225.277	-17.56
225.511	3.44
225.746	5.44
225.98	9.44
226.215	7.44
226.449	11.44
226.683	8.44
226.918	23.44
227.152	33.44
227.387	33.44
227.621	33.44
227.856	61.44
228.09	51.44
228.324	65.44
228.559	76.44
228.793	68.44
229.027	71.44
229.262	71.44
229.496	84.44
229.73	92.44
229.964	92.44
230.199	69.44
230.433	90.44
230.667	103.44
230.901	86.44
231.136	85.44
231.37	100.44
231.604	96.44
231.838	81.44
232.072	84.44
232.306	88.44
232.541	105.44
232.775	95.44
233.009	84.44
233.243	74.44
233.477	91.44
233.711	89.44
233.945	93.44
234.179	89.44
234.413	85.44
234.647	88.44
234.881	78.44
235.115	95.44
235.349	94.44
235.583	110.44
235.817	94.44
236.051	85.44
236.285	94.44
236.519	95.44
236.753	93.44
236.987	91.44
237.221	89.44
237.455	76.44
237.689	83.44
237.922	89.44
238.156	92.44
238.39	87.44
238.624	99.44
238.858	84.44
239.091	92.44
239.325	99.44
239.559	97.44
239.793	94.44
240.027	77.44
240.26	82.44
240.494	94.44
240.728	92.44
240.961	89.44
241.195	101.44
241.429	111.44
241.662	93.44
241.896	88.44
242.13	85.44
242.363	95.44
242.597	108.44
242.83	108.44
243.064	106.44
243.298	100.44
243.531	102.44
243.765	74.44
243.998	87.44
244.232	85.44
244.465	100.44
244.699	81.44
244.932	95.44
245.166	100.44
245.399	102.44
245.633	107.44
245.866	92.44
246.099	101.44
246.333	111.44
246.566	90.44
246.8	103.44
247.033	99.44
247.266	95.44
247.5	95.44
247.733	97.44
247.966	96.44
248.2	105.44
248.433	97.44
248.666	80.44
248.899	113.44
249.133	98.44
249.366	102.44
249.599	98.44
249.832	108.44
250.066	115.44
250.299	106.44
250.532	89.44
250.765	108.44
250.998	115.44
251.231	100.44
251.465	103.44
251.698	98.44
251.931	101.44
252.164	111.44
252.397	94.44
252.63	98.44
252.863	115.44
253.096	112.44
253.329	106.44
253.562	117.44
253.795	122.44
254.028	125.44
254.261	106.44
254.494	81.44
254.727	119.44
254.96	112.44
255.193	105.44
255.426	108.44
255.659	107.44
255.892	127.44
256.124	115.44
256.357	104.44
256.59	106.44
256.823	111.44
257.056	109.44
257.289	106.44
257.521	127.44
257.754	123.44
257.987	126.44
258.22	123.44
258.452	121.44
258.685	130.44
258.918	109.44
259.151	121.44
259.383	105.44
259.616	117.44
259.849	125.44
260.081	119.44
260.314	123.44
260.547	115.44
260.779	125.44
261.012	127.44
261.244	120.44
261.477	118.44
261.71	116.44
261.942	105.44
262.175	121.44
262.407	129.44
262.64	124.44
262.872	120.44
263.105	134.44
263.337	133.44
263.57	129.44
263.802	107.44
264.035	133.44
264.267	112.44
264.499	139.44
264.732	126.44
264.964	129.44
265.197	129.44
265.429	128.44
265.661	119.44
265.894	131.44
266.126	130.44
266.358	118.44
266.591	120.44
266.823	124.44
267.055	124.44
267.287	154.44
267.52	121.44
267.752	128.44
267.984	136.44
268.216	139.44
268.448	121.44
268.681	135.44
268.913	123.44
269.145	126.44
269.377	125.44
269.609	118.44
269.841	119.44
270.073	135.44
270.306	126.44
270.538	131.44
270.77	133.44
271.002	131.44
271.234	130.44
271.466	148.44
271.698	141.44
271.93	131.44
272.162	130.44
272.394	136.44
272.626	128.44
272.858	130.44
273.09	135.44
273.322	143.44
273.553	140.44
273.785	139.44
274.017	120.44
274.249	133.44
274.481	121.44
274.713	127.44
274.945	139.44
275.176	137.44
275.408	140.44
275.64	140.44
275.872	152.44
276.104	127.44
276.335	147.44
276.567	128.44
276.799	128.44
277.031	125.44
277.262	127.44
277.494	136.44
277.726	135.44
277.957	138.44
278.189	142.44
278.421	124.44
278.652	134.44
278.884	132.44
279.115	136.44
279.347	143.44
279.579	143.44
279.81	135.44
280.042	133.44
280.273	135.44
280.505	149.44
280.736	135.44
280.968	162.44
281.199	157.44
281.431	145.44
281.662	147.44
281.894	156.44
282.125	147.44
282.356	158.44
282.588	137.44
282.819	157.44
283.051	151.44
283.282	152.44
283.513	167.44
283.745	146.44
283.976	157.44
284.207	155.44
284.439	154.44
284.67	145.44
284.901	159.44
285.132	144.44
285.364	156.44
285.595	152.44
285.826	138.44
286.057	153.44
286.288	151.44
286.52	156.44
286.751	165.44
286.982	158.44
287.213	161.44
287.444	147.44
287.675	157.44
287.906	156.44
288.138	159.44
288.369	160.44
288.6	153.44
288.831	162.44
289.062	159.44
289.293	159.44
289.524	144.44
289.755	152.44
289.986	159.44
290.217	142.44
290.448	145.44
290.679	164.44
290.91	164.44
291.141	142.44
291.371	157.44
291.602	159.44
291.833	158.44
292.064	170.44
292.295	167.44
292.526	158.44
292.757	161.44
292.987	169.44
293.218	177.44
293.449	166.44
293.68	168.44
293.91	169.44
294.141	151.44
294.372	153.44
294.603	169.44
294.833	164.44
295.064	175.44
295.295	171.44
295.525	172.44
295.756	174.44
295.987	175.44
296.217	167.44
296.448	163.44
296.679	173.44
296.909	159.44
297.14	175.44
297.37	179.44
297.601	175.44
297.831	189.44
298.062	169.44
298.292	183.44
298.523	183.44
298.753	183.44
298.984	182.44
299.214	158.44
299.445	168.44
299.675	178.44
299.905	176.44
300.136	182.44
300.366	189.44
300.597	169.44
300.827	185.44
301.057	186.44
301.288	166.44
301.518	192.44
301.748	194.44
301.979	174.44
302.209	177.44
302.439	181.44
302.669	188.44
302.9	173.44
303.13	172.44
303.36	185.44
303.59	179.44
303.82	176.44
304.051	170.44
304.281	182.44
304.511	169.44
304.741	159.44
304.971	183.44
305.201	190.44
305.431	178.44
305.661	163.44
305.891	185.44
306.121	163.44
306.352	184.44
306.582	190.44
306.812	193.44
307.042	185.44
307.272	176.44
307.502	171.44
307.731	171.44
307.961	163.44
308.191	161.44
308.421	182.44
308.651	191.44
308.881	173.44
309.111	176.44
309.341	174.44
309.571	168.44
309.8	181.44
310.03	176.44
310.26	171.44
310.49	183.44
310.72	180.44
310.949	167.44
311.179	191.44
311.409	174.44
311.639	184.44
311.868	161.44
312.098	178.44
312.328	183.44
312.557	189.44
312.787	165.44
313.017	176.44
313.246	179.44
313.476	187.44
313.706	182.44
313.935	166.44
314.165	183.44
314.394	175.44
314.624	181.44
314.853	174.44
315.083	194.44
315.312	189.44
315.542	185.44
315.771	176.44
316.001	187.44
316.23	197.44
316.46	185.44
316.689	201.44
316.919	190.44
317.148	179.44
317.377	196.44
317.607	172.44
317.836	189.44
318.065	197.44
318.295	190.44
318.524	183.44
318.753	185.44
318.983	192.44
319.212	190.44
319.441	175.44
319.67	183.44
319.9	176.44
320.129	186.44
320.358	165.44
320.587	173.44
320.816	176.44
321.046	202.44
321.275	180.44
321.504	183.44
321.733	183.44
321.962	167.44
322.191	181.44
322.42	187.44
322.649	185.44
322.878	170.44
323.108	181.44
323.337	183.44
323.566	189.44
323.795	179.44
324.024	185.44
324.253	184.44
324.482	191.44
324.71	195.44
324.939	182.44
325.168	185.44
325.397	195.44
325.626	188.44
325.855	177.44
326.084	187.44
326.313	187.44
326.542	209.44
326.77	208.44
326.999	199.44
327.228	182.44
327.457	203.44
327.686	201.44
327.914	202.44
328.143	196.44
328.372	177.44
328.6	193.44
328.829	183.44
329.058	183.44
329.287	190.44
329.515	180.44
329.744	173.44
329.972	188.44
330.201	199.44
330.43	215.44
330.658	217.44
330.887	199.44
331.115	192.44
331.344	196.44
331.572	208.44
331.801	215.44
332.03	210.44
332.258	205.44
332.486	195.44
332.715	208.44
332.943	211.44
333.172	226.44
333.4	247.44
333.629	249.44
333.857	212.44
334.085	228.44
334.314	240.44
334.542	237.44
334.771	215.44
334.999	234.44
335.227	220.44
335.455	219.44
335.684	206.44
335.912	208.44
336.14	213.44
336.369	221.44
336.597	222.44
336.825	214.44
337.053	228.44
337.281	209.44
337.51	208.44
337.738	219.44
337.966	203.44
338.194	221.44
338.422	199.44
338.65	210.44
338.878	212.44
339.106	205.44
339.334	227.44
339.562	206.44
339.79	204.44
340.018	194.44
340.246	201.44
340.474	196.44
340.702	190.44
340.93	193.44
341.158	205.44
341.386	213.44
341.614	199.44
341.842	201.44
342.07	200.44
342.298	201.44
342.526	192.44
342.754	195.44
342.981	205.44
343.209	204.44
343.437	212.44
343.665	227.44
343.893	233.44
344.12	228.44
344.348	210.44
344.576	217.44
344.804	224.44
345.031	216.44
345.259	203.44
345.487	205.44
345.714	193.44
345.942	183.44
346.17	186.44
346.397	194.44
346.625	195.44
346.853	193.44
347.08	196.44
347.308	171.44
347.535	192.44
347.763	188.44
347.99	209.44
348.218	202.44
348.445	192.44
348.673	181.44
348.9	201.44
349.128	195.44
349.355	192.44
349.583	213.44
349.81	191.44
350.037	201.44
350.265	187.44
350.492	188.44
350.72	193.44
350.947	190.44
351.174	185.44
351.402	185.44
351.629	187.44
351.856	190.44
352.083	196.44
352.311	184.44
352.538	176.44
352.765	191.44
352.992	193.44
353.22	180.44
353.447	185.44
353.674	183.44
353.901	188.44
354.128	195.44
354.355	187.44
354.583	191.44
354.81	192.44
355.037	180.44
355.264	168.44
355.491	198.44
355.718	193.44
355.945	185.44
356.172	190.44
356.399	192.44
356.626	189.44
356.853	182.44
357.08	188.44
357.307	196.44
357.534	199.44
357.761	184.44
357.988	190.44
358.215	191.44
358.441	186.44
358.668	193.44
358.895	185.44
359.122	209.44
359.349	202.44
359.576	200.44
359.802	191.44
360.029	205.44
360.256	190.44
360.483	181.44
360.709	197.44
360.936	191.44
361.163	189.44
361.39	171.44
361.616	193.44
361.843	178.44
362.07	182.44
362.296	201.44
362.523	182.44
362.749	183.44
362.976	195.44
363.203	166.44
363.429	184.44
363.656	196.44
363.882	190.44
364.109	176.44
364.335	190.44
364.562	185.44
364.788	196.44
365.015	201.44
365.241	190.44
365.468	197.44
365.694	179.44
365.92	188.44
366.147	176.44
366.373	189.44
366.599	192.44
366.826	180.44
367.052	201.44
367.278	173.44
367.505	181.44
367.731	175.44
367.957	195.44
368.184	172.44
368.41	199.44
368.636	182.44
368.862	190.44
369.089	187.44
369.315	188.44
369.541	196.44
369.767	189.44
369.993	175.44
370.219	194.44
370.445	193.44
370.672	189.44
370.898	191.44
371.124	220.44
371.35	200.44
371.576	204.44
371.802	206.44
372.028	210.44
372.254	197.44
372.48	192.44
372.706	201.44
372.932	222.44
373.158	211.44
373.384	189.44
373.61	216.44
373.835	201.44
374.061	204.44
374.287	202.44
374.513	199.44
374.739	225.44
374.965	213.44
375.191	214.44
375.416	223.44
375.642	199.44
375.868	214.44
376.094	196.44
376.319	200.44
376.545	205.44
376.771	199.44
376.997	211.44
377.222	196.44
377.448	188.44
377.674	191.44
377.899	207.44
378.125	189.44
378.35	201.44
378.576	202.44
378.802	193.44
379.027	215.44
379.253	179.44
379.478	197.44
379.704	201.44
379.929	203.44
380.155	218.44
380.38	204.44
380.606	190.44
380.831	192.44
381.057	192.44
381.282	205.44
381.507	205.44
381.733	201.44
381.958	208.44
382.184	195.44
382.409	215.44
382.634	224.44
382.86	220.44
383.085	198.44
383.31	200.44
383.535	211.44
383.761	212.44
383.986	209.44
384.211	212.44
384.436	224.44
384.662	227.44
384.887	225.44
385.112	237.44
385.337	241.44
385.562	215.44
385.787	230.44
386.013	218.44
386.238	218.44
386.463	227.44
386.688	237.44
386.913	231.44
387.138	223.44
387.363	227.44
387.588	234.44
387.813	212.44
388.038	219.44
388.263	220.44
388.488	220.44
388.713	209.44
388.938	226.44
389.163	216.44
389.387	209.44
389.612	208.44
389.837	214.44
390.062	213.44
390.287	228.44
390.512	211.44
390.736	243.44
390.961	219.44
391.186	227.44
391.411	221.44
391.636	233.44
391.86	217.44
392.085	233.44
392.31	235.44
392.534	231.44
392.759	223.44
392.984	243.44
393.208	225.44
393.433	226.44
393.658	243.44
393.882	227.44
394.107	228.44
394.331	221.44
394.556	226.44
394.78	234.44
395.005	246.44
395.229	222.44
395.454	229.44
395.678	229.44
395.903	240.44
396.127	247.44
396.352	247.44
396.576	220.44
396.801	232.44
397.025	227.44
397.249	226.44
397.474	242.44
397.698	247.44
397.922	247.44
398.147	225.44
398.371	235.44
398.595	238.44
398.82	235.44
399.044	272.44
399.268	298.44
399.492	333.44
399.717	376.44
399.941	351.44
400.165	305.44
400.389	284.44
400.613	271.44
400.837	273.44
401.062	241.44
401.286	245.44
401.51	259.44
401.734	232.44
401.958	255.44
402.182	254.44
402.406	247.44
402.63	287.44
402.854	263.44
403.078	277.44
403.302	274.44
403.526	295.44
403.75	310.44
403.974	293.44
404.198	288.44
404.422	298.44
404.645	307.44
404.869	291.44
405.093	277.44
405.317	281.44
405.541	274.44
405.765	269.44
405.988	270.44
406.212	273.44
406.436	292.44
406.66	287.44
406.883	285.44
407.107	289.44
407.331	312.44
407.555	323.44
407.778	318.44
408.002	325.44
408.226	299.44
408.449	290.44
408.673	281.44
408.896	288.44
409.12	273.44
409.344	300.44
409.567	287.44
409.791	291.44
410.014	303.44
410.238	288.44
410.461	285.44
410.685	285.44
410.908	277.44
411.132	281.44
411.355	270.44
411.578	271.44
411.802	265.44
412.025	277.44
412.249	258.44
412.472	254.44
412.695	279.44
412.919	267.44
413.142	249.44
413.365	253.44
413.589	259.44
413.812	251.44
414.035	253.44
414.258	257.44
414.482	260.44
414.705	264.44
414.928	258.44
415.151	265.44
415.374	281.44
415.597	265.44
415.821	245.44
416.044	243.44
416.267	247.44
416.49	251.44
416.713	239.44
416.936	265.44
417.159	252.44
417.382	255.44
417.605	254.44
417.828	251.44
418.051	257.44
418.274	259.44
418.497	266.44
418.72	266.44
418.943	276.44
419.166	286.44
419.389	271.44
419.611	284.44
419.834	277.44
420.057	280.44
420.28	263.44
420.503	257.44
420.726	256.44
420.948	255.44
421.171	254.44
421.394	251.44
421.617	271.44
421.839	265.44
422.062	247.44
422.285	235.44
422.507	267.44
422.73	254.44
422.953	262.44
423.175	261.44
423.398	283.44
423.621	293.44
423.843	259.44
424.066	271.44
424.288	245.44
424.511	272.44
424.733	276.44
424.956	269.44
425.178	268.44
425.401	249.44
425.623	269.44
425.846	239.44
426.068	244.44
426.291	235.44
426.513	234.44
426.735	228.44
426.958	243.44
427.18	243.44
427.402	240.44
427.625	231.44
427.847	231.44
428.069	228.44
428.292	234.44
428.514	239.44
428.736	243.44
428.958	232.44
429.181	219.44
429.403	234.44
429.625	252.44
429.847	232.44
430.069	236.44
430.292	232.44
430.514	227.44
430.736	229.44
430.958	242.44
431.18	236.44
431.402	219.44
431.624	237.44
431.846	246.44
432.068	235.44
432.29	240.44
432.512	241.44
432.734	222.44
432.956	241.44
433.178	227.44
433.4	236.44
433.622	246.44
433.844	236.44
434.066	235.44
434.287	249.44
434.509	244.44
434.731	260.44
434.953	231.44
435.175	259.44
435.397	260.44
435.618	249.44
435.84	244.44
436.062	255.44
436.284	231.44
436.505	237.44
436.727	253.44
436.949	251.44
437.17	228.44
437.392	229.44
437.614	229.44
437.835	235.44
438.057	213.44
438.278	229.44
438.5	215.44
438.721	219.44
438.943	223.44
439.165	229.44
439.386	222.44
439.608	248.44
439.829	219.44
440.05	231.44
440.272	236.44
440.493	231.44
440.715	241.44
440.936	255.44
441.158	236.44
441.379	240.44
441.6	249.44
441.822	267.44
442.043	261.44
442.264	254.44
442.486	235.44
442.707	255.44
442.928	259.44
443.149	233.44
443.371	244.44
443.592	243.44
443.813	267.44
444.034	253.44
444.255	267.44
444.476	259.44
444.698	285.44
444.919	285.44
445.14	417.44
445.361	319.44
445.582	250.44
445.803	255.44
446.024	247.44
446.245	246.44
446.466	228.44
446.687	249.44
446.908	221.44
447.129	231.44
447.35	235.44
447.571	208.44
447.792	234.44
448.013	216.44
448.234	218.44
448.455	215.44
448.675	211.44
448.896	216.44
449.117	217.44
449.338	221.44
449.559	225.44
449.779	207.44
450	207.44
450.221	211.44
450.442	219.44
450.662	213.44
450.883	218.44
451.104	224.44
451.324	220.44
451.545	240.44
451.766	221.44
451.986	250.44
452.207	230.44
452.428	221.44
452.648	198.44
452.869	227.44
453.089	227.44
453.31	216.44
453.53	218.44
453.751	213.44
453.971	232.44
454.192	213.44
454.412	207.44
454.633	224.44
454.853	230.44
455.073	212.44
455.294	212.44
455.514	204.44
455.734	208.44
455.955	216.44
456.175	223.44
456.395	229.44
456.616	215.44
456.836	208.44
457.056	205.44
457.276	201.44
457.497	208.44
457.717	210.44
457.937	221.44
458.157	222.44
458.377	209.44
458.598	215.44
458.818	219.44
459.038	209.44
459.258	222.44
459.478	223.44
459.698	236.44
459.918	248.44
460.138	262.44
460.358	301.44
460.578	260.44
460.798	271.44
461.018	271.44
461.238	243.44
461.458	270.44
461.678	267.44
461.898	272.44
462.118	280.44
462.338	289.44
462.558	273.44
462.777	299.44
462.997	313.44
463.217	328.44
463.437	338.44
463.657	333.44
463.876	321.44
464.096	295.44
464.316	300.44
464.536	326.44
464.755	307.44
464.975	305.44
465.195	263.44
465.414	273.44
465.634	248.44
465.854	229.44
466.073	245.44
466.293	243.44
466.512	223.44
466.732	225.44
466.951	220.44
467.171	238.44
467.391	229.44
467.61	218.44
467.829	227.44
468.049	220.44
468.268	227.44
468.488	209.44
468.707	223.44
468.927	216.44
469.146	217.44
469.365	236.44
469.585	234.44
469.804	245.44
470.023	227.44
470.243	233.44
470.462	240.44
470.681	251.44
470.901	235.44
471.12	242.44
471.339	233.44
471.558	231.44
471.777	238.44
471.997	230.44
472.216	233.44
472.435	204.44
472.654	221.44
472.873	223.44
473.092	221.44
473.311	211.44
473.53	233.44
473.749	238.44
473.968	232.44
474.187	214.44
474.406	205.44
474.625	223.44
474.844	244.44
475.063	202.44
475.282	233.44
475.501	226.44
475.72	223.44
475.939	234.44
476.158	224.44
476.377	227.44
476.596	233.44
476.814	234.44
477.033	222.44
477.252	254.44
477.471	237.44
477.69	249.44
477.908	265.44
478.127	265.44
478.346	263.44
478.564	267.44
478.783	244.44
479.002	254.44
479.22	263.44
479.439	254.44
479.658	249.44
479.876	254.44
480.095	266.44
480.313	276.44
480.532	283.44
480.751	284.44
480.969	286.44
481.188	259.44
481.406	267.44
481.624	264.44
481.843	249.44
482.061	254.44
482.28	236.44
482.498	257.44
482.717	227.44
482.935	245.44
483.153	236.44
483.372	257.44
483.59	250.44
483.808	266.44
484.027	247.44
484.245	265.44
484.463	265.44
484.681	267.44
484.9	249.44
485.118	259.44
485.336	268.44
485.554	265.44
485.772	271.44
485.99	261.44
486.209	280.44
486.427	267.44
486.645	269.44
486.863	271.44
487.081	255.44
487.299	279.44
487.517	280.44
487.735	283.44
487.953	255.44
488.171	263.44
488.389	263.44
488.607	263.44
488.825	266.44
489.043	271.44
489.261	269.44
489.479	267.44
489.696	254.44
489.914	248.44
490.132	266.44
490.35	248.44
490.568	267.44
490.786	264.44
491.003	263.44
491.221	259.44
491.439	284.44
491.657	279.44
491.874	293.44
492.092	265.44
492.31	253.44
492.527	264.44
492.745	277.44
492.963	282.44
493.18	267.44
493.398	291.44
493.615	284.44
493.833	266.44
494.05	267.44
494.268	244.44
494.485	272.44
494.703	268.44
494.92	279.44
495.138	271.44
495.355	269.44
495.573	266.44
495.79	266.44
496.008	284.44
496.225	268.44
496.442	269.44
496.66	276.44
496.877	290.44
497.094	288.44
497.312	280.44
497.529	292.44
497.746	285.44
497.963	316.44
498.181	313.44
498.398	318.44
498.615	343.44
498.832	351.44
499.049	376.44
499.267	400.44
499.484	439.44
499.701	475.44
499.918	530.44
500.135	581.44
500.352	693.44
500.569	736.44
500.786	727.44
501.003	648.44
501.22	585.44
501.437	535.44
501.654	462.44
501.871	419.44
502.088	411.44
502.305	367.44
502.522	360.44
502.739	342.44
502.956	323.44
503.172	328.44
