Data from 0.5MCu(NO3)2.Standard.Lamp.E10.CV._HRD10591_16-05-18-753.txt Node
Date: Mon Jul 22 16:05:18 EDT 2019
User: cochatt
Spectrometer: HR+D1059
Trigger mode: 1
Integration Time (sec): 1.000000E-1
Scans to average: 1
Electric dark correction enabled: true
Nonlinearity correction enabled: false
Boxcar width: 0
XAxis mode: Wavelengths
Number of Pixels in Spectrum: 2048
>>>>>Begin Spectral Data<<<<<
223.165	-16.94
223.4	-16.94
223.635	-16.94
223.869	-15.94
224.104	-13.94
224.338	-5.94
224.573	-14.94
224.808	-16.94
225.042	-7.94
225.277	-16.94
225.511	1.06
225.746	7.06
225.98	6.06
226.215	26.06
226.449	4.06
226.683	24.06
226.918	15.06
227.152	26.06
227.387	45.06
227.621	44.06
227.856	53.06
228.09	48.06
228.324	54.06
228.559	62.06
228.793	61.06
229.027	69.06
229.262	76.06
229.496	65.06
229.73	72.06
229.964	74.06
230.199	92.06
230.433	100.06
230.667	89.06
230.901	101.06
231.136	103.06
231.37	90.06
231.604	81.06
231.838	91.06
232.072	101.06
232.306	108.06
232.541	87.06
232.775	92.06
233.009	89.06
233.243	93.06
233.477	102.06
233.711	97.06
233.945	90.06
234.179	89.06
234.413	103.06
234.647	93.06
234.881	102.06
235.115	87.06
235.349	81.06
235.583	107.06
235.817	93.06
236.051	95.06
236.285	88.06
236.519	82.06
236.753	98.06
236.987	103.06
237.221	84.06
237.455	82.06
237.689	100.06
237.922	104.06
238.156	96.06
238.39	88.06
238.624	89.06
238.858	90.06
239.091	99.06
239.325	87.06
239.559	91.06
239.793	94.06
240.027	100.06
240.26	94.06
240.494	94.06
240.728	98.06
240.961	96.06
241.195	94.06
241.429	118.06
241.662	92.06
241.896	98.06
242.13	94.06
242.363	100.06
242.597	98.06
242.83	108.06
243.064	93.06
243.298	94.06
243.531	95.06
243.765	107.06
243.998	122.06
244.232	91.06
244.465	102.06
244.699	92.06
244.932	96.06
245.166	104.06
245.399	104.06
245.633	121.06
245.866	113.06
246.099	105.06
246.333	110.06
246.566	96.06
246.8	89.06
247.033	104.06
247.266	99.06
247.5	119.06
247.733	97.06
247.966	111.06
248.2	104.06
248.433	111.06
248.666	100.06
248.899	98.06
249.133	115.06
249.366	118.06
249.599	109.06
249.832	104.06
250.066	122.06
250.299	105.06
250.532	113.06
250.765	121.06
250.998	119.06
251.231	114.06
251.465	113.06
251.698	113.06
251.931	106.06
252.164	125.06
252.397	99.06
252.63	104.06
252.863	127.06
253.096	124.06
253.329	119.06
253.562	104.06
253.795	109.06
254.028	128.06
254.261	118.06
254.494	118.06
254.727	106.06
254.96	108.06
255.193	113.06
255.426	110.06
255.659	122.06
255.892	113.06
256.124	115.06
256.357	120.06
256.59	109.06
256.823	119.06
257.056	126.06
257.289	107.06
257.521	130.06
257.754	128.06
257.987	128.06
258.22	127.06
258.452	130.06
258.685	104.06
258.918	127.06
259.151	130.06
259.383	128.06
259.616	119.06
259.849	148.06
260.081	132.06
260.314	140.06
260.547	113.06
260.779	122.06
261.012	126.06
261.244	140.06
261.477	118.06
261.71	135.06
261.942	128.06
262.175	136.06
262.407	133.06
262.64	128.06
262.872	137.06
263.105	120.06
263.337	130.06
263.57	131.06
263.802	132.06
264.035	127.06
264.267	136.06
264.499	134.06
264.732	133.06
264.964	146.06
265.197	134.06
265.429	126.06
265.661	125.06
265.894	134.06
266.126	136.06
266.358	140.06
266.591	142.06
266.823	129.06
267.055	137.06
267.287	142.06
267.52	150.06
267.752	140.06
267.984	136.06
268.216	138.06
268.448	143.06
268.681	132.06
268.913	124.06
269.145	132.06
269.377	144.06
269.609	146.06
269.841	139.06
270.073	138.06
270.306	138.06
270.538	135.06
270.77	141.06
271.002	140.06
271.234	141.06
271.466	135.06
271.698	146.06
271.93	144.06
272.162	137.06
272.394	136.06
272.626	150.06
272.858	159.06
273.09	145.06
273.322	140.06
273.553	136.06
273.785	161.06
274.017	154.06
274.249	155.06
274.481	139.06
274.713	152.06
274.945	150.06
275.176	151.06
275.408	134.06
275.64	158.06
275.872	139.06
276.104	150.06
276.335	150.06
276.567	140.06
276.799	134.06
277.031	160.06
277.262	159.06
277.494	158.06
277.726	150.06
277.957	140.06
278.189	152.06
278.421	158.06
278.652	161.06
278.884	148.06
279.115	154.06
279.347	167.06
279.579	161.06
279.81	167.06
280.042	151.06
280.273	146.06
280.505	150.06
280.736	165.06
280.968	136.06
281.199	153.06
281.431	152.06
281.662	153.06
281.894	166.06
282.125	149.06
282.356	164.06
282.588	171.06
282.819	154.06
283.051	166.06
283.282	160.06
283.513	165.06
283.745	164.06
283.976	152.06
284.207	164.06
284.439	162.06
284.67	156.06
284.901	168.06
285.132	170.06
285.364	161.06
285.595	162.06
285.826	171.06
286.057	163.06
286.288	160.06
286.52	169.06
286.751	172.06
286.982	177.06
287.213	181.06
287.444	182.06
287.675	165.06
287.906	154.06
288.138	184.06
288.369	169.06
288.6	166.06
288.831	178.06
289.062	169.06
289.293	170.06
289.524	169.06
289.755	164.06
289.986	173.06
290.217	161.06
290.448	185.06
290.679	176.06
290.91	184.06
291.141	177.06
291.371	174.06
291.602	187.06
291.833	182.06
292.064	184.06
292.295	197.06
292.526	190.06
292.757	165.06
292.987	171.06
293.218	164.06
293.449	169.06
293.68	171.06
293.91	176.06
294.141	176.06
294.372	187.06
294.603	175.06
294.833	177.06
295.064	188.06
295.295	177.06
295.525	184.06
295.756	177.06
295.987	172.06
296.217	165.06
296.448	177.06
296.679	176.06
296.909	168.06
297.14	168.06
297.37	165.06
297.601	177.06
297.831	203.06
298.062	191.06
298.292	185.06
298.523	192.06
298.753	199.06
298.984	185.06
299.214	192.06
299.445	193.06
299.675	191.06
299.905	188.06
300.136	183.06
300.366	180.06
300.597	173.06
300.827	208.06
301.057	195.06
301.288	199.06
301.518	198.06
301.748	202.06
301.979	198.06
302.209	195.06
302.439	196.06
302.669	187.06
302.9	201.06
303.13	190.06
303.36	176.06
303.59	182.06
303.82	192.06
304.051	189.06
304.281	202.06
304.511	189.06
304.741	184.06
304.971	192.06
305.201	197.06
305.431	184.06
305.661	190.06
305.891	187.06
306.121	195.06
306.352	194.06
306.582	205.06
306.812	194.06
307.042	197.06
307.272	184.06
307.502	184.06
307.731	187.06
307.961	193.06
308.191	182.06
308.421	182.06
308.651	198.06
308.881	192.06
309.111	194.06
309.341	188.06
309.571	182.06
309.8	184.06
310.03	197.06
310.26	188.06
310.49	184.06
310.72	199.06
310.949	185.06
311.179	193.06
311.409	199.06
311.639	192.06
311.868	192.06
312.098	205.06
312.328	196.06
312.557	201.06
312.787	198.06
313.017	190.06
313.246	192.06
313.476	211.06
313.706	205.06
313.935	199.06
314.165	212.06
314.394	210.06
314.624	202.06
314.853	204.06
315.083	189.06
315.312	221.06
315.542	200.06
315.771	201.06
316.001	201.06
316.23	201.06
316.46	198.06
316.689	188.06
316.919	205.06
317.148	196.06
317.377	200.06
317.607	202.06
317.836	193.06
318.065	200.06
318.295	209.06
318.524	194.06
318.753	207.06
318.983	188.06
319.212	189.06
319.441	215.06
319.67	210.06
319.9	203.06
320.129	199.06
320.358	210.06
320.587	201.06
320.816	187.06
321.046	191.06
321.275	198.06
321.504	200.06
321.733	206.06
321.962	207.06
322.191	198.06
322.42	193.06
322.649	184.06
322.878	212.06
323.108	195.06
323.337	194.06
323.566	198.06
323.795	202.06
324.024	210.06
324.253	197.06
324.482	207.06
324.71	199.06
324.939	211.06
325.168	200.06
325.397	190.06
325.626	198.06
325.855	198.06
326.084	213.06
326.313	215.06
326.542	213.06
326.77	200.06
326.999	208.06
327.228	215.06
327.457	205.06
327.686	217.06
327.914	205.06
328.143	202.06
328.372	206.06
328.6	207.06
328.829	196.06
329.058	201.06
329.287	204.06
329.515	209.06
329.744	207.06
329.972	206.06
330.201	204.06
330.43	213.06
330.658	217.06
330.887	206.06
331.115	203.06
331.344	226.06
331.572	210.06
331.801	216.06
332.03	230.06
332.258	225.06
332.486	233.06
332.715	245.06
332.943	253.06
333.172	254.06
333.4	258.06
333.629	254.06
333.857	259.06
334.085	254.06
334.314	271.06
334.542	256.06
334.771	247.06
334.999	225.06
335.227	229.06
335.455	225.06
335.684	237.06
335.912	248.06
336.14	232.06
336.369	240.06
336.597	249.06
336.825	237.06
337.053	236.06
337.281	249.06
337.51	233.06
337.738	232.06
337.966	220.06
338.194	244.06
338.422	230.06
338.65	234.06
338.878	231.06
339.106	234.06
339.334	224.06
339.562	225.06
339.79	224.06
340.018	208.06
340.246	211.06
340.474	245.06
340.702	235.06
340.93	206.06
341.158	217.06
341.386	215.06
341.614	234.06
341.842	214.06
342.07	206.06
342.298	221.06
342.526	211.06
342.754	218.06
342.981	203.06
343.209	221.06
343.437	216.06
343.665	231.06
343.893	246.06
344.12	240.06
344.348	264.06
344.576	236.06
344.804	226.06
345.031	201.06
345.259	229.06
345.487	223.06
345.714	216.06
345.942	215.06
346.17	211.06
346.397	206.06
346.625	204.06
346.853	217.06
347.08	217.06
347.308	232.06
347.535	215.06
347.763	207.06
347.99	214.06
348.218	220.06
348.445	219.06
348.673	202.06
348.9	224.06
349.128	208.06
349.355	203.06
349.583	209.06
349.81	209.06
350.037	208.06
350.265	204.06
350.492	192.06
350.72	220.06
350.947	209.06
351.174	198.06
351.402	198.06
351.629	202.06
351.856	195.06
352.083	206.06
352.311	191.06
352.538	207.06
352.765	213.06
352.992	216.06
353.22	204.06
353.447	201.06
353.674	210.06
353.901	205.06
354.128	196.06
354.355	218.06
354.583	211.06
354.81	199.06
355.037	216.06
355.264	215.06
355.491	220.06
355.718	210.06
355.945	206.06
356.172	213.06
356.399	207.06
356.626	198.06
356.853	188.06
357.08	202.06
357.307	204.06
357.534	200.06
357.761	218.06
357.988	197.06
358.215	210.06
358.441	188.06
358.668	218.06
358.895	204.06
359.122	201.06
359.349	208.06
359.576	208.06
359.802	207.06
360.029	202.06
360.256	216.06
360.483	199.06
360.709	210.06
360.936	213.06
361.163	198.06
361.39	196.06
361.616	202.06
361.843	208.06
362.07	205.06
362.296	215.06
362.523	189.06
362.749	190.06
362.976	181.06
363.203	216.06
363.429	188.06
363.656	194.06
363.882	191.06
364.109	222.06
364.335	192.06
364.562	206.06
364.788	211.06
365.015	202.06
365.241	169.06
365.468	197.06
365.694	190.06
365.92	192.06
366.147	207.06
366.373	201.06
366.599	194.06
366.826	199.06
367.052	192.06
367.278	189.06
367.505	202.06
367.731	196.06
367.957	200.06
368.184	194.06
368.41	189.06
368.636	183.06
368.862	192.06
369.089	185.06
369.315	199.06
369.541	207.06
369.767	214.06
369.993	212.06
370.219	209.06
370.445	201.06
370.672	209.06
370.898	219.06
371.124	204.06
371.35	207.06
371.576	219.06
371.802	221.06
372.028	215.06
372.254	220.06
372.48	217.06
372.706	222.06
372.932	214.06
373.158	214.06
373.384	209.06
373.61	217.06
373.835	213.06
374.061	204.06
374.287	230.06
374.513	224.06
374.739	229.06
374.965	224.06
375.191	233.06
375.416	228.06
375.642	220.06
375.868	228.06
376.094	222.06
376.319	224.06
376.545	206.06
376.771	213.06
376.997	207.06
377.222	212.06
377.448	194.06
377.674	214.06
377.899	215.06
378.125	216.06
378.35	209.06
378.576	208.06
378.802	217.06
379.027	217.06
379.253	213.06
379.478	210.06
379.704	204.06
379.929	205.06
380.155	197.06
380.38	217.06
380.606	213.06
380.831	207.06
381.057	220.06
381.282	215.06
381.507	199.06
381.733	196.06
381.958	214.06
382.184	214.06
382.409	229.06
382.634	229.06
382.86	234.06
383.085	217.06
383.31	228.06
383.535	217.06
383.761	233.06
383.986	247.06
384.211	237.06
384.436	244.06
384.662	241.06
384.887	254.06
385.112	255.06
385.337	247.06
385.562	231.06
385.787	236.06
386.013	248.06
386.238	251.06
386.463	248.06
386.688	238.06
386.913	234.06
387.138	242.06
387.363	225.06
387.588	221.06
387.813	230.06
388.038	247.06
388.263	240.06
388.488	229.06
388.713	236.06
388.938	239.06
389.163	245.06
389.387	247.06
389.612	223.06
389.837	229.06
390.062	238.06
390.287	238.06
390.512	241.06
390.736	238.06
390.961	233.06
391.186	221.06
391.411	266.06
391.636	253.06
391.86	275.06
392.085	255.06
392.31	253.06
392.534	260.06
392.759	255.06
392.984	226.06
393.208	246.06
393.433	249.06
393.658	248.06
393.882	229.06
394.107	261.06
394.331	258.06
394.556	249.06
394.78	251.06
395.005	249.06
395.229	229.06
395.454	271.06
395.678	268.06
395.903	245.06
396.127	256.06
396.352	254.06
396.576	246.06
396.801	247.06
397.025	228.06
397.249	264.06
397.474	248.06
397.698	255.06
397.922	256.06
398.147	237.06
398.371	257.06
398.595	270.06
398.82	272.06
399.044	287.06
399.268	306.06
399.492	353.06
399.717	393.06
399.941	391.06
400.165	355.06
400.389	326.06
400.613	299.06
400.837	278.06
401.062	285.06
401.286	260.06
401.51	277.06
401.734	280.06
401.958	276.06
402.182	276.06
402.406	279.06
402.63	293.06
402.854	299.06
403.078	292.06
403.302	313.06
403.526	302.06
403.75	311.06
403.974	314.06
404.198	312.06
404.422	334.06
404.645	294.06
404.869	301.06
405.093	297.06
405.317	292.06
405.541	300.06
405.765	310.06
405.988	295.06
406.212	296.06
406.436	295.06
406.66	293.06
406.883	310.06
407.107	305.06
407.331	342.06
407.555	369.06
407.778	344.06
408.002	345.06
408.226	318.06
408.449	332.06
408.673	299.06
408.896	301.06
409.12	295.06
409.344	292.06
409.567	290.06
409.791	311.06
410.014	310.06
410.238	317.06
410.461	305.06
410.685	287.06
410.908	310.06
411.132	286.06
411.355	295.06
411.578	296.06
411.802	302.06
412.025	281.06
412.249	300.06
412.472	302.06
412.695	288.06
412.919	271.06
413.142	262.06
413.365	284.06
413.589	278.06
413.812	290.06
414.035	288.06
414.258	271.06
414.482	257.06
414.705	292.06
414.928	271.06
415.151	297.06
415.374	283.06
415.597	266.06
415.821	254.06
416.044	260.06
416.267	280.06
416.49	269.06
416.713	260.06
416.936	269.06
417.159	249.06
417.382	264.06
417.605	279.06
417.828	306.06
418.051	278.06
418.274	279.06
418.497	280.06
418.72	268.06
418.943	282.06
419.166	300.06
419.389	289.06
419.611	292.06
419.834	316.06
420.057	275.06
420.28	297.06
420.503	284.06
420.726	276.06
420.948	271.06
421.171	282.06
421.394	282.06
421.617	266.06
421.839	268.06
422.062	284.06
422.285	279.06
422.507	281.06
422.73	306.06
422.953	279.06
423.175	288.06
423.398	283.06
423.621	293.06
423.843	296.06
424.066	298.06
424.288	300.06
424.511	287.06
424.733	284.06
424.956	294.06
425.178	272.06
425.401	275.06
425.623	276.06
425.846	262.06
426.068	261.06
426.291	268.06
426.513	264.06
426.735	258.06
426.958	274.06
427.18	265.06
427.402	252.06
427.625	242.06
427.847	256.06
428.069	254.06
428.292	252.06
428.514	248.06
428.736	232.06
428.958	248.06
429.181	248.06
429.403	260.06
429.625	244.06
429.847	233.06
430.069	248.06
430.292	245.06
430.514	240.06
430.736	244.06
430.958	242.06
431.18	262.06
431.402	244.06
431.624	253.06
431.846	248.06
432.068	257.06
432.29	265.06
432.512	261.06
432.734	263.06
432.956	241.06
433.178	241.06
433.4	251.06
433.622	268.06
433.844	272.06
434.066	273.06
434.287	255.06
434.509	261.06
434.731	263.06
434.953	269.06
435.175	269.06
435.397	255.06
435.618	238.06
435.84	238.06
436.062	251.06
436.284	266.06
436.505	254.06
436.727	253.06
436.949	248.06
437.17	247.06
437.392	247.06
437.614	250.06
437.835	255.06
438.057	252.06
438.278	219.06
438.5	240.06
438.721	234.06
438.943	222.06
439.165	233.06
439.386	252.06
439.608	239.06
439.829	246.06
440.05	248.06
440.272	259.06
440.493	266.06
440.715	278.06
440.936	257.06
441.158	271.06
441.379	256.06
441.6	291.06
441.822	276.06
442.043	289.06
442.264	248.06
442.486	278.06
442.707	271.06
442.928	266.06
443.149	264.06
443.371	281.06
443.592	267.06
443.813	288.06
444.034	284.06
444.255	296.06
444.476	298.06
444.698	317.06
444.919	327.06
445.14	437.06
445.361	352.06
445.582	290.06
445.803	270.06
446.024	272.06
446.245	266.06
446.466	235.06
446.687	244.06
446.908	260.06
447.129	265.06
447.35	232.06
447.571	237.06
447.792	243.06
448.013	218.06
448.234	235.06
448.455	222.06
448.675	220.06
448.896	237.06
449.117	225.06
449.338	234.06
449.559	233.06
449.779	232.06
450	244.06
450.221	224.06
450.442	212.06
450.662	235.06
450.883	228.06
451.104	249.06
451.324	252.06
451.545	246.06
451.766	224.06
451.986	233.06
452.207	252.06
452.428	230.06
452.648	236.06
452.869	222.06
453.089	228.06
453.31	218.06
453.53	224.06
453.751	240.06
453.971	225.06
454.192	227.06
454.412	235.06
454.633	235.06
454.853	242.06
455.073	227.06
455.294	226.06
455.514	230.06
455.734	224.06
455.955	215.06
456.175	212.06
456.395	228.06
456.616	204.06
456.836	237.06
457.056	208.06
457.276	229.06
457.497	225.06
457.717	223.06
457.937	235.06
458.157	220.06
458.377	204.06
458.598	236.06
458.818	242.06
459.038	265.06
459.258	253.06
459.478	246.06
459.698	253.06
459.918	277.06
460.138	282.06
460.358	283.06
460.578	292.06
460.798	288.06
461.018	301.06
461.238	278.06
461.458	293.06
461.678	278.06
461.898	265.06
462.118	278.06
462.338	291.06
462.558	305.06
462.777	308.06
462.997	345.06
463.217	370.06
463.437	391.06
463.657	348.06
463.876	319.06
464.096	324.06
464.316	317.06
464.536	317.06
464.755	324.06
464.975	300.06
465.195	278.06
465.414	290.06
465.634	276.06
465.854	264.06
466.073	251.06
466.293	245.06
466.512	250.06
466.732	249.06
466.951	232.06
467.171	240.06
467.391	254.06
467.61	249.06
467.829	257.06
468.049	228.06
468.268	244.06
468.488	229.06
468.707	220.06
468.927	238.06
469.146	244.06
469.365	239.06
469.585	234.06
469.804	246.06
470.023	255.06
470.243	255.06
470.462	255.06
470.681	261.06
470.901	249.06
471.12	246.06
471.339	256.06
471.558	235.06
471.777	241.06
471.997	246.06
472.216	241.06
472.435	237.06
472.654	235.06
472.873	244.06
473.092	240.06
473.311	249.06
473.53	228.06
473.749	244.06
473.968	229.06
474.187	223.06
474.406	232.06
474.625	233.06
474.844	239.06
475.063	228.06
475.282	233.06
475.501	234.06
475.72	241.06
475.939	246.06
476.158	251.06
476.377	242.06
476.596	230.06
476.814	224.06
477.033	257.06
477.252	251.06
477.471	249.06
477.69	248.06
477.908	259.06
478.127	257.06
478.346	272.06
478.564	283.06
478.783	268.06
479.002	275.06
479.22	283.06
479.439	280.06
479.658	282.06
479.876	273.06
480.095	274.06
480.313	290.06
480.532	301.06
480.751	318.06
480.969	286.06
481.188	276.06
481.406	267.06
481.624	272.06
481.843	249.06
482.061	264.06
482.28	276.06
482.498	259.06
482.717	260.06
482.935	257.06
483.153	262.06
483.372	254.06
483.59	285.06
483.808	253.06
484.027	252.06
484.245	281.06
484.463	272.06
484.681	278.06
484.9	273.06
485.118	274.06
485.336	270.06
485.554	278.06
485.772	286.06
485.99	284.06
486.209	308.06
486.427	288.06
486.645	287.06
486.863	299.06
487.081	274.06
487.299	298.06
487.517	289.06
487.735	265.06
487.953	274.06
488.171	289.06
488.389	293.06
488.607	279.06
488.825	286.06
489.043	260.06
489.261	273.06
489.479	272.06
489.696	286.06
489.914	275.06
490.132	273.06
490.35	276.06
490.568	277.06
490.786	288.06
491.003	284.06
491.221	288.06
491.439	273.06
491.657	280.06
491.874	290.06
492.092	282.06
492.31	274.06
492.527	293.06
492.745	297.06
492.963	287.06
493.18	275.06
493.398	303.06
493.615	297.06
493.833	305.06
494.05	296.06
494.268	290.06
494.485	301.06
494.703	300.06
494.92	291.06
495.138	285.06
495.355	293.06
495.573	286.06
495.79	300.06
496.008	291.06
496.225	278.06
496.442	282.06
496.66	298.06
496.877	297.06
497.094	305.06
497.312	306.06
497.529	304.06
497.746	302.06
497.963	337.06
498.181	322.06
498.398	332.06
498.615	359.06
498.832	384.06
499.049	430.06
499.267	437.06
499.484	492.06
499.701	494.06
499.918	582.06
500.135	658.06
500.352	754.06
500.569	775.06
500.786	784.06
501.003	715.06
501.22	614.06
501.437	571.06
501.654	497.06
501.871	472.06
502.088	426.06
502.305	394.06
502.522	388.06
502.739	379.06
502.956	364.06
