Data from 0.5MCu(NO3)2.Standard.Lamp.E10.CV._HRD10591_16-04-08-753.txt Node
Date: Mon Jul 22 16:04:08 EDT 2019
User: cochatt
Spectrometer: HR+D1059
Trigger mode: 1
Integration Time (sec): 1.000000E-1
Scans to average: 1
Electric dark correction enabled: true
Nonlinearity correction enabled: false
Boxcar width: 0
XAxis mode: Wavelengths
Number of Pixels in Spectrum: 2048
>>>>>Begin Spectral Data<<<<<
223.165	-15.94
223.4	-15.94
223.635	-15.94
223.869	-29.94
224.104	-16.94
224.338	-9.94
224.573	-5.94
224.808	-7.94
225.042	1.06
225.277	-6.94
225.511	9.06
225.746	12.06
225.98	0.06
226.215	-8.94
226.449	20.06
226.683	13.06
226.918	28.06
227.152	19.06
227.387	26.06
227.621	19.06
227.856	46.06
228.09	46.06
228.324	43.06
228.559	54.06
228.793	56.06
229.027	64.06
229.262	67.06
229.496	63.06
229.73	75.06
229.964	81.06
230.199	83.06
230.433	97.06
230.667	92.06
230.901	83.06
231.136	70.06
231.37	104.06
231.604	89.06
231.838	86.06
232.072	87.06
232.306	95.06
232.541	78.06
232.775	85.06
233.009	79.06
233.243	97.06
233.477	93.06
233.711	83.06
233.945	94.06
234.179	92.06
234.413	95.06
234.647	84.06
234.881	97.06
235.115	92.06
235.349	79.06
235.583	84.06
235.817	93.06
236.051	79.06
236.285	82.06
236.519	67.06
236.753	85.06
236.987	93.06
237.221	86.06
237.455	94.06
237.689	105.06
237.922	92.06
238.156	95.06
238.39	105.06
238.624	88.06
238.858	99.06
239.091	88.06
239.325	82.06
239.559	105.06
239.793	82.06
240.027	88.06
240.26	102.06
240.494	100.06
240.728	77.06
240.961	88.06
241.195	87.06
241.429	99.06
241.662	90.06
241.896	90.06
242.13	91.06
242.363	99.06
242.597	97.06
242.83	103.06
243.064	90.06
243.298	102.06
243.531	100.06
243.765	88.06
243.998	94.06
244.232	96.06
244.465	89.06
244.699	85.06
244.932	85.06
245.166	103.06
245.399	97.06
245.633	89.06
245.866	108.06
246.099	106.06
246.333	98.06
246.566	107.06
246.8	98.06
247.033	98.06
247.266	106.06
247.5	110.06
247.733	116.06
247.966	107.06
248.2	92.06
248.433	105.06
248.666	99.06
248.899	94.06
249.133	106.06
249.366	101.06
249.599	113.06
249.832	118.06
250.066	107.06
250.299	115.06
250.532	115.06
250.765	122.06
250.998	99.06
251.231	103.06
251.465	124.06
251.698	98.06
251.931	101.06
252.164	106.06
252.397	119.06
252.63	104.06
252.863	106.06
253.096	115.06
253.329	108.06
253.562	108.06
253.795	116.06
254.028	132.06
254.261	122.06
254.494	114.06
254.727	133.06
254.96	124.06
255.193	102.06
255.426	111.06
255.659	119.06
255.892	122.06
256.124	119.06
256.357	119.06
256.59	110.06
256.823	102.06
257.056	119.06
257.289	102.06
257.521	103.06
257.754	106.06
257.987	110.06
258.22	124.06
258.452	104.06
258.685	126.06
258.918	111.06
259.151	122.06
259.383	126.06
259.616	129.06
259.849	124.06
260.081	119.06
260.314	121.06
260.547	121.06
260.779	129.06
261.012	122.06
261.244	112.06
261.477	135.06
261.71	118.06
261.942	118.06
262.175	135.06
262.407	124.06
262.64	122.06
262.872	126.06
263.105	118.06
263.337	124.06
263.57	134.06
263.802	131.06
264.035	138.06
264.267	133.06
264.499	126.06
264.732	134.06
264.964	128.06
265.197	122.06
265.429	121.06
265.661	130.06
265.894	131.06
266.126	130.06
266.358	132.06
266.591	132.06
266.823	124.06
267.055	144.06
267.287	135.06
267.52	139.06
267.752	139.06
267.984	140.06
268.216	138.06
268.448	146.06
268.681	141.06
268.913	130.06
269.145	138.06
269.377	145.06
269.609	138.06
269.841	124.06
270.073	136.06
270.306	132.06
270.538	130.06
270.77	142.06
271.002	150.06
271.234	108.06
271.466	130.06
271.698	140.06
271.93	141.06
272.162	129.06
272.394	139.06
272.626	132.06
272.858	122.06
273.09	128.06
273.322	148.06
273.553	138.06
273.785	140.06
274.017	136.06
274.249	137.06
274.481	138.06
274.713	137.06
274.945	141.06
275.176	152.06
275.408	144.06
275.64	152.06
275.872	162.06
276.104	142.06
276.335	133.06
276.567	146.06
276.799	156.06
277.031	148.06
277.262	144.06
277.494	152.06
277.726	150.06
277.957	142.06
278.189	151.06
278.421	150.06
278.652	154.06
278.884	174.06
279.115	143.06
279.347	164.06
279.579	139.06
279.81	162.06
280.042	154.06
280.273	153.06
280.505	146.06
280.736	156.06
280.968	147.06
281.199	164.06
281.431	154.06
281.662	154.06
281.894	172.06
282.125	159.06
282.356	150.06
282.588	154.06
282.819	161.06
283.051	146.06
283.282	174.06
283.513	156.06
283.745	151.06
283.976	160.06
284.207	148.06
284.439	153.06
284.67	167.06
284.901	163.06
285.132	174.06
285.364	160.06
285.595	162.06
285.826	165.06
286.057	166.06
286.288	155.06
286.52	160.06
286.751	166.06
286.982	153.06
287.213	179.06
287.444	176.06
287.675	166.06
287.906	172.06
288.138	170.06
288.369	165.06
288.6	182.06
288.831	175.06
289.062	180.06
289.293	169.06
289.524	154.06
289.755	183.06
289.986	170.06
290.217	178.06
290.448	177.06
290.679	170.06
290.91	181.06
291.141	174.06
291.371	165.06
291.602	163.06
291.833	167.06
292.064	178.06
292.295	179.06
292.526	158.06
292.757	186.06
292.987	174.06
293.218	182.06
293.449	179.06
293.68	174.06
293.91	168.06
294.141	175.06
294.372	174.06
294.603	180.06
294.833	162.06
295.064	188.06
295.295	195.06
295.525	181.06
295.756	196.06
295.987	184.06
296.217	184.06
296.448	185.06
296.679	188.06
296.909	175.06
297.14	186.06
297.37	192.06
297.601	182.06
297.831	190.06
298.062	191.06
298.292	194.06
298.523	192.06
298.753	181.06
298.984	193.06
299.214	199.06
299.445	194.06
299.675	183.06
299.905	190.06
300.136	179.06
300.366	190.06
300.597	178.06
300.827	207.06
301.057	212.06
301.288	181.06
301.518	208.06
301.748	190.06
301.979	195.06
302.209	214.06
302.439	185.06
302.669	198.06
302.9	186.06
303.13	184.06
303.36	188.06
303.59	176.06
303.82	184.06
304.051	194.06
304.281	189.06
304.511	198.06
304.741	189.06
304.971	196.06
305.201	190.06
305.431	184.06
305.661	196.06
305.891	183.06
306.121	179.06
306.352	187.06
306.582	188.06
306.812	202.06
307.042	178.06
307.272	199.06
307.502	194.06
307.731	203.06
307.961	195.06
308.191	190.06
308.421	200.06
308.651	190.06
308.881	188.06
309.111	182.06
309.341	185.06
309.571	205.06
309.8	184.06
310.03	203.06
310.26	212.06
310.49	179.06
310.72	202.06
310.949	185.06
311.179	193.06
311.409	185.06
311.639	177.06
311.868	196.06
312.098	206.06
312.328	178.06
312.557	208.06
312.787	209.06
313.017	198.06
313.246	200.06
313.476	199.06
313.706	207.06
313.935	197.06
314.165	183.06
314.394	210.06
314.624	199.06
314.853	190.06
315.083	184.06
315.312	205.06
315.542	212.06
315.771	201.06
316.001	212.06
316.23	209.06
316.46	188.06
316.689	203.06
316.919	180.06
317.148	193.06
317.377	219.06
317.607	180.06
317.836	183.06
318.065	202.06
318.295	198.06
318.524	196.06
318.753	195.06
318.983	205.06
319.212	190.06
319.441	199.06
319.67	203.06
319.9	199.06
320.129	195.06
320.358	197.06
320.587	183.06
320.816	184.06
321.046	190.06
321.275	190.06
321.504	202.06
321.733	184.06
321.962	190.06
322.191	204.06
322.42	190.06
322.649	197.06
322.878	203.06
323.108	204.06
323.337	206.06
323.566	199.06
323.795	205.06
324.024	200.06
324.253	190.06
324.482	198.06
324.71	187.06
324.939	226.06
325.168	200.06
325.397	210.06
325.626	210.06
325.855	230.06
326.084	211.06
326.313	215.06
326.542	203.06
326.77	212.06
326.999	220.06
327.228	215.06
327.457	212.06
327.686	218.06
327.914	219.06
328.143	209.06
328.372	219.06
328.6	204.06
328.829	193.06
329.058	202.06
329.287	213.06
329.515	190.06
329.744	229.06
329.972	214.06
330.201	219.06
330.43	217.06
330.658	202.06
330.887	202.06
331.115	213.06
331.344	199.06
331.572	217.06
331.801	238.06
332.03	233.06
332.258	230.06
332.486	244.06
332.715	229.06
332.943	238.06
333.172	242.06
333.4	275.06
333.629	275.06
333.857	266.06
334.085	261.06
334.314	258.06
334.542	266.06
334.771	253.06
334.999	232.06
335.227	229.06
335.455	228.06
335.684	246.06
335.912	250.06
336.14	231.06
336.369	252.06
336.597	242.06
336.825	233.06
337.053	238.06
337.281	228.06
337.51	234.06
337.738	214.06
337.966	229.06
338.194	226.06
338.422	235.06
338.65	229.06
338.878	208.06
339.106	207.06
339.334	228.06
339.562	219.06
339.79	211.06
340.018	198.06
340.246	201.06
340.474	238.06
340.702	212.06
340.93	212.06
341.158	208.06
341.386	217.06
341.614	210.06
341.842	223.06
342.07	218.06
342.298	211.06
342.526	212.06
342.754	204.06
342.981	208.06
343.209	205.06
343.437	217.06
343.665	238.06
343.893	248.06
344.12	249.06
344.348	236.06
344.576	221.06
344.804	214.06
345.031	230.06
345.259	227.06
345.487	217.06
345.714	227.06
345.942	219.06
346.17	218.06
346.397	226.06
346.625	204.06
346.853	212.06
347.08	197.06
347.308	208.06
347.535	206.06
347.763	218.06
347.99	221.06
348.218	211.06
348.445	206.06
348.673	216.06
348.9	216.06
349.128	216.06
349.355	228.06
349.583	195.06
349.81	203.06
350.037	211.06
350.265	202.06
350.492	218.06
350.72	207.06
350.947	203.06
351.174	203.06
351.402	218.06
351.629	202.06
351.856	198.06
352.083	216.06
352.311	194.06
352.538	194.06
352.765	215.06
352.992	202.06
353.22	200.06
353.447	200.06
353.674	190.06
353.901	202.06
354.128	215.06
354.355	204.06
354.583	218.06
354.81	219.06
355.037	207.06
355.264	213.06
355.491	196.06
355.718	206.06
355.945	213.06
356.172	207.06
356.399	208.06
356.626	209.06
356.853	198.06
357.08	212.06
357.307	215.06
357.534	207.06
357.761	203.06
357.988	221.06
358.215	214.06
358.441	200.06
358.668	200.06
358.895	194.06
359.122	193.06
359.349	204.06
359.576	191.06
359.802	184.06
360.029	195.06
360.256	201.06
360.483	195.06
360.709	196.06
360.936	204.06
361.163	196.06
361.39	216.06
361.616	215.06
361.843	202.06
362.07	182.06
362.296	214.06
362.523	204.06
362.749	192.06
362.976	184.06
363.203	191.06
363.429	199.06
363.656	199.06
363.882	193.06
364.109	195.06
364.335	204.06
364.562	189.06
364.788	203.06
365.015	212.06
365.241	201.06
365.468	211.06
365.694	193.06
365.92	198.06
366.147	185.06
366.373	204.06
366.599	195.06
366.826	198.06
367.052	186.06
367.278	191.06
367.505	204.06
367.731	213.06
367.957	194.06
368.184	209.06
368.41	199.06
368.636	218.06
368.862	190.06
369.089	195.06
369.315	196.06
369.541	217.06
369.767	212.06
369.993	202.06
370.219	201.06
370.445	222.06
370.672	196.06
370.898	190.06
371.124	210.06
371.35	196.06
371.576	211.06
371.802	206.06
372.028	213.06
372.254	220.06
372.48	219.06
372.706	226.06
372.932	218.06
373.158	230.06
373.384	211.06
373.61	219.06
373.835	224.06
374.061	229.06
374.287	198.06
374.513	233.06
374.739	226.06
374.965	224.06
375.191	243.06
375.416	225.06
375.642	233.06
375.868	240.06
376.094	224.06
376.319	221.06
376.545	208.06
376.771	218.06
376.997	218.06
377.222	210.06
377.448	197.06
377.674	219.06
377.899	219.06
378.125	215.06
378.35	205.06
378.576	205.06
378.802	220.06
379.027	224.06
379.253	213.06
379.478	200.06
379.704	204.06
379.929	210.06
380.155	205.06
380.38	223.06
380.606	206.06
380.831	202.06
381.057	206.06
381.282	228.06
381.507	208.06
381.733	195.06
381.958	232.06
382.184	210.06
382.409	220.06
382.634	221.06
382.86	224.06
383.085	219.06
383.31	231.06
383.535	212.06
383.761	212.06
383.986	242.06
384.211	229.06
384.436	252.06
384.662	240.06
384.887	232.06
385.112	236.06
385.337	256.06
385.562	260.06
385.787	243.06
386.013	284.06
386.238	250.06
386.463	246.06
386.688	253.06
386.913	241.06
387.138	240.06
387.363	247.06
387.588	227.06
387.813	231.06
388.038	252.06
388.263	247.06
388.488	227.06
388.713	233.06
388.938	231.06
389.163	228.06
389.387	223.06
389.612	237.06
389.837	238.06
390.062	232.06
390.287	230.06
390.512	234.06
390.736	233.06
390.961	273.06
391.186	249.06
391.411	255.06
391.636	233.06
391.86	254.06
392.085	262.06
392.31	269.06
392.534	258.06
392.759	260.06
392.984	248.06
393.208	232.06
393.433	238.06
393.658	262.06
393.882	243.06
394.107	272.06
394.331	280.06
394.556	251.06
394.78	258.06
395.005	256.06
395.229	241.06
395.454	266.06
395.678	259.06
395.903	248.06
396.127	253.06
396.352	241.06
396.576	258.06
396.801	258.06
397.025	256.06
397.249	241.06
397.474	268.06
397.698	276.06
397.922	253.06
398.147	244.06
398.371	274.06
398.595	280.06
398.82	278.06
399.044	292.06
399.268	320.06
399.492	356.06
399.717	416.06
399.941	412.06
400.165	367.06
400.389	319.06
400.613	297.06
400.837	293.06
401.062	286.06
401.286	278.06
401.51	299.06
401.734	262.06
401.958	277.06
402.182	284.06
402.406	283.06
402.63	304.06
402.854	287.06
403.078	286.06
403.302	296.06
403.526	312.06
403.75	319.06
403.974	339.06
404.198	330.06
404.422	322.06
404.645	316.06
404.869	310.06
405.093	314.06
405.317	311.06
405.541	301.06
405.765	294.06
405.988	299.06
406.212	308.06
406.436	323.06
406.66	318.06
406.883	297.06
407.107	328.06
407.331	346.06
407.555	361.06
407.778	340.06
408.002	355.06
408.226	342.06
408.449	309.06
408.673	311.06
408.896	319.06
409.12	320.06
409.344	313.06
409.567	307.06
409.791	327.06
410.014	321.06
410.238	321.06
410.461	322.06
410.685	304.06
410.908	306.06
411.132	300.06
411.355	283.06
411.578	309.06
411.802	302.06
412.025	300.06
412.249	275.06
412.472	288.06
412.695	276.06
412.919	283.06
413.142	267.06
413.365	290.06
413.589	285.06
413.812	280.06
414.035	281.06
414.258	261.06
414.482	284.06
414.705	284.06
414.928	286.06
415.151	298.06
415.374	288.06
415.597	279.06
415.821	287.06
416.044	272.06
416.267	265.06
416.49	286.06
416.713	250.06
416.936	258.06
417.159	273.06
417.382	266.06
417.605	286.06
417.828	278.06
418.051	280.06
418.274	286.06
418.497	288.06
418.72	296.06
418.943	275.06
419.166	279.06
419.389	308.06
419.611	327.06
419.834	312.06
420.057	291.06
420.28	280.06
420.503	270.06
420.726	283.06
420.948	270.06
421.171	280.06
421.394	281.06
421.617	267.06
421.839	289.06
422.062	277.06
422.285	291.06
422.507	286.06
422.73	292.06
422.953	296.06
423.175	308.06
423.398	298.06
423.621	306.06
423.843	314.06
424.066	296.06
424.288	300.06
424.511	311.06
424.733	292.06
424.956	286.06
425.178	275.06
425.401	298.06
425.623	262.06
425.846	264.06
426.068	267.06
426.291	271.06
426.513	283.06
426.735	265.06
426.958	256.06
427.18	256.06
427.402	270.06
427.625	268.06
427.847	269.06
428.069	240.06
428.292	244.06
428.514	243.06
428.736	264.06
428.958	254.06
429.181	259.06
429.403	256.06
429.625	260.06
429.847	257.06
430.069	235.06
430.292	249.06
430.514	232.06
430.736	246.06
430.958	229.06
431.18	259.06
431.402	250.06
431.624	242.06
431.846	265.06
432.068	273.06
432.29	256.06
432.512	256.06
432.734	259.06
432.956	268.06
433.178	273.06
433.4	262.06
433.622	273.06
433.844	262.06
434.066	241.06
434.287	258.06
434.509	268.06
434.731	264.06
434.953	287.06
435.175	278.06
435.397	282.06
435.618	274.06
435.84	264.06
436.062	258.06
436.284	272.06
436.505	243.06
436.727	272.06
436.949	263.06
437.17	260.06
437.392	260.06
437.614	260.06
437.835	231.06
438.057	236.06
438.278	246.06
438.5	262.06
438.721	257.06
438.943	231.06
439.165	230.06
439.386	231.06
439.608	267.06
439.829	261.06
440.05	257.06
440.272	248.06
440.493	262.06
440.715	259.06
440.936	264.06
441.158	266.06
441.379	259.06
441.6	285.06
441.822	292.06
442.043	267.06
442.264	280.06
442.486	271.06
442.707	280.06
442.928	290.06
443.149	278.06
443.371	270.06
443.592	259.06
443.813	283.06
444.034	277.06
444.255	297.06
444.476	303.06
444.698	306.06
444.919	330.06
445.14	455.06
445.361	353.06
445.582	292.06
445.803	271.06
446.024	278.06
446.245	286.06
446.466	256.06
446.687	267.06
446.908	264.06
447.129	255.06
447.35	270.06
447.571	260.06
447.792	256.06
448.013	274.06
448.234	242.06
448.455	234.06
448.675	239.06
448.896	240.06
449.117	232.06
449.338	234.06
449.559	234.06
449.779	228.06
450	243.06
450.221	226.06
450.442	243.06
450.662	235.06
450.883	247.06
451.104	245.06
451.324	225.06
451.545	246.06
451.766	260.06
451.986	243.06
452.207	232.06
452.428	241.06
452.648	240.06
452.869	235.06
453.089	229.06
453.31	255.06
453.53	224.06
453.751	236.06
453.971	234.06
454.192	257.06
454.412	227.06
454.633	238.06
454.853	229.06
455.073	233.06
455.294	238.06
455.514	226.06
455.734	221.06
455.955	224.06
456.175	225.06
456.395	227.06
456.616	226.06
456.836	230.06
457.056	214.06
457.276	209.06
457.497	238.06
457.717	210.06
457.937	215.06
458.157	228.06
458.377	241.06
458.598	221.06
458.818	249.06
459.038	258.06
459.258	252.06
459.478	258.06
459.698	256.06
459.918	262.06
460.138	259.06
460.358	298.06
460.578	279.06
460.798	304.06
461.018	295.06
461.238	306.06
461.458	276.06
461.678	294.06
461.898	292.06
462.118	293.06
462.338	306.06
462.558	316.06
462.777	309.06
462.997	364.06
463.217	392.06
463.437	380.06
463.657	372.06
463.876	351.06
464.096	340.06
464.316	326.06
464.536	339.06
464.755	357.06
464.975	329.06
465.195	295.06
465.414	263.06
465.634	278.06
465.854	252.06
466.073	277.06
466.293	268.06
466.512	244.06
466.732	257.06
466.951	258.06
467.171	257.06
467.391	263.06
467.61	253.06
467.829	234.06
468.049	245.06
468.268	238.06
468.488	247.06
468.707	258.06
468.927	256.06
469.146	246.06
469.365	257.06
469.585	259.06
469.804	257.06
470.023	252.06
470.243	258.06
470.462	264.06
470.681	265.06
470.901	272.06
471.12	258.06
471.339	260.06
471.558	259.06
471.777	244.06
471.997	242.06
472.216	232.06
472.435	235.06
472.654	228.06
472.873	254.06
473.092	242.06
473.311	238.06
473.53	220.06
473.749	244.06
473.968	249.06
474.187	253.06
474.406	252.06
474.625	252.06
474.844	260.06
475.063	232.06
475.282	260.06
475.501	223.06
475.72	249.06
475.939	264.06
476.158	257.06
476.377	240.06
476.596	228.06
476.814	272.06
477.033	241.06
477.252	272.06
477.471	248.06
477.69	249.06
477.908	274.06
478.127	277.06
478.346	281.06
478.564	287.06
478.783	286.06
479.002	278.06
479.22	318.06
479.439	292.06
479.658	291.06
479.876	273.06
480.095	311.06
480.313	319.06
480.532	328.06
480.751	327.06
480.969	281.06
481.188	292.06
481.406	284.06
481.624	280.06
481.843	265.06
482.061	250.06
482.28	284.06
482.498	278.06
482.717	262.06
482.935	271.06
483.153	269.06
483.372	280.06
483.59	269.06
483.808	268.06
484.027	273.06
484.245	263.06
484.463	260.06
484.681	282.06
484.9	284.06
485.118	268.06
485.336	286.06
485.554	273.06
485.772	268.06
485.99	288.06
486.209	291.06
486.427	291.06
486.645	306.06
486.863	289.06
487.081	309.06
487.299	268.06
487.517	308.06
487.735	308.06
487.953	286.06
488.171	288.06
488.389	299.06
488.607	276.06
488.825	299.06
489.043	291.06
489.261	290.06
489.479	280.06
489.696	292.06
489.914	290.06
490.132	292.06
490.35	290.06
490.568	290.06
490.786	300.06
491.003	274.06
491.221	272.06
491.439	279.06
491.657	291.06
491.874	292.06
492.092	301.06
492.31	299.06
492.527	294.06
492.745	285.06
492.963	289.06
493.18	302.06
493.398	296.06
493.615	315.06
493.833	301.06
494.05	318.06
494.268	290.06
494.485	300.06
494.703	317.06
494.92	306.06
495.138	288.06
495.355	302.06
495.573	294.06
495.79	293.06
496.008	296.06
496.225	314.06
496.442	305.06
496.66	293.06
496.877	306.06
497.094	339.06
497.312	310.06
497.529	313.06
497.746	325.06
497.963	336.06
498.181	354.06
498.398	360.06
498.615	377.06
498.832	394.06
499.049	405.06
499.267	462.06
499.484	509.06
499.701	551.06
499.918	587.06
500.135	676.06
500.352	766.06
500.569	834.06
500.786	829.06
501.003	776.06
501.22	684.06
501.437	591.06
501.654	544.06
501.871	498.06
502.088	455.06
502.305	440.06
502.522	394.06
502.739	385.06
502.956	374.06
503.172	362.06
