Data from 0.5MCu(NO3)2.Standard.Lamp.E10.CV._HRD10591_16-06-24-753.txt Node
Date: Mon Jul 22 16:06:24 EDT 2019
User: cochatt
Spectrometer: HR+D1059
Trigger mode: 1
Integration Time (sec): 1.000000E-1
Scans to average: 1
Electric dark correction enabled: true
Nonlinearity correction enabled: false
Boxcar width: 0
XAxis mode: Wavelengths
Number of Pixels in Spectrum: 2048
>>>>>Begin Spectral Data<<<<<
223.165	-14.81
223.4	-14.81
223.635	-14.81
223.869	-6.81
224.104	-11.81
224.338	-11.81
224.573	-17.81
224.808	-12.81
225.042	-14.81
225.277	-11.81
225.511	3.19
225.746	14.19
225.98	11.19
226.215	5.19
226.449	-1.81
226.683	13.19
226.918	27.19
227.152	30.19
227.387	26.19
227.621	37.19
227.856	44.19
228.09	28.19
228.324	45.19
228.559	55.19
228.793	64.19
229.027	57.19
229.262	60.19
229.496	71.19
229.73	84.19
229.964	98.19
230.199	79.19
230.433	100.19
230.667	81.19
230.901	71.19
231.136	88.19
231.37	82.19
231.604	84.19
231.838	88.19
232.072	105.19
232.306	97.19
232.541	83.19
232.775	87.19
233.009	89.19
233.243	88.19
233.477	86.19
233.711	90.19
233.945	90.19
234.179	90.19
234.413	86.19
234.647	92.19
234.881	81.19
235.115	96.19
235.349	81.19
235.583	90.19
235.817	106.19
236.051	75.19
236.285	82.19
236.519	104.19
236.753	93.19
236.987	82.19
237.221	89.19
237.455	88.19
237.689	96.19
237.922	91.19
238.156	79.19
238.39	83.19
238.624	97.19
238.858	94.19
239.091	85.19
239.325	89.19
239.559	92.19
239.793	88.19
240.027	93.19
240.26	98.19
240.494	99.19
240.728	91.19
240.961	85.19
241.195	87.19
241.429	100.19
241.662	112.19
241.896	86.19
242.13	94.19
242.363	106.19
242.597	106.19
242.83	87.19
243.064	100.19
243.298	87.19
243.531	93.19
243.765	74.19
243.998	80.19
244.232	86.19
244.465	108.19
244.699	89.19
244.932	104.19
245.166	93.19
245.399	101.19
245.633	113.19
245.866	96.19
246.099	80.19
246.333	88.19
246.566	107.19
246.8	104.19
247.033	89.19
247.266	97.19
247.5	102.19
247.733	105.19
247.966	104.19
248.2	98.19
248.433	110.19
248.666	102.19
248.899	98.19
249.133	99.19
249.366	101.19
249.599	96.19
249.832	87.19
250.066	108.19
250.299	117.19
250.532	104.19
250.765	101.19
250.998	101.19
251.231	113.19
251.465	118.19
251.698	112.19
251.931	91.19
252.164	110.19
252.397	105.19
252.63	112.19
252.863	105.19
253.096	114.19
253.329	109.19
253.562	116.19
253.795	117.19
254.028	104.19
254.261	128.19
254.494	104.19
254.727	123.19
254.96	111.19
255.193	116.19
255.426	128.19
255.659	95.19
255.892	120.19
256.124	117.19
256.357	114.19
256.59	117.19
256.823	112.19
257.056	128.19
257.289	100.19
257.521	108.19
257.754	105.19
257.987	122.19
258.22	119.19
258.452	117.19
258.685	109.19
258.918	113.19
259.151	106.19
259.383	135.19
259.616	115.19
259.849	118.19
260.081	115.19
260.314	115.19
260.547	120.19
260.779	100.19
261.012	109.19
261.244	122.19
261.477	121.19
261.71	127.19
261.942	110.19
262.175	104.19
262.407	114.19
262.64	122.19
262.872	113.19
263.105	122.19
263.337	143.19
263.57	138.19
263.802	112.19
264.035	125.19
264.267	123.19
264.499	128.19
264.732	130.19
264.964	130.19
265.197	121.19
265.429	134.19
265.661	122.19
265.894	131.19
266.126	137.19
266.358	134.19
266.591	117.19
266.823	120.19
267.055	116.19
267.287	129.19
267.52	126.19
267.752	132.19
267.984	133.19
268.216	131.19
268.448	135.19
268.681	122.19
268.913	120.19
269.145	122.19
269.377	129.19
269.609	129.19
269.841	122.19
270.073	107.19
270.306	126.19
270.538	130.19
270.77	126.19
271.002	126.19
271.234	139.19
271.466	125.19
271.698	120.19
271.93	141.19
272.162	131.19
272.394	140.19
272.626	121.19
272.858	144.19
273.09	138.19
273.322	135.19
273.553	128.19
273.785	140.19
274.017	142.19
274.249	136.19
274.481	118.19
274.713	122.19
274.945	142.19
275.176	134.19
275.408	121.19
275.64	152.19
275.872	151.19
276.104	149.19
276.335	141.19
276.567	135.19
276.799	143.19
277.031	147.19
277.262	134.19
277.494	132.19
277.726	159.19
277.957	136.19
278.189	139.19
278.421	145.19
278.652	149.19
278.884	146.19
279.115	136.19
279.347	142.19
279.579	148.19
279.81	147.19
280.042	139.19
280.273	135.19
280.505	150.19
280.736	165.19
280.968	152.19
281.199	160.19
281.431	141.19
281.662	144.19
281.894	147.19
282.125	156.19
282.356	143.19
282.588	140.19
282.819	143.19
283.051	150.19
283.282	143.19
283.513	150.19
283.745	152.19
283.976	156.19
284.207	154.19
284.439	154.19
284.67	156.19
284.901	157.19
285.132	141.19
285.364	148.19
285.595	160.19
285.826	165.19
286.057	172.19
286.288	157.19
286.52	154.19
286.751	159.19
286.982	139.19
287.213	154.19
287.444	155.19
287.675	153.19
287.906	151.19
288.138	150.19
288.369	140.19
288.6	171.19
288.831	165.19
289.062	165.19
289.293	156.19
289.524	175.19
289.755	160.19
289.986	167.19
290.217	156.19
290.448	159.19
290.679	155.19
290.91	162.19
291.141	167.19
291.371	173.19
291.602	169.19
291.833	149.19
292.064	142.19
292.295	171.19
292.526	163.19
292.757	173.19
292.987	166.19
293.218	161.19
293.449	162.19
293.68	158.19
293.91	163.19
294.141	165.19
294.372	164.19
294.603	163.19
294.833	173.19
295.064	176.19
295.295	178.19
295.525	176.19
295.756	166.19
295.987	144.19
296.217	168.19
296.448	176.19
296.679	162.19
296.909	194.19
297.14	172.19
297.37	179.19
297.601	166.19
297.831	169.19
298.062	167.19
298.292	170.19
298.523	186.19
298.753	165.19
298.984	160.19
299.214	187.19
299.445	168.19
299.675	184.19
299.905	178.19
300.136	171.19
300.366	195.19
300.597	195.19
300.827	171.19
301.057	160.19
301.288	188.19
301.518	168.19
301.748	187.19
301.979	186.19
302.209	178.19
302.439	174.19
302.669	190.19
302.9	178.19
303.13	172.19
303.36	173.19
303.59	180.19
303.82	178.19
304.051	168.19
304.281	184.19
304.511	182.19
304.741	182.19
304.971	182.19
305.201	183.19
305.431	179.19
305.661	169.19
305.891	172.19
306.121	169.19
306.352	167.19
306.582	172.19
306.812	174.19
307.042	187.19
307.272	186.19
307.502	184.19
307.731	189.19
307.961	192.19
308.191	184.19
308.421	174.19
308.651	184.19
308.881	192.19
309.111	172.19
309.341	168.19
309.571	172.19
309.8	177.19
310.03	175.19
310.26	182.19
310.49	176.19
310.72	166.19
310.949	164.19
311.179	192.19
311.409	187.19
311.639	183.19
311.868	179.19
312.098	186.19
312.328	194.19
312.557	195.19
312.787	180.19
313.017	184.19
313.246	209.19
313.476	185.19
313.706	187.19
313.935	174.19
314.165	193.19
314.394	181.19
314.624	176.19
314.853	187.19
315.083	167.19
315.312	182.19
315.542	180.19
315.771	179.19
316.001	193.19
316.23	190.19
316.46	193.19
316.689	198.19
316.919	173.19
317.148	207.19
317.377	197.19
317.607	168.19
317.836	181.19
318.065	178.19
318.295	166.19
318.524	178.19
318.753	178.19
318.983	177.19
319.212	182.19
319.441	190.19
319.67	173.19
319.9	180.19
320.129	189.19
320.358	183.19
320.587	177.19
320.816	184.19
321.046	192.19
321.275	184.19
321.504	182.19
321.733	192.19
321.962	184.19
322.191	187.19
322.42	179.19
322.649	188.19
322.878	186.19
323.108	188.19
323.337	184.19
323.566	172.19
323.795	179.19
324.024	199.19
324.253	185.19
324.482	182.19
324.71	196.19
324.939	200.19
325.168	184.19
325.397	184.19
325.626	187.19
325.855	184.19
326.084	200.19
326.313	192.19
326.542	190.19
326.77	200.19
326.999	198.19
327.228	195.19
327.457	177.19
327.686	202.19
327.914	198.19
328.143	196.19
328.372	199.19
328.6	210.19
328.829	196.19
329.058	196.19
329.287	199.19
329.515	209.19
329.744	210.19
329.972	183.19
330.201	190.19
330.43	184.19
330.658	203.19
330.887	200.19
331.115	198.19
331.344	198.19
331.572	201.19
331.801	217.19
332.03	211.19
332.258	201.19
332.486	218.19
332.715	241.19
332.943	232.19
333.172	244.19
333.4	226.19
333.629	241.19
333.857	240.19
334.085	235.19
334.314	244.19
334.542	260.19
334.771	245.19
334.999	224.19
335.227	227.19
335.455	230.19
335.684	222.19
335.912	221.19
336.14	217.19
336.369	232.19
336.597	224.19
336.825	233.19
337.053	226.19
337.281	227.19
337.51	216.19
337.738	216.19
337.966	205.19
338.194	194.19
338.422	196.19
338.65	192.19
338.878	211.19
339.106	199.19
339.334	213.19
339.562	217.19
339.79	208.19
340.018	205.19
340.246	189.19
340.474	187.19
340.702	186.19
340.93	202.19
341.158	197.19
341.386	198.19
341.614	197.19
341.842	196.19
342.07	198.19
342.298	200.19
342.526	204.19
342.754	196.19
342.981	196.19
343.209	211.19
343.437	228.19
343.665	210.19
343.893	232.19
344.12	227.19
344.348	229.19
344.576	213.19
344.804	207.19
345.031	207.19
345.259	213.19
345.487	201.19
345.714	194.19
345.942	176.19
346.17	202.19
346.397	195.19
346.625	188.19
346.853	209.19
347.08	209.19
347.308	190.19
347.535	202.19
347.763	209.19
347.99	198.19
348.218	217.19
348.445	203.19
348.673	177.19
348.9	188.19
349.128	206.19
349.355	200.19
349.583	198.19
349.81	189.19
350.037	189.19
350.265	208.19
350.492	188.19
350.72	194.19
350.947	180.19
351.174	190.19
351.402	199.19
351.629	184.19
351.856	195.19
352.083	195.19
352.311	182.19
352.538	194.19
352.765	184.19
352.992	190.19
353.22	198.19
353.447	196.19
353.674	178.19
353.901	190.19
354.128	194.19
354.355	190.19
354.583	200.19
354.81	184.19
355.037	189.19
355.264	213.19
355.491	193.19
355.718	205.19
355.945	206.19
356.172	181.19
356.399	189.19
356.626	193.19
356.853	196.19
357.08	180.19
357.307	186.19
357.534	196.19
357.761	188.19
357.988	186.19
358.215	185.19
358.441	200.19
358.668	185.19
358.895	198.19
359.122	196.19
359.349	194.19
359.576	194.19
359.802	202.19
360.029	183.19
360.256	193.19
360.483	180.19
360.709	187.19
360.936	177.19
361.163	196.19
361.39	207.19
361.616	182.19
361.843	200.19
362.07	203.19
362.296	178.19
362.523	193.19
362.749	185.19
362.976	170.19
363.203	189.19
363.429	189.19
363.656	208.19
363.882	211.19
364.109	186.19
364.335	188.19
364.562	192.19
364.788	196.19
365.015	185.19
365.241	197.19
365.468	191.19
365.694	188.19
365.92	188.19
366.147	190.19
366.373	189.19
366.599	186.19
366.826	182.19
367.052	180.19
367.278	198.19
367.505	175.19
367.731	180.19
367.957	173.19
368.184	190.19
368.41	194.19
368.636	186.19
368.862	194.19
369.089	199.19
369.315	177.19
369.541	193.19
369.767	194.19
369.993	180.19
370.219	197.19
370.445	209.19
370.672	190.19
370.898	188.19
371.124	199.19
371.35	197.19
371.576	198.19
371.802	198.19
372.028	193.19
372.254	189.19
372.48	189.19
372.706	213.19
372.932	209.19
373.158	196.19
373.384	196.19
373.61	212.19
373.835	194.19
374.061	184.19
374.287	206.19
374.513	200.19
374.739	213.19
374.965	236.19
375.191	222.19
375.416	223.19
375.642	211.19
375.868	205.19
376.094	204.19
376.319	204.19
376.545	188.19
376.771	192.19
376.997	212.19
377.222	192.19
377.448	213.19
377.674	207.19
377.899	194.19
378.125	188.19
378.35	208.19
378.576	194.19
378.802	195.19
379.027	192.19
379.253	198.19
379.478	198.19
379.704	178.19
379.929	187.19
380.155	206.19
380.38	214.19
380.606	186.19
380.831	181.19
381.057	200.19
381.282	207.19
381.507	212.19
381.733	197.19
381.958	194.19
382.184	187.19
382.409	220.19
382.634	201.19
382.86	208.19
383.085	208.19
383.31	215.19
383.535	217.19
383.761	210.19
383.986	206.19
384.211	198.19
384.436	219.19
384.662	223.19
384.887	218.19
385.112	255.19
385.337	240.19
385.562	234.19
385.787	228.19
386.013	216.19
386.238	220.19
386.463	233.19
386.688	228.19
386.913	219.19
387.138	226.19
387.363	222.19
387.588	228.19
387.813	232.19
388.038	222.19
388.263	231.19
388.488	216.19
388.713	240.19
388.938	210.19
389.163	223.19
389.387	225.19
389.612	206.19
389.837	216.19
390.062	223.19
390.287	219.19
390.512	227.19
390.736	235.19
390.961	225.19
391.186	235.19
391.411	241.19
391.636	237.19
391.86	232.19
392.085	239.19
392.31	243.19
392.534	241.19
392.759	224.19
392.984	242.19
393.208	227.19
393.433	222.19
393.658	236.19
393.882	231.19
394.107	253.19
394.331	218.19
394.556	233.19
394.78	227.19
395.005	228.19
395.229	247.19
395.454	240.19
395.678	256.19
395.903	245.19
396.127	230.19
396.352	232.19
396.576	220.19
396.801	214.19
397.025	233.19
397.249	231.19
397.474	241.19
397.698	233.19
397.922	245.19
398.147	240.19
398.371	244.19
398.595	268.19
398.82	262.19
399.044	260.19
399.268	290.19
399.492	320.19
399.717	365.19
399.941	376.19
400.165	342.19
400.389	294.19
400.613	288.19
400.837	266.19
401.062	261.19
401.286	255.19
401.51	243.19
401.734	244.19
401.958	267.19
402.182	264.19
402.406	245.19
402.63	262.19
402.854	276.19
403.078	286.19
403.302	309.19
403.526	308.19
403.75	300.19
403.974	329.19
404.198	300.19
404.422	293.19
404.645	286.19
404.869	285.19
405.093	305.19
405.317	277.19
405.541	277.19
405.765	270.19
405.988	285.19
406.212	277.19
406.436	285.19
406.66	286.19
406.883	281.19
407.107	301.19
407.331	339.19
407.555	322.19
407.778	320.19
408.002	312.19
408.226	295.19
408.449	293.19
408.673	293.19
408.896	286.19
409.12	280.19
409.344	301.19
409.567	292.19
409.791	296.19
410.014	293.19
410.238	283.19
410.461	280.19
410.685	293.19
410.908	298.19
411.132	290.19
411.355	268.19
411.578	266.19
411.802	271.19
412.025	269.19
412.249	269.19
412.472	279.19
412.695	267.19
412.919	246.19
413.142	279.19
413.365	267.19
413.589	282.19
413.812	279.19
414.035	264.19
414.258	250.19
414.482	256.19
414.705	272.19
414.928	273.19
415.151	265.19
415.374	263.19
415.597	253.19
415.821	243.19
416.044	259.19
416.267	268.19
416.49	248.19
416.713	277.19
416.936	263.19
417.159	265.19
417.382	269.19
417.605	250.19
417.828	274.19
418.051	261.19
418.274	258.19
418.497	256.19
418.72	264.19
418.943	273.19
419.166	283.19
419.389	299.19
419.611	294.19
419.834	292.19
420.057	268.19
420.28	268.19
420.503	250.19
420.726	245.19
420.948	264.19
421.171	265.19
421.394	264.19
421.617	283.19
421.839	274.19
422.062	262.19
422.285	238.19
422.507	270.19
422.73	276.19
422.953	269.19
423.175	275.19
423.398	269.19
423.621	289.19
423.843	274.19
424.066	286.19
424.288	276.19
424.511	268.19
424.733	286.19
424.956	250.19
425.178	277.19
425.401	260.19
425.623	247.19
425.846	244.19
426.068	261.19
426.291	238.19
426.513	251.19
426.735	233.19
426.958	246.19
427.18	237.19
427.402	230.19
427.625	241.19
427.847	239.19
428.069	232.19
428.292	240.19
428.514	240.19
428.736	228.19
428.958	236.19
429.181	233.19
429.403	231.19
429.625	225.19
429.847	236.19
430.069	228.19
430.292	234.19
430.514	229.19
430.736	210.19
430.958	229.19
431.18	237.19
431.402	255.19
431.624	236.19
431.846	249.19
432.068	231.19
432.29	237.19
432.512	231.19
432.734	242.19
432.956	235.19
433.178	266.19
433.4	238.19
433.622	241.19
433.844	244.19
434.066	226.19
434.287	231.19
434.509	241.19
434.731	250.19
434.953	246.19
435.175	255.19
435.397	253.19
435.618	245.19
435.84	224.19
436.062	240.19
436.284	220.19
436.505	241.19
436.727	232.19
436.949	256.19
437.17	234.19
437.392	226.19
437.614	214.19
437.835	233.19
438.057	221.19
438.278	201.19
438.5	228.19
438.721	238.19
438.943	239.19
439.165	231.19
439.386	237.19
439.608	226.19
439.829	235.19
440.05	259.19
440.272	238.19
440.493	240.19
440.715	207.19
440.936	235.19
441.158	252.19
441.379	267.19
441.6	270.19
441.822	256.19
442.043	271.19
442.264	245.19
442.486	224.19
442.707	258.19
442.928	263.19
443.149	255.19
443.371	259.19
443.592	273.19
443.813	253.19
444.034	266.19
444.255	273.19
444.476	289.19
444.698	305.19
444.919	313.19
445.14	377.19
445.361	339.19
445.582	261.19
445.803	240.19
446.024	245.19
446.245	246.19
446.466	229.19
446.687	236.19
446.908	258.19
447.129	242.19
447.35	236.19
447.571	226.19
447.792	236.19
448.013	222.19
448.234	221.19
448.455	228.19
448.675	219.19
448.896	218.19
449.117	205.19
449.338	210.19
449.559	217.19
449.779	230.19
450	230.19
450.221	225.19
450.442	220.19
450.662	217.19
450.883	234.19
451.104	240.19
451.324	222.19
451.545	206.19
451.766	235.19
451.986	219.19
452.207	221.19
452.428	234.19
452.648	222.19
452.869	238.19
453.089	220.19
453.31	232.19
453.53	218.19
453.751	210.19
453.971	220.19
454.192	216.19
454.412	228.19
454.633	222.19
454.853	213.19
455.073	210.19
455.294	204.19
455.514	217.19
455.734	199.19
455.955	208.19
456.175	205.19
456.395	210.19
456.616	204.19
456.836	213.19
457.056	206.19
457.276	194.19
457.497	206.19
457.717	206.19
457.937	207.19
458.157	214.19
458.377	198.19
458.598	246.19
458.818	206.19
459.038	220.19
459.258	232.19
459.478	230.19
459.698	243.19
459.918	233.19
460.138	260.19
460.358	275.19
460.578	269.19
460.798	288.19
461.018	258.19
461.238	261.19
461.458	264.19
461.678	272.19
461.898	280.19
462.118	263.19
462.338	300.19
462.558	284.19
462.777	307.19
462.997	310.19
463.217	350.19
463.437	354.19
463.657	316.19
463.876	320.19
464.096	318.19
464.316	314.19
464.536	321.19
464.755	310.19
464.975	296.19
465.195	280.19
465.414	275.19
465.634	255.19
465.854	252.19
466.073	254.19
466.293	237.19
466.512	240.19
466.732	247.19
466.951	231.19
467.171	246.19
467.391	237.19
467.61	229.19
467.829	248.19
468.049	235.19
468.268	210.19
468.488	228.19
468.707	227.19
468.927	225.19
469.146	235.19
469.365	235.19
469.585	220.19
469.804	237.19
470.023	242.19
470.243	240.19
470.462	251.19
470.681	258.19
470.901	256.19
471.12	238.19
471.339	219.19
471.558	236.19
471.777	232.19
471.997	206.19
472.216	223.19
472.435	235.19
472.654	228.19
472.873	224.19
473.092	231.19
473.311	220.19
473.53	216.19
473.749	230.19
473.968	225.19
474.187	218.19
474.406	209.19
474.625	234.19
474.844	232.19
475.063	221.19
475.282	229.19
475.501	228.19
475.72	227.19
475.939	234.19
476.158	222.19
476.377	227.19
476.596	213.19
476.814	245.19
477.033	237.19
477.252	231.19
477.471	244.19
477.69	258.19
477.908	253.19
478.127	258.19
478.346	272.19
478.564	263.19
478.783	264.19
479.002	260.19
479.22	267.19
479.439	257.19
479.658	265.19
479.876	265.19
480.095	255.19
480.313	280.19
480.532	288.19
480.751	286.19
480.969	290.19
481.188	276.19
481.406	269.19
481.624	256.19
481.843	236.19
482.061	252.19
482.28	265.19
482.498	228.19
482.717	252.19
482.935	265.19
483.153	250.19
483.372	266.19
483.59	257.19
483.808	247.19
484.027	258.19
484.245	267.19
484.463	242.19
484.681	260.19
484.9	275.19
485.118	254.19
485.336	285.19
485.554	229.19
485.772	280.19
485.99	270.19
486.209	276.19
486.427	276.19
486.645	286.19
486.863	273.19
487.081	274.19
487.299	259.19
487.517	262.19
487.735	265.19
487.953	264.19
488.171	264.19
488.389	293.19
488.607	262.19
488.825	252.19
489.043	263.19
489.261	266.19
489.479	291.19
489.696	265.19
489.914	269.19
490.132	268.19
490.35	271.19
490.568	277.19
490.786	246.19
491.003	268.19
491.221	268.19
491.439	269.19
491.657	266.19
491.874	275.19
492.092	274.19
492.31	269.19
492.527	297.19
492.745	273.19
492.963	286.19
493.18	261.19
493.398	278.19
493.615	286.19
493.833	288.19
494.05	275.19
494.268	269.19
494.485	293.19
494.703	280.19
494.92	284.19
495.138	269.19
495.355	277.19
495.573	296.19
495.79	286.19
496.008	294.19
496.225	297.19
496.442	308.19
496.66	288.19
496.877	285.19
497.094	296.19
497.312	286.19
497.529	304.19
497.746	287.19
497.963	307.19
498.181	317.19
498.398	332.19
498.615	356.19
498.832	376.19
499.049	393.19
499.267	420.19
499.484	464.19
499.701	512.19
499.918	552.19
500.135	634.19
500.352	736.19
500.569	752.19
500.786	756.19
501.003	712.19
501.22	641.19
501.437	571.19
501.654	496.19
501.871	436.19
502.088	402.19
502.305	386.19
502.522	378.19
502.739	390.19
502.956	349.19
503.172	304.19
