Data from 0.5MCu(NO3)2.Standard.Lamp.E10.CV._HRD10591_16-06-58-754.txt Node
Date: Mon Jul 22 16:06:58 EDT 2019
User: cochatt
Spectrometer: HR+D1059
Trigger mode: 1
Integration Time (sec): 1.000000E-1
Scans to average: 1
Electric dark correction enabled: true
Nonlinearity correction enabled: false
Boxcar width: 0
XAxis mode: Wavelengths
Number of Pixels in Spectrum: 2048
>>>>>Begin Spectral Data<<<<<
223.165	-6.12
223.4	-6.12
223.635	-6.12
223.869	-14.12
224.104	-20.12
224.338	-37.12
224.573	-15.12
224.808	4.88
225.042	-8.12
225.277	-2.12
225.511	-4.12
225.746	-6.12
225.98	17.88
226.215	14.88
226.449	9.88
226.683	26.88
226.918	10.88
227.152	27.88
227.387	35.88
227.621	33.88
227.856	46.88
228.09	56.88
228.324	51.88
228.559	31.88
228.793	63.88
229.027	53.88
229.262	65.88
229.496	77.88
229.73	64.88
229.964	68.88
230.199	79.88
230.433	87.88
230.667	78.88
230.901	77.88
231.136	77.88
231.37	82.88
231.604	86.88
231.838	79.88
232.072	99.88
232.306	92.88
232.541	110.88
232.775	86.88
233.009	84.88
233.243	82.88
233.477	89.88
233.711	72.88
233.945	79.88
234.179	86.88
234.413	101.88
234.647	88.88
234.881	81.88
235.115	89.88
235.349	83.88
235.583	85.88
235.817	109.88
236.051	94.88
236.285	85.88
236.519	88.88
236.753	74.88
236.987	77.88
237.221	81.88
237.455	81.88
237.689	82.88
237.922	84.88
238.156	92.88
238.39	82.88
238.624	84.88
238.858	92.88
239.091	67.88
239.325	89.88
239.559	88.88
239.793	82.88
240.027	89.88
240.26	90.88
240.494	93.88
240.728	99.88
240.961	100.88
241.195	83.88
241.429	97.88
241.662	101.88
241.896	93.88
242.13	102.88
242.363	93.88
242.597	79.88
242.83	93.88
243.064	87.88
243.298	91.88
243.531	95.88
243.765	96.88
243.998	102.88
244.232	103.88
244.465	92.88
244.699	95.88
244.932	100.88
245.166	93.88
245.399	89.88
245.633	96.88
245.866	98.88
246.099	94.88
246.333	110.88
246.566	94.88
246.8	91.88
247.033	106.88
247.266	101.88
247.5	106.88
247.733	112.88
247.966	89.88
248.2	95.88
248.433	91.88
248.666	97.88
248.899	102.88
249.133	93.88
249.366	105.88
249.599	97.88
249.832	91.88
250.066	110.88
250.299	103.88
250.532	101.88
250.765	102.88
250.998	112.88
251.231	118.88
251.465	107.88
251.698	103.88
251.931	113.88
252.164	107.88
252.397	102.88
252.63	105.88
252.863	116.88
253.096	101.88
253.329	109.88
253.562	105.88
253.795	113.88
254.028	115.88
254.261	106.88
254.494	114.88
254.727	102.88
254.96	117.88
255.193	117.88
255.426	105.88
255.659	99.88
255.892	113.88
256.124	110.88
256.357	104.88
256.59	114.88
256.823	113.88
257.056	116.88
257.289	126.88
257.521	118.88
257.754	107.88
257.987	121.88
258.22	111.88
258.452	96.88
258.685	105.88
258.918	105.88
259.151	123.88
259.383	115.88
259.616	114.88
259.849	111.88
260.081	125.88
260.314	122.88
260.547	122.88
260.779	101.88
261.012	121.88
261.244	120.88
261.477	117.88
261.71	104.88
261.942	123.88
262.175	119.88
262.407	120.88
262.64	105.88
262.872	118.88
263.105	129.88
263.337	127.88
263.57	128.88
263.802	124.88
264.035	107.88
264.267	114.88
264.499	123.88
264.732	121.88
264.964	114.88
265.197	116.88
265.429	129.88
265.661	123.88
265.894	117.88
266.126	124.88
266.358	130.88
266.591	100.88
266.823	125.88
267.055	125.88
267.287	122.88
267.52	126.88
267.752	132.88
267.984	122.88
268.216	129.88
268.448	138.88
268.681	125.88
268.913	122.88
269.145	139.88
269.377	137.88
269.609	124.88
269.841	118.88
270.073	125.88
270.306	122.88
270.538	132.88
270.77	114.88
271.002	133.88
271.234	125.88
271.466	117.88
271.698	124.88
271.93	131.88
272.162	137.88
272.394	128.88
272.626	134.88
272.858	125.88
273.09	114.88
273.322	143.88
273.553	150.88
273.785	129.88
274.017	137.88
274.249	142.88
274.481	129.88
274.713	151.88
274.945	144.88
275.176	143.88
275.408	127.88
275.64	127.88
275.872	137.88
276.104	144.88
276.335	127.88
276.567	147.88
276.799	124.88
277.031	125.88
277.262	149.88
277.494	140.88
277.726	137.88
277.957	149.88
278.189	143.88
278.421	141.88
278.652	140.88
278.884	150.88
279.115	135.88
279.347	151.88
279.579	145.88
279.81	123.88
280.042	142.88
280.273	145.88
280.505	131.88
280.736	161.88
280.968	141.88
281.199	136.88
281.431	138.88
281.662	145.88
281.894	143.88
282.125	158.88
282.356	147.88
282.588	130.88
282.819	139.88
283.051	159.88
283.282	140.88
283.513	157.88
283.745	145.88
283.976	153.88
284.207	142.88
284.439	147.88
284.67	149.88
284.901	134.88
285.132	153.88
285.364	150.88
285.595	157.88
285.826	161.88
286.057	154.88
286.288	136.88
286.52	142.88
286.751	155.88
286.982	158.88
287.213	158.88
287.444	147.88
287.675	138.88
287.906	162.88
288.138	147.88
288.369	171.88
288.6	154.88
288.831	163.88
289.062	144.88
289.293	155.88
289.524	143.88
289.755	155.88
289.986	166.88
290.217	145.88
290.448	148.88
290.679	173.88
290.91	169.88
291.141	158.88
291.371	155.88
291.602	150.88
291.833	166.88
292.064	157.88
292.295	160.88
292.526	170.88
292.757	142.88
292.987	161.88
293.218	150.88
293.449	178.88
293.68	163.88
293.91	155.88
294.141	152.88
294.372	148.88
294.603	157.88
294.833	162.88
295.064	150.88
295.295	159.88
295.525	151.88
295.756	173.88
295.987	169.88
296.217	176.88
296.448	171.88
296.679	162.88
296.909	170.88
297.14	158.88
297.37	170.88
297.601	170.88
297.831	170.88
298.062	193.88
298.292	174.88
298.523	189.88
298.753	197.88
298.984	191.88
299.214	168.88
299.445	161.88
299.675	175.88
299.905	170.88
300.136	173.88
300.366	173.88
300.597	166.88
300.827	193.88
301.057	152.88
301.288	183.88
301.518	187.88
301.748	169.88
301.979	178.88
302.209	182.88
302.439	184.88
302.669	175.88
302.9	175.88
303.13	181.88
303.36	174.88
303.59	170.88
303.82	173.88
304.051	179.88
304.281	197.88
304.511	169.88
304.741	188.88
304.971	177.88
305.201	178.88
305.431	172.88
305.661	171.88
305.891	179.88
306.121	182.88
306.352	185.88
306.582	157.88
306.812	187.88
307.042	164.88
307.272	173.88
307.502	157.88
307.731	162.88
307.961	192.88
308.191	171.88
308.421	170.88
308.651	174.88
308.881	168.88
309.111	175.88
309.341	155.88
309.571	182.88
309.8	181.88
310.03	161.88
310.26	181.88
310.49	163.88
310.72	180.88
310.949	179.88
311.179	167.88
311.409	186.88
311.639	183.88
311.868	169.88
312.098	185.88
312.328	164.88
312.557	185.88
312.787	169.88
313.017	173.88
313.246	179.88
313.476	190.88
313.706	189.88
313.935	191.88
314.165	189.88
314.394	175.88
314.624	197.88
314.853	170.88
315.083	189.88
315.312	191.88
315.542	174.88
315.771	170.88
316.001	184.88
316.23	170.88
316.46	179.88
316.689	187.88
316.919	175.88
317.148	189.88
317.377	193.88
317.607	187.88
317.836	193.88
318.065	179.88
318.295	180.88
318.524	204.88
318.753	192.88
318.983	160.88
319.212	169.88
319.441	176.88
319.67	185.88
319.9	182.88
320.129	189.88
320.358	178.88
320.587	179.88
320.816	177.88
321.046	161.88
321.275	168.88
321.504	165.88
321.733	170.88
321.962	189.88
322.191	193.88
322.42	171.88
322.649	167.88
322.878	186.88
323.108	188.88
323.337	182.88
323.566	183.88
323.795	180.88
324.024	198.88
324.253	176.88
324.482	181.88
324.71	180.88
324.939	191.88
325.168	181.88
325.397	181.88
325.626	190.88
325.855	183.88
326.084	193.88
326.313	198.88
326.542	190.88
326.77	196.88
326.999	197.88
327.228	190.88
327.457	195.88
327.686	189.88
327.914	183.88
328.143	178.88
328.372	217.88
328.6	198.88
328.829	184.88
329.058	186.88
329.287	196.88
329.515	178.88
329.744	186.88
329.972	192.88
330.201	192.88
330.43	177.88
330.658	187.88
330.887	203.88
331.115	211.88
331.344	183.88
331.572	195.88
331.801	214.88
332.03	198.88
332.258	203.88
332.486	213.88
332.715	217.88
332.943	229.88
333.172	230.88
333.4	234.88
333.629	251.88
333.857	222.88
334.085	235.88
334.314	238.88
334.542	228.88
334.771	210.88
334.999	221.88
335.227	245.88
335.455	226.88
335.684	227.88
335.912	198.88
336.14	219.88
336.369	212.88
336.597	208.88
336.825	229.88
337.053	232.88
337.281	210.88
337.51	211.88
337.738	232.88
337.966	198.88
338.194	215.88
338.422	192.88
338.65	194.88
338.878	195.88
339.106	199.88
339.334	203.88
339.562	197.88
339.79	190.88
340.018	187.88
340.246	182.88
340.474	203.88
340.702	215.88
340.93	198.88
341.158	196.88
341.386	191.88
341.614	172.88
341.842	193.88
342.07	186.88
342.298	194.88
342.526	184.88
342.754	175.88
342.981	181.88
343.209	210.88
343.437	213.88
343.665	231.88
343.893	244.88
344.12	224.88
344.348	222.88
344.576	210.88
344.804	214.88
345.031	215.88
345.259	227.88
345.487	190.88
345.714	183.88
345.942	192.88
346.17	194.88
346.397	198.88
346.625	170.88
346.853	189.88
347.08	177.88
347.308	200.88
347.535	186.88
347.763	192.88
347.99	187.88
348.218	189.88
348.445	197.88
348.673	194.88
348.9	192.88
349.128	198.88
349.355	189.88
349.583	193.88
349.81	187.88
350.037	190.88
350.265	186.88
350.492	195.88
350.72	188.88
350.947	195.88
351.174	185.88
351.402	186.88
351.629	178.88
351.856	175.88
352.083	188.88
352.311	190.88
352.538	180.88
352.765	192.88
352.992	192.88
353.22	171.88
353.447	173.88
353.674	177.88
353.901	182.88
354.128	171.88
354.355	181.88
354.583	194.88
354.81	194.88
355.037	204.88
355.264	181.88
355.491	182.88
355.718	199.88
355.945	199.88
356.172	188.88
356.399	173.88
356.626	182.88
356.853	188.88
357.08	197.88
357.307	189.88
357.534	179.88
357.761	193.88
357.988	201.88
358.215	187.88
358.441	183.88
358.668	184.88
358.895	163.88
359.122	181.88
359.349	186.88
359.576	168.88
359.802	187.88
360.029	188.88
360.256	194.88
360.483	193.88
360.709	174.88
360.936	185.88
361.163	185.88
361.39	174.88
361.616	187.88
361.843	192.88
362.07	195.88
362.296	200.88
362.523	192.88
362.749	195.88
362.976	182.88
363.203	192.88
363.429	189.88
363.656	187.88
363.882	184.88
364.109	167.88
364.335	184.88
364.562	191.88
364.788	188.88
365.015	185.88
365.241	183.88
365.468	193.88
365.694	184.88
365.92	198.88
366.147	173.88
366.373	190.88
366.599	170.88
366.826	186.88
367.052	173.88
367.278	183.88
367.505	194.88
367.731	189.88
367.957	183.88
368.184	185.88
368.41	194.88
368.636	170.88
368.862	191.88
369.089	174.88
369.315	200.88
369.541	197.88
369.767	188.88
369.993	189.88
370.219	202.88
370.445	190.88
370.672	196.88
370.898	201.88
371.124	178.88
371.35	187.88
371.576	192.88
371.802	194.88
372.028	200.88
372.254	194.88
372.48	178.88
372.706	186.88
372.932	185.88
373.158	201.88
373.384	195.88
373.61	194.88
373.835	182.88
374.061	189.88
374.287	198.88
374.513	197.88
374.739	207.88
374.965	218.88
375.191	211.88
375.416	219.88
375.642	202.88
375.868	214.88
376.094	203.88
376.319	193.88
376.545	198.88
376.771	205.88
376.997	191.88
377.222	202.88
377.448	196.88
377.674	177.88
377.899	191.88
378.125	184.88
378.35	186.88
378.576	198.88
378.802	202.88
379.027	191.88
379.253	198.88
379.478	193.88
379.704	186.88
379.929	186.88
380.155	175.88
380.38	177.88
380.606	209.88
380.831	182.88
381.057	204.88
381.282	186.88
381.507	194.88
381.733	203.88
381.958	185.88
382.184	208.88
382.409	224.88
382.634	203.88
382.86	190.88
383.085	191.88
383.31	190.88
383.535	218.88
383.761	200.88
383.986	202.88
384.211	199.88
384.436	203.88
384.662	219.88
384.887	234.88
385.112	224.88
385.337	233.88
385.562	214.88
385.787	220.88
386.013	229.88
386.238	212.88
386.463	224.88
386.688	217.88
386.913	204.88
387.138	225.88
387.363	223.88
387.588	214.88
387.813	216.88
388.038	221.88
388.263	222.88
388.488	209.88
388.713	215.88
388.938	233.88
389.163	213.88
389.387	224.88
389.612	209.88
389.837	210.88
390.062	207.88
390.287	219.88
390.512	210.88
390.736	235.88
390.961	192.88
391.186	225.88
391.411	235.88
391.636	221.88
391.86	249.88
392.085	241.88
392.31	227.88
392.534	230.88
392.759	238.88
392.984	231.88
393.208	224.88
393.433	239.88
393.658	227.88
393.882	212.88
394.107	211.88
394.331	216.88
394.556	235.88
394.78	207.88
395.005	228.88
395.229	225.88
395.454	232.88
395.678	217.88
395.903	237.88
396.127	228.88
396.352	235.88
396.576	225.88
396.801	212.88
397.025	222.88
397.249	245.88
397.474	221.88
397.698	237.88
397.922	255.88
398.147	230.88
398.371	235.88
398.595	246.88
398.82	239.88
399.044	255.88
399.268	274.88
399.492	341.88
399.717	381.88
399.941	365.88
400.165	320.88
400.389	277.88
400.613	283.88
400.837	269.88
401.062	247.88
401.286	263.88
401.51	240.88
401.734	254.88
401.958	261.88
402.182	257.88
402.406	261.88
402.63	297.88
402.854	273.88
403.078	280.88
403.302	280.88
403.526	275.88
403.75	279.88
403.974	297.88
404.198	322.88
404.422	296.88
404.645	298.88
404.869	276.88
405.093	287.88
405.317	265.88
405.541	268.88
405.765	267.88
405.988	276.88
406.212	272.88
406.436	285.88
406.66	290.88
406.883	281.88
407.107	292.88
407.331	317.88
407.555	324.88
407.778	305.88
408.002	312.88
408.226	291.88
408.449	296.88
408.673	279.88
408.896	268.88
409.12	285.88
409.344	285.88
409.567	305.88
409.791	292.88
410.014	305.88
410.238	294.88
410.461	278.88
410.685	269.88
410.908	289.88
411.132	274.88
411.355	264.88
411.578	241.88
411.802	253.88
412.025	256.88
412.249	261.88
412.472	247.88
412.695	254.88
412.919	249.88
413.142	247.88
413.365	258.88
413.589	241.88
413.812	231.88
414.035	249.88
414.258	250.88
414.482	246.88
414.705	272.88
414.928	259.88
415.151	262.88
415.374	277.88
415.597	258.88
415.821	263.88
416.044	241.88
416.267	246.88
416.49	257.88
416.713	262.88
416.936	254.88
417.159	250.88
417.382	242.88
417.605	263.88
417.828	272.88
418.051	249.88
418.274	260.88
418.497	263.88
418.72	279.88
418.943	271.88
419.166	271.88
419.389	283.88
419.611	282.88
419.834	272.88
420.057	244.88
420.28	279.88
420.503	255.88
420.726	255.88
420.948	238.88
421.171	260.88
421.394	255.88
421.617	260.88
421.839	251.88
422.062	239.88
422.285	260.88
422.507	244.88
422.73	275.88
422.953	265.88
423.175	276.88
423.398	252.88
423.621	255.88
423.843	283.88
424.066	269.88
424.288	279.88
424.511	265.88
424.733	259.88
424.956	255.88
425.178	261.88
425.401	247.88
425.623	251.88
425.846	239.88
426.068	239.88
426.291	246.88
426.513	248.88
426.735	245.88
426.958	262.88
427.18	234.88
427.402	240.88
427.625	246.88
427.847	227.88
428.069	240.88
428.292	250.88
428.514	229.88
428.736	221.88
428.958	223.88
429.181	222.88
429.403	228.88
429.625	209.88
429.847	213.88
430.069	221.88
430.292	216.88
430.514	243.88
430.736	239.88
430.958	233.88
431.18	218.88
431.402	212.88
431.624	223.88
431.846	226.88
432.068	224.88
432.29	224.88
432.512	234.88
432.734	233.88
432.956	219.88
433.178	229.88
433.4	244.88
433.622	229.88
433.844	234.88
434.066	227.88
434.287	246.88
434.509	236.88
434.731	243.88
434.953	266.88
435.175	257.88
435.397	265.88
435.618	241.88
435.84	223.88
436.062	233.88
436.284	230.88
436.505	223.88
436.727	229.88
436.949	251.88
437.17	231.88
437.392	226.88
437.614	228.88
437.835	229.88
438.057	234.88
438.278	210.88
438.5	217.88
438.721	233.88
438.943	227.88
439.165	211.88
439.386	232.88
439.608	207.88
439.829	229.88
440.05	226.88
440.272	226.88
440.493	234.88
440.715	218.88
440.936	237.88
441.158	228.88
441.379	243.88
441.6	269.88
441.822	267.88
442.043	231.88
442.264	250.88
442.486	234.88
442.707	243.88
442.928	256.88
443.149	246.88
443.371	241.88
443.592	247.88
443.813	257.88
444.034	265.88
444.255	255.88
444.476	262.88
444.698	271.88
444.919	289.88
445.14	367.88
445.361	295.88
445.582	247.88
445.803	248.88
446.024	247.88
446.245	239.88
446.466	219.88
446.687	233.88
446.908	237.88
447.129	232.88
447.35	197.88
447.571	227.88
447.792	212.88
448.013	209.88
448.234	215.88
448.455	206.88
448.675	208.88
448.896	218.88
449.117	223.88
449.338	217.88
449.559	218.88
449.779	222.88
450	217.88
450.221	210.88
450.442	213.88
450.662	226.88
450.883	221.88
451.104	237.88
451.324	206.88
451.545	221.88
451.766	209.88
451.986	248.88
452.207	220.88
452.428	225.88
452.648	218.88
452.869	216.88
453.089	225.88
453.31	218.88
453.53	210.88
453.751	221.88
453.971	203.88
454.192	210.88
454.412	196.88
454.633	205.88
454.853	222.88
455.073	209.88
455.294	198.88
455.514	209.88
455.734	190.88
455.955	224.88
456.175	191.88
456.395	211.88
456.616	195.88
456.836	201.88
457.056	183.88
457.276	212.88
457.497	205.88
457.717	193.88
457.937	206.88
458.157	215.88
458.377	213.88
458.598	211.88
458.818	219.88
459.038	221.88
459.258	230.88
459.478	224.88
459.698	237.88
459.918	241.88
460.138	261.88
460.358	277.88
460.578	256.88
460.798	266.88
461.018	259.88
461.238	261.88
461.458	277.88
461.678	260.88
461.898	258.88
462.118	265.88
462.338	259.88
462.558	278.88
462.777	294.88
462.997	332.88
463.217	339.88
463.437	336.88
463.657	314.88
463.876	322.88
464.096	304.88
464.316	304.88
464.536	315.88
464.755	296.88
464.975	282.88
465.195	276.88
465.414	256.88
465.634	241.88
465.854	239.88
466.073	243.88
466.293	255.88
466.512	230.88
466.732	229.88
466.951	227.88
467.171	220.88
467.391	216.88
467.61	226.88
467.829	215.88
468.049	238.88
468.268	233.88
468.488	207.88
468.707	220.88
468.927	214.88
469.146	209.88
469.365	221.88
469.585	216.88
469.804	230.88
470.023	237.88
470.243	239.88
470.462	229.88
470.681	241.88
470.901	246.88
471.12	236.88
471.339	231.88
471.558	229.88
471.777	233.88
471.997	237.88
472.216	225.88
472.435	219.88
472.654	201.88
472.873	219.88
473.092	215.88
473.311	207.88
473.53	204.88
473.749	249.88
473.968	219.88
474.187	222.88
474.406	230.88
474.625	222.88
474.844	221.88
475.063	236.88
475.282	213.88
475.501	217.88
475.72	209.88
475.939	203.88
476.158	214.88
476.377	210.88
476.596	210.88
476.814	222.88
477.033	231.88
477.252	219.88
477.471	226.88
477.69	247.88
477.908	237.88
478.127	246.88
478.346	257.88
478.564	252.88
478.783	266.88
479.002	266.88
479.22	257.88
479.439	278.88
479.658	262.88
479.876	272.88
480.095	269.88
480.313	261.88
480.532	269.88
480.751	266.88
480.969	271.88
481.188	263.88
481.406	253.88
481.624	254.88
481.843	240.88
482.061	249.88
482.28	232.88
482.498	232.88
482.717	230.88
482.935	237.88
483.153	227.88
483.372	249.88
483.59	241.88
483.808	260.88
484.027	246.88
484.245	253.88
484.463	239.88
484.681	246.88
484.9	256.88
485.118	273.88
485.336	245.88
485.554	239.88
485.772	255.88
485.99	258.88
486.209	267.88
486.427	275.88
486.645	254.88
486.863	253.88
487.081	261.88
487.299	257.88
487.517	261.88
487.735	263.88
487.953	253.88
488.171	248.88
488.389	257.88
488.607	248.88
488.825	256.88
489.043	249.88
489.261	253.88
489.479	250.88
489.696	254.88
489.914	259.88
490.132	240.88
490.35	243.88
490.568	253.88
490.786	257.88
491.003	254.88
491.221	235.88
491.439	258.88
491.657	253.88
491.874	256.88
492.092	255.88
492.31	262.88
492.527	277.88
492.745	264.88
492.963	272.88
493.18	251.88
493.398	268.88
493.615	265.88
493.833	282.88
494.05	269.88
494.268	267.88
494.485	290.88
494.703	280.88
494.92	275.88
495.138	254.88
495.355	274.88
495.573	278.88
495.79	272.88
496.008	291.88
496.225	273.88
496.442	264.88
496.66	277.88
496.877	294.88
497.094	274.88
497.312	278.88
497.529	291.88
497.746	286.88
497.963	312.88
498.181	312.88
498.398	301.88
498.615	338.88
498.832	355.88
499.049	368.88
499.267	395.88
499.484	434.88
499.701	481.88
499.918	547.88
500.135	610.88
500.352	702.88
500.569	725.88
500.786	725.88
501.003	681.88
501.22	585.88
501.437	509.88
501.654	436.88
501.871	440.88
502.088	382.88
502.305	364.88
502.522	377.88
502.739	342.88
502.956	321.88
503.172	310.88
