Data from 0.5MCu(NO3)2.Standard.Lamp.E10.CV._HRD10591_16-04-51-753.txt Node
Date: Mon Jul 22 16:04:51 EDT 2019
User: cochatt
Spectrometer: HR+D1059
Trigger mode: 1
Integration Time (sec): 1.000000E-1
Scans to average: 1
Electric dark correction enabled: true
Nonlinearity correction enabled: false
Boxcar width: 0
XAxis mode: Wavelengths
Number of Pixels in Spectrum: 2048
>>>>>Begin Spectral Data<<<<<
223.165	-20.44
223.4	-20.44
223.635	-20.44
223.869	-29.44
224.104	-22.44
224.338	-12.44
224.573	-29.44
224.808	-13.44
225.042	-4.44
225.277	1.56
225.511	0.56
225.746	-0.44
225.98	1.56
226.215	13.56
226.449	26.56
226.683	20.56
226.918	37.56
227.152	30.56
227.387	23.56
227.621	45.56
227.856	57.56
228.09	51.56
228.324	52.56
228.559	42.56
228.793	62.56
229.027	62.56
229.262	66.56
229.496	85.56
229.73	75.56
229.964	75.56
230.199	81.56
230.433	79.56
230.667	84.56
230.901	88.56
231.136	78.56
231.37	87.56
231.604	87.56
231.838	74.56
232.072	98.56
232.306	105.56
232.541	91.56
232.775	87.56
233.009	86.56
233.243	92.56
233.477	98.56
233.711	87.56
233.945	88.56
234.179	87.56
234.413	87.56
234.647	100.56
234.881	96.56
235.115	91.56
235.349	97.56
235.583	92.56
235.817	101.56
236.051	89.56
236.285	92.56
236.519	98.56
236.753	90.56
236.987	74.56
237.221	87.56
237.455	101.56
237.689	92.56
237.922	97.56
238.156	102.56
238.39	91.56
238.624	96.56
238.858	95.56
239.091	83.56
239.325	103.56
239.559	76.56
239.793	99.56
240.027	92.56
240.26	85.56
240.494	86.56
240.728	91.56
240.961	87.56
241.195	108.56
241.429	84.56
241.662	92.56
241.896	100.56
242.13	94.56
242.363	99.56
242.597	88.56
242.83	108.56
243.064	99.56
243.298	92.56
243.531	98.56
243.765	108.56
243.998	95.56
244.232	107.56
244.465	100.56
244.699	110.56
244.932	101.56
245.166	105.56
245.399	92.56
245.633	96.56
245.866	95.56
246.099	115.56
246.333	111.56
246.566	113.56
246.8	109.56
247.033	104.56
247.266	100.56
247.5	113.56
247.733	91.56
247.966	110.56
248.2	121.56
248.433	96.56
248.666	99.56
248.899	114.56
249.133	105.56
249.366	104.56
249.599	92.56
249.832	117.56
250.066	113.56
250.299	115.56
250.532	115.56
250.765	123.56
250.998	103.56
251.231	104.56
251.465	111.56
251.698	116.56
251.931	107.56
252.164	101.56
252.397	110.56
252.63	118.56
252.863	107.56
253.096	123.56
253.329	123.56
253.562	121.56
253.795	128.56
254.028	120.56
254.261	120.56
254.494	127.56
254.727	128.56
254.96	105.56
255.193	125.56
255.426	126.56
255.659	116.56
255.892	122.56
256.124	118.56
256.357	123.56
256.59	127.56
256.823	112.56
257.056	123.56
257.289	124.56
257.521	124.56
257.754	123.56
257.987	119.56
258.22	121.56
258.452	116.56
258.685	124.56
258.918	132.56
259.151	125.56
259.383	125.56
259.616	134.56
259.849	123.56
260.081	127.56
260.314	128.56
260.547	124.56
260.779	127.56
261.012	137.56
261.244	125.56
261.477	123.56
261.71	120.56
261.942	128.56
262.175	135.56
262.407	115.56
262.64	123.56
262.872	126.56
263.105	125.56
263.337	126.56
263.57	124.56
263.802	135.56
264.035	122.56
264.267	138.56
264.499	125.56
264.732	123.56
264.964	123.56
265.197	134.56
265.429	139.56
265.661	134.56
265.894	123.56
266.126	146.56
266.358	133.56
266.591	151.56
266.823	139.56
267.055	143.56
267.287	134.56
267.52	141.56
267.752	129.56
267.984	147.56
268.216	143.56
268.448	132.56
268.681	140.56
268.913	152.56
269.145	141.56
269.377	137.56
269.609	146.56
269.841	131.56
270.073	142.56
270.306	137.56
270.538	151.56
270.77	144.56
271.002	131.56
271.234	134.56
271.466	151.56
271.698	134.56
271.93	139.56
272.162	144.56
272.394	142.56
272.626	150.56
272.858	123.56
273.09	136.56
273.322	159.56
273.553	150.56
273.785	155.56
274.017	153.56
274.249	162.56
274.481	143.56
274.713	140.56
274.945	164.56
275.176	143.56
275.408	147.56
275.64	140.56
275.872	154.56
276.104	163.56
276.335	149.56
276.567	154.56
276.799	143.56
277.031	148.56
277.262	154.56
277.494	141.56
277.726	145.56
277.957	155.56
278.189	144.56
278.421	143.56
278.652	154.56
278.884	159.56
279.115	151.56
279.347	160.56
279.579	165.56
279.81	149.56
280.042	147.56
280.273	157.56
280.505	152.56
280.736	155.56
280.968	136.56
281.199	149.56
281.431	153.56
281.662	154.56
281.894	161.56
282.125	164.56
282.356	178.56
282.588	159.56
282.819	152.56
283.051	158.56
283.282	162.56
283.513	162.56
283.745	169.56
283.976	173.56
284.207	173.56
284.439	160.56
284.67	160.56
284.901	168.56
285.132	180.56
285.364	162.56
285.595	161.56
285.826	168.56
286.057	163.56
286.288	173.56
286.52	183.56
286.751	168.56
286.982	182.56
287.213	162.56
287.444	152.56
287.675	164.56
287.906	167.56
288.138	169.56
288.369	182.56
288.6	177.56
288.831	178.56
289.062	168.56
289.293	179.56
289.524	177.56
289.755	165.56
289.986	180.56
290.217	182.56
290.448	168.56
290.679	184.56
290.91	196.56
291.141	185.56
291.371	184.56
291.602	175.56
291.833	169.56
292.064	183.56
292.295	170.56
292.526	174.56
292.757	179.56
292.987	189.56
293.218	175.56
293.449	193.56
293.68	183.56
293.91	196.56
294.141	196.56
294.372	177.56
294.603	179.56
294.833	186.56
295.064	182.56
295.295	174.56
295.525	193.56
295.756	188.56
295.987	188.56
296.217	185.56
296.448	192.56
296.679	180.56
296.909	181.56
297.14	187.56
297.37	188.56
297.601	196.56
297.831	205.56
298.062	197.56
298.292	203.56
298.523	189.56
298.753	203.56
298.984	190.56
299.214	186.56
299.445	197.56
299.675	197.56
299.905	210.56
300.136	181.56
300.366	200.56
300.597	198.56
300.827	179.56
301.057	211.56
301.288	203.56
301.518	210.56
301.748	209.56
301.979	202.56
302.209	209.56
302.439	214.56
302.669	212.56
302.9	229.56
303.13	181.56
303.36	192.56
303.59	206.56
303.82	209.56
304.051	191.56
304.281	195.56
304.511	194.56
304.741	193.56
304.971	192.56
305.201	204.56
305.431	198.56
305.661	214.56
305.891	188.56
306.121	199.56
306.352	201.56
306.582	199.56
306.812	201.56
307.042	192.56
307.272	187.56
307.502	204.56
307.731	187.56
307.961	187.56
308.191	200.56
308.421	203.56
308.651	196.56
308.881	203.56
309.111	205.56
309.341	178.56
309.571	202.56
309.8	200.56
310.03	181.56
310.26	207.56
310.49	192.56
310.72	200.56
310.949	198.56
311.179	204.56
311.409	193.56
311.639	208.56
311.868	195.56
312.098	193.56
312.328	201.56
312.557	190.56
312.787	207.56
313.017	191.56
313.246	208.56
313.476	204.56
313.706	201.56
313.935	216.56
314.165	200.56
314.394	214.56
314.624	189.56
314.853	223.56
315.083	223.56
315.312	199.56
315.542	193.56
315.771	206.56
316.001	205.56
316.23	197.56
316.46	198.56
316.689	204.56
316.919	207.56
317.148	209.56
317.377	197.56
317.607	194.56
317.836	186.56
318.065	206.56
318.295	199.56
318.524	196.56
318.753	220.56
318.983	201.56
319.212	208.56
319.441	199.56
319.67	201.56
319.9	205.56
320.129	198.56
320.358	190.56
320.587	185.56
320.816	198.56
321.046	198.56
321.275	213.56
321.504	206.56
321.733	209.56
321.962	211.56
322.191	194.56
322.42	192.56
322.649	197.56
322.878	211.56
323.108	193.56
323.337	207.56
323.566	223.56
323.795	211.56
324.024	197.56
324.253	200.56
324.482	212.56
324.71	199.56
324.939	211.56
325.168	203.56
325.397	200.56
325.626	214.56
325.855	205.56
326.084	216.56
326.313	221.56
326.542	212.56
326.77	210.56
326.999	216.56
327.228	221.56
327.457	231.56
327.686	209.56
327.914	229.56
328.143	225.56
328.372	229.56
328.6	210.56
328.829	199.56
329.058	209.56
329.287	214.56
329.515	221.56
329.744	232.56
329.972	212.56
330.201	210.56
330.43	208.56
330.658	241.56
330.887	232.56
331.115	207.56
331.344	236.56
331.572	240.56
331.801	232.56
332.03	221.56
332.258	232.56
332.486	250.56
332.715	245.56
332.943	258.56
333.172	276.56
333.4	289.56
333.629	271.56
333.857	283.56
334.085	272.56
334.314	257.56
334.542	266.56
334.771	265.56
334.999	258.56
335.227	251.56
335.455	256.56
335.684	282.56
335.912	245.56
336.14	253.56
336.369	243.56
336.597	265.56
336.825	252.56
337.053	240.56
337.281	252.56
337.51	249.56
337.738	241.56
337.966	220.56
338.194	225.56
338.422	232.56
338.65	232.56
338.878	223.56
339.106	230.56
339.334	234.56
339.562	222.56
339.79	210.56
340.018	239.56
340.246	215.56
340.474	217.56
340.702	226.56
340.93	214.56
341.158	217.56
341.386	218.56
341.614	223.56
341.842	199.56
342.07	210.56
342.298	214.56
342.526	213.56
342.754	219.56
342.981	231.56
343.209	226.56
343.437	242.56
343.665	244.56
343.893	248.56
344.12	270.56
344.348	256.56
344.576	233.56
344.804	231.56
345.031	220.56
345.259	229.56
345.487	238.56
345.714	215.56
345.942	215.56
346.17	213.56
346.397	231.56
346.625	210.56
346.853	230.56
347.08	237.56
347.308	210.56
347.535	227.56
347.763	215.56
347.99	218.56
348.218	213.56
348.445	212.56
348.673	225.56
348.9	204.56
349.128	232.56
349.355	213.56
349.583	229.56
349.81	206.56
350.037	199.56
350.265	214.56
350.492	213.56
350.72	211.56
350.947	200.56
351.174	221.56
351.402	219.56
351.629	217.56
351.856	203.56
352.083	204.56
352.311	208.56
352.538	219.56
352.765	201.56
352.992	215.56
353.22	220.56
353.447	209.56
353.674	205.56
353.901	199.56
354.128	214.56
354.355	208.56
354.583	188.56
354.81	209.56
355.037	215.56
355.264	211.56
355.491	203.56
355.718	216.56
355.945	216.56
356.172	210.56
356.399	204.56
356.626	202.56
356.853	230.56
357.08	207.56
357.307	202.56
357.534	219.56
357.761	212.56
357.988	207.56
358.215	194.56
358.441	199.56
358.668	207.56
358.895	212.56
359.122	226.56
359.349	216.56
359.576	218.56
359.802	202.56
360.029	220.56
360.256	212.56
360.483	223.56
360.709	208.56
360.936	224.56
361.163	205.56
361.39	212.56
361.616	219.56
361.843	209.56
362.07	207.56
362.296	202.56
362.523	206.56
362.749	204.56
362.976	208.56
363.203	218.56
363.429	198.56
363.656	203.56
363.882	201.56
364.109	208.56
364.335	216.56
364.562	197.56
364.788	197.56
365.015	203.56
365.241	195.56
365.468	205.56
365.694	206.56
365.92	215.56
366.147	212.56
366.373	196.56
366.599	213.56
366.826	199.56
367.052	206.56
367.278	217.56
367.505	215.56
367.731	207.56
367.957	202.56
368.184	205.56
368.41	205.56
368.636	211.56
368.862	209.56
369.089	217.56
369.315	190.56
369.541	219.56
369.767	220.56
369.993	225.56
370.219	224.56
370.445	194.56
370.672	198.56
370.898	216.56
371.124	224.56
371.35	226.56
371.576	232.56
371.802	213.56
372.028	224.56
372.254	224.56
372.48	230.56
372.706	214.56
372.932	217.56
373.158	208.56
373.384	222.56
373.61	211.56
373.835	213.56
374.061	219.56
374.287	211.56
374.513	214.56
374.739	238.56
374.965	247.56
375.191	254.56
375.416	241.56
375.642	232.56
375.868	240.56
376.094	225.56
376.319	227.56
376.545	227.56
376.771	242.56
376.997	220.56
377.222	199.56
377.448	226.56
377.674	216.56
377.899	215.56
378.125	223.56
378.35	213.56
378.576	228.56
378.802	210.56
379.027	218.56
379.253	239.56
379.478	225.56
379.704	221.56
379.929	207.56
380.155	210.56
380.38	199.56
380.606	202.56
380.831	221.56
381.057	235.56
381.282	233.56
381.507	224.56
381.733	219.56
381.958	218.56
382.184	222.56
382.409	256.56
382.634	225.56
382.86	232.56
383.085	246.56
383.31	228.56
383.535	236.56
383.761	247.56
383.986	227.56
384.211	221.56
384.436	244.56
384.662	255.56
384.887	244.56
385.112	238.56
385.337	267.56
385.562	248.56
385.787	262.56
386.013	272.56
386.238	247.56
386.463	251.56
386.688	252.56
386.913	231.56
387.138	243.56
387.363	241.56
387.588	252.56
387.813	232.56
388.038	239.56
388.263	249.56
388.488	236.56
388.713	230.56
388.938	246.56
389.163	257.56
389.387	240.56
389.612	235.56
389.837	253.56
390.062	249.56
390.287	257.56
390.512	240.56
390.736	252.56
390.961	251.56
391.186	265.56
391.411	266.56
391.636	276.56
391.86	261.56
392.085	277.56
392.31	280.56
392.534	267.56
392.759	265.56
392.984	272.56
393.208	247.56
393.433	260.56
393.658	259.56
393.882	255.56
394.107	260.56
394.331	246.56
394.556	248.56
394.78	255.56
395.005	259.56
395.229	267.56
395.454	269.56
395.678	275.56
395.903	268.56
396.127	255.56
396.352	257.56
396.576	263.56
396.801	253.56
397.025	252.56
397.249	269.56
397.474	278.56
397.698	267.56
397.922	261.56
398.147	268.56
398.371	269.56
398.595	273.56
398.82	287.56
399.044	284.56
399.268	337.56
399.492	379.56
399.717	439.56
399.941	442.56
400.165	364.56
400.389	331.56
400.613	326.56
400.837	306.56
401.062	315.56
401.286	288.56
401.51	293.56
401.734	274.56
401.958	290.56
402.182	295.56
402.406	307.56
402.63	315.56
402.854	321.56
403.078	308.56
403.302	325.56
403.526	321.56
403.75	341.56
403.974	332.56
404.198	339.56
404.422	341.56
404.645	340.56
404.869	336.56
405.093	324.56
405.317	311.56
405.541	321.56
405.765	325.56
405.988	312.56
406.212	311.56
406.436	310.56
406.66	325.56
406.883	321.56
407.107	359.56
407.331	364.56
407.555	372.56
407.778	371.56
408.002	346.56
408.226	369.56
408.449	329.56
408.673	328.56
408.896	320.56
409.12	344.56
409.344	332.56
409.567	319.56
409.791	326.56
410.014	313.56
410.238	332.56
410.461	331.56
410.685	309.56
410.908	307.56
411.132	314.56
411.355	313.56
411.578	297.56
411.802	293.56
412.025	319.56
412.249	314.56
412.472	315.56
412.695	308.56
412.919	298.56
413.142	299.56
413.365	292.56
413.589	283.56
413.812	279.56
414.035	288.56
414.258	284.56
414.482	308.56
414.705	297.56
414.928	294.56
415.151	295.56
415.374	288.56
415.597	286.56
415.821	282.56
416.044	284.56
416.267	290.56
416.49	284.56
416.713	293.56
416.936	291.56
417.159	289.56
417.382	286.56
417.605	296.56
417.828	277.56
418.051	282.56
418.274	295.56
418.497	300.56
418.72	305.56
418.943	294.56
419.166	331.56
419.389	325.56
419.611	318.56
419.834	305.56
420.057	316.56
420.28	284.56
420.503	293.56
420.726	283.56
420.948	283.56
421.171	284.56
421.394	301.56
421.617	272.56
421.839	271.56
422.062	292.56
422.285	311.56
422.507	323.56
422.73	289.56
422.953	284.56
423.175	300.56
423.398	294.56
423.621	293.56
423.843	303.56
424.066	301.56
424.288	300.56
424.511	322.56
424.733	293.56
424.956	300.56
425.178	290.56
425.401	294.56
425.623	294.56
425.846	288.56
426.068	287.56
426.291	270.56
426.513	281.56
426.735	272.56
426.958	268.56
427.18	293.56
427.402	282.56
427.625	274.56
427.847	249.56
428.069	269.56
428.292	256.56
428.514	267.56
428.736	278.56
428.958	262.56
429.181	263.56
429.403	243.56
429.625	251.56
429.847	262.56
430.069	264.56
430.292	249.56
430.514	261.56
430.736	247.56
430.958	254.56
431.18	260.56
431.402	261.56
431.624	265.56
431.846	250.56
432.068	267.56
432.29	266.56
432.512	255.56
432.734	277.56
432.956	260.56
433.178	265.56
433.4	269.56
433.622	287.56
433.844	260.56
434.066	261.56
434.287	285.56
434.509	251.56
434.731	287.56
434.953	290.56
435.175	296.56
435.397	299.56
435.618	269.56
435.84	274.56
436.062	273.56
436.284	253.56
436.505	258.56
436.727	256.56
436.949	264.56
437.17	274.56
437.392	255.56
437.614	257.56
437.835	253.56
438.057	257.56
438.278	248.56
438.5	261.56
438.721	270.56
438.943	250.56
439.165	248.56
439.386	263.56
439.608	253.56
439.829	248.56
440.05	261.56
440.272	273.56
440.493	278.56
440.715	264.56
440.936	286.56
441.158	281.56
441.379	281.56
441.6	286.56
441.822	275.56
442.043	281.56
442.264	280.56
442.486	300.56
442.707	275.56
442.928	295.56
443.149	285.56
443.371	287.56
443.592	275.56
443.813	305.56
444.034	291.56
444.255	288.56
444.476	306.56
444.698	322.56
444.919	329.56
445.14	445.56
445.361	351.56
445.582	293.56
445.803	292.56
446.024	289.56
446.245	270.56
446.466	279.56
446.687	274.56
446.908	269.56
447.129	245.56
447.35	266.56
447.571	242.56
447.792	249.56
448.013	243.56
448.234	241.56
448.455	238.56
448.675	249.56
448.896	251.56
449.117	241.56
449.338	269.56
449.559	263.56
449.779	241.56
450	226.56
450.221	240.56
450.442	247.56
450.662	258.56
450.883	242.56
451.104	261.56
451.324	261.56
451.545	259.56
451.766	252.56
451.986	254.56
452.207	267.56
452.428	241.56
452.648	254.56
452.869	258.56
453.089	247.56
453.31	233.56
453.53	229.56
453.751	240.56
453.971	232.56
454.192	227.56
454.412	244.56
454.633	249.56
454.853	232.56
455.073	232.56
455.294	241.56
455.514	235.56
455.734	242.56
455.955	210.56
456.175	236.56
456.395	217.56
456.616	254.56
456.836	219.56
457.056	228.56
457.276	231.56
457.497	229.56
457.717	223.56
457.937	220.56
458.157	240.56
458.377	239.56
458.598	258.56
458.818	259.56
459.038	248.56
459.258	248.56
459.478	251.56
459.698	255.56
459.918	277.56
460.138	296.56
460.358	307.56
460.578	307.56
460.798	309.56
461.018	312.56
461.238	307.56
461.458	295.56
461.678	298.56
461.898	305.56
462.118	311.56
462.338	310.56
462.558	318.56
462.777	346.56
462.997	363.56
463.217	421.56
463.437	415.56
463.657	364.56
463.876	349.56
464.096	352.56
464.316	376.56
464.536	365.56
464.755	313.56
464.975	328.56
465.195	309.56
465.414	285.56
465.634	280.56
465.854	261.56
466.073	270.56
466.293	283.56
466.512	280.56
466.732	254.56
466.951	243.56
467.171	257.56
467.391	252.56
467.61	249.56
467.829	251.56
468.049	270.56
468.268	251.56
468.488	253.56
468.707	263.56
468.927	243.56
469.146	263.56
469.365	266.56
469.585	247.56
469.804	273.56
470.023	256.56
470.243	278.56
470.462	265.56
470.681	279.56
470.901	268.56
471.12	260.56
471.339	272.56
471.558	258.56
471.777	263.56
471.997	251.56
472.216	257.56
472.435	275.56
472.654	255.56
472.873	248.56
473.092	243.56
473.311	240.56
473.53	244.56
473.749	254.56
473.968	229.56
474.187	252.56
474.406	258.56
474.625	259.56
474.844	269.56
475.063	248.56
475.282	244.56
475.501	247.56
475.72	275.56
475.939	242.56
476.158	260.56
476.377	246.56
476.596	253.56
476.814	267.56
477.033	269.56
477.252	240.56
477.471	261.56
477.69	289.56
477.908	288.56
478.127	268.56
478.346	289.56
478.564	293.56
478.783	298.56
479.002	299.56
479.22	303.56
479.439	320.56
479.658	299.56
479.876	291.56
480.095	316.56
480.313	304.56
480.532	319.56
480.751	309.56
480.969	303.56
481.188	300.56
481.406	298.56
481.624	293.56
481.843	273.56
482.061	266.56
482.28	287.56
482.498	295.56
482.717	271.56
482.935	283.56
483.153	289.56
483.372	289.56
483.59	280.56
483.808	301.56
484.027	293.56
484.245	286.56
484.463	303.56
484.681	287.56
484.9	283.56
485.118	287.56
485.336	310.56
485.554	287.56
485.772	313.56
485.99	275.56
486.209	278.56
486.427	310.56
486.645	283.56
486.863	296.56
487.081	323.56
487.299	312.56
487.517	289.56
487.735	292.56
487.953	310.56
488.171	273.56
488.389	300.56
488.607	294.56
488.825	295.56
489.043	288.56
489.261	299.56
489.479	282.56
489.696	296.56
489.914	287.56
490.132	307.56
490.35	312.56
490.568	309.56
490.786	302.56
491.003	291.56
491.221	285.56
491.439	294.56
491.657	292.56
491.874	303.56
492.092	294.56
492.31	306.56
492.527	300.56
492.745	308.56
492.963	300.56
493.18	309.56
493.398	307.56
493.615	317.56
493.833	314.56
494.05	308.56
494.268	309.56
494.485	312.56
494.703	326.56
494.92	320.56
495.138	292.56
495.355	304.56
495.573	293.56
495.79	319.56
496.008	308.56
496.225	300.56
496.442	319.56
496.66	339.56
496.877	324.56
497.094	328.56
497.312	321.56
497.529	343.56
497.746	334.56
497.963	336.56
498.181	356.56
498.398	371.56
498.615	412.56
498.832	403.56
499.049	432.56
499.267	467.56
499.484	508.56
499.701	551.56
499.918	600.56
500.135	714.56
500.352	816.56
500.569	846.56
500.786	852.56
501.003	761.56
501.22	711.56
501.437	623.56
501.654	525.56
501.871	481.56
502.088	453.56
502.305	423.56
502.522	420.56
502.739	406.56
502.956	393.56
