Data from 0.5MCu(NO3)2.Standard.Lamp.E10.CV._HRD10591_16-05-37-753.txt Node
Date: Mon Jul 22 16:05:37 EDT 2019
User: cochatt
Spectrometer: HR+D1059
Trigger mode: 1
Integration Time (sec): 1.000000E-1
Scans to average: 1
Electric dark correction enabled: true
Nonlinearity correction enabled: false
Boxcar width: 0
XAxis mode: Wavelengths
Number of Pixels in Spectrum: 2048
>>>>>Begin Spectral Data<<<<<
223.165	-6.38
223.4	-6.38
223.635	-6.38
223.869	-5.38
224.104	-29.38
224.338	2.62
224.573	2.62
224.808	-15.38
225.042	-13.38
225.277	-15.38
225.511	-14.38
225.746	0.62
225.98	3.62
226.215	9.62
226.449	21.62
226.683	11.62
226.918	25.62
227.152	21.62
227.387	34.62
227.621	43.62
227.856	44.62
228.09	41.62
228.324	62.62
228.559	58.62
228.793	69.62
229.027	69.62
229.262	71.62
229.496	71.62
229.73	80.62
229.964	72.62
230.199	75.62
230.433	89.62
230.667	78.62
230.901	70.62
231.136	76.62
231.37	80.62
231.604	97.62
231.838	76.62
232.072	72.62
232.306	85.62
232.541	86.62
232.775	76.62
233.009	75.62
233.243	100.62
233.477	78.62
233.711	88.62
233.945	95.62
234.179	96.62
234.413	96.62
234.647	98.62
234.881	86.62
235.115	87.62
235.349	97.62
235.583	105.62
235.817	105.62
236.051	83.62
236.285	77.62
236.519	83.62
236.753	92.62
236.987	81.62
237.221	89.62
237.455	82.62
237.689	78.62
237.922	91.62
238.156	76.62
238.39	81.62
238.624	80.62
238.858	84.62
239.091	97.62
239.325	92.62
239.559	86.62
239.793	97.62
240.027	91.62
240.26	81.62
240.494	93.62
240.728	82.62
240.961	101.62
241.195	80.62
241.429	92.62
241.662	76.62
241.896	86.62
242.13	81.62
242.363	91.62
242.597	87.62
242.83	96.62
243.064	82.62
243.298	85.62
243.531	83.62
243.765	102.62
243.998	89.62
244.232	98.62
244.465	93.62
244.699	103.62
244.932	98.62
245.166	84.62
245.399	94.62
245.633	99.62
245.866	90.62
246.099	103.62
246.333	100.62
246.566	107.62
246.8	114.62
247.033	94.62
247.266	103.62
247.5	94.62
247.733	103.62
247.966	105.62
248.2	112.62
248.433	106.62
248.666	115.62
248.899	109.62
249.133	112.62
249.366	96.62
249.599	89.62
249.832	108.62
250.066	98.62
250.299	103.62
250.532	105.62
250.765	117.62
250.998	106.62
251.231	104.62
251.465	103.62
251.698	112.62
251.931	94.62
252.164	105.62
252.397	117.62
252.63	115.62
252.863	99.62
253.096	115.62
253.329	108.62
253.562	120.62
253.795	106.62
254.028	118.62
254.261	100.62
254.494	108.62
254.727	116.62
254.96	99.62
255.193	117.62
255.426	119.62
255.659	115.62
255.892	123.62
256.124	107.62
256.357	110.62
256.59	120.62
256.823	113.62
257.056	107.62
257.289	112.62
257.521	114.62
257.754	118.62
257.987	116.62
258.22	118.62
258.452	104.62
258.685	121.62
258.918	105.62
259.151	126.62
259.383	117.62
259.616	115.62
259.849	113.62
260.081	129.62
260.314	109.62
260.547	115.62
260.779	119.62
261.012	118.62
261.244	122.62
261.477	111.62
261.71	120.62
261.942	113.62
262.175	110.62
262.407	120.62
262.64	116.62
262.872	116.62
263.105	119.62
263.337	122.62
263.57	122.62
263.802	126.62
264.035	116.62
264.267	116.62
264.499	126.62
264.732	118.62
264.964	130.62
265.197	119.62
265.429	120.62
265.661	126.62
265.894	137.62
266.126	116.62
266.358	124.62
266.591	123.62
266.823	128.62
267.055	114.62
267.287	116.62
267.52	133.62
267.752	126.62
267.984	129.62
268.216	116.62
268.448	126.62
268.681	132.62
268.913	121.62
269.145	142.62
269.377	131.62
269.609	114.62
269.841	124.62
270.073	123.62
270.306	127.62
270.538	126.62
270.77	131.62
271.002	131.62
271.234	120.62
271.466	135.62
271.698	132.62
271.93	139.62
272.162	132.62
272.394	147.62
272.626	138.62
272.858	132.62
273.09	133.62
273.322	134.62
273.553	140.62
273.785	136.62
274.017	126.62
274.249	149.62
274.481	141.62
274.713	136.62
274.945	139.62
275.176	131.62
275.408	133.62
275.64	150.62
275.872	153.62
276.104	140.62
276.335	137.62
276.567	136.62
276.799	134.62
277.031	140.62
277.262	138.62
277.494	146.62
277.726	159.62
277.957	140.62
278.189	139.62
278.421	141.62
278.652	140.62
278.884	142.62
279.115	129.62
279.347	150.62
279.579	150.62
279.81	162.62
280.042	133.62
280.273	150.62
280.505	158.62
280.736	152.62
280.968	160.62
281.199	136.62
281.431	151.62
281.662	146.62
281.894	153.62
282.125	136.62
282.356	153.62
282.588	147.62
282.819	143.62
283.051	134.62
283.282	148.62
283.513	142.62
283.745	155.62
283.976	146.62
284.207	151.62
284.439	148.62
284.67	166.62
284.901	154.62
285.132	175.62
285.364	159.62
285.595	147.62
285.826	155.62
286.057	156.62
286.288	167.62
286.52	172.62
286.751	170.62
286.982	170.62
287.213	154.62
287.444	161.62
287.675	153.62
287.906	151.62
288.138	155.62
288.369	174.62
288.6	162.62
288.831	157.62
289.062	148.62
289.293	140.62
289.524	169.62
289.755	169.62
289.986	161.62
290.217	141.62
290.448	166.62
290.679	166.62
290.91	177.62
291.141	171.62
291.371	174.62
291.602	166.62
291.833	163.62
292.064	156.62
292.295	174.62
292.526	169.62
292.757	155.62
292.987	176.62
293.218	158.62
293.449	169.62
293.68	171.62
293.91	174.62
294.141	155.62
294.372	164.62
294.603	171.62
294.833	159.62
295.064	176.62
295.295	180.62
295.525	168.62
295.756	166.62
295.987	162.62
296.217	176.62
296.448	174.62
296.679	178.62
296.909	174.62
297.14	178.62
297.37	186.62
297.601	167.62
297.831	171.62
298.062	185.62
298.292	186.62
298.523	178.62
298.753	186.62
298.984	164.62
299.214	172.62
299.445	187.62
299.675	172.62
299.905	191.62
300.136	190.62
300.366	182.62
300.597	178.62
300.827	193.62
301.057	179.62
301.288	203.62
301.518	190.62
301.748	187.62
301.979	194.62
302.209	176.62
302.439	180.62
302.669	175.62
302.9	193.62
303.13	171.62
303.36	183.62
303.59	199.62
303.82	185.62
304.051	170.62
304.281	184.62
304.511	186.62
304.741	179.62
304.971	187.62
305.201	169.62
305.431	174.62
305.661	190.62
305.891	182.62
306.121	178.62
306.352	186.62
306.582	186.62
306.812	154.62
307.042	182.62
307.272	194.62
307.502	181.62
307.731	195.62
307.961	193.62
308.191	184.62
308.421	191.62
308.651	213.62
308.881	186.62
309.111	186.62
309.341	174.62
309.571	178.62
309.8	194.62
310.03	183.62
310.26	178.62
310.49	174.62
310.72	187.62
310.949	195.62
311.179	183.62
311.409	179.62
311.639	188.62
311.868	184.62
312.098	180.62
312.328	194.62
312.557	182.62
312.787	192.62
313.017	199.62
313.246	187.62
313.476	179.62
313.706	202.62
313.935	169.62
314.165	198.62
314.394	192.62
314.624	207.62
314.853	204.62
315.083	197.62
315.312	189.62
315.542	175.62
315.771	193.62
316.001	191.62
316.23	179.62
316.46	194.62
316.689	187.62
316.919	186.62
317.148	183.62
317.377	186.62
317.607	182.62
317.836	171.62
318.065	192.62
318.295	178.62
318.524	181.62
318.753	199.62
318.983	184.62
319.212	172.62
319.441	182.62
319.67	185.62
319.9	197.62
320.129	178.62
320.358	183.62
320.587	176.62
320.816	199.62
321.046	187.62
321.275	186.62
321.504	191.62
321.733	189.62
321.962	197.62
322.191	180.62
322.42	192.62
322.649	187.62
322.878	179.62
323.108	199.62
323.337	194.62
323.566	223.62
323.795	192.62
324.024	179.62
324.253	180.62
324.482	191.62
324.71	175.62
324.939	203.62
325.168	175.62
325.397	194.62
325.626	208.62
325.855	174.62
326.084	184.62
326.313	207.62
326.542	201.62
326.77	194.62
326.999	203.62
327.228	192.62
327.457	193.62
327.686	217.62
327.914	202.62
328.143	200.62
328.372	195.62
328.6	203.62
328.829	208.62
329.058	222.62
329.287	203.62
329.515	209.62
329.744	198.62
329.972	211.62
330.201	208.62
330.43	197.62
330.658	192.62
330.887	211.62
331.115	203.62
331.344	200.62
331.572	207.62
331.801	211.62
332.03	219.62
332.258	200.62
332.486	232.62
332.715	226.62
332.943	241.62
333.172	231.62
333.4	251.62
333.629	253.62
333.857	253.62
334.085	253.62
334.314	228.62
334.542	241.62
334.771	225.62
334.999	247.62
335.227	247.62
335.455	232.62
335.684	224.62
335.912	224.62
336.14	226.62
336.369	218.62
336.597	225.62
336.825	239.62
337.053	222.62
337.281	216.62
337.51	215.62
337.738	219.62
337.966	209.62
338.194	204.62
338.422	208.62
338.65	231.62
338.878	203.62
339.106	189.62
339.334	212.62
339.562	202.62
339.79	184.62
340.018	198.62
340.246	206.62
340.474	192.62
340.702	193.62
340.93	209.62
341.158	209.62
341.386	197.62
341.614	194.62
341.842	203.62
342.07	180.62
342.298	201.62
342.526	200.62
342.754	201.62
342.981	198.62
343.209	200.62
343.437	211.62
343.665	235.62
343.893	234.62
344.12	254.62
344.348	229.62
344.576	218.62
344.804	208.62
345.031	206.62
345.259	208.62
345.487	223.62
345.714	224.62
345.942	195.62
346.17	204.62
346.397	206.62
346.625	184.62
346.853	215.62
347.08	195.62
347.308	189.62
347.535	205.62
347.763	211.62
347.99	204.62
348.218	217.62
348.445	222.62
348.673	216.62
348.9	192.62
349.128	205.62
349.355	162.62
349.583	202.62
349.81	207.62
350.037	182.62
350.265	196.62
350.492	201.62
350.72	192.62
350.947	204.62
351.174	199.62
351.402	187.62
351.629	200.62
351.856	185.62
352.083	190.62
352.311	180.62
352.538	190.62
352.765	172.62
352.992	192.62
353.22	200.62
353.447	201.62
353.674	190.62
353.901	196.62
354.128	183.62
354.355	171.62
354.583	181.62
354.81	186.62
355.037	217.62
355.264	188.62
355.491	182.62
355.718	190.62
355.945	191.62
356.172	200.62
356.399	191.62
356.626	204.62
356.853	192.62
357.08	187.62
357.307	194.62
357.534	190.62
357.761	181.62
357.988	192.62
358.215	211.62
358.441	199.62
358.668	202.62
358.895	204.62
359.122	187.62
359.349	198.62
359.576	183.62
359.802	201.62
360.029	194.62
360.256	200.62
360.483	199.62
360.709	188.62
360.936	198.62
361.163	183.62
361.39	183.62
361.616	200.62
361.843	199.62
362.07	202.62
362.296	195.62
362.523	187.62
362.749	188.62
362.976	174.62
363.203	196.62
363.429	203.62
363.656	202.62
363.882	192.62
364.109	168.62
364.335	195.62
364.562	178.62
364.788	178.62
365.015	193.62
365.241	197.62
365.468	190.62
365.694	194.62
365.92	198.62
366.147	199.62
366.373	178.62
366.599	178.62
366.826	187.62
367.052	192.62
367.278	190.62
367.505	194.62
367.731	199.62
367.957	201.62
368.184	190.62
368.41	182.62
368.636	188.62
368.862	208.62
369.089	201.62
369.315	212.62
369.541	201.62
369.767	200.62
369.993	198.62
370.219	177.62
370.445	192.62
370.672	200.62
370.898	203.62
371.124	195.62
371.35	206.62
371.576	186.62
371.802	199.62
372.028	212.62
372.254	209.62
372.48	187.62
372.706	197.62
372.932	219.62
373.158	211.62
373.384	206.62
373.61	204.62
373.835	196.62
374.061	200.62
374.287	207.62
374.513	204.62
374.739	209.62
374.965	210.62
375.191	207.62
375.416	205.62
375.642	220.62
375.868	216.62
376.094	217.62
376.319	217.62
376.545	194.62
376.771	190.62
376.997	195.62
377.222	206.62
377.448	208.62
377.674	195.62
377.899	194.62
378.125	185.62
378.35	214.62
378.576	200.62
378.802	187.62
379.027	194.62
379.253	201.62
379.478	199.62
379.704	211.62
379.929	207.62
380.155	195.62
380.38	201.62
380.606	210.62
380.831	203.62
381.057	211.62
381.282	207.62
381.507	200.62
381.733	214.62
381.958	204.62
382.184	200.62
382.409	194.62
382.634	214.62
382.86	201.62
383.085	218.62
383.31	219.62
383.535	216.62
383.761	224.62
383.986	231.62
384.211	223.62
384.436	228.62
384.662	238.62
384.887	230.62
385.112	252.62
385.337	223.62
385.562	232.62
385.787	221.62
386.013	226.62
386.238	243.62
386.463	216.62
386.688	235.62
386.913	220.62
387.138	215.62
387.363	219.62
387.588	228.62
387.813	218.62
388.038	214.62
388.263	235.62
388.488	228.62
388.713	225.62
388.938	226.62
389.163	217.62
389.387	210.62
389.612	222.62
389.837	223.62
390.062	215.62
390.287	215.62
390.512	207.62
390.736	242.62
390.961	228.62
391.186	231.62
391.411	230.62
391.636	254.62
391.86	247.62
392.085	241.62
392.31	233.62
392.534	217.62
392.759	240.62
392.984	232.62
393.208	228.62
393.433	240.62
393.658	239.62
393.882	214.62
394.107	228.62
394.331	224.62
394.556	227.62
394.78	236.62
395.005	223.62
395.229	219.62
395.454	234.62
395.678	241.62
395.903	254.62
396.127	243.62
396.352	232.62
396.576	213.62
396.801	247.62
397.025	229.62
397.249	228.62
397.474	235.62
397.698	229.62
397.922	243.62
398.147	258.62
398.371	247.62
398.595	238.62
398.82	254.62
399.044	267.62
399.268	303.62
399.492	350.62
399.717	374.62
399.941	380.62
400.165	325.62
400.389	304.62
400.613	304.62
400.837	278.62
401.062	259.62
401.286	258.62
401.51	262.62
401.734	257.62
401.958	254.62
402.182	262.62
402.406	284.62
402.63	269.62
402.854	284.62
403.078	278.62
403.302	287.62
403.526	307.62
403.75	309.62
403.974	307.62
404.198	317.62
404.422	320.62
404.645	279.62
404.869	309.62
405.093	295.62
405.317	294.62
405.541	285.62
405.765	287.62
405.988	279.62
406.212	292.62
406.436	293.62
406.66	287.62
406.883	304.62
407.107	306.62
407.331	331.62
407.555	322.62
407.778	321.62
408.002	309.62
408.226	307.62
408.449	292.62
408.673	306.62
408.896	291.62
409.12	300.62
409.344	281.62
409.567	282.62
409.791	295.62
410.014	296.62
410.238	271.62
410.461	289.62
410.685	276.62
410.908	288.62
411.132	292.62
411.355	277.62
411.578	276.62
411.802	267.62
412.025	269.62
412.249	286.62
412.472	279.62
412.695	284.62
412.919	264.62
413.142	274.62
413.365	263.62
413.589	254.62
413.812	269.62
414.035	277.62
414.258	264.62
414.482	226.62
414.705	270.62
414.928	256.62
415.151	276.62
415.374	272.62
415.597	278.62
415.821	259.62
416.044	265.62
416.267	274.62
416.49	271.62
416.713	249.62
416.936	260.62
417.159	266.62
417.382	259.62
417.605	246.62
417.828	252.62
418.051	261.62
418.274	270.62
418.497	291.62
418.72	262.62
418.943	274.62
419.166	287.62
419.389	308.62
419.611	273.62
419.834	272.62
420.057	278.62
420.28	269.62
420.503	278.62
420.726	265.62
420.948	244.62
421.171	265.62
421.394	254.62
421.617	260.62
421.839	262.62
422.062	255.62
422.285	269.62
422.507	258.62
422.73	270.62
422.953	288.62
423.175	288.62
423.398	271.62
423.621	282.62
423.843	285.62
424.066	274.62
424.288	264.62
424.511	268.62
424.733	275.62
424.956	265.62
425.178	250.62
425.401	269.62
425.623	261.62
425.846	263.62
426.068	249.62
426.291	261.62
426.513	243.62
426.735	242.62
426.958	250.62
427.18	240.62
427.402	249.62
427.625	231.62
427.847	246.62
428.069	233.62
428.292	222.62
428.514	239.62
428.736	228.62
428.958	233.62
429.181	228.62
429.403	221.62
429.625	227.62
429.847	227.62
430.069	233.62
430.292	224.62
430.514	220.62
430.736	240.62
430.958	244.62
431.18	235.62
431.402	247.62
431.624	238.62
431.846	238.62
432.068	232.62
432.29	236.62
432.512	231.62
432.734	241.62
432.956	254.62
433.178	246.62
433.4	240.62
433.622	238.62
433.844	260.62
434.066	221.62
434.287	252.62
434.509	254.62
434.731	272.62
434.953	262.62
435.175	274.62
435.397	253.62
435.618	242.62
435.84	240.62
436.062	244.62
436.284	220.62
436.505	229.62
436.727	239.62
436.949	224.62
437.17	241.62
437.392	224.62
437.614	238.62
437.835	219.62
438.057	236.62
438.278	223.62
438.5	230.62
438.721	216.62
438.943	226.62
439.165	231.62
439.386	247.62
439.608	234.62
439.829	231.62
440.05	242.62
440.272	228.62
440.493	231.62
440.715	239.62
440.936	225.62
441.158	246.62
441.379	254.62
441.6	260.62
441.822	266.62
442.043	256.62
442.264	274.62
442.486	250.62
442.707	263.62
442.928	251.62
443.149	285.62
443.371	246.62
443.592	267.62
443.813	268.62
444.034	264.62
444.255	259.62
444.476	289.62
444.698	289.62
444.919	310.62
445.14	406.62
445.361	332.62
445.582	258.62
445.803	276.62
446.024	237.62
446.245	232.62
446.466	248.62
446.687	239.62
446.908	256.62
447.129	234.62
447.35	243.62
447.571	224.62
447.792	226.62
448.013	232.62
448.234	228.62
448.455	231.62
448.675	226.62
448.896	219.62
449.117	218.62
449.338	215.62
449.559	215.62
449.779	210.62
450	212.62
450.221	228.62
450.442	219.62
450.662	232.62
450.883	220.62
451.104	219.62
451.324	224.62
451.545	223.62
451.766	242.62
451.986	229.62
452.207	233.62
452.428	233.62
452.648	217.62
452.869	231.62
453.089	221.62
453.31	228.62
453.53	221.62
453.751	217.62
453.971	215.62
454.192	212.62
454.412	218.62
454.633	219.62
454.853	217.62
455.073	226.62
455.294	220.62
455.514	213.62
455.734	204.62
455.955	202.62
456.175	195.62
456.395	205.62
456.616	199.62
456.836	205.62
457.056	222.62
457.276	195.62
457.497	204.62
457.717	206.62
457.937	203.62
458.157	218.62
458.377	218.62
458.598	218.62
458.818	213.62
459.038	226.62
459.258	231.62
459.478	240.62
459.698	240.62
459.918	233.62
460.138	254.62
460.358	264.62
460.578	290.62
460.798	282.62
461.018	274.62
461.238	281.62
461.458	263.62
461.678	252.62
461.898	266.62
462.118	278.62
462.338	306.62
462.558	291.62
462.777	305.62
462.997	323.62
463.217	355.62
463.437	348.62
463.657	335.62
463.876	325.62
464.096	328.62
464.316	328.62
464.536	314.62
464.755	321.62
464.975	281.62
465.195	274.62
465.414	285.62
465.634	254.62
465.854	245.62
466.073	258.62
466.293	233.62
466.512	226.62
466.732	235.62
466.951	242.62
467.171	233.62
467.391	242.62
467.61	245.62
467.829	232.62
468.049	239.62
468.268	246.62
468.488	218.62
468.707	231.62
468.927	224.62
469.146	223.62
469.365	225.62
469.585	219.62
469.804	225.62
470.023	259.62
470.243	244.62
470.462	254.62
470.681	249.62
470.901	234.62
471.12	223.62
471.339	238.62
471.558	238.62
471.777	226.62
471.997	238.62
472.216	226.62
472.435	211.62
472.654	226.62
472.873	241.62
473.092	194.62
473.311	200.62
473.53	226.62
473.749	230.62
473.968	229.62
474.187	218.62
474.406	201.62
474.625	223.62
474.844	219.62
475.063	222.62
475.282	233.62
475.501	233.62
475.72	222.62
475.939	219.62
476.158	231.62
476.377	216.62
476.596	222.62
476.814	222.62
477.033	227.62
477.252	240.62
477.471	238.62
477.69	266.62
477.908	250.62
478.127	261.62
478.346	273.62
478.564	257.62
478.783	273.62
479.002	279.62
479.22	274.62
479.439	265.62
479.658	268.62
479.876	276.62
480.095	263.62
480.313	268.62
480.532	276.62
480.751	277.62
480.969	268.62
481.188	270.62
481.406	266.62
481.624	265.62
481.843	247.62
482.061	251.62
482.28	250.62
482.498	231.62
482.717	234.62
482.935	265.62
483.153	251.62
483.372	247.62
483.59	283.62
483.808	266.62
484.027	245.62
484.245	240.62
484.463	243.62
484.681	280.62
484.9	270.62
485.118	274.62
485.336	264.62
485.554	268.62
485.772	272.62
485.99	291.62
486.209	267.62
486.427	278.62
486.645	262.62
486.863	254.62
487.081	268.62
487.299	273.62
487.517	291.62
487.735	267.62
487.953	278.62
488.171	252.62
488.389	260.62
488.607	265.62
488.825	260.62
489.043	251.62
489.261	260.62
489.479	274.62
489.696	267.62
489.914	265.62
490.132	264.62
490.35	279.62
490.568	279.62
490.786	276.62
491.003	271.62
491.221	262.62
491.439	265.62
491.657	274.62
491.874	276.62
492.092	274.62
492.31	264.62
492.527	274.62
492.745	281.62
492.963	281.62
493.18	272.62
493.398	268.62
493.615	291.62
493.833	278.62
494.05	274.62
494.268	273.62
494.485	270.62
494.703	268.62
494.92	280.62
495.138	267.62
495.355	273.62
495.573	258.62
495.79	277.62
496.008	301.62
496.225	280.62
496.442	273.62
496.66	276.62
496.877	288.62
497.094	289.62
497.312	295.62
497.529	300.62
497.746	297.62
497.963	322.62
498.181	317.62
498.398	336.62
498.615	353.62
498.832	366.62
499.049	404.62
499.267	420.62
499.484	475.62
499.701	517.62
499.918	554.62
500.135	628.62
500.352	714.62
500.569	748.62
500.786	766.62
501.003	689.62
501.22	603.62
501.437	553.62
501.654	501.62
501.871	434.62
502.088	410.62
502.305	392.62
502.522	376.62
502.739	364.62
502.956	330.62
503.172	299.62
503.389	306.62
