Data from 0.5MCu(NO3)2.Standard.Lamp.E10.CV._HRD10591_16-06-43-754.txt Node
Date: Mon Jul 22 16:06:43 EDT 2019
User: cochatt
Spectrometer: HR+D1059
Trigger mode: 1
Integration Time (sec): 1.000000E-1
Scans to average: 1
Electric dark correction enabled: true
Nonlinearity correction enabled: false
Boxcar width: 0
XAxis mode: Wavelengths
Number of Pixels in Spectrum: 2048
>>>>>Begin Spectral Data<<<<<
223.165	-17.44
223.4	-17.44
223.635	-17.44
223.869	-10.44
224.104	-18.44
224.338	-12.44
224.573	-23.44
224.808	-9.44
225.042	-10.44
225.277	-3.44
225.511	-11.44
225.746	7.56
225.98	2.56
226.215	13.56
226.449	13.56
226.683	20.56
226.918	33.56
227.152	25.56
227.387	17.56
227.621	48.56
227.856	47.56
228.09	52.56
228.324	51.56
228.559	60.56
228.793	68.56
229.027	70.56
229.262	67.56
229.496	63.56
229.73	79.56
229.964	86.56
230.199	82.56
230.433	79.56
230.667	87.56
230.901	87.56
231.136	93.56
231.37	89.56
231.604	88.56
231.838	87.56
232.072	105.56
232.306	83.56
232.541	73.56
232.775	85.56
233.009	80.56
233.243	97.56
233.477	93.56
233.711	93.56
233.945	97.56
234.179	93.56
234.413	94.56
234.647	84.56
234.881	87.56
235.115	87.56
235.349	77.56
235.583	97.56
235.817	91.56
236.051	87.56
236.285	91.56
236.519	100.56
236.753	99.56
236.987	91.56
237.221	100.56
237.455	85.56
237.689	91.56
237.922	84.56
238.156	80.56
238.39	91.56
238.624	95.56
238.858	103.56
239.091	92.56
239.325	102.56
239.559	100.56
239.793	94.56
240.027	97.56
240.26	88.56
240.494	83.56
240.728	111.56
240.961	97.56
241.195	97.56
241.429	92.56
241.662	105.56
241.896	97.56
242.13	104.56
242.363	86.56
242.597	89.56
242.83	97.56
243.064	100.56
243.298	110.56
243.531	106.56
243.765	99.56
243.998	101.56
244.232	111.56
244.465	108.56
244.699	89.56
244.932	99.56
245.166	99.56
245.399	90.56
245.633	96.56
245.866	98.56
246.099	94.56
246.333	111.56
246.566	103.56
246.8	100.56
247.033	104.56
247.266	108.56
247.5	94.56
247.733	103.56
247.966	101.56
248.2	100.56
248.433	99.56
248.666	110.56
248.899	102.56
249.133	111.56
249.366	103.56
249.599	92.56
249.832	112.56
250.066	122.56
250.299	99.56
250.532	113.56
250.765	105.56
250.998	111.56
251.231	95.56
251.465	111.56
251.698	104.56
251.931	108.56
252.164	101.56
252.397	106.56
252.63	102.56
252.863	110.56
253.096	93.56
253.329	98.56
253.562	107.56
253.795	108.56
254.028	115.56
254.261	103.56
254.494	112.56
254.727	97.56
254.96	111.56
255.193	110.56
255.426	112.56
255.659	106.56
255.892	110.56
256.124	110.56
256.357	106.56
256.59	117.56
256.823	104.56
257.056	108.56
257.289	110.56
257.521	108.56
257.754	121.56
257.987	124.56
258.22	108.56
258.452	115.56
258.685	107.56
258.918	112.56
259.151	126.56
259.383	124.56
259.616	104.56
259.849	120.56
260.081	112.56
260.314	100.56
260.547	112.56
260.779	122.56
261.012	138.56
261.244	121.56
261.477	124.56
261.71	105.56
261.942	111.56
262.175	127.56
262.407	118.56
262.64	115.56
262.872	123.56
263.105	140.56
263.337	125.56
263.57	116.56
263.802	119.56
264.035	118.56
264.267	128.56
264.499	111.56
264.732	127.56
264.964	119.56
265.197	142.56
265.429	131.56
265.661	129.56
265.894	115.56
266.126	125.56
266.358	115.56
266.591	135.56
266.823	138.56
267.055	124.56
267.287	137.56
267.52	124.56
267.752	126.56
267.984	123.56
268.216	132.56
268.448	135.56
268.681	143.56
268.913	117.56
269.145	137.56
269.377	122.56
269.609	143.56
269.841	125.56
270.073	127.56
270.306	129.56
270.538	131.56
270.77	124.56
271.002	135.56
271.234	127.56
271.466	132.56
271.698	133.56
271.93	122.56
272.162	116.56
272.394	138.56
272.626	135.56
272.858	148.56
273.09	133.56
273.322	137.56
273.553	127.56
273.785	133.56
274.017	133.56
274.249	141.56
274.481	142.56
274.713	139.56
274.945	136.56
275.176	146.56
275.408	142.56
275.64	143.56
275.872	135.56
276.104	135.56
276.335	124.56
276.567	141.56
276.799	134.56
277.031	142.56
277.262	144.56
277.494	140.56
277.726	139.56
277.957	139.56
278.189	125.56
278.421	135.56
278.652	144.56
278.884	144.56
279.115	152.56
279.347	147.56
279.579	125.56
279.81	155.56
280.042	139.56
280.273	126.56
280.505	135.56
280.736	134.56
280.968	144.56
281.199	133.56
281.431	143.56
281.662	144.56
281.894	153.56
282.125	143.56
282.356	160.56
282.588	135.56
282.819	139.56
283.051	133.56
283.282	152.56
283.513	141.56
283.745	170.56
283.976	159.56
284.207	147.56
284.439	133.56
284.67	157.56
284.901	151.56
285.132	146.56
285.364	153.56
285.595	145.56
285.826	154.56
286.057	167.56
286.288	161.56
286.52	160.56
286.751	155.56
286.982	170.56
287.213	144.56
287.444	158.56
287.675	158.56
287.906	166.56
288.138	152.56
288.369	161.56
288.6	152.56
288.831	145.56
289.062	151.56
289.293	153.56
289.524	159.56
289.755	154.56
289.986	162.56
290.217	156.56
290.448	157.56
290.679	164.56
290.91	169.56
291.141	140.56
291.371	164.56
291.602	167.56
291.833	145.56
292.064	167.56
292.295	166.56
292.526	156.56
292.757	147.56
292.987	158.56
293.218	167.56
293.449	162.56
293.68	163.56
293.91	153.56
294.141	174.56
294.372	155.56
294.603	156.56
294.833	176.56
295.064	178.56
295.295	167.56
295.525	158.56
295.756	159.56
295.987	158.56
296.217	154.56
296.448	168.56
296.679	171.56
296.909	191.56
297.14	157.56
297.37	170.56
297.601	160.56
297.831	185.56
298.062	167.56
298.292	168.56
298.523	186.56
298.753	163.56
298.984	157.56
299.214	159.56
299.445	176.56
299.675	174.56
299.905	170.56
300.136	161.56
300.366	172.56
300.597	167.56
300.827	175.56
301.057	182.56
301.288	181.56
301.518	191.56
301.748	183.56
301.979	175.56
302.209	164.56
302.439	180.56
302.669	186.56
302.9	172.56
303.13	166.56
303.36	174.56
303.59	173.56
303.82	169.56
304.051	180.56
304.281	178.56
304.511	175.56
304.741	171.56
304.971	178.56
305.201	183.56
305.431	171.56
305.661	173.56
305.891	188.56
306.121	184.56
306.352	162.56
306.582	187.56
306.812	177.56
307.042	173.56
307.272	180.56
307.502	180.56
307.731	161.56
307.961	178.56
308.191	172.56
308.421	165.56
308.651	180.56
308.881	167.56
309.111	174.56
309.341	184.56
309.571	162.56
309.8	163.56
310.03	184.56
310.26	180.56
310.49	182.56
310.72	176.56
310.949	159.56
311.179	156.56
311.409	177.56
311.639	170.56
311.868	181.56
312.098	175.56
312.328	172.56
312.557	183.56
312.787	187.56
313.017	183.56
313.246	196.56
313.476	187.56
313.706	167.56
313.935	167.56
314.165	179.56
314.394	186.56
314.624	175.56
314.853	177.56
315.083	175.56
315.312	171.56
315.542	183.56
315.771	182.56
316.001	192.56
316.23	168.56
316.46	168.56
316.689	173.56
316.919	209.56
317.148	176.56
317.377	179.56
317.607	183.56
317.836	185.56
318.065	185.56
318.295	188.56
318.524	186.56
318.753	173.56
318.983	173.56
319.212	192.56
319.441	179.56
319.67	176.56
319.9	188.56
320.129	183.56
320.358	167.56
320.587	180.56
320.816	189.56
321.046	172.56
321.275	182.56
321.504	187.56
321.733	188.56
321.962	172.56
322.191	169.56
322.42	180.56
322.649	196.56
322.878	176.56
323.108	189.56
323.337	189.56
323.566	161.56
323.795	174.56
324.024	175.56
324.253	180.56
324.482	191.56
324.71	174.56
324.939	185.56
325.168	182.56
325.397	199.56
325.626	178.56
325.855	195.56
326.084	185.56
326.313	195.56
326.542	201.56
326.77	206.56
326.999	184.56
327.228	176.56
327.457	180.56
327.686	200.56
327.914	197.56
328.143	184.56
328.372	191.56
328.6	191.56
328.829	201.56
329.058	191.56
329.287	194.56
329.515	192.56
329.744	183.56
329.972	195.56
330.201	186.56
330.43	192.56
330.658	179.56
330.887	219.56
331.115	200.56
331.344	200.56
331.572	212.56
331.801	199.56
332.03	201.56
332.258	220.56
332.486	215.56
332.715	209.56
332.943	229.56
333.172	230.56
333.4	247.56
333.629	254.56
333.857	241.56
334.085	240.56
334.314	223.56
334.542	213.56
334.771	228.56
334.999	216.56
335.227	222.56
335.455	225.56
335.684	221.56
335.912	224.56
336.14	204.56
336.369	209.56
336.597	207.56
336.825	216.56
337.053	216.56
337.281	216.56
337.51	213.56
337.738	204.56
337.966	185.56
338.194	207.56
338.422	211.56
338.65	207.56
338.878	199.56
339.106	207.56
339.334	195.56
339.562	186.56
339.79	179.56
340.018	197.56
340.246	199.56
340.474	214.56
340.702	211.56
340.93	195.56
341.158	209.56
341.386	198.56
341.614	190.56
341.842	185.56
342.07	189.56
342.298	198.56
342.526	196.56
342.754	186.56
342.981	183.56
343.209	191.56
343.437	214.56
343.665	221.56
343.893	223.56
344.12	234.56
344.348	223.56
344.576	219.56
344.804	210.56
345.031	199.56
345.259	200.56
345.487	189.56
345.714	196.56
345.942	201.56
346.17	204.56
346.397	196.56
346.625	190.56
346.853	205.56
347.08	175.56
347.308	183.56
347.535	217.56
347.763	209.56
347.99	209.56
348.218	198.56
348.445	199.56
348.673	193.56
348.9	208.56
349.128	203.56
349.355	189.56
349.583	184.56
349.81	163.56
350.037	203.56
350.265	208.56
350.492	187.56
350.72	183.56
350.947	194.56
351.174	196.56
351.402	176.56
351.629	191.56
351.856	183.56
352.083	190.56
352.311	193.56
352.538	202.56
352.765	184.56
352.992	189.56
353.22	175.56
353.447	173.56
353.674	182.56
353.901	177.56
354.128	184.56
354.355	188.56
354.583	184.56
354.81	191.56
355.037	193.56
355.264	194.56
355.491	188.56
355.718	180.56
355.945	198.56
356.172	193.56
356.399	204.56
356.626	179.56
356.853	189.56
357.08	200.56
357.307	195.56
357.534	189.56
357.761	197.56
357.988	189.56
358.215	194.56
358.441	192.56
358.668	189.56
358.895	177.56
359.122	191.56
359.349	203.56
359.576	193.56
359.802	171.56
360.029	174.56
360.256	186.56
360.483	183.56
360.709	181.56
360.936	197.56
361.163	193.56
361.39	190.56
361.616	199.56
361.843	190.56
362.07	184.56
362.296	182.56
362.523	194.56
362.749	181.56
362.976	199.56
363.203	183.56
363.429	168.56
363.656	181.56
363.882	159.56
364.109	179.56
364.335	197.56
364.562	196.56
364.788	200.56
365.015	182.56
365.241	176.56
365.468	179.56
365.694	160.56
365.92	173.56
366.147	177.56
366.373	186.56
366.599	187.56
366.826	192.56
367.052	183.56
367.278	171.56
367.505	185.56
367.731	193.56
367.957	176.56
368.184	168.56
368.41	179.56
368.636	191.56
368.862	182.56
369.089	191.56
369.315	172.56
369.541	178.56
369.767	190.56
369.993	192.56
370.219	187.56
370.445	197.56
370.672	192.56
370.898	191.56
371.124	204.56
371.35	212.56
371.576	201.56
371.802	189.56
372.028	195.56
372.254	200.56
372.48	207.56
372.706	208.56
372.932	201.56
373.158	197.56
373.384	202.56
373.61	205.56
373.835	184.56
374.061	198.56
374.287	196.56
374.513	205.56
374.739	212.56
374.965	219.56
375.191	207.56
375.416	208.56
375.642	212.56
375.868	214.56
376.094	201.56
376.319	199.56
376.545	199.56
376.771	196.56
376.997	193.56
377.222	192.56
377.448	196.56
377.674	178.56
377.899	191.56
378.125	187.56
378.35	189.56
378.576	194.56
378.802	189.56
379.027	183.56
379.253	194.56
379.478	167.56
379.704	188.56
379.929	190.56
380.155	190.56
380.38	190.56
380.606	184.56
380.831	183.56
381.057	208.56
381.282	179.56
381.507	205.56
381.733	185.56
381.958	197.56
382.184	198.56
382.409	208.56
382.634	199.56
382.86	191.56
383.085	197.56
383.31	191.56
383.535	190.56
383.761	207.56
383.986	202.56
384.211	219.56
384.436	228.56
384.662	218.56
384.887	233.56
385.112	217.56
385.337	213.56
385.562	228.56
385.787	229.56
386.013	230.56
386.238	226.56
386.463	224.56
386.688	222.56
386.913	206.56
387.138	224.56
387.363	214.56
387.588	219.56
387.813	219.56
388.038	222.56
388.263	212.56
388.488	212.56
388.713	215.56
388.938	227.56
389.163	217.56
389.387	235.56
389.612	215.56
389.837	219.56
390.062	213.56
390.287	214.56
390.512	203.56
390.736	220.56
390.961	231.56
391.186	217.56
391.411	223.56
391.636	232.56
391.86	222.56
392.085	233.56
392.31	221.56
392.534	228.56
392.759	235.56
392.984	219.56
393.208	218.56
393.433	228.56
393.658	230.56
393.882	238.56
394.107	237.56
394.331	229.56
394.556	236.56
394.78	219.56
395.005	212.56
395.229	228.56
395.454	232.56
395.678	241.56
395.903	229.56
396.127	239.56
396.352	219.56
396.576	235.56
396.801	232.56
397.025	235.56
397.249	239.56
397.474	241.56
397.698	223.56
397.922	213.56
398.147	244.56
398.371	219.56
398.595	241.56
398.82	255.56
399.044	255.56
399.268	297.56
399.492	326.56
399.717	375.56
399.941	361.56
400.165	316.56
400.389	277.56
400.613	289.56
400.837	269.56
401.062	239.56
401.286	251.56
401.51	238.56
401.734	251.56
401.958	263.56
402.182	240.56
402.406	263.56
402.63	249.56
402.854	268.56
403.078	250.56
403.302	290.56
403.526	287.56
403.75	259.56
403.974	285.56
404.198	295.56
404.422	266.56
404.645	289.56
404.869	286.56
405.093	289.56
405.317	264.56
405.541	281.56
405.765	261.56
405.988	273.56
406.212	276.56
406.436	279.56
406.66	274.56
406.883	268.56
407.107	285.56
407.331	325.56
407.555	313.56
407.778	322.56
408.002	294.56
408.226	302.56
408.449	276.56
408.673	282.56
408.896	277.56
409.12	280.56
409.344	272.56
409.567	296.56
409.791	283.56
410.014	305.56
410.238	295.56
410.461	298.56
410.685	273.56
410.908	279.56
411.132	267.56
411.355	268.56
411.578	269.56
411.802	273.56
412.025	266.56
412.249	267.56
412.472	268.56
412.695	265.56
412.919	247.56
413.142	247.56
413.365	265.56
413.589	265.56
413.812	245.56
414.035	243.56
414.258	248.56
414.482	252.56
414.705	242.56
414.928	267.56
415.151	262.56
415.374	258.56
415.597	254.56
415.821	243.56
416.044	255.56
416.267	252.56
416.49	259.56
416.713	256.56
416.936	253.56
417.159	253.56
417.382	254.56
417.605	261.56
417.828	238.56
418.051	266.56
418.274	259.56
418.497	238.56
418.72	268.56
418.943	262.56
419.166	287.56
419.389	265.56
419.611	263.56
419.834	284.56
420.057	270.56
420.28	262.56
420.503	263.56
420.726	241.56
420.948	270.56
421.171	237.56
421.394	257.56
421.617	257.56
421.839	240.56
422.062	238.56
422.285	246.56
422.507	268.56
422.73	262.56
422.953	270.56
423.175	263.56
423.398	262.56
423.621	254.56
423.843	253.56
424.066	276.56
424.288	272.56
424.511	265.56
424.733	259.56
424.956	263.56
425.178	232.56
425.401	249.56
425.623	257.56
425.846	259.56
426.068	248.56
426.291	228.56
426.513	255.56
426.735	231.56
426.958	230.56
427.18	243.56
427.402	246.56
427.625	241.56
427.847	237.56
428.069	209.56
428.292	237.56
428.514	222.56
428.736	244.56
428.958	229.56
429.181	245.56
429.403	226.56
429.625	227.56
429.847	234.56
430.069	215.56
430.292	240.56
430.514	224.56
430.736	222.56
430.958	234.56
431.18	244.56
431.402	227.56
431.624	217.56
431.846	228.56
432.068	215.56
432.29	226.56
432.512	232.56
432.734	224.56
432.956	227.56
433.178	224.56
433.4	225.56
433.622	241.56
433.844	238.56
434.066	227.56
434.287	228.56
434.509	245.56
434.731	222.56
434.953	241.56
435.175	263.56
435.397	251.56
435.618	242.56
435.84	232.56
436.062	228.56
436.284	222.56
436.505	218.56
436.727	218.56
436.949	226.56
437.17	221.56
437.392	209.56
437.614	222.56
437.835	227.56
438.057	232.56
438.278	231.56
438.5	220.56
438.721	219.56
438.943	242.56
439.165	229.56
439.386	207.56
439.608	231.56
439.829	244.56
440.05	228.56
440.272	237.56
440.493	253.56
440.715	238.56
440.936	231.56
441.158	244.56
441.379	257.56
441.6	245.56
441.822	244.56
442.043	262.56
442.264	254.56
442.486	243.56
442.707	246.56
442.928	271.56
443.149	247.56
443.371	245.56
443.592	268.56
443.813	276.56
444.034	272.56
444.255	269.56
444.476	275.56
444.698	290.56
444.919	295.56
445.14	384.56
445.361	314.56
445.582	255.56
445.803	259.56
446.024	243.56
446.245	248.56
446.466	229.56
446.687	220.56
446.908	212.56
447.129	236.56
447.35	215.56
447.571	216.56
447.792	213.56
448.013	220.56
448.234	206.56
448.455	205.56
448.675	210.56
448.896	215.56
449.117	202.56
449.338	215.56
449.559	211.56
449.779	206.56
450	207.56
450.221	208.56
450.442	210.56
450.662	217.56
450.883	209.56
451.104	232.56
451.324	235.56
451.545	223.56
451.766	223.56
451.986	221.56
452.207	227.56
452.428	212.56
452.648	228.56
452.869	200.56
453.089	218.56
453.31	207.56
453.53	217.56
453.751	220.56
453.971	219.56
454.192	202.56
454.412	195.56
454.633	208.56
454.853	205.56
455.073	227.56
455.294	192.56
455.514	194.56
455.734	199.56
455.955	218.56
456.175	205.56
456.395	205.56
456.616	193.56
456.836	207.56
457.056	206.56
457.276	190.56
457.497	213.56
457.717	198.56
457.937	201.56
458.157	202.56
458.377	210.56
458.598	193.56
458.818	214.56
459.038	214.56
459.258	223.56
459.478	232.56
459.698	239.56
459.918	222.56
460.138	246.56
460.358	267.56
460.578	252.56
460.798	259.56
461.018	253.56
461.238	260.56
461.458	250.56
461.678	251.56
461.898	269.56
462.118	244.56
462.338	264.56
462.558	292.56
462.777	294.56
462.997	325.56
463.217	338.56
463.437	347.56
463.657	305.56
463.876	303.56
464.096	301.56
464.316	298.56
464.536	294.56
464.755	285.56
464.975	279.56
465.195	274.56
465.414	268.56
465.634	237.56
465.854	251.56
466.073	233.56
466.293	234.56
466.512	225.56
466.732	201.56
466.951	231.56
467.171	250.56
467.391	231.56
467.61	237.56
467.829	228.56
468.049	227.56
468.268	218.56
468.488	218.56
468.707	227.56
468.927	223.56
469.146	216.56
469.365	226.56
469.585	223.56
469.804	238.56
470.023	219.56
470.243	226.56
470.462	240.56
470.681	239.56
470.901	229.56
471.12	228.56
471.339	231.56
471.558	251.56
471.777	231.56
471.997	215.56
472.216	228.56
472.435	223.56
472.654	198.56
472.873	213.56
473.092	230.56
473.311	217.56
473.53	204.56
473.749	215.56
473.968	214.56
474.187	206.56
474.406	231.56
474.625	209.56
474.844	230.56
475.063	214.56
475.282	207.56
475.501	206.56
475.72	209.56
475.939	225.56
476.158	204.56
476.377	232.56
476.596	215.56
476.814	203.56
477.033	220.56
477.252	216.56
477.471	232.56
477.69	234.56
477.908	243.56
478.127	255.56
478.346	248.56
478.564	251.56
478.783	258.56
479.002	249.56
479.22	253.56
479.439	250.56
479.658	250.56
479.876	256.56
480.095	276.56
480.313	269.56
480.532	287.56
480.751	289.56
480.969	278.56
481.188	265.56
481.406	251.56
481.624	246.56
481.843	245.56
482.061	224.56
482.28	240.56
482.498	239.56
482.717	240.56
482.935	239.56
483.153	239.56
483.372	239.56
483.59	240.56
483.808	250.56
484.027	261.56
484.245	263.56
484.463	246.56
484.681	273.56
484.9	251.56
485.118	254.56
485.336	248.56
485.554	263.56
485.772	271.56
485.99	259.56
486.209	246.56
486.427	240.56
486.645	249.56
486.863	271.56
487.081	261.56
487.299	254.56
487.517	255.56
487.735	248.56
487.953	268.56
488.171	247.56
488.389	267.56
488.607	253.56
488.825	244.56
489.043	238.56
489.261	251.56
489.479	255.56
489.696	256.56
489.914	240.56
490.132	256.56
490.35	257.56
490.568	260.56
490.786	288.56
491.003	265.56
491.221	259.56
491.439	243.56
491.657	246.56
491.874	246.56
492.092	252.56
492.31	265.56
492.527	254.56
492.745	267.56
492.963	282.56
493.18	269.56
493.398	287.56
493.615	277.56
493.833	269.56
494.05	262.56
494.268	285.56
494.485	281.56
494.703	265.56
494.92	253.56
495.138	255.56
495.355	253.56
495.573	266.56
495.79	257.56
496.008	278.56
496.225	269.56
496.442	273.56
496.66	285.56
496.877	288.56
497.094	286.56
497.312	274.56
497.529	289.56
497.746	284.56
497.963	291.56
498.181	307.56
498.398	322.56
498.615	329.56
498.832	342.56
499.049	367.56
499.267	411.56
499.484	436.56
499.701	489.56
499.918	513.56
500.135	593.56
500.352	660.56
500.569	707.56
500.786	701.56
501.003	658.56
501.22	597.56
501.437	510.56
501.654	446.56
501.871	403.56
502.088	405.56
502.305	360.56
502.522	360.56
502.739	328.56
502.956	318.56
503.172	325.56
