Data from 0.5MCu(NO3)2.Standard.Lamp.E10.CV._HRD10591_16-05-36-753.txt Node
Date: Mon Jul 22 16:05:36 EDT 2019
User: cochatt
Spectrometer: HR+D1059
Trigger mode: 1
Integration Time (sec): 1.000000E-1
Scans to average: 1
Electric dark correction enabled: true
Nonlinearity correction enabled: false
Boxcar width: 0
XAxis mode: Wavelengths
Number of Pixels in Spectrum: 2048
>>>>>Begin Spectral Data<<<<<
223.165	-2.31
223.4	-2.31
223.635	-2.31
223.869	-10.31
224.104	-29.31
224.338	-20.31
224.573	-12.31
224.808	-9.31
225.042	-3.31
225.277	-12.31
225.511	1.69
225.746	-1.31
225.98	3.69
226.215	11.69
226.449	6.69
226.683	24.69
226.918	14.69
227.152	37.69
227.387	27.69
227.621	28.69
227.856	50.69
228.09	51.69
228.324	37.69
228.559	59.69
228.793	69.69
229.027	79.69
229.262	63.69
229.496	61.69
229.73	73.69
229.964	82.69
230.199	57.69
230.433	73.69
230.667	84.69
230.901	84.69
231.136	74.69
231.37	89.69
231.604	90.69
231.838	100.69
232.072	89.69
232.306	79.69
232.541	83.69
232.775	92.69
233.009	95.69
233.243	85.69
233.477	93.69
233.711	95.69
233.945	90.69
234.179	99.69
234.413	97.69
234.647	85.69
234.881	91.69
235.115	88.69
235.349	95.69
235.583	102.69
235.817	92.69
236.051	91.69
236.285	88.69
236.519	100.69
236.753	84.69
236.987	83.69
237.221	97.69
237.455	88.69
237.689	96.69
237.922	89.69
238.156	75.69
238.39	75.69
238.624	107.69
238.858	95.69
239.091	89.69
239.325	98.69
239.559	90.69
239.793	86.69
240.027	94.69
240.26	96.69
240.494	89.69
240.728	83.69
240.961	95.69
241.195	96.69
241.429	92.69
241.662	96.69
241.896	85.69
242.13	90.69
242.363	95.69
242.597	91.69
242.83	98.69
243.064	103.69
243.298	98.69
243.531	115.69
243.765	89.69
243.998	99.69
244.232	103.69
244.465	122.69
244.699	85.69
244.932	106.69
245.166	104.69
245.399	88.69
245.633	93.69
245.866	103.69
246.099	106.69
246.333	99.69
246.566	98.69
246.8	116.69
247.033	92.69
247.266	97.69
247.5	102.69
247.733	106.69
247.966	98.69
248.2	101.69
248.433	111.69
248.666	103.69
248.899	107.69
249.133	87.69
249.366	100.69
249.599	103.69
249.832	107.69
250.066	106.69
250.299	100.69
250.532	119.69
250.765	95.69
250.998	116.69
251.231	117.69
251.465	124.69
251.698	112.69
251.931	103.69
252.164	108.69
252.397	102.69
252.63	103.69
252.863	101.69
253.096	114.69
253.329	105.69
253.562	111.69
253.795	109.69
254.028	119.69
254.261	113.69
254.494	114.69
254.727	113.69
254.96	90.69
255.193	99.69
255.426	105.69
255.659	100.69
255.892	109.69
256.124	107.69
256.357	122.69
256.59	130.69
256.823	112.69
257.056	108.69
257.289	118.69
257.521	116.69
257.754	102.69
257.987	113.69
258.22	109.69
258.452	120.69
258.685	113.69
258.918	108.69
259.151	124.69
259.383	107.69
259.616	122.69
259.849	120.69
260.081	125.69
260.314	116.69
260.547	115.69
260.779	97.69
261.012	114.69
261.244	112.69
261.477	129.69
261.71	124.69
261.942	121.69
262.175	136.69
262.407	124.69
262.64	117.69
262.872	128.69
263.105	122.69
263.337	120.69
263.57	116.69
263.802	131.69
264.035	122.69
264.267	121.69
264.499	111.69
264.732	113.69
264.964	115.69
265.197	124.69
265.429	111.69
265.661	123.69
265.894	133.69
266.126	125.69
266.358	123.69
266.591	132.69
266.823	127.69
267.055	129.69
267.287	129.69
267.52	131.69
267.752	138.69
267.984	138.69
268.216	130.69
268.448	135.69
268.681	138.69
268.913	140.69
269.145	116.69
269.377	129.69
269.609	136.69
269.841	138.69
270.073	141.69
270.306	134.69
270.538	122.69
270.77	139.69
271.002	137.69
271.234	122.69
271.466	141.69
271.698	128.69
271.93	138.69
272.162	139.69
272.394	132.69
272.626	135.69
272.858	144.69
273.09	133.69
273.322	112.69
273.553	139.69
273.785	130.69
274.017	133.69
274.249	149.69
274.481	128.69
274.713	127.69
274.945	131.69
275.176	144.69
275.408	123.69
275.64	147.69
275.872	148.69
276.104	141.69
276.335	147.69
276.567	137.69
276.799	153.69
277.031	140.69
277.262	133.69
277.494	139.69
277.726	156.69
277.957	137.69
278.189	125.69
278.421	135.69
278.652	137.69
278.884	148.69
279.115	135.69
279.347	136.69
279.579	152.69
279.81	156.69
280.042	136.69
280.273	145.69
280.505	146.69
280.736	155.69
280.968	151.69
281.199	147.69
281.431	156.69
281.662	140.69
281.894	155.69
282.125	156.69
282.356	176.69
282.588	144.69
282.819	144.69
283.051	151.69
283.282	144.69
283.513	161.69
283.745	156.69
283.976	149.69
284.207	148.69
284.439	163.69
284.67	161.69
284.901	174.69
285.132	165.69
285.364	172.69
285.595	160.69
285.826	156.69
286.057	146.69
286.288	151.69
286.52	163.69
286.751	162.69
286.982	160.69
287.213	152.69
287.444	155.69
287.675	166.69
287.906	154.69
288.138	175.69
288.369	159.69
288.6	160.69
288.831	147.69
289.062	167.69
289.293	152.69
289.524	153.69
289.755	170.69
289.986	153.69
290.217	165.69
290.448	171.69
290.679	177.69
290.91	173.69
291.141	165.69
291.371	172.69
291.602	159.69
291.833	163.69
292.064	148.69
292.295	166.69
292.526	168.69
292.757	157.69
292.987	165.69
293.218	167.69
293.449	177.69
293.68	167.69
293.91	175.69
294.141	185.69
294.372	163.69
294.603	164.69
294.833	173.69
295.064	159.69
295.295	176.69
295.525	183.69
295.756	154.69
295.987	179.69
296.217	171.69
296.448	177.69
296.679	182.69
296.909	184.69
297.14	167.69
297.37	179.69
297.601	185.69
297.831	188.69
298.062	186.69
298.292	169.69
298.523	186.69
298.753	195.69
298.984	171.69
299.214	160.69
299.445	179.69
299.675	184.69
299.905	177.69
300.136	189.69
300.366	187.69
300.597	166.69
300.827	180.69
301.057	187.69
301.288	173.69
301.518	179.69
301.748	199.69
301.979	185.69
302.209	188.69
302.439	179.69
302.669	199.69
302.9	208.69
303.13	189.69
303.36	190.69
303.59	178.69
303.82	177.69
304.051	181.69
304.281	191.69
304.511	180.69
304.741	192.69
304.971	181.69
305.201	178.69
305.431	181.69
305.661	183.69
305.891	186.69
306.121	191.69
306.352	178.69
306.582	173.69
306.812	171.69
307.042	164.69
307.272	191.69
307.502	172.69
307.731	169.69
307.961	179.69
308.191	175.69
308.421	179.69
308.651	184.69
308.881	179.69
309.111	178.69
309.341	167.69
309.571	185.69
309.8	180.69
310.03	177.69
310.26	160.69
310.49	178.69
310.72	185.69
310.949	169.69
311.179	186.69
311.409	159.69
311.639	170.69
311.868	169.69
312.098	181.69
312.328	186.69
312.557	180.69
312.787	179.69
313.017	202.69
313.246	190.69
313.476	188.69
313.706	181.69
313.935	189.69
314.165	190.69
314.394	193.69
314.624	197.69
314.853	194.69
315.083	197.69
315.312	194.69
315.542	176.69
315.771	184.69
316.001	184.69
316.23	189.69
316.46	175.69
316.689	176.69
316.919	183.69
317.148	177.69
317.377	194.69
317.607	187.69
317.836	184.69
318.065	185.69
318.295	182.69
318.524	189.69
318.753	179.69
318.983	182.69
319.212	188.69
319.441	187.69
319.67	201.69
319.9	175.69
320.129	188.69
320.358	185.69
320.587	186.69
320.816	173.69
321.046	190.69
321.275	186.69
321.504	179.69
321.733	185.69
321.962	170.69
322.191	188.69
322.42	183.69
322.649	184.69
322.878	186.69
323.108	177.69
323.337	193.69
323.566	207.69
323.795	184.69
324.024	191.69
324.253	193.69
324.482	196.69
324.71	193.69
324.939	190.69
325.168	189.69
325.397	197.69
325.626	196.69
325.855	183.69
326.084	206.69
326.313	192.69
326.542	181.69
326.77	196.69
326.999	197.69
327.228	196.69
327.457	200.69
327.686	177.69
327.914	196.69
328.143	203.69
328.372	194.69
328.6	182.69
328.829	198.69
329.058	191.69
329.287	202.69
329.515	206.69
329.744	197.69
329.972	195.69
330.201	196.69
330.43	195.69
330.658	205.69
330.887	210.69
331.115	212.69
331.344	219.69
331.572	198.69
331.801	201.69
332.03	205.69
332.258	217.69
332.486	224.69
332.715	221.69
332.943	232.69
333.172	242.69
333.4	245.69
333.629	239.69
333.857	249.69
334.085	241.69
334.314	229.69
334.542	220.69
334.771	228.69
334.999	220.69
335.227	243.69
335.455	235.69
335.684	240.69
335.912	234.69
336.14	227.69
336.369	216.69
336.597	218.69
336.825	213.69
337.053	225.69
337.281	204.69
337.51	223.69
337.738	202.69
337.966	217.69
338.194	215.69
338.422	195.69
338.65	182.69
338.878	193.69
339.106	215.69
339.334	204.69
339.562	201.69
339.79	208.69
340.018	202.69
340.246	200.69
340.474	189.69
340.702	200.69
340.93	209.69
341.158	200.69
341.386	198.69
341.614	189.69
341.842	200.69
342.07	196.69
342.298	193.69
342.526	211.69
342.754	212.69
342.981	208.69
343.209	200.69
343.437	220.69
343.665	219.69
343.893	229.69
344.12	234.69
344.348	211.69
344.576	209.69
344.804	187.69
345.031	195.69
345.259	211.69
345.487	184.69
345.714	191.69
345.942	194.69
346.17	184.69
346.397	194.69
346.625	213.69
346.853	192.69
347.08	198.69
347.308	204.69
347.535	219.69
347.763	209.69
347.99	206.69
348.218	202.69
348.445	189.69
348.673	181.69
348.9	213.69
349.128	200.69
349.355	193.69
349.583	203.69
349.81	190.69
350.037	197.69
350.265	195.69
350.492	188.69
350.72	192.69
350.947	176.69
351.174	183.69
351.402	194.69
351.629	193.69
351.856	196.69
352.083	184.69
352.311	176.69
352.538	202.69
352.765	191.69
352.992	200.69
353.22	200.69
353.447	199.69
353.674	214.69
353.901	187.69
354.128	202.69
354.355	185.69
354.583	178.69
354.81	183.69
355.037	195.69
355.264	198.69
355.491	178.69
355.718	187.69
355.945	202.69
356.172	206.69
356.399	195.69
356.626	196.69
356.853	187.69
357.08	191.69
357.307	188.69
357.534	192.69
357.761	185.69
357.988	192.69
358.215	189.69
358.441	175.69
358.668	184.69
358.895	186.69
359.122	195.69
359.349	181.69
359.576	183.69
359.802	196.69
360.029	197.69
360.256	185.69
360.483	182.69
360.709	191.69
360.936	194.69
361.163	190.69
361.39	192.69
361.616	198.69
361.843	189.69
362.07	187.69
362.296	200.69
362.523	188.69
362.749	188.69
362.976	177.69
363.203	202.69
363.429	184.69
363.656	196.69
363.882	183.69
364.109	190.69
364.335	198.69
364.562	180.69
364.788	170.69
365.015	179.69
365.241	192.69
365.468	176.69
365.694	198.69
365.92	188.69
366.147	191.69
366.373	196.69
366.599	190.69
366.826	190.69
367.052	185.69
367.278	189.69
367.505	164.69
367.731	180.69
367.957	199.69
368.184	203.69
368.41	213.69
368.636	187.69
368.862	164.69
369.089	198.69
369.315	202.69
369.541	200.69
369.767	212.69
369.993	189.69
370.219	183.69
370.445	203.69
370.672	202.69
370.898	190.69
371.124	190.69
371.35	205.69
371.576	216.69
371.802	182.69
372.028	201.69
372.254	198.69
372.48	204.69
372.706	202.69
372.932	191.69
373.158	205.69
373.384	212.69
373.61	202.69
373.835	209.69
374.061	212.69
374.287	202.69
374.513	205.69
374.739	198.69
374.965	216.69
375.191	225.69
375.416	240.69
375.642	198.69
375.868	220.69
376.094	215.69
376.319	211.69
376.545	204.69
376.771	196.69
376.997	192.69
377.222	201.69
377.448	202.69
377.674	213.69
377.899	200.69
378.125	209.69
378.35	202.69
378.576	203.69
378.802	202.69
379.027	217.69
379.253	198.69
379.478	202.69
379.704	194.69
379.929	201.69
380.155	191.69
380.38	194.69
380.606	186.69
380.831	199.69
381.057	193.69
381.282	199.69
381.507	201.69
381.733	196.69
381.958	211.69
382.184	215.69
382.409	217.69
382.634	203.69
382.86	199.69
383.085	200.69
383.31	230.69
383.535	217.69
383.761	226.69
383.986	205.69
384.211	217.69
384.436	229.69
384.662	227.69
384.887	218.69
385.112	225.69
385.337	239.69
385.562	230.69
385.787	235.69
386.013	246.69
386.238	238.69
386.463	237.69
386.688	239.69
386.913	232.69
387.138	214.69
387.363	204.69
387.588	240.69
387.813	240.69
388.038	224.69
388.263	233.69
388.488	211.69
388.713	228.69
388.938	216.69
389.163	216.69
389.387	205.69
389.612	233.69
389.837	213.69
390.062	198.69
390.287	221.69
390.512	229.69
390.736	220.69
390.961	235.69
391.186	228.69
391.411	243.69
391.636	248.69
391.86	245.69
392.085	232.69
392.31	243.69
392.534	245.69
392.759	233.69
392.984	224.69
393.208	236.69
393.433	237.69
393.658	243.69
393.882	229.69
394.107	229.69
394.331	244.69
394.556	248.69
394.78	255.69
395.005	207.69
395.229	213.69
395.454	262.69
395.678	244.69
395.903	244.69
396.127	243.69
396.352	245.69
396.576	229.69
396.801	226.69
397.025	246.69
397.249	234.69
397.474	248.69
397.698	244.69
397.922	250.69
398.147	251.69
398.371	261.69
398.595	240.69
398.82	250.69
399.044	276.69
399.268	308.69
399.492	358.69
399.717	377.69
399.941	361.69
400.165	338.69
400.389	305.69
400.613	270.69
400.837	281.69
401.062	239.69
401.286	281.69
401.51	248.69
401.734	268.69
401.958	282.69
402.182	263.69
402.406	263.69
402.63	268.69
402.854	267.69
403.078	296.69
403.302	294.69
403.526	310.69
403.75	319.69
403.974	291.69
404.198	293.69
404.422	307.69
404.645	307.69
404.869	290.69
405.093	302.69
405.317	296.69
405.541	290.69
405.765	283.69
405.988	283.69
406.212	285.69
406.436	299.69
406.66	285.69
406.883	291.69
407.107	330.69
407.331	326.69
407.555	359.69
407.778	333.69
408.002	346.69
408.226	304.69
408.449	297.69
408.673	290.69
408.896	286.69
409.12	282.69
409.344	298.69
409.567	293.69
409.791	305.69
410.014	307.69
410.238	303.69
410.461	294.69
410.685	316.69
410.908	281.69
411.132	289.69
411.355	283.69
411.578	264.69
411.802	249.69
412.025	275.69
412.249	281.69
412.472	301.69
412.695	268.69
412.919	258.69
413.142	252.69
413.365	283.69
413.589	279.69
413.812	259.69
414.035	258.69
414.258	276.69
414.482	261.69
414.705	270.69
414.928	277.69
415.151	268.69
415.374	265.69
415.597	265.69
415.821	246.69
416.044	247.69
416.267	265.69
416.49	262.69
416.713	264.69
416.936	275.69
417.159	273.69
417.382	250.69
417.605	270.69
417.828	240.69
418.051	269.69
418.274	283.69
418.497	261.69
418.72	276.69
418.943	268.69
419.166	290.69
419.389	284.69
419.611	287.69
419.834	265.69
420.057	283.69
420.28	257.69
420.503	254.69
420.726	274.69
420.948	278.69
421.171	269.69
421.394	259.69
421.617	269.69
421.839	273.69
422.062	250.69
422.285	244.69
422.507	275.69
422.73	265.69
422.953	262.69
423.175	268.69
423.398	290.69
423.621	287.69
423.843	291.69
424.066	290.69
424.288	274.69
424.511	267.69
424.733	288.69
424.956	281.69
425.178	285.69
425.401	273.69
425.623	268.69
425.846	269.69
426.068	261.69
426.291	244.69
426.513	261.69
426.735	245.69
426.958	261.69
427.18	241.69
427.402	246.69
427.625	254.69
427.847	243.69
428.069	228.69
428.292	219.69
428.514	245.69
428.736	239.69
428.958	243.69
429.181	227.69
429.403	226.69
429.625	221.69
429.847	241.69
430.069	253.69
430.292	243.69
430.514	229.69
430.736	239.69
430.958	235.69
431.18	242.69
431.402	245.69
431.624	250.69
431.846	232.69
432.068	245.69
432.29	243.69
432.512	244.69
432.734	237.69
432.956	267.69
433.178	238.69
433.4	253.69
433.622	247.69
433.844	232.69
434.066	222.69
434.287	275.69
434.509	253.69
434.731	264.69
434.953	272.69
435.175	263.69
435.397	277.69
435.618	244.69
435.84	248.69
436.062	256.69
436.284	227.69
436.505	242.69
436.727	246.69
436.949	247.69
437.17	247.69
437.392	229.69
437.614	247.69
437.835	225.69
438.057	222.69
438.278	229.69
438.5	228.69
438.721	241.69
438.943	235.69
439.165	215.69
439.386	243.69
439.608	251.69
439.829	241.69
440.05	240.69
440.272	228.69
440.493	251.69
440.715	244.69
440.936	265.69
441.158	241.69
441.379	254.69
441.6	263.69
441.822	266.69
442.043	267.69
442.264	258.69
442.486	248.69
442.707	253.69
442.928	267.69
443.149	277.69
443.371	267.69
443.592	272.69
443.813	275.69
444.034	275.69
444.255	277.69
444.476	282.69
444.698	309.69
444.919	320.69
445.14	419.69
445.361	335.69
445.582	285.69
445.803	264.69
446.024	249.69
446.245	245.69
446.466	251.69
446.687	245.69
446.908	240.69
447.129	239.69
447.35	234.69
447.571	227.69
447.792	220.69
448.013	239.69
448.234	237.69
448.455	231.69
448.675	232.69
448.896	221.69
449.117	216.69
449.338	231.69
449.559	231.69
449.779	233.69
450	226.69
450.221	238.69
450.442	230.69
450.662	220.69
450.883	235.69
451.104	235.69
451.324	236.69
451.545	245.69
451.766	245.69
451.986	236.69
452.207	232.69
452.428	215.69
452.648	231.69
452.869	234.69
453.089	222.69
453.31	214.69
453.53	240.69
453.751	232.69
453.971	215.69
454.192	219.69
454.412	211.69
454.633	217.69
454.853	227.69
455.073	212.69
455.294	214.69
455.514	214.69
455.734	215.69
455.955	232.69
456.175	218.69
456.395	195.69
456.616	211.69
456.836	200.69
457.056	224.69
457.276	217.69
457.497	213.69
457.717	215.69
457.937	231.69
458.157	235.69
458.377	214.69
458.598	225.69
458.818	243.69
459.038	243.69
459.258	257.69
459.478	252.69
459.698	253.69
459.918	253.69
460.138	272.69
460.358	276.69
460.578	290.69
460.798	298.69
461.018	296.69
461.238	266.69
461.458	252.69
461.678	272.69
461.898	254.69
462.118	281.69
462.338	290.69
462.558	303.69
462.777	311.69
462.997	322.69
463.217	369.69
463.437	368.69
463.657	316.69
463.876	325.69
464.096	319.69
464.316	325.69
464.536	306.69
464.755	300.69
464.975	283.69
465.195	287.69
465.414	280.69
465.634	272.69
465.854	246.69
466.073	248.69
466.293	256.69
466.512	236.69
466.732	244.69
466.951	240.69
467.171	262.69
467.391	242.69
467.61	235.69
467.829	236.69
468.049	243.69
468.268	231.69
468.488	233.69
468.707	233.69
468.927	240.69
469.146	216.69
469.365	225.69
469.585	239.69
469.804	237.69
470.023	242.69
470.243	242.69
470.462	268.69
470.681	260.69
470.901	244.69
471.12	249.69
471.339	238.69
471.558	244.69
471.777	210.69
471.997	221.69
472.216	217.69
472.435	207.69
472.654	219.69
472.873	228.69
473.092	242.69
473.311	211.69
473.53	220.69
473.749	227.69
473.968	220.69
474.187	220.69
474.406	221.69
474.625	244.69
474.844	235.69
475.063	232.69
475.282	230.69
475.501	225.69
475.72	231.69
475.939	218.69
476.158	243.69
476.377	241.69
476.596	237.69
476.814	248.69
477.033	235.69
477.252	243.69
477.471	267.69
477.69	248.69
477.908	241.69
478.127	275.69
478.346	291.69
478.564	256.69
478.783	269.69
479.002	286.69
479.22	272.69
479.439	255.69
479.658	280.69
479.876	277.69
480.095	272.69
480.313	289.69
480.532	283.69
480.751	314.69
480.969	283.69
481.188	275.69
481.406	280.69
481.624	271.69
481.843	250.69
482.061	263.69
482.28	267.69
482.498	261.69
482.717	248.69
482.935	247.69
483.153	249.69
483.372	256.69
483.59	248.69
483.808	234.69
484.027	260.69
484.245	265.69
484.463	262.69
484.681	267.69
484.9	253.69
485.118	258.69
485.336	274.69
485.554	282.69
485.772	277.69
485.99	281.69
486.209	264.69
486.427	263.69
486.645	276.69
486.863	267.69
487.081	281.69
487.299	284.69
487.517	276.69
487.735	278.69
487.953	285.69
488.171	269.69
488.389	278.69
488.607	268.69
488.825	275.69
489.043	260.69
489.261	275.69
489.479	271.69
489.696	268.69
489.914	280.69
490.132	281.69
490.35	259.69
490.568	263.69
490.786	272.69
491.003	262.69
491.221	259.69
491.439	287.69
491.657	282.69
491.874	288.69
492.092	292.69
492.31	276.69
492.527	291.69
492.745	271.69
492.963	280.69
493.18	257.69
493.398	290.69
493.615	273.69
493.833	292.69
494.05	272.69
494.268	276.69
494.485	297.69
494.703	306.69
494.92	283.69
495.138	268.69
495.355	272.69
495.573	281.69
495.79	267.69
496.008	296.69
496.225	283.69
496.442	288.69
496.66	291.69
496.877	291.69
497.094	309.69
497.312	293.69
497.529	284.69
497.746	324.69
497.963	319.69
498.181	357.69
498.398	348.69
498.615	340.69
498.832	361.69
499.049	378.69
499.267	425.69
499.484	449.69
499.701	495.69
499.918	559.69
500.135	630.69
500.352	752.69
500.569	761.69
500.786	733.69
501.003	693.69
501.22	613.69
501.437	537.69
501.654	483.69
501.871	441.69
502.088	404.69
502.305	381.69
502.522	380.69
502.739	363.69
502.956	327.69
503.172	319.69
