Data from 0.5MCu(NO3)2.Standard.Lamp.E10.CV._HRD10591_16-04-28-753.txt Node
Date: Mon Jul 22 16:04:28 EDT 2019
User: cochatt
Spectrometer: HR+D1059
Trigger mode: 1
Integration Time (sec): 1.000000E-1
Scans to average: 1
Electric dark correction enabled: true
Nonlinearity correction enabled: false
Boxcar width: 0
XAxis mode: Wavelengths
Number of Pixels in Spectrum: 2048
>>>>>Begin Spectral Data<<<<<
223.165	-27.69
223.4	-27.69
223.635	-27.69
223.869	-23.69
224.104	-10.69
224.338	-6.69
224.573	-10.69
224.808	-10.69
225.042	-10.69
225.277	-18.69
225.511	-5.69
225.746	-0.69
225.98	11.31
226.215	13.31
226.449	9.31
226.683	23.31
226.918	39.31
227.152	29.31
227.387	32.31
227.621	42.31
227.856	44.31
228.09	44.31
228.324	51.31
228.559	58.31
228.793	37.31
229.027	78.31
229.262	70.31
229.496	84.31
229.73	75.31
229.964	84.31
230.199	70.31
230.433	84.31
230.667	72.31
230.901	93.31
231.136	80.31
231.37	97.31
231.604	86.31
231.838	76.31
232.072	90.31
232.306	91.31
232.541	96.31
232.775	90.31
233.009	91.31
233.243	95.31
233.477	98.31
233.711	80.31
233.945	88.31
234.179	93.31
234.413	95.31
234.647	95.31
234.881	82.31
235.115	77.31
235.349	91.31
235.583	88.31
235.817	91.31
236.051	91.31
236.285	90.31
236.519	83.31
236.753	88.31
236.987	89.31
237.221	96.31
237.455	100.31
237.689	88.31
237.922	89.31
238.156	89.31
238.39	96.31
238.624	86.31
238.858	82.31
239.091	98.31
239.325	88.31
239.559	88.31
239.793	93.31
240.027	90.31
240.26	82.31
240.494	90.31
240.728	84.31
240.961	92.31
241.195	102.31
241.429	102.31
241.662	97.31
241.896	86.31
242.13	91.31
242.363	89.31
242.597	99.31
242.83	96.31
243.064	93.31
243.298	101.31
243.531	104.31
243.765	106.31
243.998	106.31
244.232	105.31
244.465	88.31
244.699	100.31
244.932	101.31
245.166	94.31
245.399	98.31
245.633	90.31
245.866	99.31
246.099	98.31
246.333	98.31
246.566	112.31
246.8	105.31
247.033	101.31
247.266	102.31
247.5	99.31
247.733	105.31
247.966	102.31
248.2	112.31
248.433	116.31
248.666	88.31
248.899	94.31
249.133	112.31
249.366	114.31
249.599	105.31
249.832	101.31
250.066	104.31
250.299	98.31
250.532	106.31
250.765	110.31
250.998	103.31
251.231	106.31
251.465	105.31
251.698	99.31
251.931	108.31
252.164	123.31
252.397	101.31
252.63	107.31
252.863	115.31
253.096	104.31
253.329	120.31
253.562	109.31
253.795	124.31
254.028	119.31
254.261	91.31
254.494	100.31
254.727	117.31
254.96	112.31
255.193	112.31
255.426	120.31
255.659	119.31
255.892	120.31
256.124	107.31
256.357	118.31
256.59	114.31
256.823	108.31
257.056	109.31
257.289	124.31
257.521	108.31
257.754	121.31
257.987	116.31
258.22	121.31
258.452	112.31
258.685	113.31
258.918	103.31
259.151	120.31
259.383	122.31
259.616	114.31
259.849	121.31
260.081	120.31
260.314	109.31
260.547	121.31
260.779	131.31
261.012	109.31
261.244	124.31
261.477	128.31
261.71	116.31
261.942	115.31
262.175	106.31
262.407	124.31
262.64	128.31
262.872	119.31
263.105	107.31
263.337	115.31
263.57	118.31
263.802	122.31
264.035	129.31
264.267	112.31
264.499	129.31
264.732	124.31
264.964	127.31
265.197	129.31
265.429	144.31
265.661	123.31
265.894	129.31
266.126	121.31
266.358	108.31
266.591	108.31
266.823	115.31
267.055	122.31
267.287	125.31
267.52	125.31
267.752	123.31
267.984	132.31
268.216	132.31
268.448	130.31
268.681	133.31
268.913	127.31
269.145	134.31
269.377	137.31
269.609	128.31
269.841	136.31
270.073	132.31
270.306	133.31
270.538	120.31
270.77	130.31
271.002	130.31
271.234	125.31
271.466	139.31
271.698	128.31
271.93	138.31
272.162	131.31
272.394	136.31
272.626	140.31
272.858	136.31
273.09	141.31
273.322	123.31
273.553	141.31
273.785	144.31
274.017	139.31
274.249	128.31
274.481	136.31
274.713	128.31
274.945	138.31
275.176	140.31
275.408	150.31
275.64	149.31
275.872	124.31
276.104	140.31
276.335	140.31
276.567	132.31
276.799	129.31
277.031	125.31
277.262	142.31
277.494	135.31
277.726	153.31
277.957	157.31
278.189	137.31
278.421	140.31
278.652	148.31
278.884	148.31
279.115	134.31
279.347	146.31
279.579	139.31
279.81	138.31
280.042	152.31
280.273	152.31
280.505	145.31
280.736	155.31
280.968	142.31
281.199	144.31
281.431	143.31
281.662	150.31
281.894	141.31
282.125	142.31
282.356	139.31
282.588	157.31
282.819	154.31
283.051	145.31
283.282	164.31
283.513	158.31
283.745	157.31
283.976	151.31
284.207	163.31
284.439	146.31
284.67	140.31
284.901	147.31
285.132	145.31
285.364	153.31
285.595	149.31
285.826	150.31
286.057	152.31
286.288	155.31
286.52	148.31
286.751	147.31
286.982	162.31
287.213	154.31
287.444	148.31
287.675	155.31
287.906	153.31
288.138	168.31
288.369	162.31
288.6	142.31
288.831	158.31
289.062	151.31
289.293	143.31
289.524	168.31
289.755	146.31
289.986	162.31
290.217	166.31
290.448	154.31
290.679	161.31
290.91	170.31
291.141	183.31
291.371	164.31
291.602	168.31
291.833	143.31
292.064	166.31
292.295	165.31
292.526	162.31
292.757	162.31
292.987	177.31
293.218	159.31
293.449	169.31
293.68	158.31
293.91	166.31
294.141	160.31
294.372	152.31
294.603	166.31
294.833	158.31
295.064	150.31
295.295	158.31
295.525	161.31
295.756	159.31
295.987	176.31
296.217	156.31
296.448	155.31
296.679	161.31
296.909	159.31
297.14	158.31
297.37	192.31
297.601	175.31
297.831	165.31
298.062	170.31
298.292	175.31
298.523	180.31
298.753	190.31
298.984	181.31
299.214	189.31
299.445	193.31
299.675	169.31
299.905	169.31
300.136	174.31
300.366	183.31
300.597	162.31
300.827	175.31
301.057	173.31
301.288	184.31
301.518	170.31
301.748	184.31
301.979	188.31
302.209	161.31
302.439	179.31
302.669	176.31
302.9	178.31
303.13	188.31
303.36	196.31
303.59	179.31
303.82	173.31
304.051	170.31
304.281	177.31
304.511	180.31
304.741	183.31
304.971	177.31
305.201	179.31
305.431	164.31
305.661	189.31
305.891	173.31
306.121	157.31
306.352	174.31
306.582	166.31
306.812	165.31
307.042	161.31
307.272	173.31
307.502	182.31
307.731	176.31
307.961	189.31
308.191	186.31
308.421	178.31
308.651	189.31
308.881	182.31
309.111	178.31
309.341	167.31
309.571	184.31
309.8	169.31
310.03	193.31
310.26	161.31
310.49	189.31
310.72	177.31
310.949	182.31
311.179	177.31
311.409	181.31
311.639	166.31
311.868	178.31
312.098	177.31
312.328	186.31
312.557	184.31
312.787	196.31
313.017	186.31
313.246	186.31
313.476	177.31
313.706	173.31
313.935	180.31
314.165	183.31
314.394	205.31
314.624	181.31
314.853	189.31
315.083	198.31
315.312	191.31
315.542	188.31
315.771	191.31
316.001	167.31
316.23	189.31
316.46	174.31
316.689	186.31
316.919	165.31
317.148	194.31
317.377	180.31
317.607	183.31
317.836	195.31
318.065	162.31
318.295	188.31
318.524	192.31
318.753	180.31
318.983	181.31
319.212	179.31
319.441	182.31
319.67	198.31
319.9	185.31
320.129	156.31
320.358	194.31
320.587	182.31
320.816	177.31
321.046	194.31
321.275	194.31
321.504	195.31
321.733	185.31
321.962	185.31
322.191	181.31
322.42	205.31
322.649	194.31
322.878	152.31
323.108	173.31
323.337	179.31
323.566	186.31
323.795	204.31
324.024	210.31
324.253	193.31
324.482	168.31
324.71	194.31
324.939	182.31
325.168	186.31
325.397	192.31
325.626	201.31
325.855	187.31
326.084	195.31
326.313	193.31
326.542	198.31
326.77	193.31
326.999	204.31
327.228	181.31
327.457	196.31
327.686	194.31
327.914	189.31
328.143	199.31
328.372	201.31
328.6	203.31
328.829	181.31
329.058	185.31
329.287	185.31
329.515	201.31
329.744	186.31
329.972	208.31
330.201	196.31
330.43	183.31
330.658	203.31
330.887	192.31
331.115	200.31
331.344	202.31
331.572	209.31
331.801	197.31
332.03	213.31
332.258	202.31
332.486	224.31
332.715	218.31
332.943	233.31
333.172	244.31
333.4	264.31
333.629	240.31
333.857	246.31
334.085	245.31
334.314	223.31
334.542	229.31
334.771	246.31
334.999	211.31
335.227	217.31
335.455	218.31
335.684	236.31
335.912	224.31
336.14	213.31
336.369	226.31
336.597	221.31
336.825	228.31
337.053	210.31
337.281	218.31
337.51	211.31
337.738	222.31
337.966	210.31
338.194	202.31
338.422	206.31
338.65	216.31
338.878	216.31
339.106	205.31
339.334	215.31
339.562	199.31
339.79	196.31
340.018	194.31
340.246	202.31
340.474	186.31
340.702	200.31
340.93	197.31
341.158	201.31
341.386	199.31
341.614	198.31
341.842	201.31
342.07	189.31
342.298	168.31
342.526	198.31
342.754	202.31
342.981	185.31
343.209	210.31
343.437	209.31
343.665	209.31
343.893	259.31
344.12	240.31
344.348	215.31
344.576	208.31
344.804	210.31
345.031	202.31
345.259	197.31
345.487	198.31
345.714	191.31
345.942	207.31
346.17	205.31
346.397	186.31
346.625	189.31
346.853	207.31
347.08	188.31
347.308	211.31
347.535	194.31
347.763	215.31
347.99	204.31
348.218	198.31
348.445	201.31
348.673	200.31
348.9	201.31
349.128	197.31
349.355	211.31
349.583	199.31
349.81	211.31
350.037	198.31
350.265	198.31
350.492	188.31
350.72	174.31
350.947	176.31
351.174	192.31
351.402	190.31
351.629	195.31
351.856	199.31
352.083	187.31
352.311	187.31
352.538	174.31
352.765	205.31
352.992	197.31
353.22	181.31
353.447	185.31
353.674	212.31
353.901	186.31
354.128	192.31
354.355	194.31
354.583	179.31
354.81	184.31
355.037	196.31
355.264	203.31
355.491	188.31
355.718	196.31
355.945	191.31
356.172	183.31
356.399	204.31
356.626	204.31
356.853	183.31
357.08	183.31
357.307	186.31
357.534	185.31
357.761	164.31
357.988	194.31
358.215	181.31
358.441	177.31
358.668	182.31
358.895	173.31
359.122	179.31
359.349	192.31
359.576	185.31
359.802	188.31
360.029	198.31
360.256	178.31
360.483	193.31
360.709	178.31
360.936	185.31
361.163	196.31
361.39	194.31
361.616	187.31
361.843	199.31
362.07	179.31
362.296	190.31
362.523	170.31
362.749	179.31
362.976	177.31
363.203	193.31
363.429	188.31
363.656	189.31
363.882	196.31
364.109	188.31
364.335	177.31
364.562	174.31
364.788	180.31
365.015	178.31
365.241	190.31
365.468	175.31
365.694	184.31
365.92	180.31
366.147	186.31
366.373	167.31
366.599	182.31
366.826	176.31
367.052	180.31
367.278	188.31
367.505	175.31
367.731	182.31
367.957	192.31
368.184	200.31
368.41	177.31
368.636	200.31
368.862	182.31
369.089	210.31
369.315	177.31
369.541	173.31
369.767	196.31
369.993	205.31
370.219	190.31
370.445	194.31
370.672	194.31
370.898	177.31
371.124	184.31
371.35	210.31
371.576	195.31
371.802	209.31
372.028	210.31
372.254	205.31
372.48	186.31
372.706	205.31
372.932	201.31
373.158	205.31
373.384	198.31
373.61	218.31
373.835	205.31
374.061	206.31
374.287	196.31
374.513	181.31
374.739	199.31
374.965	224.31
375.191	222.31
375.416	214.31
375.642	233.31
375.868	198.31
376.094	208.31
376.319	197.31
376.545	201.31
376.771	194.31
376.997	193.31
377.222	191.31
377.448	210.31
377.674	189.31
377.899	202.31
378.125	201.31
378.35	185.31
378.576	186.31
378.802	197.31
379.027	206.31
379.253	187.31
379.478	198.31
379.704	179.31
379.929	205.31
380.155	197.31
380.38	174.31
380.606	182.31
380.831	184.31
381.057	210.31
381.282	184.31
381.507	211.31
381.733	211.31
381.958	198.31
382.184	205.31
382.409	204.31
382.634	197.31
382.86	217.31
383.085	196.31
383.31	213.31
383.535	222.31
383.761	214.31
383.986	232.31
384.211	221.31
384.436	225.31
384.662	219.31
384.887	234.31
385.112	228.31
385.337	249.31
385.562	224.31
385.787	232.31
386.013	230.31
386.238	220.31
386.463	198.31
386.688	222.31
386.913	236.31
387.138	218.31
387.363	210.31
387.588	212.31
387.813	231.31
388.038	228.31
388.263	204.31
388.488	218.31
388.713	203.31
388.938	228.31
389.163	233.31
389.387	211.31
389.612	191.31
389.837	225.31
390.062	201.31
390.287	216.31
390.512	213.31
390.736	221.31
390.961	216.31
391.186	231.31
391.411	236.31
391.636	216.31
391.86	239.31
392.085	249.31
392.31	230.31
392.534	260.31
392.759	241.31
392.984	224.31
393.208	242.31
393.433	226.31
393.658	236.31
393.882	229.31
394.107	234.31
394.331	225.31
394.556	230.31
394.78	246.31
395.005	229.31
395.229	219.31
395.454	226.31
395.678	243.31
395.903	240.31
396.127	241.31
396.352	222.31
396.576	204.31
396.801	211.31
397.025	225.31
397.249	238.31
397.474	246.31
397.698	225.31
397.922	236.31
398.147	230.31
398.371	224.31
398.595	245.31
398.82	265.31
399.044	278.31
399.268	290.31
399.492	318.31
399.717	378.31
399.941	340.31
400.165	338.31
400.389	304.31
400.613	283.31
400.837	254.31
401.062	262.31
401.286	248.31
401.51	261.31
401.734	270.31
401.958	262.31
402.182	272.31
402.406	263.31
402.63	282.31
402.854	300.31
403.078	282.31
403.302	278.31
403.526	280.31
403.75	282.31
403.974	309.31
404.198	299.31
404.422	289.31
404.645	298.31
404.869	293.31
405.093	287.31
405.317	265.31
405.541	280.31
405.765	284.31
405.988	291.31
406.212	295.31
406.436	272.31
406.66	274.31
406.883	284.31
407.107	302.31
407.331	307.31
407.555	343.31
407.778	312.31
408.002	302.31
408.226	294.31
408.449	305.31
408.673	286.31
408.896	299.31
409.12	287.31
409.344	292.31
409.567	291.31
409.791	292.31
410.014	280.31
410.238	301.31
410.461	294.31
410.685	277.31
410.908	270.31
411.132	252.31
411.355	284.31
411.578	262.31
411.802	267.31
412.025	281.31
412.249	276.31
412.472	269.31
412.695	240.31
412.919	253.31
413.142	262.31
413.365	253.31
413.589	268.31
413.812	250.31
414.035	233.31
414.258	245.31
414.482	260.31
414.705	283.31
414.928	268.31
415.151	248.31
415.374	268.31
415.597	276.31
415.821	269.31
416.044	256.31
416.267	276.31
416.49	251.31
416.713	240.31
416.936	245.31
417.159	261.31
417.382	258.31
417.605	268.31
417.828	269.31
418.051	270.31
418.274	266.31
418.497	254.31
418.72	270.31
418.943	269.31
419.166	276.31
419.389	292.31
419.611	286.31
419.834	284.31
420.057	298.31
420.28	258.31
420.503	256.31
420.726	253.31
420.948	251.31
421.171	250.31
421.394	257.31
421.617	258.31
421.839	271.31
422.062	274.31
422.285	234.31
422.507	276.31
422.73	270.31
422.953	261.31
423.175	265.31
423.398	266.31
423.621	262.31
423.843	282.31
424.066	261.31
424.288	273.31
424.511	266.31
424.733	269.31
424.956	277.31
425.178	259.31
425.401	265.31
425.623	249.31
425.846	236.31
426.068	261.31
426.291	252.31
426.513	261.31
426.735	262.31
426.958	229.31
427.18	241.31
427.402	247.31
427.625	240.31
427.847	220.31
428.069	233.31
428.292	216.31
428.514	212.31
428.736	241.31
428.958	234.31
429.181	226.31
429.403	227.31
429.625	246.31
429.847	212.31
430.069	235.31
430.292	238.31
430.514	223.31
430.736	237.31
430.958	237.31
431.18	242.31
431.402	225.31
431.624	241.31
431.846	229.31
432.068	225.31
432.29	232.31
432.512	223.31
432.734	232.31
432.956	247.31
433.178	225.31
433.4	241.31
433.622	229.31
433.844	235.31
434.066	240.31
434.287	228.31
434.509	244.31
434.731	246.31
434.953	268.31
435.175	261.31
435.397	268.31
435.618	245.31
435.84	232.31
436.062	224.31
436.284	241.31
436.505	217.31
436.727	228.31
436.949	243.31
437.17	220.31
437.392	226.31
437.614	223.31
437.835	229.31
438.057	209.31
438.278	230.31
438.5	225.31
438.721	223.31
438.943	236.31
439.165	237.31
439.386	230.31
439.608	247.31
439.829	234.31
440.05	240.31
440.272	227.31
440.493	229.31
440.715	240.31
440.936	242.31
441.158	244.31
441.379	234.31
441.6	256.31
441.822	269.31
442.043	272.31
442.264	266.31
442.486	255.31
442.707	240.31
442.928	262.31
443.149	259.31
443.371	246.31
443.592	250.31
443.813	276.31
444.034	244.31
444.255	264.31
444.476	268.31
444.698	282.31
444.919	310.31
445.14	411.31
445.361	330.31
445.582	264.31
445.803	263.31
446.024	250.31
446.245	234.31
446.466	248.31
446.687	237.31
446.908	240.31
447.129	237.31
447.35	231.31
447.571	228.31
447.792	218.31
448.013	218.31
448.234	207.31
448.455	225.31
448.675	203.31
448.896	218.31
449.117	206.31
449.338	234.31
449.559	205.31
449.779	214.31
450	220.31
450.221	219.31
450.442	205.31
450.662	210.31
450.883	217.31
451.104	224.31
451.324	203.31
451.545	235.31
451.766	242.31
451.986	222.31
452.207	213.31
452.428	217.31
452.648	232.31
452.869	219.31
453.089	221.31
453.31	201.31
453.53	225.31
453.751	209.31
453.971	218.31
454.192	235.31
454.412	207.31
454.633	219.31
454.853	219.31
455.073	235.31
455.294	214.31
455.514	193.31
455.734	204.31
455.955	206.31
456.175	217.31
456.395	211.31
456.616	211.31
456.836	195.31
457.056	211.31
457.276	213.31
457.497	194.31
457.717	202.31
457.937	214.31
458.157	215.31
458.377	208.31
458.598	212.31
458.818	208.31
459.038	232.31
459.258	222.31
459.478	237.31
459.698	246.31
459.918	250.31
460.138	256.31
460.358	266.31
460.578	278.31
460.798	292.31
461.018	264.31
461.238	266.31
461.458	268.31
461.678	268.31
461.898	284.31
462.118	280.31
462.338	275.31
462.558	282.31
462.777	286.31
462.997	324.31
463.217	348.31
463.437	347.31
463.657	333.31
463.876	308.31
464.096	311.31
464.316	315.31
464.536	330.31
464.755	308.31
464.975	304.31
465.195	282.31
465.414	280.31
465.634	242.31
465.854	231.31
466.073	242.31
466.293	237.31
466.512	237.31
466.732	229.31
466.951	236.31
467.171	227.31
467.391	232.31
467.61	231.31
467.829	222.31
468.049	225.31
468.268	218.31
468.488	218.31
468.707	223.31
468.927	224.31
469.146	230.31
469.365	218.31
469.585	217.31
469.804	241.31
470.023	242.31
470.243	236.31
470.462	235.31
470.681	237.31
470.901	247.31
471.12	249.31
471.339	216.31
471.558	238.31
471.777	227.31
471.997	221.31
472.216	220.31
472.435	219.31
472.654	225.31
472.873	229.31
473.092	226.31
473.311	213.31
473.53	230.31
473.749	214.31
473.968	237.31
474.187	219.31
474.406	232.31
474.625	214.31
474.844	236.31
475.063	233.31
475.282	231.31
475.501	219.31
475.72	217.31
475.939	204.31
476.158	228.31
476.377	243.31
476.596	224.31
476.814	230.31
477.033	225.31
477.252	231.31
477.471	233.31
477.69	246.31
477.908	256.31
478.127	262.31
478.346	251.31
478.564	261.31
478.783	276.31
479.002	253.31
479.22	270.31
479.439	279.31
479.658	264.31
479.876	269.31
480.095	268.31
480.313	282.31
480.532	305.31
480.751	285.31
480.969	277.31
481.188	246.31
481.406	255.31
481.624	251.31
481.843	254.31
482.061	245.31
482.28	246.31
482.498	253.31
482.717	242.31
482.935	243.31
483.153	251.31
483.372	232.31
483.59	240.31
483.808	252.31
484.027	257.31
484.245	258.31
484.463	236.31
484.681	260.31
484.9	258.31
485.118	261.31
485.336	246.31
485.554	284.31
485.772	286.31
485.99	271.31
486.209	268.31
486.427	275.31
486.645	260.31
486.863	257.31
487.081	248.31
487.299	262.31
487.517	250.31
487.735	260.31
487.953	264.31
488.171	259.31
488.389	266.31
488.607	251.31
488.825	254.31
489.043	230.31
489.261	249.31
489.479	254.31
489.696	268.31
489.914	278.31
490.132	278.31
490.35	277.31
490.568	263.31
490.786	251.31
491.003	273.31
491.221	265.31
491.439	275.31
491.657	277.31
491.874	270.31
492.092	273.31
492.31	280.31
492.527	283.31
492.745	270.31
492.963	254.31
493.18	282.31
493.398	279.31
493.615	272.31
493.833	281.31
494.05	253.31
494.268	276.31
494.485	273.31
494.703	283.31
494.92	273.31
495.138	270.31
495.355	290.31
495.573	291.31
495.79	266.31
496.008	278.31
496.225	280.31
496.442	270.31
496.66	284.31
496.877	279.31
497.094	302.31
497.312	300.31
497.529	292.31
497.746	308.31
497.963	299.31
498.181	314.31
498.398	335.31
498.615	339.31
498.832	355.31
499.049	389.31
499.267	402.31
499.484	466.31
499.701	491.31
499.918	549.31
500.135	626.31
500.352	710.31
500.569	750.31
500.786	734.31
501.003	688.31
501.22	613.31
501.437	542.31
501.654	493.31
501.871	449.31
502.088	393.31
502.305	391.31
502.522	381.31
502.739	355.31
502.956	348.31
503.172	331.31
