Data from 0.5MCu(NO3)2.Standard.Lamp.E10.CV._HRD10591_16-04-23-754.txt Node
Date: Mon Jul 22 16:04:23 EDT 2019
User: cochatt
Spectrometer: HR+D1059
Trigger mode: 1
Integration Time (sec): 1.000000E-1
Scans to average: 1
Electric dark correction enabled: true
Nonlinearity correction enabled: false
Boxcar width: 0
XAxis mode: Wavelengths
Number of Pixels in Spectrum: 2048
>>>>>Begin Spectral Data<<<<<
223.165	-28.94
223.4	-28.94
223.635	-28.94
223.869	-21.94
224.104	-51.94
224.338	-22.94
224.573	-15.94
224.808	-4.94
225.042	-4.94
225.277	1.06
225.511	0.06
225.746	11.06
225.98	-2.94
226.215	9.06
226.449	34.06
226.683	27.06
226.918	41.06
227.152	31.06
227.387	53.06
227.621	42.06
227.856	50.06
228.09	55.06
228.324	37.06
228.559	59.06
228.793	70.06
229.027	52.06
229.262	73.06
229.496	72.06
229.73	75.06
229.964	72.06
230.199	87.06
230.433	85.06
230.667	93.06
230.901	95.06
231.136	85.06
231.37	82.06
231.604	86.06
231.838	92.06
232.072	90.06
232.306	82.06
232.541	78.06
232.775	85.06
233.009	94.06
233.243	95.06
233.477	91.06
233.711	96.06
233.945	91.06
234.179	77.06
234.413	92.06
234.647	91.06
234.881	89.06
235.115	93.06
235.349	81.06
235.583	84.06
235.817	98.06
236.051	91.06
236.285	114.06
236.519	74.06
236.753	86.06
236.987	84.06
237.221	84.06
237.455	95.06
237.689	98.06
237.922	100.06
238.156	99.06
238.39	96.06
238.624	86.06
238.858	77.06
239.091	86.06
239.325	80.06
239.559	77.06
239.793	90.06
240.027	98.06
240.26	94.06
240.494	82.06
240.728	97.06
240.961	90.06
241.195	88.06
241.429	109.06
241.662	99.06
241.896	97.06
242.13	93.06
242.363	97.06
242.597	93.06
242.83	83.06
243.064	86.06
243.298	91.06
243.531	84.06
243.765	80.06
243.998	94.06
244.232	107.06
244.465	96.06
244.699	87.06
244.932	83.06
245.166	83.06
245.399	91.06
245.633	91.06
245.866	102.06
246.099	74.06
246.333	102.06
246.566	95.06
246.8	99.06
247.033	103.06
247.266	101.06
247.5	101.06
247.733	106.06
247.966	98.06
248.2	88.06
248.433	89.06
248.666	114.06
248.899	104.06
249.133	95.06
249.366	117.06
249.599	122.06
249.832	92.06
250.066	110.06
250.299	110.06
250.532	95.06
250.765	108.06
250.998	104.06
251.231	98.06
251.465	117.06
251.698	112.06
251.931	103.06
252.164	114.06
252.397	112.06
252.63	107.06
252.863	99.06
253.096	114.06
253.329	112.06
253.562	109.06
253.795	106.06
254.028	104.06
254.261	100.06
254.494	114.06
254.727	118.06
254.96	101.06
255.193	123.06
255.426	117.06
255.659	108.06
255.892	92.06
256.124	93.06
256.357	126.06
256.59	124.06
256.823	121.06
257.056	98.06
257.289	107.06
257.521	92.06
257.754	117.06
257.987	107.06
258.22	97.06
258.452	119.06
258.685	115.06
258.918	115.06
259.151	110.06
259.383	109.06
259.616	91.06
259.849	114.06
260.081	127.06
260.314	108.06
260.547	122.06
260.779	122.06
261.012	103.06
261.244	123.06
261.477	126.06
261.71	110.06
261.942	110.06
262.175	123.06
262.407	122.06
262.64	127.06
262.872	114.06
263.105	121.06
263.337	125.06
263.57	128.06
263.802	112.06
264.035	123.06
264.267	132.06
264.499	123.06
264.732	128.06
264.964	107.06
265.197	126.06
265.429	122.06
265.661	125.06
265.894	123.06
266.126	136.06
266.358	139.06
266.591	115.06
266.823	134.06
267.055	128.06
267.287	130.06
267.52	147.06
267.752	122.06
267.984	125.06
268.216	133.06
268.448	137.06
268.681	128.06
268.913	130.06
269.145	119.06
269.377	121.06
269.609	111.06
269.841	119.06
270.073	129.06
270.306	120.06
270.538	118.06
270.77	122.06
271.002	126.06
271.234	115.06
271.466	129.06
271.698	138.06
271.93	125.06
272.162	123.06
272.394	132.06
272.626	124.06
272.858	136.06
273.09	119.06
273.322	118.06
273.553	122.06
273.785	123.06
274.017	131.06
274.249	148.06
274.481	136.06
274.713	134.06
274.945	125.06
275.176	132.06
275.408	121.06
275.64	126.06
275.872	142.06
276.104	142.06
276.335	126.06
276.567	148.06
276.799	128.06
277.031	121.06
277.262	128.06
277.494	145.06
277.726	129.06
277.957	136.06
278.189	141.06
278.421	129.06
278.652	141.06
278.884	143.06
279.115	141.06
279.347	131.06
279.579	142.06
279.81	139.06
280.042	141.06
280.273	136.06
280.505	149.06
280.736	140.06
280.968	149.06
281.199	128.06
281.431	139.06
281.662	124.06
281.894	151.06
282.125	142.06
282.356	140.06
282.588	142.06
282.819	140.06
283.051	146.06
283.282	157.06
283.513	164.06
283.745	144.06
283.976	147.06
284.207	143.06
284.439	141.06
284.67	132.06
284.901	148.06
285.132	152.06
285.364	149.06
285.595	158.06
285.826	143.06
286.057	161.06
286.288	135.06
286.52	148.06
286.751	147.06
286.982	160.06
287.213	145.06
287.444	152.06
287.675	160.06
287.906	158.06
288.138	162.06
288.369	159.06
288.6	152.06
288.831	158.06
289.062	152.06
289.293	156.06
289.524	140.06
289.755	144.06
289.986	151.06
290.217	134.06
290.448	161.06
290.679	140.06
290.91	164.06
291.141	155.06
291.371	162.06
291.602	140.06
291.833	173.06
292.064	152.06
292.295	163.06
292.526	157.06
292.757	168.06
292.987	154.06
293.218	160.06
293.449	155.06
293.68	154.06
293.91	164.06
294.141	165.06
294.372	146.06
294.603	174.06
294.833	161.06
295.064	160.06
295.295	171.06
295.525	177.06
295.756	186.06
295.987	169.06
296.217	156.06
296.448	180.06
296.679	160.06
296.909	184.06
297.14	163.06
297.37	162.06
297.601	170.06
297.831	166.06
298.062	171.06
298.292	166.06
298.523	161.06
298.753	164.06
298.984	172.06
299.214	171.06
299.445	186.06
299.675	178.06
299.905	184.06
300.136	170.06
300.366	162.06
300.597	186.06
300.827	172.06
301.057	190.06
301.288	182.06
301.518	166.06
301.748	162.06
301.979	167.06
302.209	182.06
302.439	170.06
302.669	179.06
302.9	170.06
303.13	170.06
303.36	162.06
303.59	163.06
303.82	182.06
304.051	172.06
304.281	177.06
304.511	196.06
304.741	176.06
304.971	180.06
305.201	189.06
305.431	170.06
305.661	180.06
305.891	173.06
306.121	167.06
306.352	168.06
306.582	173.06
306.812	171.06
307.042	174.06
307.272	176.06
307.502	164.06
307.731	177.06
307.961	170.06
308.191	164.06
308.421	157.06
308.651	164.06
308.881	176.06
309.111	185.06
309.341	169.06
309.571	168.06
309.8	167.06
310.03	174.06
310.26	168.06
310.49	170.06
310.72	175.06
310.949	156.06
311.179	164.06
311.409	164.06
311.639	162.06
311.868	183.06
312.098	194.06
312.328	177.06
312.557	179.06
312.787	154.06
313.017	179.06
313.246	174.06
313.476	166.06
313.706	188.06
313.935	180.06
314.165	185.06
314.394	198.06
314.624	179.06
314.853	173.06
315.083	182.06
315.312	180.06
315.542	182.06
315.771	184.06
316.001	176.06
316.23	178.06
316.46	181.06
316.689	174.06
316.919	179.06
317.148	173.06
317.377	184.06
317.607	168.06
317.836	170.06
318.065	186.06
318.295	182.06
318.524	167.06
318.753	166.06
318.983	182.06
319.212	161.06
319.441	186.06
319.67	159.06
319.9	167.06
320.129	178.06
320.358	164.06
320.587	178.06
320.816	176.06
321.046	178.06
321.275	163.06
321.504	180.06
321.733	186.06
321.962	194.06
322.191	189.06
322.42	192.06
322.649	170.06
322.878	172.06
323.108	184.06
323.337	178.06
323.566	181.06
323.795	183.06
324.024	174.06
324.253	180.06
324.482	183.06
324.71	182.06
324.939	180.06
325.168	178.06
325.397	193.06
325.626	192.06
325.855	173.06
326.084	204.06
326.313	192.06
326.542	182.06
326.77	192.06
326.999	197.06
327.228	183.06
327.457	189.06
327.686	187.06
327.914	185.06
328.143	207.06
328.372	187.06
328.6	187.06
328.829	186.06
329.058	186.06
329.287	193.06
329.515	177.06
329.744	189.06
329.972	186.06
330.201	184.06
330.43	178.06
330.658	178.06
330.887	204.06
331.115	188.06
331.344	193.06
331.572	202.06
331.801	206.06
332.03	189.06
332.258	205.06
332.486	196.06
332.715	208.06
332.943	221.06
333.172	211.06
333.4	233.06
333.629	234.06
333.857	232.06
334.085	246.06
334.314	231.06
334.542	243.06
334.771	232.06
334.999	228.06
335.227	212.06
335.455	211.06
335.684	204.06
335.912	224.06
336.14	224.06
336.369	213.06
336.597	216.06
336.825	229.06
337.053	207.06
337.281	198.06
337.51	192.06
337.738	220.06
337.966	201.06
338.194	210.06
338.422	204.06
338.65	211.06
338.878	204.06
339.106	197.06
339.334	202.06
339.562	192.06
339.79	184.06
340.018	202.06
340.246	203.06
340.474	181.06
340.702	195.06
340.93	192.06
341.158	203.06
341.386	198.06
341.614	185.06
341.842	192.06
342.07	197.06
342.298	204.06
342.526	194.06
342.754	183.06
342.981	174.06
343.209	198.06
343.437	196.06
343.665	220.06
343.893	225.06
344.12	231.06
344.348	217.06
344.576	218.06
344.804	207.06
345.031	196.06
345.259	225.06
345.487	197.06
345.714	204.06
345.942	198.06
346.17	183.06
346.397	194.06
346.625	197.06
346.853	194.06
347.08	201.06
347.308	183.06
347.535	175.06
347.763	193.06
347.99	192.06
348.218	202.06
348.445	189.06
348.673	188.06
348.9	200.06
349.128	183.06
349.355	192.06
349.583	193.06
349.81	192.06
350.037	192.06
350.265	189.06
350.492	187.06
350.72	187.06
350.947	177.06
351.174	181.06
351.402	193.06
351.629	182.06
351.856	171.06
352.083	182.06
352.311	187.06
352.538	187.06
352.765	177.06
352.992	192.06
353.22	185.06
353.447	196.06
353.674	180.06
353.901	185.06
354.128	181.06
354.355	192.06
354.583	165.06
354.81	190.06
355.037	190.06
355.264	182.06
355.491	189.06
355.718	174.06
355.945	201.06
356.172	179.06
356.399	178.06
356.626	177.06
356.853	177.06
357.08	176.06
357.307	184.06
357.534	185.06
357.761	185.06
357.988	166.06
358.215	177.06
358.441	182.06
358.668	191.06
358.895	191.06
359.122	186.06
359.349	195.06
359.576	176.06
359.802	196.06
360.029	196.06
360.256	190.06
360.483	185.06
360.709	180.06
360.936	201.06
361.163	182.06
361.39	185.06
361.616	189.06
361.843	189.06
362.07	200.06
362.296	179.06
362.523	184.06
362.749	192.06
362.976	181.06
363.203	180.06
363.429	174.06
363.656	190.06
363.882	180.06
364.109	197.06
364.335	187.06
364.562	180.06
364.788	179.06
365.015	173.06
365.241	176.06
365.468	185.06
365.694	190.06
365.92	190.06
366.147	189.06
366.373	190.06
366.599	189.06
366.826	182.06
367.052	194.06
367.278	188.06
367.505	185.06
367.731	183.06
367.957	176.06
368.184	163.06
368.41	192.06
368.636	176.06
368.862	190.06
369.089	198.06
369.315	187.06
369.541	193.06
369.767	175.06
369.993	193.06
370.219	195.06
370.445	190.06
370.672	183.06
370.898	188.06
371.124	195.06
371.35	193.06
371.576	197.06
371.802	189.06
372.028	186.06
372.254	181.06
372.48	190.06
372.706	220.06
372.932	197.06
373.158	191.06
373.384	192.06
373.61	201.06
373.835	194.06
374.061	182.06
374.287	197.06
374.513	196.06
374.739	210.06
374.965	214.06
375.191	220.06
375.416	227.06
375.642	203.06
375.868	213.06
376.094	185.06
376.319	182.06
376.545	193.06
376.771	193.06
376.997	189.06
377.222	189.06
377.448	190.06
377.674	177.06
377.899	200.06
378.125	199.06
378.35	188.06
378.576	189.06
378.802	189.06
379.027	184.06
379.253	184.06
379.478	188.06
379.704	189.06
379.929	180.06
380.155	193.06
380.38	172.06
380.606	186.06
380.831	180.06
381.057	190.06
381.282	196.06
381.507	185.06
381.733	193.06
381.958	198.06
382.184	201.06
382.409	210.06
382.634	207.06
382.86	201.06
383.085	206.06
383.31	189.06
383.535	216.06
383.761	202.06
383.986	202.06
384.211	214.06
384.436	203.06
384.662	227.06
384.887	225.06
385.112	242.06
385.337	224.06
385.562	229.06
385.787	204.06
386.013	220.06
386.238	211.06
386.463	216.06
386.688	227.06
386.913	213.06
387.138	220.06
387.363	212.06
387.588	211.06
387.813	212.06
388.038	214.06
388.263	232.06
388.488	208.06
388.713	221.06
388.938	216.06
389.163	214.06
389.387	200.06
389.612	209.06
389.837	212.06
390.062	203.06
390.287	202.06
390.512	188.06
390.736	206.06
390.961	231.06
391.186	219.06
391.411	222.06
391.636	224.06
391.86	233.06
392.085	247.06
392.31	236.06
392.534	211.06
392.759	235.06
392.984	225.06
393.208	227.06
393.433	225.06
393.658	242.06
393.882	229.06
394.107	224.06
394.331	224.06
394.556	232.06
394.78	228.06
395.005	233.06
395.229	234.06
395.454	240.06
395.678	218.06
395.903	224.06
396.127	238.06
396.352	229.06
396.576	223.06
396.801	224.06
397.025	218.06
397.249	234.06
397.474	235.06
397.698	212.06
397.922	219.06
398.147	230.06
398.371	220.06
398.595	228.06
398.82	244.06
399.044	248.06
399.268	274.06
399.492	332.06
399.717	378.06
399.941	334.06
400.165	311.06
400.389	283.06
400.613	265.06
400.837	269.06
401.062	247.06
401.286	245.06
401.51	250.06
401.734	237.06
401.958	242.06
402.182	237.06
402.406	245.06
402.63	258.06
402.854	256.06
403.078	266.06
403.302	291.06
403.526	291.06
403.75	286.06
403.974	290.06
404.198	293.06
404.422	288.06
404.645	291.06
404.869	277.06
405.093	273.06
405.317	271.06
405.541	268.06
405.765	252.06
405.988	258.06
406.212	271.06
406.436	279.06
406.66	281.06
406.883	258.06
407.107	290.06
407.331	306.06
407.555	316.06
407.778	315.06
408.002	294.06
408.226	288.06
408.449	292.06
408.673	294.06
408.896	288.06
409.12	268.06
409.344	267.06
409.567	274.06
409.791	266.06
410.014	279.06
410.238	274.06
410.461	255.06
410.685	266.06
410.908	264.06
411.132	274.06
411.355	247.06
411.578	249.06
411.802	259.06
412.025	243.06
412.249	266.06
412.472	249.06
412.695	278.06
412.919	252.06
413.142	251.06
413.365	242.06
413.589	242.06
413.812	246.06
414.035	250.06
414.258	244.06
414.482	275.06
414.705	255.06
414.928	260.06
415.151	252.06
415.374	238.06
415.597	243.06
415.821	248.06
416.044	258.06
416.267	248.06
416.49	249.06
416.713	242.06
416.936	249.06
417.159	231.06
417.382	254.06
417.605	236.06
417.828	243.06
418.051	256.06
418.274	253.06
418.497	236.06
418.72	262.06
418.943	265.06
419.166	258.06
419.389	289.06
419.611	280.06
419.834	271.06
420.057	265.06
420.28	266.06
420.503	254.06
420.726	236.06
420.948	256.06
421.171	264.06
421.394	260.06
421.617	237.06
421.839	248.06
422.062	258.06
422.285	270.06
422.507	265.06
422.73	260.06
422.953	243.06
423.175	269.06
423.398	262.06
423.621	249.06
423.843	264.06
424.066	276.06
424.288	274.06
424.511	279.06
424.733	257.06
424.956	260.06
425.178	259.06
425.401	236.06
425.623	260.06
425.846	234.06
426.068	240.06
426.291	249.06
426.513	250.06
426.735	221.06
426.958	240.06
427.18	228.06
427.402	230.06
427.625	246.06
427.847	241.06
428.069	219.06
428.292	225.06
428.514	217.06
428.736	218.06
428.958	234.06
429.181	236.06
429.403	225.06
429.625	238.06
429.847	242.06
430.069	224.06
430.292	226.06
430.514	225.06
430.736	215.06
430.958	225.06
431.18	213.06
431.402	230.06
431.624	232.06
431.846	236.06
432.068	232.06
432.29	228.06
432.512	232.06
432.734	237.06
432.956	224.06
433.178	216.06
433.4	224.06
433.622	240.06
433.844	233.06
434.066	237.06
434.287	233.06
434.509	238.06
434.731	248.06
434.953	246.06
435.175	234.06
435.397	255.06
435.618	236.06
435.84	228.06
436.062	252.06
436.284	210.06
436.505	233.06
436.727	243.06
436.949	219.06
437.17	214.06
437.392	225.06
437.614	214.06
437.835	229.06
438.057	221.06
438.278	216.06
438.5	217.06
438.721	219.06
438.943	229.06
439.165	216.06
439.386	215.06
439.608	227.06
439.829	229.06
440.05	230.06
440.272	225.06
440.493	230.06
440.715	239.06
440.936	247.06
441.158	237.06
441.379	236.06
441.6	245.06
441.822	269.06
442.043	256.06
442.264	250.06
442.486	246.06
442.707	229.06
442.928	257.06
443.149	253.06
443.371	240.06
443.592	252.06
443.813	275.06
444.034	241.06
444.255	249.06
444.476	282.06
444.698	289.06
444.919	288.06
445.14	413.06
445.361	330.06
445.582	270.06
445.803	237.06
446.024	222.06
446.245	225.06
446.466	227.06
446.687	236.06
446.908	225.06
447.129	242.06
447.35	220.06
447.571	209.06
447.792	202.06
448.013	220.06
448.234	220.06
448.455	218.06
448.675	205.06
448.896	216.06
449.117	217.06
449.338	204.06
449.559	206.06
449.779	206.06
450	204.06
450.221	214.06
450.442	234.06
450.662	221.06
450.883	212.06
451.104	212.06
451.324	226.06
451.545	213.06
451.766	199.06
451.986	228.06
452.207	225.06
452.428	210.06
452.648	229.06
452.869	221.06
453.089	203.06
453.31	204.06
453.53	205.06
453.751	195.06
453.971	222.06
454.192	234.06
454.412	220.06
454.633	211.06
454.853	210.06
455.073	217.06
455.294	202.06
455.514	209.06
455.734	216.06
455.955	211.06
456.175	209.06
456.395	205.06
456.616	201.06
456.836	180.06
457.056	192.06
457.276	207.06
457.497	220.06
457.717	190.06
457.937	210.06
458.157	211.06
458.377	214.06
458.598	197.06
458.818	211.06
459.038	230.06
459.258	243.06
459.478	242.06
459.698	246.06
459.918	229.06
460.138	252.06
460.358	254.06
460.578	264.06
460.798	261.06
461.018	254.06
461.238	266.06
461.458	270.06
461.678	264.06
461.898	265.06
462.118	270.06
462.338	272.06
462.558	276.06
462.777	278.06
462.997	295.06
463.217	344.06
463.437	342.06
463.657	309.06
463.876	320.06
464.096	318.06
464.316	298.06
464.536	290.06
464.755	288.06
464.975	297.06
465.195	270.06
465.414	257.06
465.634	257.06
465.854	248.06
466.073	246.06
466.293	234.06
466.512	227.06
466.732	224.06
466.951	216.06
467.171	229.06
467.391	233.06
467.61	226.06
467.829	229.06
468.049	237.06
468.268	202.06
468.488	222.06
468.707	234.06
468.927	234.06
469.146	217.06
469.365	211.06
469.585	214.06
469.804	217.06
470.023	246.06
470.243	233.06
470.462	232.06
470.681	228.06
470.901	232.06
471.12	221.06
471.339	232.06
471.558	229.06
471.777	240.06
471.997	229.06
472.216	221.06
472.435	217.06
472.654	222.06
472.873	201.06
473.092	227.06
473.311	214.06
473.53	209.06
473.749	228.06
473.968	211.06
474.187	220.06
474.406	224.06
474.625	238.06
474.844	218.06
475.063	225.06
475.282	232.06
475.501	225.06
475.72	221.06
475.939	218.06
476.158	208.06
476.377	209.06
476.596	213.06
476.814	229.06
477.033	237.06
477.252	236.06
477.471	224.06
477.69	232.06
477.908	230.06
478.127	230.06
478.346	243.06
478.564	257.06
478.783	260.06
479.002	260.06
479.22	245.06
479.439	237.06
479.658	256.06
479.876	254.06
480.095	258.06
480.313	280.06
480.532	292.06
480.751	263.06
480.969	264.06
481.188	251.06
481.406	276.06
481.624	258.06
481.843	232.06
482.061	243.06
482.28	261.06
482.498	243.06
482.717	256.06
482.935	248.06
483.153	244.06
483.372	242.06
483.59	245.06
483.808	228.06
484.027	244.06
484.245	254.06
484.463	232.06
484.681	274.06
484.9	265.06
485.118	258.06
485.336	269.06
485.554	251.06
485.772	257.06
485.99	252.06
486.209	259.06
486.427	268.06
486.645	261.06
486.863	268.06
487.081	266.06
487.299	268.06
487.517	265.06
487.735	240.06
487.953	266.06
488.171	254.06
488.389	255.06
488.607	249.06
488.825	244.06
489.043	256.06
489.261	263.06
489.479	267.06
489.696	250.06
489.914	247.06
490.132	247.06
490.35	271.06
490.568	290.06
490.786	257.06
491.003	263.06
491.221	276.06
491.439	264.06
491.657	270.06
491.874	260.06
492.092	260.06
492.31	260.06
492.527	261.06
492.745	289.06
492.963	256.06
493.18	281.06
493.398	268.06
493.615	258.06
493.833	266.06
494.05	281.06
494.268	269.06
494.485	275.06
494.703	271.06
494.92	270.06
495.138	261.06
495.355	276.06
495.573	262.06
495.79	278.06
496.008	282.06
496.225	262.06
496.442	259.06
496.66	269.06
496.877	267.06
497.094	285.06
497.312	292.06
497.529	304.06
497.746	292.06
497.963	294.06
498.181	326.06
498.398	305.06
498.615	328.06
498.832	338.06
499.049	351.06
499.267	398.06
499.484	418.06
499.701	451.06
499.918	532.06
500.135	594.06
500.352	669.06
500.569	714.06
500.786	715.06
501.003	651.06
501.22	586.06
501.437	504.06
501.654	468.06
501.871	424.06
502.088	388.06
502.305	359.06
502.522	361.06
502.739	339.06
502.956	321.06
503.172	317.06
503.389	291.06
