Data from 0.5MCu(NO3)2.Standard.Lamp.E10.CV._HRD10591_16-05-45-754.txt Node
Date: Mon Jul 22 16:05:45 EDT 2019
User: cochatt
Spectrometer: HR+D1059
Trigger mode: 1
Integration Time (sec): 1.000000E-1
Scans to average: 1
Electric dark correction enabled: true
Nonlinearity correction enabled: false
Boxcar width: 0
XAxis mode: Wavelengths
Number of Pixels in Spectrum: 2048
>>>>>Begin Spectral Data<<<<<
223.165	-18.69
223.4	-18.69
223.635	-18.69
223.869	-24.69
224.104	-19.69
224.338	1.31
224.573	-16.69
224.808	-25.69
225.042	3.31
225.277	-8.69
225.511	-18.69
225.746	10.31
225.98	20.31
226.215	13.31
226.449	12.31
226.683	18.31
226.918	25.31
227.152	28.31
227.387	39.31
227.621	37.31
227.856	44.31
228.09	51.31
228.324	42.31
228.559	51.31
228.793	52.31
229.027	86.31
229.262	71.31
229.496	73.31
229.73	86.31
229.964	87.31
230.199	87.31
230.433	77.31
230.667	97.31
230.901	90.31
231.136	77.31
231.37	91.31
231.604	99.31
231.838	101.31
232.072	96.31
232.306	96.31
232.541	96.31
232.775	80.31
233.009	90.31
233.243	76.31
233.477	101.31
233.711	94.31
233.945	97.31
234.179	85.31
234.413	86.31
234.647	105.31
234.881	98.31
235.115	98.31
235.349	92.31
235.583	105.31
235.817	99.31
236.051	102.31
236.285	95.31
236.519	91.31
236.753	91.31
236.987	78.31
237.221	106.31
237.455	109.31
237.689	85.31
237.922	74.31
238.156	81.31
238.39	89.31
238.624	98.31
238.858	91.31
239.091	87.31
239.325	104.31
239.559	103.31
239.793	104.31
240.027	114.31
240.26	89.31
240.494	98.31
240.728	85.31
240.961	89.31
241.195	88.31
241.429	101.31
241.662	106.31
241.896	99.31
242.13	100.31
242.363	104.31
242.597	108.31
242.83	106.31
243.064	99.31
243.298	98.31
243.531	87.31
243.765	101.31
243.998	99.31
244.232	106.31
244.465	107.31
244.699	103.31
244.932	125.31
245.166	96.31
245.399	105.31
245.633	107.31
245.866	110.31
246.099	97.31
246.333	107.31
246.566	100.31
246.8	106.31
247.033	112.31
247.266	115.31
247.5	95.31
247.733	111.31
247.966	110.31
248.2	116.31
248.433	116.31
248.666	119.31
248.899	124.31
249.133	104.31
249.366	119.31
249.599	111.31
249.832	116.31
250.066	105.31
250.299	121.31
250.532	124.31
250.765	101.31
250.998	117.31
251.231	106.31
251.465	118.31
251.698	116.31
251.931	116.31
252.164	131.31
252.397	112.31
252.63	114.31
252.863	112.31
253.096	118.31
253.329	124.31
253.562	107.31
253.795	115.31
254.028	140.31
254.261	137.31
254.494	120.31
254.727	132.31
254.96	127.31
255.193	106.31
255.426	137.31
255.659	122.31
255.892	113.31
256.124	128.31
256.357	116.31
256.59	123.31
256.823	135.31
257.056	132.31
257.289	117.31
257.521	128.31
257.754	131.31
257.987	123.31
258.22	132.31
258.452	133.31
258.685	138.31
258.918	141.31
259.151	147.31
259.383	122.31
259.616	120.31
259.849	127.31
260.081	125.31
260.314	142.31
260.547	127.31
260.779	121.31
261.012	120.31
261.244	129.31
261.477	143.31
261.71	132.31
261.942	131.31
262.175	140.31
262.407	130.31
262.64	144.31
262.872	146.31
263.105	134.31
263.337	145.31
263.57	141.31
263.802	142.31
264.035	144.31
264.267	138.31
264.499	157.31
264.732	139.31
264.964	141.31
265.197	143.31
265.429	156.31
265.661	147.31
265.894	154.31
266.126	153.31
266.358	150.31
266.591	144.31
266.823	147.31
267.055	144.31
267.287	152.31
267.52	135.31
267.752	157.31
267.984	137.31
268.216	141.31
268.448	151.31
268.681	149.31
268.913	149.31
269.145	144.31
269.377	144.31
269.609	154.31
269.841	140.31
270.073	148.31
270.306	162.31
270.538	149.31
270.77	165.31
271.002	153.31
271.234	163.31
271.466	147.31
271.698	161.31
271.93	145.31
272.162	154.31
272.394	148.31
272.626	155.31
272.858	165.31
273.09	169.31
273.322	136.31
273.553	154.31
273.785	149.31
274.017	152.31
274.249	153.31
274.481	155.31
274.713	150.31
274.945	152.31
275.176	171.31
275.408	177.31
275.64	165.31
275.872	153.31
276.104	140.31
276.335	152.31
276.567	151.31
276.799	154.31
277.031	161.31
277.262	175.31
277.494	178.31
277.726	158.31
277.957	172.31
278.189	161.31
278.421	168.31
278.652	164.31
278.884	175.31
279.115	167.31
279.347	164.31
279.579	159.31
279.81	168.31
280.042	175.31
280.273	167.31
280.505	170.31
280.736	169.31
280.968	157.31
281.199	193.31
281.431	191.31
281.662	180.31
281.894	171.31
282.125	172.31
282.356	176.31
282.588	195.31
282.819	171.31
283.051	171.31
283.282	187.31
283.513	190.31
283.745	200.31
283.976	193.31
284.207	168.31
284.439	177.31
284.67	176.31
284.901	171.31
285.132	183.31
285.364	179.31
285.595	170.31
285.826	183.31
286.057	188.31
286.288	179.31
286.52	189.31
286.751	178.31
286.982	167.31
287.213	194.31
287.444	188.31
287.675	195.31
287.906	191.31
288.138	184.31
288.369	191.31
288.6	207.31
288.831	209.31
289.062	194.31
289.293	191.31
289.524	187.31
289.755	184.31
289.986	196.31
290.217	168.31
290.448	191.31
290.679	187.31
290.91	200.31
291.141	202.31
291.371	207.31
291.602	189.31
291.833	202.31
292.064	207.31
292.295	204.31
292.526	216.31
292.757	195.31
292.987	201.31
293.218	188.31
293.449	188.31
293.68	211.31
293.91	196.31
294.141	211.31
294.372	204.31
294.603	204.31
294.833	207.31
295.064	204.31
295.295	210.31
295.525	191.31
295.756	205.31
295.987	194.31
296.217	208.31
296.448	198.31
296.679	212.31
296.909	209.31
297.14	196.31
297.37	213.31
297.601	215.31
297.831	222.31
298.062	211.31
298.292	219.31
298.523	229.31
298.753	227.31
298.984	210.31
299.214	224.31
299.445	205.31
299.675	218.31
299.905	226.31
300.136	219.31
300.366	209.31
300.597	224.31
300.827	226.31
301.057	215.31
301.288	211.31
301.518	210.31
301.748	222.31
301.979	235.31
302.209	225.31
302.439	221.31
302.669	217.31
302.9	218.31
303.13	233.31
303.36	216.31
303.59	232.31
303.82	219.31
304.051	215.31
304.281	227.31
304.511	218.31
304.741	216.31
304.971	228.31
305.201	227.31
305.431	226.31
305.661	232.31
305.891	208.31
306.121	216.31
306.352	221.31
306.582	216.31
306.812	207.31
307.042	209.31
307.272	205.31
307.502	206.31
307.731	204.31
307.961	224.31
308.191	203.31
308.421	213.31
308.651	215.31
308.881	198.31
309.111	211.31
309.341	230.31
309.571	221.31
309.8	201.31
310.03	216.31
310.26	223.31
310.49	220.31
310.72	221.31
310.949	204.31
311.179	211.31
311.409	222.31
311.639	234.31
311.868	229.31
312.098	222.31
312.328	233.31
312.557	235.31
312.787	220.31
313.017	204.31
313.246	240.31
313.476	232.31
313.706	247.31
313.935	219.31
314.165	228.31
314.394	223.31
314.624	233.31
314.853	233.31
315.083	214.31
315.312	225.31
315.542	218.31
315.771	234.31
316.001	215.31
316.23	226.31
316.46	221.31
316.689	228.31
316.919	218.31
317.148	222.31
317.377	225.31
317.607	235.31
317.836	226.31
318.065	226.31
318.295	226.31
318.524	226.31
318.753	207.31
318.983	219.31
319.212	219.31
319.441	225.31
319.67	231.31
319.9	224.31
320.129	230.31
320.358	211.31
320.587	231.31
320.816	230.31
321.046	225.31
321.275	235.31
321.504	219.31
321.733	222.31
321.962	225.31
322.191	238.31
322.42	223.31
322.649	242.31
322.878	235.31
323.108	227.31
323.337	223.31
323.566	231.31
323.795	235.31
324.024	227.31
324.253	231.31
324.482	236.31
324.71	240.31
324.939	221.31
325.168	241.31
325.397	231.31
325.626	254.31
325.855	239.31
326.084	265.31
326.313	248.31
326.542	240.31
326.77	239.31
326.999	234.31
327.228	262.31
327.457	257.31
327.686	257.31
327.914	250.31
328.143	259.31
328.372	253.31
328.6	241.31
328.829	243.31
329.058	243.31
329.287	247.31
329.515	243.31
329.744	256.31
329.972	240.31
330.201	238.31
330.43	231.31
330.658	248.31
330.887	259.31
331.115	249.31
331.344	243.31
331.572	259.31
331.801	258.31
332.03	275.31
332.258	288.31
332.486	274.31
332.715	283.31
332.943	285.31
333.172	284.31
333.4	316.31
333.629	317.31
333.857	331.31
334.085	311.31
334.314	305.31
334.542	303.31
334.771	297.31
334.999	292.31
335.227	285.31
335.455	304.31
335.684	279.31
335.912	283.31
336.14	286.31
336.369	287.31
336.597	270.31
336.825	275.31
337.053	269.31
337.281	269.31
337.51	276.31
337.738	287.31
337.966	251.31
338.194	255.31
338.422	260.31
338.65	253.31
338.878	257.31
339.106	248.31
339.334	256.31
339.562	251.31
339.79	271.31
340.018	271.31
340.246	261.31
340.474	256.31
340.702	274.31
340.93	263.31
341.158	265.31
341.386	258.31
341.614	245.31
341.842	238.31
342.07	243.31
342.298	253.31
342.526	260.31
342.754	245.31
342.981	257.31
343.209	244.31
343.437	265.31
343.665	275.31
343.893	292.31
344.12	298.31
344.348	282.31
344.576	253.31
344.804	277.31
345.031	247.31
345.259	263.31
345.487	265.31
345.714	256.31
345.942	253.31
346.17	242.31
346.397	240.31
346.625	247.31
346.853	242.31
347.08	249.31
347.308	265.31
347.535	240.31
347.763	261.31
347.99	245.31
348.218	259.31
348.445	254.31
348.673	258.31
348.9	244.31
349.128	250.31
349.355	244.31
349.583	247.31
349.81	267.31
350.037	232.31
350.265	239.31
350.492	234.31
350.72	250.31
350.947	241.31
351.174	236.31
351.402	225.31
351.629	234.31
351.856	236.31
352.083	229.31
352.311	235.31
352.538	229.31
352.765	240.31
352.992	241.31
353.22	226.31
353.447	228.31
353.674	247.31
353.901	241.31
354.128	232.31
354.355	235.31
354.583	230.31
354.81	245.31
355.037	231.31
355.264	226.31
355.491	231.31
355.718	233.31
355.945	250.31
356.172	239.31
356.399	243.31
356.626	253.31
356.853	232.31
357.08	228.31
357.307	244.31
357.534	223.31
357.761	255.31
357.988	249.31
358.215	231.31
358.441	251.31
358.668	213.31
358.895	219.31
359.122	228.31
359.349	228.31
359.576	216.31
359.802	239.31
360.029	221.31
360.256	241.31
360.483	246.31
360.709	243.31
360.936	234.31
361.163	247.31
361.39	237.31
361.616	247.31
361.843	221.31
362.07	258.31
362.296	260.31
362.523	251.31
362.749	243.31
362.976	253.31
363.203	237.31
363.429	218.31
363.656	227.31
363.882	231.31
364.109	222.31
364.335	220.31
364.562	230.31
364.788	234.31
365.015	234.31
365.241	232.31
365.468	216.31
365.694	229.31
365.92	228.31
366.147	233.31
366.373	214.31
366.599	230.31
366.826	246.31
367.052	232.31
367.278	239.31
367.505	231.31
367.731	239.31
367.957	225.31
368.184	235.31
368.41	236.31
368.636	227.31
368.862	241.31
369.089	221.31
369.315	229.31
369.541	234.31
369.767	224.31
369.993	239.31
370.219	260.31
370.445	241.31
370.672	247.31
370.898	260.31
371.124	251.31
371.35	236.31
371.576	244.31
371.802	243.31
372.028	254.31
372.254	243.31
372.48	248.31
372.706	246.31
372.932	277.31
373.158	271.31
373.384	252.31
373.61	232.31
373.835	233.31
374.061	244.31
374.287	251.31
374.513	263.31
374.739	267.31
374.965	272.31
375.191	264.31
375.416	285.31
375.642	263.31
375.868	247.31
376.094	272.31
376.319	260.31
376.545	239.31
376.771	242.31
376.997	250.31
377.222	248.31
377.448	245.31
377.674	250.31
377.899	257.31
378.125	243.31
378.35	232.31
378.576	259.31
378.802	247.31
379.027	234.31
379.253	240.31
379.478	255.31
379.704	255.31
379.929	228.31
380.155	255.31
380.38	264.31
380.606	260.31
380.831	248.31
381.057	261.31
381.282	258.31
381.507	252.31
381.733	255.31
381.958	258.31
382.184	254.31
382.409	254.31
382.634	241.31
382.86	248.31
383.085	260.31
383.31	265.31
383.535	272.31
383.761	277.31
383.986	267.31
384.211	281.31
384.436	272.31
384.662	289.31
384.887	297.31
385.112	284.31
385.337	289.31
385.562	285.31
385.787	282.31
386.013	294.31
386.238	274.31
386.463	283.31
386.688	289.31
386.913	281.31
387.138	268.31
387.363	277.31
387.588	282.31
387.813	293.31
388.038	277.31
388.263	285.31
388.488	290.31
388.713	293.31
388.938	282.31
389.163	268.31
389.387	280.31
389.612	280.31
389.837	269.31
390.062	271.31
390.287	289.31
390.512	277.31
390.736	276.31
390.961	287.31
391.186	290.31
391.411	288.31
391.636	303.31
391.86	305.31
392.085	315.31
392.31	312.31
392.534	303.31
392.759	307.31
392.984	292.31
393.208	289.31
393.433	309.31
393.658	300.31
393.882	304.31
394.107	318.31
394.331	316.31
394.556	305.31
394.78	319.31
395.005	297.31
395.229	312.31
395.454	316.31
395.678	314.31
395.903	311.31
396.127	312.31
396.352	304.31
396.576	293.31
396.801	306.31
397.025	297.31
397.249	291.31
397.474	295.31
397.698	303.31
397.922	323.31
398.147	310.31
398.371	320.31
398.595	316.31
398.82	331.31
399.044	367.31
399.268	388.31
399.492	440.31
399.717	517.31
399.941	497.31
400.165	458.31
400.389	391.31
400.613	361.31
400.837	335.31
401.062	344.31
401.286	313.31
401.51	342.31
401.734	338.31
401.958	326.31
402.182	322.31
402.406	348.31
402.63	377.31
402.854	383.31
403.078	356.31
403.302	377.31
403.526	379.31
403.75	383.31
403.974	402.31
404.198	389.31
404.422	388.31
404.645	398.31
404.869	399.31
405.093	381.31
405.317	359.31
405.541	356.31
405.765	371.31
405.988	371.31
406.212	377.31
406.436	365.31
406.66	363.31
406.883	365.31
407.107	397.31
407.331	415.31
407.555	427.31
407.778	423.31
408.002	400.31
408.226	392.31
408.449	386.31
408.673	387.31
408.896	394.31
409.12	392.31
409.344	370.31
409.567	377.31
409.791	387.31
410.014	387.31
410.238	377.31
410.461	363.31
410.685	378.31
410.908	369.31
411.132	361.31
411.355	354.31
411.578	337.31
411.802	341.31
412.025	340.31
412.249	359.31
412.472	341.31
412.695	347.31
412.919	324.31
413.142	317.31
413.365	311.31
413.589	344.31
413.812	327.31
414.035	334.31
414.258	330.31
414.482	344.31
414.705	329.31
414.928	343.31
415.151	338.31
415.374	327.31
415.597	319.31
415.821	357.31
416.044	317.31
416.267	315.31
416.49	332.31
416.713	328.31
416.936	326.31
417.159	320.31
417.382	346.31
417.605	333.31
417.828	332.31
418.051	332.31
418.274	343.31
418.497	349.31
418.72	343.31
418.943	335.31
419.166	348.31
419.389	359.31
419.611	354.31
419.834	351.31
420.057	334.31
420.28	340.31
420.503	328.31
420.726	355.31
420.948	330.31
421.171	340.31
421.394	331.31
421.617	324.31
421.839	346.31
422.062	353.31
422.285	320.31
422.507	356.31
422.73	336.31
422.953	338.31
423.175	344.31
423.398	348.31
423.621	341.31
423.843	377.31
424.066	352.31
424.288	358.31
424.511	344.31
424.733	351.31
424.956	343.31
425.178	343.31
425.401	332.31
425.623	356.31
425.846	332.31
426.068	329.31
426.291	329.31
426.513	311.31
426.735	316.31
426.958	319.31
427.18	289.31
427.402	331.31
427.625	300.31
427.847	285.31
428.069	303.31
428.292	306.31
428.514	292.31
428.736	305.31
428.958	294.31
429.181	300.31
429.403	295.31
429.625	297.31
429.847	306.31
430.069	289.31
430.292	285.31
430.514	282.31
430.736	307.31
430.958	305.31
431.18	293.31
431.402	301.31
431.624	310.31
431.846	314.31
432.068	313.31
432.29	319.31
432.512	312.31
432.734	319.31
432.956	299.31
433.178	297.31
433.4	295.31
433.622	313.31
433.844	314.31
434.066	336.31
434.287	295.31
434.509	304.31
434.731	314.31
434.953	360.31
435.175	349.31
435.397	340.31
435.618	317.31
435.84	305.31
436.062	289.31
436.284	297.31
436.505	293.31
436.727	300.31
436.949	283.31
437.17	285.31
437.392	304.31
437.614	304.31
437.835	294.31
438.057	291.31
438.278	287.31
438.5	299.31
438.721	284.31
438.943	276.31
439.165	288.31
439.386	290.31
439.608	307.31
439.829	291.31
440.05	313.31
440.272	299.31
440.493	314.31
440.715	311.31
440.936	310.31
441.158	299.31
441.379	307.31
441.6	336.31
441.822	334.31
442.043	332.31
442.264	324.31
442.486	308.31
442.707	319.31
442.928	334.31
443.149	328.31
443.371	323.31
443.592	358.31
443.813	356.31
444.034	344.31
444.255	339.31
444.476	354.31
444.698	377.31
444.919	381.31
445.14	521.31
445.361	410.31
445.582	337.31
445.803	329.31
446.024	308.31
446.245	318.31
446.466	287.31
446.687	294.31
446.908	299.31
447.129	292.31
447.35	298.31
447.571	291.31
447.792	298.31
448.013	291.31
448.234	287.31
448.455	305.31
448.675	280.31
448.896	293.31
449.117	275.31
449.338	286.31
449.559	293.31
449.779	289.31
450	284.31
450.221	293.31
450.442	284.31
450.662	284.31
450.883	280.31
451.104	288.31
451.324	290.31
451.545	287.31
451.766	291.31
451.986	290.31
452.207	288.31
452.428	272.31
452.648	272.31
452.869	247.31
453.089	259.31
453.31	288.31
453.53	288.31
453.751	279.31
453.971	279.31
454.192	265.31
454.412	266.31
454.633	245.31
454.853	274.31
455.073	269.31
455.294	261.31
455.514	279.31
455.734	280.31
455.955	273.31
456.175	264.31
456.395	257.31
456.616	260.31
456.836	265.31
457.056	269.31
457.276	252.31
457.497	277.31
457.717	270.31
457.937	276.31
458.157	274.31
458.377	269.31
458.598	287.31
458.818	269.31
459.038	268.31
459.258	296.31
459.478	325.31
459.698	301.31
459.918	305.31
460.138	320.31
460.358	344.31
460.578	352.31
460.798	355.31
461.018	351.31
461.238	343.31
461.458	343.31
461.678	356.31
461.898	346.31
462.118	354.31
462.338	387.31
462.558	371.31
462.777	411.31
462.997	442.31
463.217	465.31
463.437	478.31
463.657	426.31
463.876	393.31
464.096	402.31
464.316	411.31
464.536	392.31
464.755	411.31
464.975	355.31
465.195	363.31
465.414	341.31
465.634	314.31
465.854	291.31
466.073	308.31
466.293	313.31
466.512	305.31
466.732	304.31
466.951	279.31
467.171	287.31
467.391	299.31
467.61	281.31
467.829	301.31
468.049	296.31
468.268	279.31
468.488	294.31
468.707	288.31
468.927	267.31
469.146	288.31
469.365	296.31
469.585	290.31
469.804	289.31
470.023	296.31
470.243	277.31
470.462	308.31
470.681	327.31
470.901	303.31
471.12	298.31
471.339	314.31
471.558	307.31
471.777	283.31
471.997	304.31
472.216	298.31
472.435	281.31
472.654	290.31
472.873	281.31
473.092	284.31
473.311	282.31
473.53	290.31
473.749	295.31
473.968	286.31
474.187	288.31
474.406	269.31
474.625	280.31
474.844	285.31
475.063	296.31
475.282	293.31
475.501	302.31
475.72	262.31
475.939	281.31
476.158	275.31
476.377	288.31
476.596	282.31
476.814	292.31
477.033	287.31
477.252	295.31
477.471	302.31
477.69	319.31
477.908	305.31
478.127	322.31
478.346	343.31
478.564	324.31
478.783	333.31
479.002	337.31
479.22	344.31
479.439	340.31
479.658	345.31
479.876	342.31
480.095	363.31
480.313	360.31
480.532	381.31
480.751	387.31
480.969	343.31
481.188	348.31
481.406	332.31
481.624	342.31
481.843	330.31
482.061	312.31
482.28	317.31
482.498	327.31
482.717	310.31
482.935	313.31
483.153	312.31
483.372	342.31
483.59	316.31
483.808	326.31
484.027	323.31
484.245	330.31
484.463	336.31
484.681	339.31
484.9	332.31
485.118	353.31
485.336	340.31
485.554	343.31
485.772	350.31
485.99	327.31
486.209	363.31
486.427	340.31
486.645	360.31
486.863	343.31
487.081	337.31
487.299	337.31
487.517	361.31
487.735	357.31
487.953	353.31
488.171	346.31
488.389	344.31
488.607	353.31
488.825	336.31
489.043	334.31
489.261	335.31
489.479	345.31
489.696	330.31
489.914	344.31
490.132	323.31
490.35	340.31
490.568	339.31
490.786	321.31
491.003	338.31
491.221	322.31
491.439	343.31
491.657	336.31
491.874	344.31
492.092	353.31
492.31	358.31
492.527	341.31
492.745	367.31
492.963	344.31
493.18	348.31
493.398	346.31
493.615	359.31
493.833	346.31
494.05	370.31
494.268	360.31
494.485	371.31
494.703	361.31
494.92	356.31
495.138	365.31
495.355	355.31
495.573	334.31
495.79	361.31
496.008	363.31
496.225	366.31
496.442	355.31
496.66	373.31
496.877	360.31
497.094	372.31
497.312	384.31
497.529	387.31
497.746	393.31
497.963	400.31
498.181	426.31
498.398	435.31
498.615	463.31
498.832	495.31
499.049	496.31
499.267	543.31
499.484	600.31
499.701	693.31
499.918	755.31
500.135	844.31
500.352	968.31
500.569	1044.31
500.786	1034.31
501.003	949.31
501.22	826.31
501.437	735.31
501.654	667.31
501.871	593.31
502.088	546.31
502.305	501.31
502.522	503.31
502.739	469.31
