Data from 0.5MCu(NO3)2.Standard.Lamp.E10.CV._HRD10591_16-04-17-753.txt Node
Date: Mon Jul 22 16:04:17 EDT 2019
User: cochatt
Spectrometer: HR+D1059
Trigger mode: 1
Integration Time (sec): 1.000000E-1
Scans to average: 1
Electric dark correction enabled: true
Nonlinearity correction enabled: false
Boxcar width: 0
XAxis mode: Wavelengths
Number of Pixels in Spectrum: 2048
>>>>>Begin Spectral Data<<<<<
223.165	-3.19
223.4	-3.19
223.635	-3.19
223.869	-20.19
224.104	-19.19
224.338	-4.19
224.573	-10.19
224.808	-13.19
225.042	-25.19
225.277	-16.19
225.511	-13.19
225.746	2.81
225.98	10.81
226.215	10.81
226.449	6.81
226.683	21.81
226.918	28.81
227.152	42.81
227.387	27.81
227.621	44.81
227.856	45.81
228.09	60.81
228.324	43.81
228.559	54.81
228.793	72.81
229.027	67.81
229.262	74.81
229.496	73.81
229.73	78.81
229.964	65.81
230.199	80.81
230.433	88.81
230.667	80.81
230.901	92.81
231.136	91.81
231.37	102.81
231.604	94.81
231.838	90.81
232.072	97.81
232.306	85.81
232.541	87.81
232.775	89.81
233.009	93.81
233.243	96.81
233.477	97.81
233.711	90.81
233.945	105.81
234.179	89.81
234.413	90.81
234.647	82.81
234.881	98.81
235.115	100.81
235.349	97.81
235.583	89.81
235.817	92.81
236.051	70.81
236.285	98.81
236.519	74.81
236.753	94.81
236.987	83.81
237.221	85.81
237.455	98.81
237.689	93.81
237.922	90.81
238.156	95.81
238.39	91.81
238.624	89.81
238.858	93.81
239.091	103.81
239.325	86.81
239.559	86.81
239.793	104.81
240.027	95.81
240.26	87.81
240.494	91.81
240.728	92.81
240.961	76.81
241.195	86.81
241.429	105.81
241.662	109.81
241.896	76.81
242.13	97.81
242.363	88.81
242.597	85.81
242.83	103.81
243.064	103.81
243.298	101.81
243.531	95.81
243.765	77.81
243.998	90.81
244.232	94.81
244.465	85.81
244.699	102.81
244.932	113.81
245.166	104.81
245.399	107.81
245.633	93.81
245.866	90.81
246.099	90.81
246.333	95.81
246.566	95.81
246.8	106.81
247.033	100.81
247.266	77.81
247.5	79.81
247.733	112.81
247.966	105.81
248.2	113.81
248.433	105.81
248.666	105.81
248.899	115.81
249.133	106.81
249.366	101.81
249.599	92.81
249.832	104.81
250.066	107.81
250.299	111.81
250.532	119.81
250.765	101.81
250.998	109.81
251.231	108.81
251.465	108.81
251.698	110.81
251.931	107.81
252.164	99.81
252.397	115.81
252.63	113.81
252.863	101.81
253.096	106.81
253.329	115.81
253.562	117.81
253.795	108.81
254.028	115.81
254.261	110.81
254.494	95.81
254.727	117.81
254.96	108.81
255.193	107.81
255.426	111.81
255.659	106.81
255.892	122.81
256.124	101.81
256.357	104.81
256.59	111.81
256.823	113.81
257.056	109.81
257.289	121.81
257.521	123.81
257.754	115.81
257.987	99.81
258.22	116.81
258.452	109.81
258.685	119.81
258.918	125.81
259.151	106.81
259.383	125.81
259.616	108.81
259.849	119.81
260.081	112.81
260.314	123.81
260.547	119.81
260.779	124.81
261.012	124.81
261.244	115.81
261.477	120.81
261.71	113.81
261.942	115.81
262.175	127.81
262.407	120.81
262.64	117.81
262.872	124.81
263.105	127.81
263.337	131.81
263.57	131.81
263.802	133.81
264.035	135.81
264.267	142.81
264.499	140.81
264.732	124.81
264.964	125.81
265.197	117.81
265.429	130.81
265.661	115.81
265.894	135.81
266.126	126.81
266.358	120.81
266.591	122.81
266.823	115.81
267.055	133.81
267.287	121.81
267.52	131.81
267.752	127.81
267.984	136.81
268.216	127.81
268.448	122.81
268.681	129.81
268.913	113.81
269.145	130.81
269.377	135.81
269.609	115.81
269.841	137.81
270.073	138.81
270.306	123.81
270.538	129.81
270.77	125.81
271.002	129.81
271.234	138.81
271.466	125.81
271.698	124.81
271.93	136.81
272.162	142.81
272.394	138.81
272.626	137.81
272.858	137.81
273.09	138.81
273.322	129.81
273.553	150.81
273.785	124.81
274.017	136.81
274.249	136.81
274.481	127.81
274.713	149.81
274.945	141.81
275.176	143.81
275.408	143.81
275.64	139.81
275.872	138.81
276.104	144.81
276.335	132.81
276.567	138.81
276.799	141.81
277.031	138.81
277.262	129.81
277.494	132.81
277.726	150.81
277.957	143.81
278.189	129.81
278.421	155.81
278.652	143.81
278.884	153.81
279.115	139.81
279.347	131.81
279.579	133.81
279.81	138.81
280.042	141.81
280.273	141.81
280.505	140.81
280.736	147.81
280.968	144.81
281.199	159.81
281.431	150.81
281.662	155.81
281.894	129.81
282.125	148.81
282.356	158.81
282.588	137.81
282.819	153.81
283.051	159.81
283.282	147.81
283.513	154.81
283.745	158.81
283.976	147.81
284.207	148.81
284.439	140.81
284.67	148.81
284.901	155.81
285.132	156.81
285.364	156.81
285.595	150.81
285.826	148.81
286.057	148.81
286.288	170.81
286.52	151.81
286.751	161.81
286.982	173.81
287.213	166.81
287.444	164.81
287.675	156.81
287.906	159.81
288.138	154.81
288.369	149.81
288.6	169.81
288.831	167.81
289.062	169.81
289.293	165.81
289.524	163.81
289.755	155.81
289.986	155.81
290.217	161.81
290.448	157.81
290.679	168.81
290.91	146.81
291.141	161.81
291.371	163.81
291.602	158.81
291.833	172.81
292.064	154.81
292.295	155.81
292.526	156.81
292.757	163.81
292.987	166.81
293.218	168.81
293.449	159.81
293.68	181.81
293.91	159.81
294.141	165.81
294.372	170.81
294.603	170.81
294.833	159.81
295.064	143.81
295.295	170.81
295.525	147.81
295.756	165.81
295.987	170.81
296.217	166.81
296.448	165.81
296.679	171.81
296.909	182.81
297.14	173.81
297.37	170.81
297.601	167.81
297.831	170.81
298.062	173.81
298.292	180.81
298.523	181.81
298.753	175.81
298.984	185.81
299.214	152.81
299.445	169.81
299.675	185.81
299.905	185.81
300.136	176.81
300.366	173.81
300.597	169.81
300.827	182.81
301.057	181.81
301.288	178.81
301.518	181.81
301.748	185.81
301.979	197.81
302.209	184.81
302.439	172.81
302.669	190.81
302.9	180.81
303.13	197.81
303.36	174.81
303.59	187.81
303.82	168.81
304.051	171.81
304.281	182.81
304.511	177.81
304.741	165.81
304.971	169.81
305.201	193.81
305.431	182.81
305.661	183.81
305.891	182.81
306.121	172.81
306.352	189.81
306.582	192.81
306.812	181.81
307.042	182.81
307.272	175.81
307.502	171.81
307.731	169.81
307.961	177.81
308.191	167.81
308.421	173.81
308.651	177.81
308.881	182.81
309.111	185.81
309.341	169.81
309.571	175.81
309.8	166.81
310.03	184.81
310.26	161.81
310.49	183.81
310.72	191.81
310.949	173.81
311.179	195.81
311.409	159.81
311.639	164.81
311.868	173.81
312.098	193.81
312.328	203.81
312.557	183.81
312.787	165.81
313.017	179.81
313.246	192.81
313.476	186.81
313.706	189.81
313.935	179.81
314.165	177.81
314.394	168.81
314.624	179.81
314.853	193.81
315.083	182.81
315.312	193.81
315.542	187.81
315.771	192.81
316.001	186.81
316.23	177.81
316.46	179.81
316.689	177.81
316.919	183.81
317.148	179.81
317.377	187.81
317.607	192.81
317.836	169.81
318.065	168.81
318.295	168.81
318.524	153.81
318.753	188.81
318.983	185.81
319.212	186.81
319.441	188.81
319.67	174.81
319.9	189.81
320.129	188.81
320.358	188.81
320.587	172.81
320.816	182.81
321.046	174.81
321.275	181.81
321.504	181.81
321.733	170.81
321.962	187.81
322.191	171.81
322.42	196.81
322.649	205.81
322.878	187.81
323.108	170.81
323.337	188.81
323.566	187.81
323.795	189.81
324.024	182.81
324.253	193.81
324.482	182.81
324.71	165.81
324.939	191.81
325.168	194.81
325.397	189.81
325.626	177.81
325.855	172.81
326.084	206.81
326.313	196.81
326.542	212.81
326.77	196.81
326.999	203.81
327.228	200.81
327.457	201.81
327.686	188.81
327.914	188.81
328.143	205.81
328.372	183.81
328.6	188.81
328.829	201.81
329.058	171.81
329.287	196.81
329.515	198.81
329.744	194.81
329.972	188.81
330.201	195.81
330.43	200.81
330.658	200.81
330.887	198.81
331.115	202.81
331.344	192.81
331.572	209.81
331.801	201.81
332.03	205.81
332.258	204.81
332.486	198.81
332.715	216.81
332.943	228.81
333.172	226.81
333.4	248.81
333.629	246.81
333.857	239.81
334.085	233.81
334.314	224.81
334.542	231.81
334.771	209.81
334.999	222.81
335.227	213.81
335.455	225.81
335.684	235.81
335.912	234.81
336.14	239.81
336.369	215.81
336.597	210.81
336.825	212.81
337.053	221.81
337.281	191.81
337.51	212.81
337.738	211.81
337.966	217.81
338.194	210.81
338.422	217.81
338.65	206.81
338.878	209.81
339.106	193.81
339.334	216.81
339.562	217.81
339.79	203.81
340.018	194.81
340.246	204.81
340.474	202.81
340.702	187.81
340.93	215.81
341.158	200.81
341.386	211.81
341.614	213.81
341.842	205.81
342.07	184.81
342.298	204.81
342.526	211.81
342.754	194.81
342.981	187.81
343.209	208.81
343.437	219.81
343.665	230.81
343.893	238.81
344.12	247.81
344.348	250.81
344.576	212.81
344.804	208.81
345.031	206.81
345.259	218.81
345.487	202.81
345.714	215.81
345.942	209.81
346.17	190.81
346.397	195.81
346.625	212.81
346.853	206.81
347.08	189.81
347.308	215.81
347.535	200.81
347.763	187.81
347.99	198.81
348.218	193.81
348.445	204.81
348.673	201.81
348.9	171.81
349.128	197.81
349.355	188.81
349.583	203.81
349.81	189.81
350.037	182.81
350.265	190.81
350.492	189.81
350.72	187.81
350.947	194.81
351.174	194.81
351.402	186.81
351.629	180.81
351.856	179.81
352.083	170.81
352.311	177.81
352.538	175.81
352.765	172.81
352.992	182.81
353.22	202.81
353.447	210.81
353.674	187.81
353.901	190.81
354.128	190.81
354.355	179.81
354.583	185.81
354.81	194.81
355.037	201.81
355.264	193.81
355.491	185.81
355.718	188.81
355.945	194.81
356.172	205.81
356.399	195.81
356.626	186.81
356.853	191.81
357.08	178.81
357.307	184.81
357.534	186.81
357.761	197.81
357.988	189.81
358.215	166.81
358.441	196.81
358.668	189.81
358.895	188.81
359.122	175.81
359.349	177.81
359.576	183.81
359.802	189.81
360.029	198.81
360.256	207.81
360.483	167.81
360.709	190.81
360.936	195.81
361.163	177.81
361.39	183.81
361.616	183.81
361.843	178.81
362.07	171.81
362.296	197.81
362.523	181.81
362.749	198.81
362.976	186.81
363.203	189.81
363.429	193.81
363.656	177.81
363.882	185.81
364.109	186.81
364.335	209.81
364.562	174.81
364.788	182.81
365.015	182.81
365.241	182.81
365.468	190.81
365.694	184.81
365.92	184.81
366.147	198.81
366.373	199.81
366.599	203.81
366.826	204.81
367.052	187.81
367.278	181.81
367.505	191.81
367.731	175.81
367.957	197.81
368.184	194.81
368.41	198.81
368.636	191.81
368.862	200.81
369.089	201.81
369.315	183.81
369.541	181.81
369.767	196.81
369.993	192.81
370.219	198.81
370.445	185.81
370.672	201.81
370.898	186.81
371.124	197.81
371.35	204.81
371.576	207.81
371.802	189.81
372.028	198.81
372.254	189.81
372.48	204.81
372.706	204.81
372.932	208.81
373.158	196.81
373.384	192.81
373.61	200.81
373.835	194.81
374.061	201.81
374.287	205.81
374.513	201.81
374.739	206.81
374.965	206.81
375.191	231.81
375.416	226.81
375.642	196.81
375.868	222.81
376.094	199.81
376.319	204.81
376.545	203.81
376.771	200.81
376.997	190.81
377.222	205.81
377.448	198.81
377.674	186.81
377.899	212.81
378.125	193.81
378.35	205.81
378.576	201.81
378.802	209.81
379.027	206.81
379.253	200.81
379.478	199.81
379.704	187.81
379.929	194.81
380.155	174.81
380.38	198.81
380.606	202.81
380.831	185.81
381.057	212.81
381.282	197.81
381.507	195.81
381.733	210.81
381.958	204.81
382.184	191.81
382.409	197.81
382.634	207.81
382.86	206.81
383.085	199.81
383.31	208.81
383.535	209.81
383.761	210.81
383.986	211.81
384.211	217.81
384.436	211.81
384.662	215.81
384.887	224.81
385.112	219.81
385.337	209.81
385.562	216.81
385.787	215.81
386.013	227.81
386.238	234.81
386.463	239.81
386.688	222.81
386.913	226.81
387.138	213.81
387.363	227.81
387.588	229.81
387.813	200.81
388.038	222.81
388.263	223.81
388.488	228.81
388.713	221.81
388.938	217.81
389.163	211.81
389.387	218.81
389.612	222.81
389.837	205.81
390.062	228.81
390.287	227.81
390.512	216.81
390.736	231.81
390.961	217.81
391.186	220.81
391.411	231.81
391.636	236.81
391.86	229.81
392.085	225.81
392.31	226.81
392.534	213.81
392.759	252.81
392.984	240.81
393.208	246.81
393.433	224.81
393.658	225.81
393.882	233.81
394.107	225.81
394.331	234.81
394.556	233.81
394.78	244.81
395.005	237.81
395.229	235.81
395.454	245.81
395.678	235.81
395.903	246.81
396.127	243.81
396.352	237.81
396.576	228.81
396.801	229.81
397.025	233.81
397.249	236.81
397.474	235.81
397.698	252.81
397.922	240.81
398.147	246.81
398.371	249.81
398.595	254.81
398.82	257.81
399.044	274.81
399.268	295.81
399.492	336.81
399.717	355.81
399.941	347.81
400.165	319.81
400.389	281.81
400.613	269.81
400.837	248.81
401.062	255.81
401.286	244.81
401.51	270.81
401.734	255.81
401.958	262.81
402.182	262.81
402.406	262.81
402.63	284.81
402.854	271.81
403.078	275.81
403.302	274.81
403.526	294.81
403.75	298.81
403.974	289.81
404.198	303.81
404.422	301.81
404.645	291.81
404.869	315.81
405.093	282.81
405.317	272.81
405.541	284.81
405.765	288.81
405.988	285.81
406.212	277.81
406.436	284.81
406.66	293.81
406.883	291.81
407.107	292.81
407.331	323.81
407.555	328.81
407.778	319.81
408.002	319.81
408.226	299.81
408.449	299.81
408.673	288.81
408.896	293.81
409.12	296.81
409.344	293.81
409.567	299.81
409.791	293.81
410.014	300.81
410.238	289.81
410.461	302.81
410.685	291.81
410.908	270.81
411.132	282.81
411.355	259.81
411.578	283.81
411.802	271.81
412.025	273.81
412.249	272.81
412.472	279.81
412.695	273.81
412.919	249.81
413.142	244.81
413.365	263.81
413.589	283.81
413.812	258.81
414.035	269.81
414.258	265.81
414.482	267.81
414.705	260.81
414.928	263.81
415.151	260.81
415.374	264.81
415.597	247.81
415.821	261.81
416.044	265.81
416.267	261.81
416.49	245.81
416.713	261.81
416.936	243.81
417.159	244.81
417.382	257.81
417.605	275.81
417.828	254.81
418.051	244.81
418.274	255.81
418.497	263.81
418.72	258.81
418.943	257.81
419.166	300.81
419.389	288.81
419.611	284.81
419.834	286.81
420.057	271.81
420.28	252.81
420.503	265.81
420.726	265.81
420.948	244.81
421.171	257.81
421.394	246.81
421.617	254.81
421.839	243.81
422.062	267.81
422.285	255.81
422.507	272.81
422.73	270.81
422.953	257.81
423.175	267.81
423.398	278.81
423.621	277.81
423.843	281.81
424.066	300.81
424.288	269.81
424.511	270.81
424.733	258.81
424.956	251.81
425.178	269.81
425.401	257.81
425.623	262.81
425.846	261.81
426.068	260.81
426.291	250.81
426.513	236.81
426.735	237.81
426.958	257.81
427.18	233.81
427.402	243.81
427.625	242.81
427.847	238.81
428.069	250.81
428.292	246.81
428.514	225.81
428.736	237.81
428.958	230.81
429.181	241.81
429.403	228.81
429.625	233.81
429.847	223.81
430.069	225.81
430.292	237.81
430.514	248.81
430.736	211.81
430.958	230.81
431.18	244.81
431.402	245.81
431.624	234.81
431.846	237.81
432.068	243.81
432.29	230.81
432.512	229.81
432.734	233.81
432.956	243.81
433.178	229.81
433.4	234.81
433.622	246.81
433.844	243.81
434.066	247.81
434.287	257.81
434.509	239.81
434.731	253.81
434.953	265.81
435.175	262.81
435.397	263.81
435.618	246.81
435.84	260.81
436.062	253.81
436.284	242.81
436.505	238.81
436.727	226.81
436.949	225.81
437.17	254.81
437.392	246.81
437.614	230.81
437.835	244.81
438.057	229.81
438.278	224.81
438.5	223.81
438.721	229.81
438.943	233.81
439.165	227.81
439.386	235.81
439.608	233.81
439.829	235.81
440.05	240.81
440.272	248.81
440.493	241.81
440.715	244.81
440.936	245.81
441.158	254.81
441.379	256.81
441.6	285.81
441.822	271.81
442.043	268.81
442.264	246.81
442.486	241.81
442.707	268.81
442.928	263.81
443.149	278.81
443.371	264.81
443.592	243.81
443.813	236.81
444.034	276.81
444.255	261.81
444.476	273.81
444.698	295.81
444.919	315.81
445.14	393.81
445.361	331.81
445.582	265.81
445.803	245.81
446.024	253.81
446.245	247.81
446.466	244.81
446.687	232.81
446.908	228.81
447.129	249.81
447.35	228.81
447.571	238.81
447.792	226.81
448.013	228.81
448.234	231.81
448.455	228.81
448.675	228.81
448.896	211.81
449.117	224.81
449.338	228.81
449.559	219.81
449.779	217.81
450	226.81
450.221	229.81
450.442	216.81
450.662	222.81
450.883	218.81
451.104	235.81
451.324	225.81
451.545	211.81
451.766	231.81
451.986	226.81
452.207	222.81
452.428	222.81
452.648	243.81
452.869	221.81
453.089	217.81
453.31	224.81
453.53	214.81
453.751	209.81
453.971	238.81
454.192	230.81
454.412	227.81
454.633	222.81
454.853	211.81
455.073	221.81
455.294	200.81
455.514	223.81
455.734	212.81
455.955	201.81
456.175	201.81
456.395	195.81
456.616	227.81
456.836	223.81
457.056	216.81
457.276	191.81
457.497	209.81
457.717	217.81
457.937	199.81
458.157	211.81
458.377	200.81
458.598	209.81
458.818	217.81
459.038	227.81
459.258	251.81
459.478	237.81
459.698	235.81
459.918	272.81
460.138	257.81
460.358	267.81
460.578	271.81
460.798	284.81
461.018	265.81
461.238	275.81
461.458	279.81
461.678	278.81
461.898	262.81
462.118	264.81
462.338	267.81
462.558	301.81
462.777	297.81
462.997	314.81
463.217	338.81
463.437	356.81
463.657	299.81
463.876	294.81
464.096	294.81
464.316	314.81
464.536	340.81
464.755	307.81
464.975	306.81
465.195	290.81
465.414	272.81
465.634	248.81
465.854	218.81
466.073	235.81
466.293	251.81
466.512	226.81
466.732	217.81
466.951	241.81
467.171	217.81
467.391	239.81
467.61	221.81
467.829	245.81
468.049	227.81
468.268	228.81
468.488	222.81
468.707	221.81
468.927	200.81
469.146	214.81
469.365	216.81
469.585	230.81
469.804	229.81
470.023	242.81
470.243	237.81
470.462	253.81
470.681	258.81
470.901	254.81
471.12	253.81
471.339	251.81
471.558	229.81
471.777	225.81
471.997	230.81
472.216	219.81
472.435	219.81
472.654	222.81
472.873	203.81
473.092	219.81
473.311	229.81
473.53	221.81
473.749	237.81
473.968	233.81
474.187	221.81
474.406	229.81
474.625	233.81
474.844	224.81
475.063	223.81
475.282	211.81
475.501	234.81
475.72	220.81
475.939	220.81
476.158	232.81
476.377	231.81
476.596	233.81
476.814	236.81
477.033	253.81
477.252	223.81
477.471	229.81
477.69	233.81
477.908	267.81
478.127	257.81
478.346	259.81
478.564	267.81
478.783	259.81
479.002	263.81
479.22	274.81
479.439	283.81
479.658	274.81
479.876	257.81
480.095	258.81
480.313	275.81
480.532	294.81
480.751	299.81
480.969	268.81
481.188	267.81
481.406	281.81
481.624	278.81
481.843	235.81
482.061	250.81
482.28	256.81
482.498	241.81
482.717	244.81
482.935	251.81
483.153	247.81
483.372	249.81
483.59	239.81
483.808	259.81
484.027	244.81
484.245	269.81
484.463	268.81
484.681	274.81
484.9	269.81
485.118	254.81
485.336	252.81
485.554	270.81
485.772	279.81
485.99	273.81
486.209	274.81
486.427	280.81
486.645	273.81
486.863	263.81
487.081	265.81
487.299	252.81
487.517	263.81
487.735	276.81
487.953	269.81
488.171	271.81
488.389	276.81
488.607	257.81
488.825	249.81
489.043	265.81
489.261	276.81
489.479	260.81
489.696	261.81
489.914	269.81
490.132	269.81
490.35	270.81
490.568	270.81
490.786	262.81
491.003	260.81
491.221	269.81
491.439	273.81
491.657	276.81
491.874	267.81
492.092	279.81
492.31	299.81
492.527	289.81
492.745	269.81
492.963	279.81
493.18	270.81
493.398	283.81
493.615	269.81
493.833	261.81
494.05	263.81
494.268	277.81
494.485	270.81
494.703	284.81
494.92	276.81
495.138	272.81
495.355	258.81
495.573	276.81
495.79	275.81
496.008	296.81
496.225	292.81
496.442	277.81
496.66	285.81
496.877	276.81
497.094	297.81
497.312	294.81
497.529	290.81
497.746	308.81
497.963	305.81
498.181	307.81
498.398	329.81
498.615	372.81
498.832	365.81
499.049	383.81
499.267	425.81
499.484	430.81
499.701	502.81
499.918	533.81
500.135	613.81
500.352	727.81
500.569	754.81
500.786	727.81
501.003	673.81
501.22	615.81
501.437	539.81
501.654	485.81
501.871	438.81
502.088	419.81
502.305	396.81
502.522	373.81
502.739	362.81
502.956	339.81
503.172	314.81
