Data from 0.5MCu(NO3)2.Standard.Lamp.E10.CV._HRD10591_16-05-25-752.txt Node
Date: Mon Jul 22 16:05:25 EDT 2019
User: cochatt
Spectrometer: HR+D1059
Trigger mode: 1
Integration Time (sec): 1.000000E-1
Scans to average: 1
Electric dark correction enabled: true
Nonlinearity correction enabled: false
Boxcar width: 0
XAxis mode: Wavelengths
Number of Pixels in Spectrum: 2048
>>>>>Begin Spectral Data<<<<<
223.165	-20.88
223.4	-20.88
223.635	-20.88
223.869	-8.88
224.104	-13.88
224.338	-12.88
224.573	-7.88
224.808	-21.88
225.042	-10.88
225.277	-8.88
225.511	-2.88
225.746	1.12
225.98	7.12
226.215	18.12
226.449	16.12
226.683	28.12
226.918	18.12
227.152	20.12
227.387	33.12
227.621	34.12
227.856	36.12
228.09	43.12
228.324	51.12
228.559	55.12
228.793	59.12
229.027	74.12
229.262	74.12
229.496	93.12
229.73	74.12
229.964	78.12
230.199	79.12
230.433	82.12
230.667	94.12
230.901	94.12
231.136	84.12
231.37	86.12
231.604	96.12
231.838	71.12
232.072	91.12
232.306	86.12
232.541	105.12
232.775	95.12
233.009	86.12
233.243	97.12
233.477	94.12
233.711	93.12
233.945	101.12
234.179	102.12
234.413	100.12
234.647	94.12
234.881	90.12
235.115	100.12
235.349	98.12
235.583	98.12
235.817	88.12
236.051	82.12
236.285	80.12
236.519	96.12
236.753	100.12
236.987	103.12
237.221	99.12
237.455	102.12
237.689	97.12
237.922	79.12
238.156	89.12
238.39	80.12
238.624	86.12
238.858	95.12
239.091	98.12
239.325	98.12
239.559	96.12
239.793	101.12
240.027	98.12
240.26	92.12
240.494	104.12
240.728	93.12
240.961	86.12
241.195	80.12
241.429	92.12
241.662	88.12
241.896	98.12
242.13	103.12
242.363	101.12
242.597	101.12
242.83	99.12
243.064	95.12
243.298	111.12
243.531	90.12
243.765	89.12
243.998	108.12
244.232	88.12
244.465	101.12
244.699	104.12
244.932	111.12
245.166	100.12
245.399	101.12
245.633	82.12
245.866	118.12
246.099	109.12
246.333	93.12
246.566	91.12
246.8	91.12
247.033	102.12
247.266	114.12
247.5	116.12
247.733	100.12
247.966	112.12
248.2	113.12
248.433	86.12
248.666	100.12
248.899	101.12
249.133	118.12
249.366	129.12
249.599	111.12
249.832	105.12
250.066	108.12
250.299	101.12
250.532	104.12
250.765	112.12
250.998	113.12
251.231	110.12
251.465	110.12
251.698	112.12
251.931	110.12
252.164	102.12
252.397	106.12
252.63	105.12
252.863	91.12
253.096	95.12
253.329	88.12
253.562	109.12
253.795	110.12
254.028	116.12
254.261	114.12
254.494	109.12
254.727	111.12
254.96	110.12
255.193	122.12
255.426	106.12
255.659	125.12
255.892	120.12
256.124	129.12
256.357	105.12
256.59	108.12
256.823	112.12
257.056	118.12
257.289	125.12
257.521	116.12
257.754	109.12
257.987	107.12
258.22	125.12
258.452	121.12
258.685	114.12
258.918	126.12
259.151	119.12
259.383	116.12
259.616	125.12
259.849	120.12
260.081	114.12
260.314	116.12
260.547	136.12
260.779	128.12
261.012	118.12
261.244	132.12
261.477	110.12
261.71	106.12
261.942	126.12
262.175	123.12
262.407	118.12
262.64	121.12
262.872	114.12
263.105	130.12
263.337	125.12
263.57	122.12
263.802	125.12
264.035	120.12
264.267	143.12
264.499	134.12
264.732	114.12
264.964	132.12
265.197	135.12
265.429	122.12
265.661	120.12
265.894	136.12
266.126	149.12
266.358	126.12
266.591	128.12
266.823	130.12
267.055	128.12
267.287	117.12
267.52	132.12
267.752	144.12
267.984	118.12
268.216	124.12
268.448	144.12
268.681	125.12
268.913	142.12
269.145	125.12
269.377	131.12
269.609	139.12
269.841	142.12
270.073	132.12
270.306	132.12
270.538	147.12
270.77	134.12
271.002	136.12
271.234	126.12
271.466	128.12
271.698	139.12
271.93	140.12
272.162	145.12
272.394	150.12
272.626	137.12
272.858	143.12
273.09	129.12
273.322	138.12
273.553	128.12
273.785	142.12
274.017	139.12
274.249	144.12
274.481	142.12
274.713	122.12
274.945	126.12
275.176	141.12
275.408	138.12
275.64	135.12
275.872	142.12
276.104	157.12
276.335	146.12
276.567	150.12
276.799	147.12
277.031	130.12
277.262	142.12
277.494	143.12
277.726	150.12
277.957	145.12
278.189	144.12
278.421	150.12
278.652	144.12
278.884	137.12
279.115	142.12
279.347	143.12
279.579	157.12
279.81	167.12
280.042	155.12
280.273	145.12
280.505	153.12
280.736	155.12
280.968	150.12
281.199	154.12
281.431	144.12
281.662	152.12
281.894	159.12
282.125	152.12
282.356	148.12
282.588	161.12
282.819	160.12
283.051	152.12
283.282	151.12
283.513	159.12
283.745	156.12
283.976	155.12
284.207	142.12
284.439	144.12
284.67	155.12
284.901	151.12
285.132	153.12
285.364	154.12
285.595	146.12
285.826	154.12
286.057	160.12
286.288	152.12
286.52	162.12
286.751	173.12
286.982	169.12
287.213	168.12
287.444	166.12
287.675	151.12
287.906	158.12
288.138	170.12
288.369	155.12
288.6	183.12
288.831	176.12
289.062	172.12
289.293	153.12
289.524	162.12
289.755	168.12
289.986	168.12
290.217	147.12
290.448	150.12
290.679	179.12
290.91	174.12
291.141	172.12
291.371	158.12
291.602	173.12
291.833	162.12
292.064	167.12
292.295	173.12
292.526	171.12
292.757	176.12
292.987	159.12
293.218	175.12
293.449	157.12
293.68	180.12
293.91	167.12
294.141	184.12
294.372	169.12
294.603	169.12
294.833	170.12
295.064	180.12
295.295	179.12
295.525	179.12
295.756	165.12
295.987	158.12
296.217	188.12
296.448	175.12
296.679	174.12
296.909	172.12
297.14	197.12
297.37	162.12
297.601	187.12
297.831	187.12
298.062	192.12
298.292	175.12
298.523	195.12
298.753	194.12
298.984	187.12
299.214	175.12
299.445	179.12
299.675	191.12
299.905	179.12
300.136	184.12
300.366	187.12
300.597	190.12
300.827	172.12
301.057	186.12
301.288	189.12
301.518	189.12
301.748	181.12
301.979	199.12
302.209	191.12
302.439	172.12
302.669	208.12
302.9	181.12
303.13	200.12
303.36	190.12
303.59	190.12
303.82	174.12
304.051	190.12
304.281	191.12
304.511	173.12
304.741	196.12
304.971	196.12
305.201	179.12
305.431	183.12
305.661	168.12
305.891	182.12
306.121	190.12
306.352	185.12
306.582	176.12
306.812	195.12
307.042	196.12
307.272	173.12
307.502	187.12
307.731	190.12
307.961	190.12
308.191	200.12
308.421	176.12
308.651	182.12
308.881	189.12
309.111	209.12
309.341	182.12
309.571	193.12
309.8	176.12
310.03	167.12
310.26	181.12
310.49	175.12
310.72	181.12
310.949	175.12
311.179	182.12
311.409	167.12
311.639	178.12
311.868	167.12
312.098	178.12
312.328	192.12
312.557	196.12
312.787	193.12
313.017	192.12
313.246	199.12
313.476	198.12
313.706	194.12
313.935	190.12
314.165	211.12
314.394	194.12
314.624	193.12
314.853	186.12
315.083	202.12
315.312	206.12
315.542	184.12
315.771	175.12
316.001	178.12
316.23	196.12
316.46	172.12
316.689	194.12
316.919	190.12
317.148	192.12
317.377	191.12
317.607	187.12
317.836	185.12
318.065	200.12
318.295	189.12
318.524	197.12
318.753	193.12
318.983	178.12
319.212	196.12
319.441	194.12
319.67	182.12
319.9	180.12
320.129	196.12
320.358	201.12
320.587	181.12
320.816	182.12
321.046	196.12
321.275	196.12
321.504	201.12
321.733	206.12
321.962	194.12
322.191	176.12
322.42	183.12
322.649	199.12
322.878	183.12
323.108	194.12
323.337	195.12
323.566	196.12
323.795	183.12
324.024	205.12
324.253	202.12
324.482	194.12
324.71	200.12
324.939	191.12
325.168	194.12
325.397	200.12
325.626	185.12
325.855	198.12
326.084	206.12
326.313	201.12
326.542	198.12
326.77	228.12
326.999	211.12
327.228	211.12
327.457	190.12
327.686	201.12
327.914	199.12
328.143	206.12
328.372	205.12
328.6	197.12
328.829	181.12
329.058	203.12
329.287	210.12
329.515	190.12
329.744	196.12
329.972	178.12
330.201	210.12
330.43	207.12
330.658	210.12
330.887	217.12
331.115	203.12
331.344	213.12
331.572	212.12
331.801	205.12
332.03	216.12
332.258	217.12
332.486	230.12
332.715	228.12
332.943	236.12
333.172	243.12
333.4	238.12
333.629	247.12
333.857	249.12
334.085	226.12
334.314	236.12
334.542	247.12
334.771	232.12
334.999	239.12
335.227	229.12
335.455	243.12
335.684	236.12
335.912	248.12
336.14	219.12
336.369	213.12
336.597	226.12
336.825	238.12
337.053	217.12
337.281	215.12
337.51	204.12
337.738	231.12
337.966	218.12
338.194	218.12
338.422	219.12
338.65	225.12
338.878	213.12
339.106	206.12
339.334	212.12
339.562	216.12
339.79	191.12
340.018	190.12
340.246	215.12
340.474	202.12
340.702	212.12
340.93	220.12
341.158	200.12
341.386	210.12
341.614	206.12
341.842	204.12
342.07	209.12
342.298	208.12
342.526	222.12
342.754	208.12
342.981	194.12
343.209	227.12
343.437	212.12
343.665	212.12
343.893	255.12
344.12	258.12
344.348	220.12
344.576	196.12
344.804	226.12
345.031	216.12
345.259	201.12
345.487	211.12
345.714	217.12
345.942	208.12
346.17	207.12
346.397	217.12
346.625	199.12
346.853	195.12
347.08	205.12
347.308	196.12
347.535	215.12
347.763	215.12
347.99	202.12
348.218	200.12
348.445	202.12
348.673	202.12
348.9	191.12
349.128	181.12
349.355	199.12
349.583	212.12
349.81	189.12
350.037	206.12
350.265	196.12
350.492	197.12
350.72	188.12
350.947	191.12
351.174	190.12
351.402	180.12
351.629	198.12
351.856	199.12
352.083	180.12
352.311	194.12
352.538	202.12
352.765	205.12
352.992	206.12
353.22	194.12
353.447	190.12
353.674	191.12
353.901	197.12
354.128	207.12
354.355	183.12
354.583	190.12
354.81	201.12
355.037	209.12
355.264	202.12
355.491	203.12
355.718	209.12
355.945	195.12
356.172	199.12
356.399	199.12
356.626	194.12
356.853	202.12
357.08	201.12
357.307	197.12
357.534	198.12
357.761	198.12
357.988	174.12
358.215	202.12
358.441	195.12
358.668	190.12
358.895	214.12
359.122	191.12
359.349	182.12
359.576	192.12
359.802	184.12
360.029	195.12
360.256	189.12
360.483	192.12
360.709	212.12
360.936	180.12
361.163	197.12
361.39	208.12
361.616	211.12
361.843	196.12
362.07	209.12
362.296	186.12
362.523	198.12
362.749	184.12
362.976	210.12
363.203	188.12
363.429	182.12
363.656	192.12
363.882	191.12
364.109	189.12
364.335	198.12
364.562	202.12
364.788	201.12
365.015	172.12
365.241	199.12
365.468	202.12
365.694	200.12
365.92	185.12
366.147	199.12
366.373	192.12
366.599	194.12
366.826	199.12
367.052	190.12
367.278	168.12
367.505	188.12
367.731	184.12
367.957	171.12
368.184	200.12
368.41	195.12
368.636	205.12
368.862	194.12
369.089	197.12
369.315	202.12
369.541	206.12
369.767	194.12
369.993	204.12
370.219	202.12
370.445	205.12
370.672	196.12
370.898	215.12
371.124	203.12
371.35	210.12
371.576	207.12
371.802	203.12
372.028	213.12
372.254	198.12
372.48	211.12
372.706	211.12
372.932	218.12
373.158	210.12
373.384	227.12
373.61	203.12
373.835	202.12
374.061	200.12
374.287	203.12
374.513	208.12
374.739	215.12
374.965	222.12
375.191	216.12
375.416	215.12
375.642	222.12
375.868	205.12
376.094	205.12
376.319	194.12
376.545	204.12
376.771	206.12
376.997	208.12
377.222	212.12
377.448	191.12
377.674	214.12
377.899	198.12
378.125	206.12
378.35	208.12
378.576	216.12
378.802	210.12
379.027	213.12
379.253	202.12
379.478	196.12
379.704	199.12
379.929	187.12
380.155	203.12
380.38	196.12
380.606	206.12
380.831	197.12
381.057	206.12
381.282	201.12
381.507	191.12
381.733	200.12
381.958	206.12
382.184	212.12
382.409	204.12
382.634	215.12
382.86	208.12
383.085	216.12
383.31	226.12
383.535	227.12
383.761	223.12
383.986	229.12
384.211	211.12
384.436	231.12
384.662	228.12
384.887	212.12
385.112	222.12
385.337	223.12
385.562	234.12
385.787	243.12
386.013	251.12
386.238	251.12
386.463	255.12
386.688	227.12
386.913	234.12
387.138	246.12
387.363	215.12
387.588	228.12
387.813	226.12
388.038	224.12
388.263	231.12
388.488	221.12
388.713	221.12
388.938	218.12
389.163	227.12
389.387	206.12
389.612	216.12
389.837	205.12
390.062	213.12
390.287	220.12
390.512	234.12
390.736	202.12
390.961	220.12
391.186	230.12
391.411	218.12
391.636	247.12
391.86	245.12
392.085	255.12
392.31	258.12
392.534	240.12
392.759	227.12
392.984	237.12
393.208	236.12
393.433	236.12
393.658	238.12
393.882	254.12
394.107	244.12
394.331	245.12
394.556	232.12
394.78	231.12
395.005	226.12
395.229	262.12
395.454	228.12
395.678	239.12
395.903	249.12
396.127	258.12
396.352	224.12
396.576	229.12
396.801	237.12
397.025	235.12
397.249	247.12
397.474	244.12
397.698	248.12
397.922	246.12
398.147	226.12
398.371	254.12
398.595	247.12
398.82	261.12
399.044	269.12
399.268	284.12
399.492	333.12
399.717	377.12
399.941	380.12
400.165	335.12
400.389	295.12
400.613	292.12
400.837	272.12
401.062	239.12
401.286	260.12
401.51	256.12
401.734	262.12
401.958	270.12
402.182	263.12
402.406	283.12
402.63	270.12
402.854	283.12
403.078	294.12
403.302	290.12
403.526	294.12
403.75	311.12
403.974	314.12
404.198	306.12
404.422	306.12
404.645	296.12
404.869	297.12
405.093	287.12
405.317	300.12
405.541	294.12
405.765	283.12
405.988	284.12
406.212	301.12
406.436	292.12
406.66	296.12
406.883	292.12
407.107	296.12
407.331	318.12
407.555	338.12
407.778	333.12
408.002	332.12
408.226	306.12
408.449	317.12
408.673	284.12
408.896	302.12
409.12	289.12
409.344	276.12
409.567	299.12
409.791	306.12
410.014	309.12
410.238	307.12
410.461	299.12
410.685	316.12
410.908	286.12
411.132	282.12
411.355	284.12
411.578	268.12
411.802	288.12
412.025	279.12
412.249	273.12
412.472	284.12
412.695	269.12
412.919	278.12
413.142	267.12
413.365	263.12
413.589	258.12
413.812	272.12
414.035	266.12
414.258	265.12
414.482	265.12
414.705	282.12
414.928	270.12
415.151	282.12
415.374	247.12
415.597	290.12
415.821	283.12
416.044	272.12
416.267	256.12
416.49	256.12
416.713	262.12
416.936	268.12
417.159	259.12
417.382	250.12
417.605	253.12
417.828	255.12
418.051	269.12
418.274	262.12
418.497	259.12
418.72	278.12
418.943	272.12
419.166	280.12
419.389	283.12
419.611	280.12
419.834	265.12
420.057	264.12
420.28	278.12
420.503	267.12
420.726	258.12
420.948	252.12
421.171	251.12
421.394	275.12
421.617	266.12
421.839	272.12
422.062	254.12
422.285	279.12
422.507	254.12
422.73	273.12
422.953	261.12
423.175	256.12
423.398	268.12
423.621	293.12
423.843	279.12
424.066	285.12
424.288	275.12
424.511	278.12
424.733	258.12
424.956	261.12
425.178	279.12
425.401	267.12
425.623	267.12
425.846	263.12
426.068	251.12
426.291	248.12
426.513	271.12
426.735	251.12
426.958	268.12
427.18	244.12
427.402	248.12
427.625	254.12
427.847	239.12
428.069	237.12
428.292	237.12
428.514	244.12
428.736	233.12
428.958	224.12
429.181	249.12
429.403	243.12
429.625	230.12
429.847	239.12
430.069	237.12
430.292	230.12
430.514	228.12
430.736	262.12
430.958	244.12
431.18	230.12
431.402	234.12
431.624	251.12
431.846	232.12
432.068	216.12
432.29	246.12
432.512	256.12
432.734	237.12
432.956	244.12
433.178	235.12
433.4	252.12
433.622	270.12
433.844	254.12
434.066	255.12
434.287	254.12
434.509	252.12
434.731	238.12
434.953	266.12
435.175	263.12
435.397	262.12
435.618	242.12
435.84	256.12
436.062	249.12
436.284	254.12
436.505	247.12
436.727	244.12
436.949	229.12
437.17	251.12
437.392	230.12
437.614	234.12
437.835	246.12
438.057	233.12
438.278	227.12
438.5	228.12
438.721	235.12
438.943	237.12
439.165	239.12
439.386	244.12
439.608	243.12
439.829	233.12
440.05	229.12
440.272	234.12
440.493	246.12
440.715	248.12
440.936	252.12
441.158	234.12
441.379	251.12
441.6	275.12
441.822	267.12
442.043	273.12
442.264	264.12
442.486	259.12
442.707	264.12
442.928	257.12
443.149	264.12
443.371	262.12
443.592	246.12
443.813	273.12
444.034	270.12
444.255	275.12
444.476	277.12
444.698	298.12
444.919	309.12
445.14	429.12
445.361	329.12
445.582	260.12
445.803	232.12
446.024	248.12
446.245	258.12
446.466	266.12
446.687	235.12
446.908	237.12
447.129	245.12
447.35	229.12
447.571	233.12
447.792	233.12
448.013	239.12
448.234	252.12
448.455	217.12
448.675	229.12
448.896	222.12
449.117	245.12
449.338	240.12
449.559	237.12
449.779	242.12
450	236.12
450.221	222.12
450.442	236.12
450.662	219.12
450.883	230.12
451.104	237.12
451.324	252.12
451.545	233.12
451.766	244.12
451.986	225.12
452.207	218.12
452.428	226.12
452.648	216.12
452.869	227.12
453.089	228.12
453.31	228.12
453.53	220.12
453.751	208.12
453.971	231.12
454.192	230.12
454.412	216.12
454.633	222.12
454.853	221.12
455.073	224.12
455.294	208.12
455.514	224.12
455.734	233.12
455.955	204.12
456.175	227.12
456.395	207.12
456.616	227.12
456.836	211.12
457.056	214.12
457.276	216.12
457.497	224.12
457.717	209.12
457.937	212.12
458.157	205.12
458.377	210.12
458.598	226.12
458.818	235.12
459.038	216.12
459.258	252.12
459.478	224.12
459.698	230.12
459.918	250.12
460.138	237.12
460.358	296.12
460.578	270.12
460.798	295.12
461.018	276.12
461.238	278.12
461.458	290.12
461.678	252.12
461.898	271.12
462.118	267.12
462.338	282.12
462.558	306.12
462.777	314.12
462.997	332.12
463.217	367.12
463.437	336.12
463.657	328.12
463.876	300.12
464.096	318.12
464.316	314.12
464.536	325.12
464.755	314.12
464.975	290.12
465.195	278.12
465.414	262.12
465.634	262.12
465.854	251.12
466.073	235.12
466.293	243.12
466.512	242.12
466.732	234.12
466.951	248.12
467.171	235.12
467.391	233.12
467.61	229.12
467.829	253.12
468.049	250.12
468.268	224.12
468.488	228.12
468.707	223.12
468.927	226.12
469.146	239.12
469.365	231.12
469.585	242.12
469.804	248.12
470.023	244.12
470.243	243.12
470.462	270.12
470.681	248.12
470.901	263.12
471.12	241.12
471.339	258.12
471.558	236.12
471.777	234.12
471.997	230.12
472.216	226.12
472.435	228.12
472.654	238.12
472.873	218.12
473.092	233.12
473.311	237.12
473.53	234.12
473.749	234.12
473.968	232.12
474.187	214.12
474.406	221.12
474.625	226.12
474.844	213.12
475.063	226.12
475.282	229.12
475.501	226.12
475.72	217.12
475.939	236.12
476.158	233.12
476.377	231.12
476.596	238.12
476.814	222.12
477.033	246.12
477.252	238.12
477.471	231.12
477.69	253.12
477.908	253.12
478.127	265.12
478.346	277.12
478.564	285.12
478.783	275.12
479.002	279.12
479.22	273.12
479.439	255.12
479.658	259.12
479.876	270.12
480.095	286.12
480.313	288.12
480.532	289.12
480.751	295.12
480.969	262.12
481.188	271.12
481.406	266.12
481.624	263.12
481.843	234.12
482.061	253.12
482.28	263.12
482.498	265.12
482.717	258.12
482.935	239.12
483.153	244.12
483.372	239.12
483.59	261.12
483.808	250.12
484.027	276.12
484.245	264.12
484.463	266.12
484.681	256.12
484.9	262.12
485.118	269.12
485.336	271.12
485.554	290.12
485.772	279.12
485.99	284.12
486.209	279.12
486.427	263.12
486.645	292.12
486.863	281.12
487.081	286.12
487.299	244.12
487.517	286.12
487.735	266.12
487.953	277.12
488.171	279.12
488.389	298.12
488.607	282.12
488.825	271.12
489.043	274.12
489.261	272.12
489.479	265.12
489.696	250.12
489.914	259.12
490.132	263.12
490.35	277.12
490.568	271.12
490.786	278.12
491.003	276.12
491.221	250.12
491.439	260.12
491.657	278.12
491.874	265.12
492.092	282.12
492.31	290.12
492.527	288.12
492.745	295.12
492.963	283.12
493.18	281.12
493.398	294.12
493.615	292.12
493.833	294.12
494.05	288.12
494.268	301.12
494.485	288.12
494.703	295.12
494.92	278.12
495.138	286.12
495.355	272.12
495.573	298.12
495.79	290.12
496.008	303.12
496.225	296.12
496.442	303.12
496.66	312.12
496.877	297.12
497.094	298.12
497.312	310.12
497.529	311.12
497.746	311.12
497.963	312.12
498.181	330.12
498.398	334.12
498.615	334.12
498.832	358.12
499.049	372.12
499.267	413.12
499.484	453.12
499.701	490.12
499.918	543.12
500.135	612.12
500.352	701.12
500.569	749.12
500.786	730.12
501.003	682.12
501.22	599.12
501.437	527.12
501.654	477.12
501.871	446.12
502.088	434.12
502.305	386.12
502.522	379.12
502.739	388.12
502.956	328.12
