Data from 0.5MCu(NO3)2.Standard.Lamp.E10.CV._HRD10591_16-04-32-752.txt Node
Date: Mon Jul 22 16:04:32 EDT 2019
User: cochatt
Spectrometer: HR+D1059
Trigger mode: 1
Integration Time (sec): 1.000000E-1
Scans to average: 1
Electric dark correction enabled: true
Nonlinearity correction enabled: false
Boxcar width: 0
XAxis mode: Wavelengths
Number of Pixels in Spectrum: 2048
>>>>>Begin Spectral Data<<<<<
223.165	-12.06
223.4	-12.06
223.635	-12.06
223.869	-15.06
224.104	-30.06
224.338	-6.06
224.573	-17.06
224.808	-12.06
225.042	-4.06
225.277	4.94
225.511	-5.06
225.746	10.94
225.98	0.94
226.215	6.94
226.449	22.94
226.683	17.94
226.918	15.94
227.152	20.94
227.387	26.94
227.621	34.94
227.856	38.94
228.09	41.94
228.324	42.94
228.559	50.94
228.793	37.94
229.027	59.94
229.262	62.94
229.496	67.94
229.73	73.94
229.964	75.94
230.199	75.94
230.433	66.94
230.667	85.94
230.901	86.94
231.136	70.94
231.37	80.94
231.604	86.94
231.838	93.94
232.072	86.94
232.306	87.94
232.541	92.94
232.775	74.94
233.009	101.94
233.243	72.94
233.477	95.94
233.711	95.94
233.945	89.94
234.179	90.94
234.413	97.94
234.647	90.94
234.881	85.94
235.115	80.94
235.349	84.94
235.583	87.94
235.817	96.94
236.051	76.94
236.285	77.94
236.519	75.94
236.753	79.94
236.987	69.94
237.221	78.94
237.455	76.94
237.689	82.94
237.922	93.94
238.156	91.94
238.39	99.94
238.624	85.94
238.858	87.94
239.091	95.94
239.325	97.94
239.559	78.94
239.793	98.94
240.027	88.94
240.26	78.94
240.494	85.94
240.728	80.94
240.961	92.94
241.195	90.94
241.429	94.94
241.662	85.94
241.896	91.94
242.13	94.94
242.363	86.94
242.597	82.94
242.83	80.94
243.064	98.94
243.298	101.94
243.531	81.94
243.765	85.94
243.998	82.94
244.232	72.94
244.465	93.94
244.699	79.94
244.932	88.94
245.166	83.94
245.399	94.94
245.633	106.94
245.866	90.94
246.099	77.94
246.333	95.94
246.566	97.94
246.8	102.94
247.033	92.94
247.266	97.94
247.5	73.94
247.733	91.94
247.966	86.94
248.2	82.94
248.433	107.94
248.666	83.94
248.899	98.94
249.133	110.94
249.366	93.94
249.599	102.94
249.832	94.94
250.066	94.94
250.299	96.94
250.532	93.94
250.765	90.94
250.998	107.94
251.231	107.94
251.465	98.94
251.698	109.94
251.931	79.94
252.164	113.94
252.397	89.94
252.63	105.94
252.863	100.94
253.096	98.94
253.329	112.94
253.562	107.94
253.795	101.94
254.028	105.94
254.261	101.94
254.494	102.94
254.727	97.94
254.96	109.94
255.193	97.94
255.426	92.94
255.659	101.94
255.892	106.94
256.124	102.94
256.357	109.94
256.59	100.94
256.823	111.94
257.056	104.94
257.289	96.94
257.521	113.94
257.754	111.94
257.987	101.94
258.22	107.94
258.452	127.94
258.685	119.94
258.918	114.94
259.151	114.94
259.383	109.94
259.616	111.94
259.849	116.94
260.081	101.94
260.314	106.94
260.547	108.94
260.779	114.94
261.012	119.94
261.244	114.94
261.477	122.94
261.71	102.94
261.942	101.94
262.175	107.94
262.407	105.94
262.64	96.94
262.872	119.94
263.105	115.94
263.337	118.94
263.57	130.94
263.802	114.94
264.035	102.94
264.267	111.94
264.499	118.94
264.732	109.94
264.964	108.94
265.197	116.94
265.429	118.94
265.661	116.94
265.894	115.94
266.126	123.94
266.358	115.94
266.591	100.94
266.823	117.94
267.055	115.94
267.287	119.94
267.52	125.94
267.752	123.94
267.984	108.94
268.216	114.94
268.448	124.94
268.681	117.94
268.913	119.94
269.145	115.94
269.377	108.94
269.609	133.94
269.841	120.94
270.073	119.94
270.306	123.94
270.538	122.94
270.77	122.94
271.002	129.94
271.234	129.94
271.466	123.94
271.698	122.94
271.93	122.94
272.162	114.94
272.394	121.94
272.626	125.94
272.858	120.94
273.09	121.94
273.322	136.94
273.553	125.94
273.785	118.94
274.017	139.94
274.249	133.94
274.481	111.94
274.713	125.94
274.945	118.94
275.176	115.94
275.408	142.94
275.64	124.94
275.872	135.94
276.104	133.94
276.335	115.94
276.567	123.94
276.799	133.94
277.031	126.94
277.262	130.94
277.494	127.94
277.726	122.94
277.957	134.94
278.189	135.94
278.421	128.94
278.652	124.94
278.884	134.94
279.115	150.94
279.347	124.94
279.579	119.94
279.81	140.94
280.042	137.94
280.273	141.94
280.505	132.94
280.736	140.94
280.968	139.94
281.199	130.94
281.431	130.94
281.662	134.94
281.894	149.94
282.125	141.94
282.356	149.94
282.588	125.94
282.819	140.94
283.051	126.94
283.282	154.94
283.513	147.94
283.745	133.94
283.976	129.94
284.207	142.94
284.439	145.94
284.67	142.94
284.901	146.94
285.132	142.94
285.364	144.94
285.595	130.94
285.826	153.94
286.057	150.94
286.288	151.94
286.52	144.94
286.751	147.94
286.982	146.94
287.213	147.94
287.444	157.94
287.675	159.94
287.906	165.94
288.138	153.94
288.369	171.94
288.6	136.94
288.831	141.94
289.062	159.94
289.293	149.94
289.524	166.94
289.755	172.94
289.986	142.94
290.217	149.94
290.448	153.94
290.679	142.94
290.91	155.94
291.141	143.94
291.371	139.94
291.602	148.94
291.833	154.94
292.064	145.94
292.295	149.94
292.526	164.94
292.757	138.94
292.987	165.94
293.218	153.94
293.449	158.94
293.68	157.94
293.91	162.94
294.141	149.94
294.372	148.94
294.603	150.94
294.833	154.94
295.064	146.94
295.295	168.94
295.525	148.94
295.756	169.94
295.987	157.94
296.217	158.94
296.448	155.94
296.679	157.94
296.909	171.94
297.14	157.94
297.37	160.94
297.601	142.94
297.831	155.94
298.062	165.94
298.292	166.94
298.523	145.94
298.753	163.94
298.984	160.94
299.214	170.94
299.445	151.94
299.675	159.94
299.905	161.94
300.136	157.94
300.366	158.94
300.597	172.94
300.827	165.94
301.057	171.94
301.288	173.94
301.518	162.94
301.748	169.94
301.979	157.94
302.209	183.94
302.439	165.94
302.669	165.94
302.9	174.94
303.13	177.94
303.36	157.94
303.59	163.94
303.82	157.94
304.051	176.94
304.281	181.94
304.511	179.94
304.741	178.94
304.971	159.94
305.201	158.94
305.431	160.94
305.661	163.94
305.891	166.94
306.121	165.94
306.352	173.94
306.582	168.94
306.812	173.94
307.042	158.94
307.272	153.94
307.502	169.94
307.731	163.94
307.961	171.94
308.191	153.94
308.421	169.94
308.651	165.94
308.881	150.94
309.111	166.94
309.341	162.94
309.571	167.94
309.8	166.94
310.03	172.94
310.26	169.94
310.49	174.94
310.72	170.94
310.949	162.94
311.179	156.94
311.409	162.94
311.639	178.94
311.868	168.94
312.098	173.94
312.328	166.94
312.557	165.94
312.787	166.94
313.017	179.94
313.246	163.94
313.476	157.94
313.706	187.94
313.935	175.94
314.165	167.94
314.394	187.94
314.624	175.94
314.853	162.94
315.083	178.94
315.312	182.94
315.542	164.94
315.771	166.94
316.001	173.94
316.23	177.94
316.46	175.94
316.689	164.94
316.919	165.94
317.148	151.94
317.377	157.94
317.607	162.94
317.836	169.94
318.065	158.94
318.295	186.94
318.524	165.94
318.753	175.94
318.983	160.94
319.212	163.94
319.441	169.94
319.67	173.94
319.9	167.94
320.129	165.94
320.358	164.94
320.587	158.94
320.816	173.94
321.046	150.94
321.275	173.94
321.504	171.94
321.733	175.94
321.962	173.94
322.191	163.94
322.42	175.94
322.649	181.94
322.878	177.94
323.108	161.94
323.337	176.94
323.566	165.94
323.795	187.94
324.024	179.94
324.253	185.94
324.482	164.94
324.71	177.94
324.939	186.94
325.168	162.94
325.397	170.94
325.626	169.94
325.855	173.94
326.084	187.94
326.313	176.94
326.542	166.94
326.77	183.94
326.999	169.94
327.228	183.94
327.457	167.94
327.686	174.94
327.914	174.94
328.143	178.94
328.372	189.94
328.6	181.94
328.829	191.94
329.058	175.94
329.287	170.94
329.515	191.94
329.744	172.94
329.972	187.94
330.201	177.94
330.43	187.94
330.658	174.94
330.887	187.94
331.115	185.94
331.344	171.94
331.572	206.94
331.801	199.94
332.03	195.94
332.258	208.94
332.486	207.94
332.715	212.94
332.943	215.94
333.172	207.94
333.4	233.94
333.629	230.94
333.857	230.94
334.085	232.94
334.314	217.94
334.542	217.94
334.771	226.94
334.999	204.94
335.227	222.94
335.455	215.94
335.684	210.94
335.912	214.94
336.14	202.94
336.369	197.94
336.597	192.94
336.825	207.94
337.053	206.94
337.281	205.94
337.51	206.94
337.738	201.94
337.966	200.94
338.194	204.94
338.422	178.94
338.65	179.94
338.878	203.94
339.106	192.94
339.334	196.94
339.562	182.94
339.79	187.94
340.018	190.94
340.246	187.94
340.474	171.94
340.702	178.94
340.93	183.94
341.158	189.94
341.386	175.94
341.614	165.94
341.842	201.94
342.07	183.94
342.298	185.94
342.526	165.94
342.754	190.94
342.981	185.94
343.209	186.94
343.437	194.94
343.665	191.94
343.893	214.94
344.12	222.94
344.348	205.94
344.576	186.94
344.804	203.94
345.031	196.94
345.259	199.94
345.487	183.94
345.714	186.94
345.942	180.94
346.17	185.94
346.397	186.94
346.625	194.94
346.853	172.94
347.08	178.94
347.308	181.94
347.535	173.94
347.763	181.94
347.99	184.94
348.218	181.94
348.445	181.94
348.673	185.94
348.9	192.94
349.128	179.94
349.355	185.94
349.583	181.94
349.81	178.94
350.037	166.94
350.265	169.94
350.492	178.94
350.72	169.94
350.947	181.94
351.174	192.94
351.402	173.94
351.629	169.94
351.856	165.94
352.083	164.94
352.311	171.94
352.538	174.94
352.765	163.94
352.992	185.94
353.22	175.94
353.447	182.94
353.674	188.94
353.901	187.94
354.128	177.94
354.355	175.94
354.583	191.94
354.81	166.94
355.037	190.94
355.264	177.94
355.491	182.94
355.718	174.94
355.945	162.94
356.172	190.94
356.399	163.94
356.626	165.94
356.853	171.94
357.08	191.94
357.307	176.94
357.534	166.94
357.761	159.94
357.988	160.94
358.215	173.94
358.441	185.94
358.668	174.94
358.895	175.94
359.122	185.94
359.349	188.94
359.576	175.94
359.802	179.94
360.029	161.94
360.256	177.94
360.483	182.94
360.709	201.94
360.936	181.94
361.163	201.94
361.39	180.94
361.616	169.94
361.843	161.94
362.07	166.94
362.296	163.94
362.523	176.94
362.749	171.94
362.976	146.94
363.203	179.94
363.429	166.94
363.656	174.94
363.882	181.94
364.109	173.94
364.335	174.94
364.562	161.94
364.788	185.94
365.015	183.94
365.241	169.94
365.468	155.94
365.694	170.94
365.92	156.94
366.147	179.94
366.373	173.94
366.599	179.94
366.826	174.94
367.052	151.94
367.278	178.94
367.505	167.94
367.731	166.94
367.957	169.94
368.184	162.94
368.41	175.94
368.636	175.94
368.862	176.94
369.089	190.94
369.315	167.94
369.541	169.94
369.767	189.94
369.993	186.94
370.219	181.94
370.445	182.94
370.672	189.94
370.898	184.94
371.124	182.94
371.35	194.94
371.576	196.94
371.802	159.94
372.028	202.94
372.254	205.94
372.48	187.94
372.706	187.94
372.932	185.94
373.158	202.94
373.384	194.94
373.61	185.94
373.835	165.94
374.061	180.94
374.287	193.94
374.513	189.94
374.739	188.94
374.965	178.94
375.191	186.94
375.416	199.94
375.642	216.94
375.868	197.94
376.094	203.94
376.319	189.94
376.545	185.94
376.771	195.94
376.997	196.94
377.222	181.94
377.448	182.94
377.674	190.94
377.899	175.94
378.125	189.94
378.35	184.94
378.576	190.94
378.802	185.94
379.027	196.94
379.253	195.94
379.478	196.94
379.704	176.94
379.929	155.94
380.155	178.94
380.38	189.94
380.606	180.94
380.831	186.94
381.057	173.94
381.282	185.94
381.507	191.94
381.733	173.94
381.958	175.94
382.184	190.94
382.409	167.94
382.634	195.94
382.86	211.94
383.085	199.94
383.31	195.94
383.535	201.94
383.761	210.94
383.986	200.94
384.211	196.94
384.436	210.94
384.662	212.94
384.887	242.94
385.112	224.94
385.337	216.94
385.562	203.94
385.787	205.94
386.013	221.94
386.238	200.94
386.463	230.94
386.688	211.94
386.913	206.94
387.138	212.94
387.363	214.94
387.588	209.94
387.813	199.94
388.038	203.94
388.263	213.94
388.488	224.94
388.713	212.94
388.938	196.94
389.163	191.94
389.387	197.94
389.612	213.94
389.837	209.94
390.062	190.94
390.287	226.94
390.512	201.94
390.736	210.94
390.961	218.94
391.186	215.94
391.411	209.94
391.636	212.94
391.86	212.94
392.085	220.94
392.31	254.94
392.534	239.94
392.759	222.94
392.984	217.94
393.208	224.94
393.433	237.94
393.658	211.94
393.882	207.94
394.107	210.94
394.331	205.94
394.556	227.94
394.78	222.94
395.005	226.94
395.229	211.94
395.454	213.94
395.678	228.94
395.903	244.94
396.127	218.94
396.352	236.94
396.576	221.94
396.801	201.94
397.025	222.94
397.249	219.94
397.474	237.94
397.698	225.94
397.922	227.94
398.147	226.94
398.371	241.94
398.595	233.94
398.82	224.94
399.044	257.94
399.268	277.94
399.492	319.94
399.717	345.94
399.941	343.94
400.165	300.94
400.389	262.94
400.613	259.94
400.837	243.94
401.062	247.94
401.286	218.94
401.51	238.94
401.734	242.94
401.958	242.94
402.182	230.94
402.406	267.94
402.63	258.94
402.854	262.94
403.078	262.94
403.302	272.94
403.526	279.94
403.75	285.94
403.974	281.94
404.198	299.94
404.422	276.94
404.645	261.94
404.869	275.94
405.093	267.94
405.317	268.94
405.541	281.94
405.765	276.94
405.988	263.94
406.212	264.94
406.436	253.94
406.66	284.94
406.883	294.94
407.107	286.94
407.331	292.94
407.555	294.94
407.778	300.94
408.002	286.94
408.226	289.94
408.449	290.94
408.673	266.94
408.896	284.94
409.12	266.94
409.344	278.94
409.567	275.94
409.791	281.94
410.014	276.94
410.238	268.94
410.461	286.94
410.685	263.94
410.908	274.94
411.132	262.94
411.355	272.94
411.578	263.94
411.802	247.94
412.025	254.94
412.249	238.94
412.472	238.94
412.695	253.94
412.919	250.94
413.142	242.94
413.365	233.94
413.589	265.94
413.812	242.94
414.035	241.94
414.258	234.94
414.482	240.94
414.705	248.94
414.928	254.94
415.151	242.94
415.374	257.94
415.597	245.94
415.821	261.94
416.044	245.94
416.267	224.94
416.49	241.94
416.713	249.94
416.936	253.94
417.159	250.94
417.382	230.94
417.605	243.94
417.828	249.94
418.051	225.94
418.274	236.94
418.497	257.94
418.72	261.94
418.943	257.94
419.166	269.94
419.389	274.94
419.611	269.94
419.834	245.94
420.057	258.94
420.28	249.94
420.503	230.94
420.726	255.94
420.948	243.94
421.171	245.94
421.394	253.94
421.617	229.94
421.839	244.94
422.062	241.94
422.285	236.94
422.507	247.94
422.73	237.94
422.953	266.94
423.175	259.94
423.398	265.94
423.621	255.94
423.843	235.94
424.066	260.94
424.288	266.94
424.511	259.94
424.733	258.94
424.956	233.94
425.178	253.94
425.401	261.94
425.623	235.94
425.846	227.94
426.068	233.94
426.291	238.94
426.513	235.94
426.735	226.94
426.958	238.94
427.18	229.94
427.402	223.94
427.625	238.94
427.847	210.94
428.069	232.94
428.292	235.94
428.514	219.94
428.736	210.94
428.958	227.94
429.181	223.94
429.403	217.94
429.625	224.94
429.847	219.94
430.069	214.94
430.292	226.94
430.514	223.94
430.736	221.94
430.958	229.94
431.18	218.94
431.402	220.94
431.624	226.94
431.846	235.94
432.068	228.94
432.29	218.94
432.512	220.94
432.734	233.94
432.956	222.94
433.178	237.94
433.4	217.94
433.622	222.94
433.844	228.94
434.066	227.94
434.287	225.94
434.509	243.94
434.731	230.94
434.953	256.94
435.175	254.94
435.397	250.94
435.618	220.94
435.84	227.94
436.062	210.94
436.284	225.94
436.505	224.94
436.727	225.94
436.949	215.94
437.17	199.94
437.392	232.94
437.614	214.94
437.835	229.94
438.057	212.94
438.278	206.94
438.5	217.94
438.721	208.94
438.943	219.94
439.165	222.94
439.386	218.94
439.608	219.94
439.829	213.94
440.05	232.94
440.272	218.94
440.493	213.94
440.715	228.94
440.936	228.94
441.158	242.94
441.379	231.94
441.6	253.94
441.822	250.94
442.043	241.94
442.264	238.94
442.486	237.94
442.707	227.94
442.928	247.94
443.149	234.94
443.371	249.94
443.592	239.94
443.813	238.94
444.034	255.94
444.255	249.94
444.476	257.94
444.698	283.94
444.919	309.94
445.14	387.94
445.361	297.94
445.582	255.94
445.803	226.94
446.024	221.94
446.245	237.94
446.466	219.94
446.687	210.94
446.908	218.94
447.129	226.94
447.35	230.94
447.571	236.94
447.792	216.94
448.013	225.94
448.234	194.94
448.455	215.94
448.675	207.94
448.896	207.94
449.117	202.94
449.338	223.94
449.559	210.94
449.779	217.94
450	191.94
450.221	214.94
450.442	205.94
450.662	201.94
450.883	220.94
451.104	204.94
451.324	221.94
451.545	225.94
451.766	210.94
451.986	226.94
452.207	225.94
452.428	230.94
452.648	221.94
452.869	214.94
453.089	218.94
453.31	214.94
453.53	210.94
453.751	214.94
453.971	216.94
454.192	207.94
454.412	205.94
454.633	216.94
454.853	199.94
455.073	201.94
455.294	206.94
455.514	198.94
455.734	209.94
455.955	187.94
456.175	202.94
456.395	192.94
456.616	190.94
456.836	199.94
457.056	202.94
457.276	190.94
457.497	192.94
457.717	191.94
457.937	199.94
458.157	201.94
458.377	204.94
458.598	190.94
458.818	214.94
459.038	200.94
459.258	198.94
459.478	209.94
459.698	229.94
459.918	239.94
460.138	225.94
460.358	251.94
460.578	279.94
460.798	262.94
461.018	259.94
461.238	253.94
461.458	261.94
461.678	258.94
461.898	257.94
462.118	267.94
462.338	280.94
462.558	279.94
462.777	278.94
462.997	326.94
463.217	357.94
463.437	330.94
463.657	320.94
463.876	302.94
464.096	279.94
464.316	310.94
464.536	306.94
464.755	282.94
464.975	275.94
465.195	254.94
465.414	267.94
465.634	224.94
465.854	231.94
466.073	227.94
466.293	227.94
466.512	216.94
466.732	219.94
466.951	211.94
467.171	214.94
467.391	220.94
467.61	231.94
467.829	222.94
468.049	214.94
468.268	224.94
468.488	213.94
468.707	220.94
468.927	198.94
469.146	214.94
469.365	208.94
469.585	212.94
469.804	223.94
470.023	229.94
470.243	233.94
470.462	220.94
470.681	235.94
470.901	220.94
471.12	236.94
471.339	231.94
471.558	205.94
471.777	215.94
471.997	199.94
472.216	229.94
472.435	222.94
472.654	201.94
472.873	229.94
473.092	204.94
473.311	204.94
473.53	220.94
473.749	206.94
473.968	219.94
474.187	199.94
474.406	198.94
474.625	217.94
474.844	203.94
475.063	206.94
475.282	209.94
475.501	214.94
475.72	230.94
475.939	203.94
476.158	217.94
476.377	222.94
476.596	216.94
476.814	224.94
477.033	228.94
477.252	224.94
477.471	235.94
477.69	242.94
477.908	236.94
478.127	245.94
478.346	231.94
478.564	243.94
478.783	241.94
479.002	255.94
479.22	254.94
479.439	255.94
479.658	237.94
479.876	239.94
480.095	261.94
480.313	273.94
480.532	283.94
480.751	278.94
480.969	254.94
481.188	234.94
481.406	251.94
481.624	230.94
481.843	241.94
482.061	251.94
482.28	241.94
482.498	222.94
482.717	226.94
482.935	232.94
483.153	251.94
483.372	230.94
483.59	243.94
483.808	239.94
484.027	253.94
484.245	252.94
484.463	247.94
484.681	263.94
484.9	251.94
485.118	257.94
485.336	244.94
485.554	259.94
485.772	264.94
485.99	252.94
486.209	260.94
486.427	237.94
486.645	258.94
486.863	253.94
487.081	241.94
487.299	245.94
487.517	240.94
487.735	249.94
487.953	250.94
488.171	245.94
488.389	255.94
488.607	247.94
488.825	246.94
489.043	246.94
489.261	260.94
489.479	252.94
489.696	238.94
489.914	242.94
490.132	262.94
490.35	238.94
490.568	244.94
490.786	249.94
491.003	279.94
491.221	257.94
491.439	252.94
491.657	252.94
491.874	244.94
492.092	262.94
492.31	263.94
492.527	258.94
492.745	254.94
492.963	243.94
493.18	253.94
493.398	275.94
493.615	254.94
493.833	259.94
494.05	257.94
494.268	254.94
494.485	269.94
494.703	272.94
494.92	257.94
495.138	275.94
495.355	260.94
495.573	263.94
495.79	256.94
496.008	261.94
496.225	264.94
496.442	278.94
496.66	255.94
496.877	281.94
497.094	272.94
497.312	291.94
497.529	283.94
497.746	283.94
497.963	289.94
498.181	285.94
498.398	326.94
498.615	315.94
498.832	323.94
499.049	364.94
499.267	387.94
499.484	421.94
499.701	465.94
499.918	509.94
500.135	566.94
500.352	669.94
500.569	685.94
500.786	683.94
501.003	633.94
501.22	578.94
501.437	513.94
501.654	462.94
501.871	396.94
502.088	379.94
502.305	372.94
502.522	339.94
502.739	340.94
502.956	329.94
503.172	324.94
503.389	287.94
503.606	282.94
