Data from 0.5MCu(NO3)2.Standard.Lamp.E10.CV._HRD10591_16-05-01-753.txt Node
Date: Mon Jul 22 16:05:01 EDT 2019
User: cochatt
Spectrometer: HR+D1059
Trigger mode: 1
Integration Time (sec): 1.000000E-1
Scans to average: 1
Electric dark correction enabled: true
Nonlinearity correction enabled: false
Boxcar width: 0
XAxis mode: Wavelengths
Number of Pixels in Spectrum: 2048
>>>>>Begin Spectral Data<<<<<
223.165	-15.62
223.4	-15.62
223.635	-15.62
223.869	-9.62
224.104	-14.62
224.338	1.38
224.573	-15.62
224.808	-9.62
225.042	-19.62
225.277	-8.62
225.511	-7.62
225.746	8.38
225.98	8.38
226.215	-1.62
226.449	24.38
226.683	7.38
226.918	29.38
227.152	23.38
227.387	34.38
227.621	27.38
227.856	31.38
228.09	31.38
228.324	52.38
228.559	59.38
228.793	79.38
229.027	71.38
229.262	68.38
229.496	67.38
229.73	77.38
229.964	78.38
230.199	80.38
230.433	86.38
230.667	83.38
230.901	79.38
231.136	92.38
231.37	81.38
231.604	87.38
231.838	94.38
232.072	83.38
232.306	78.38
232.541	94.38
232.775	82.38
233.009	84.38
233.243	89.38
233.477	85.38
233.711	92.38
233.945	88.38
234.179	88.38
234.413	86.38
234.647	85.38
234.881	97.38
235.115	84.38
235.349	93.38
235.583	83.38
235.817	86.38
236.051	91.38
236.285	90.38
236.519	80.38
236.753	99.38
236.987	83.38
237.221	67.38
237.455	93.38
237.689	84.38
237.922	77.38
238.156	78.38
238.39	95.38
238.624	91.38
238.858	76.38
239.091	75.38
239.325	90.38
239.559	91.38
239.793	98.38
240.027	96.38
240.26	80.38
240.494	82.38
240.728	84.38
240.961	92.38
241.195	94.38
241.429	87.38
241.662	91.38
241.896	95.38
242.13	99.38
242.363	84.38
242.597	98.38
242.83	100.38
243.064	96.38
243.298	98.38
243.531	84.38
243.765	102.38
243.998	89.38
244.232	90.38
244.465	88.38
244.699	95.38
244.932	108.38
245.166	104.38
245.399	109.38
245.633	95.38
245.866	91.38
246.099	102.38
246.333	80.38
246.566	106.38
246.8	93.38
247.033	98.38
247.266	111.38
247.5	107.38
247.733	99.38
247.966	109.38
248.2	104.38
248.433	96.38
248.666	102.38
248.899	110.38
249.133	98.38
249.366	101.38
249.599	99.38
249.832	95.38
250.066	115.38
250.299	102.38
250.532	104.38
250.765	93.38
250.998	99.38
251.231	108.38
251.465	89.38
251.698	113.38
251.931	102.38
252.164	113.38
252.397	108.38
252.63	107.38
252.863	95.38
253.096	99.38
253.329	112.38
253.562	113.38
253.795	112.38
254.028	95.38
254.261	116.38
254.494	100.38
254.727	110.38
254.96	101.38
255.193	107.38
255.426	107.38
255.659	101.38
255.892	113.38
256.124	89.38
256.357	110.38
256.59	104.38
256.823	104.38
257.056	118.38
257.289	113.38
257.521	116.38
257.754	100.38
257.987	112.38
258.22	116.38
258.452	106.38
258.685	109.38
258.918	124.38
259.151	109.38
259.383	115.38
259.616	120.38
259.849	118.38
260.081	118.38
260.314	121.38
260.547	108.38
260.779	115.38
261.012	134.38
261.244	125.38
261.477	121.38
261.71	112.38
261.942	119.38
262.175	119.38
262.407	124.38
262.64	109.38
262.872	112.38
263.105	117.38
263.337	117.38
263.57	120.38
263.802	120.38
264.035	126.38
264.267	132.38
264.499	109.38
264.732	117.38
264.964	121.38
265.197	118.38
265.429	126.38
265.661	112.38
265.894	132.38
266.126	126.38
266.358	141.38
266.591	119.38
266.823	130.38
267.055	128.38
267.287	131.38
267.52	117.38
267.752	132.38
267.984	127.38
268.216	109.38
268.448	133.38
268.681	131.38
268.913	107.38
269.145	121.38
269.377	124.38
269.609	126.38
269.841	135.38
270.073	126.38
270.306	123.38
270.538	144.38
270.77	123.38
271.002	135.38
271.234	128.38
271.466	138.38
271.698	125.38
271.93	137.38
272.162	135.38
272.394	131.38
272.626	128.38
272.858	120.38
273.09	131.38
273.322	129.38
273.553	133.38
273.785	138.38
274.017	136.38
274.249	124.38
274.481	134.38
274.713	129.38
274.945	147.38
275.176	138.38
275.408	135.38
275.64	147.38
275.872	146.38
276.104	150.38
276.335	136.38
276.567	141.38
276.799	134.38
277.031	129.38
277.262	130.38
277.494	140.38
277.726	135.38
277.957	140.38
278.189	142.38
278.421	134.38
278.652	143.38
278.884	139.38
279.115	156.38
279.347	141.38
279.579	141.38
279.81	134.38
280.042	140.38
280.273	145.38
280.505	138.38
280.736	149.38
280.968	147.38
281.199	152.38
281.431	128.38
281.662	159.38
281.894	139.38
282.125	139.38
282.356	140.38
282.588	129.38
282.819	143.38
283.051	140.38
283.282	132.38
283.513	157.38
283.745	164.38
283.976	155.38
284.207	136.38
284.439	159.38
284.67	153.38
284.901	155.38
285.132	142.38
285.364	157.38
285.595	148.38
285.826	154.38
286.057	156.38
286.288	151.38
286.52	148.38
286.751	162.38
286.982	148.38
287.213	143.38
287.444	151.38
287.675	161.38
287.906	157.38
288.138	149.38
288.369	155.38
288.6	161.38
288.831	155.38
289.062	160.38
289.293	163.38
289.524	154.38
289.755	164.38
289.986	169.38
290.217	172.38
290.448	147.38
290.679	165.38
290.91	160.38
291.141	165.38
291.371	153.38
291.602	156.38
291.833	148.38
292.064	159.38
292.295	154.38
292.526	162.38
292.757	150.38
292.987	157.38
293.218	152.38
293.449	165.38
293.68	156.38
293.91	161.38
294.141	152.38
294.372	161.38
294.603	163.38
294.833	180.38
295.064	160.38
295.295	159.38
295.525	161.38
295.756	171.38
295.987	175.38
296.217	167.38
296.448	167.38
296.679	176.38
296.909	176.38
297.14	192.38
297.37	174.38
297.601	173.38
297.831	169.38
298.062	187.38
298.292	180.38
298.523	176.38
298.753	182.38
298.984	171.38
299.214	177.38
299.445	186.38
299.675	182.38
299.905	169.38
300.136	172.38
300.366	168.38
300.597	162.38
300.827	172.38
301.057	161.38
301.288	179.38
301.518	177.38
301.748	183.38
301.979	183.38
302.209	180.38
302.439	172.38
302.669	175.38
302.9	173.38
303.13	167.38
303.36	166.38
303.59	178.38
303.82	170.38
304.051	160.38
304.281	175.38
304.511	179.38
304.741	174.38
304.971	171.38
305.201	176.38
305.431	180.38
305.661	170.38
305.891	179.38
306.121	167.38
306.352	170.38
306.582	190.38
306.812	182.38
307.042	173.38
307.272	179.38
307.502	177.38
307.731	172.38
307.961	182.38
308.191	179.38
308.421	161.38
308.651	159.38
308.881	168.38
309.111	184.38
309.341	173.38
309.571	171.38
309.8	164.38
310.03	164.38
310.26	190.38
310.49	181.38
310.72	173.38
310.949	178.38
311.179	177.38
311.409	174.38
311.639	179.38
311.868	172.38
312.098	168.38
312.328	163.38
312.557	171.38
312.787	164.38
313.017	183.38
313.246	185.38
313.476	183.38
313.706	172.38
313.935	174.38
314.165	171.38
314.394	175.38
314.624	196.38
314.853	181.38
315.083	177.38
315.312	184.38
315.542	189.38
315.771	173.38
316.001	194.38
316.23	198.38
316.46	179.38
316.689	174.38
316.919	186.38
317.148	190.38
317.377	174.38
317.607	185.38
317.836	183.38
318.065	181.38
318.295	169.38
318.524	165.38
318.753	182.38
318.983	173.38
319.212	180.38
319.441	175.38
319.67	175.38
319.9	186.38
320.129	180.38
320.358	175.38
320.587	161.38
320.816	183.38
321.046	196.38
321.275	169.38
321.504	171.38
321.733	157.38
321.962	180.38
322.191	191.38
322.42	179.38
322.649	191.38
322.878	187.38
323.108	185.38
323.337	187.38
323.566	199.38
323.795	191.38
324.024	201.38
324.253	177.38
324.482	176.38
324.71	196.38
324.939	190.38
325.168	180.38
325.397	177.38
325.626	197.38
325.855	193.38
326.084	185.38
326.313	197.38
326.542	185.38
326.77	198.38
326.999	190.38
327.228	203.38
327.457	193.38
327.686	193.38
327.914	181.38
328.143	184.38
328.372	202.38
328.6	208.38
328.829	181.38
329.058	197.38
329.287	202.38
329.515	184.38
329.744	197.38
329.972	199.38
330.201	200.38
330.43	202.38
330.658	174.38
330.887	198.38
331.115	198.38
331.344	201.38
331.572	200.38
331.801	199.38
332.03	199.38
332.258	207.38
332.486	223.38
332.715	209.38
332.943	211.38
333.172	235.38
333.4	232.38
333.629	248.38
333.857	259.38
334.085	242.38
334.314	226.38
334.542	239.38
334.771	218.38
334.999	218.38
335.227	220.38
335.455	242.38
335.684	204.38
335.912	229.38
336.14	216.38
336.369	234.38
336.597	225.38
336.825	209.38
337.053	214.38
337.281	228.38
337.51	223.38
337.738	205.38
337.966	211.38
338.194	204.38
338.422	195.38
338.65	196.38
338.878	201.38
339.106	208.38
339.334	219.38
339.562	192.38
339.79	203.38
340.018	198.38
340.246	189.38
340.474	202.38
340.702	195.38
340.93	189.38
341.158	205.38
341.386	194.38
341.614	210.38
341.842	188.38
342.07	201.38
342.298	204.38
342.526	198.38
342.754	197.38
342.981	205.38
343.209	210.38
343.437	203.38
343.665	215.38
343.893	230.38
344.12	233.38
344.348	220.38
344.576	216.38
344.804	202.38
345.031	214.38
345.259	196.38
345.487	203.38
345.714	214.38
345.942	189.38
346.17	199.38
346.397	188.38
346.625	192.38
346.853	194.38
347.08	189.38
347.308	196.38
347.535	189.38
347.763	207.38
347.99	209.38
348.218	214.38
348.445	206.38
348.673	184.38
348.9	201.38
349.128	199.38
349.355	198.38
349.583	201.38
349.81	200.38
350.037	184.38
350.265	182.38
350.492	182.38
350.72	189.38
350.947	189.38
351.174	192.38
351.402	195.38
351.629	187.38
351.856	198.38
352.083	179.38
352.311	185.38
352.538	189.38
352.765	181.38
352.992	191.38
353.22	180.38
353.447	194.38
353.674	190.38
353.901	184.38
354.128	174.38
354.355	188.38
354.583	191.38
354.81	187.38
355.037	201.38
355.264	169.38
355.491	182.38
355.718	195.38
355.945	196.38
356.172	187.38
356.399	187.38
356.626	184.38
356.853	184.38
357.08	183.38
357.307	175.38
357.534	188.38
357.761	198.38
357.988	204.38
358.215	187.38
358.441	189.38
358.668	207.38
358.895	207.38
359.122	189.38
359.349	182.38
359.576	198.38
359.802	183.38
360.029	181.38
360.256	188.38
360.483	173.38
360.709	168.38
360.936	191.38
361.163	184.38
361.39	196.38
361.616	192.38
361.843	175.38
362.07	180.38
362.296	184.38
362.523	173.38
362.749	196.38
362.976	196.38
363.203	189.38
363.429	192.38
363.656	204.38
363.882	190.38
364.109	175.38
364.335	176.38
364.562	187.38
364.788	167.38
365.015	180.38
365.241	197.38
365.468	188.38
365.694	185.38
365.92	191.38
366.147	175.38
366.373	177.38
366.599	181.38
366.826	200.38
367.052	189.38
367.278	180.38
367.505	180.38
367.731	199.38
367.957	194.38
368.184	194.38
368.41	187.38
368.636	183.38
368.862	184.38
369.089	175.38
369.315	181.38
369.541	192.38
369.767	198.38
369.993	200.38
370.219	195.38
370.445	177.38
370.672	190.38
370.898	197.38
371.124	189.38
371.35	212.38
371.576	197.38
371.802	193.38
372.028	194.38
372.254	185.38
372.48	201.38
372.706	199.38
372.932	192.38
373.158	215.38
373.384	193.38
373.61	199.38
373.835	192.38
374.061	203.38
374.287	201.38
374.513	196.38
374.739	217.38
374.965	213.38
375.191	221.38
375.416	196.38
375.642	219.38
375.868	209.38
376.094	212.38
376.319	213.38
376.545	194.38
376.771	206.38
376.997	191.38
377.222	193.38
377.448	202.38
377.674	198.38
377.899	202.38
378.125	208.38
378.35	188.38
378.576	203.38
378.802	192.38
379.027	197.38
379.253	193.38
379.478	207.38
379.704	207.38
379.929	178.38
380.155	201.38
380.38	202.38
380.606	189.38
380.831	205.38
381.057	198.38
381.282	184.38
381.507	196.38
381.733	204.38
381.958	189.38
382.184	222.38
382.409	212.38
382.634	209.38
382.86	195.38
383.085	201.38
383.31	216.38
383.535	224.38
383.761	215.38
383.986	220.38
384.211	216.38
384.436	227.38
384.662	209.38
384.887	206.38
385.112	220.38
385.337	221.38
385.562	209.38
385.787	234.38
386.013	245.38
386.238	221.38
386.463	211.38
386.688	218.38
386.913	208.38
387.138	208.38
387.363	235.38
387.588	235.38
387.813	209.38
388.038	220.38
388.263	227.38
388.488	219.38
388.713	205.38
388.938	212.38
389.163	210.38
389.387	238.38
389.612	215.38
389.837	215.38
390.062	220.38
390.287	209.38
390.512	214.38
390.736	196.38
390.961	214.38
391.186	232.38
391.411	223.38
391.636	254.38
391.86	246.38
392.085	244.38
392.31	238.38
392.534	241.38
392.759	230.38
392.984	237.38
393.208	226.38
393.433	228.38
393.658	220.38
393.882	224.38
394.107	240.38
394.331	245.38
394.556	219.38
394.78	222.38
395.005	233.38
395.229	271.38
395.454	236.38
395.678	241.38
395.903	246.38
396.127	238.38
396.352	219.38
396.576	215.38
396.801	223.38
397.025	208.38
397.249	241.38
397.474	261.38
397.698	240.38
397.922	225.38
398.147	236.38
398.371	228.38
398.595	229.38
398.82	267.38
399.044	265.38
399.268	279.38
399.492	338.38
399.717	376.38
399.941	353.38
400.165	324.38
400.389	294.38
400.613	273.38
400.837	269.38
401.062	262.38
401.286	275.38
401.51	251.38
401.734	247.38
401.958	262.38
402.182	257.38
402.406	268.38
402.63	259.38
402.854	294.38
403.078	271.38
403.302	303.38
403.526	284.38
403.75	315.38
403.974	300.38
404.198	288.38
404.422	307.38
404.645	316.38
404.869	300.38
405.093	283.38
405.317	266.38
405.541	285.38
405.765	271.38
405.988	270.38
406.212	289.38
406.436	260.38
406.66	286.38
406.883	295.38
407.107	318.38
407.331	318.38
407.555	317.38
407.778	326.38
408.002	334.38
408.226	310.38
408.449	302.38
408.673	284.38
408.896	308.38
409.12	283.38
409.344	289.38
409.567	295.38
409.791	286.38
410.014	303.38
410.238	286.38
410.461	273.38
410.685	276.38
410.908	283.38
411.132	279.38
411.355	257.38
411.578	274.38
411.802	268.38
412.025	274.38
412.249	267.38
412.472	274.38
412.695	263.38
412.919	258.38
413.142	259.38
413.365	258.38
413.589	271.38
413.812	251.38
414.035	240.38
414.258	247.38
414.482	250.38
414.705	276.38
414.928	268.38
415.151	246.38
415.374	255.38
415.597	251.38
415.821	254.38
416.044	247.38
416.267	253.38
416.49	244.38
416.713	258.38
416.936	265.38
417.159	256.38
417.382	250.38
417.605	244.38
417.828	247.38
418.051	261.38
418.274	262.38
418.497	267.38
418.72	248.38
418.943	266.38
419.166	261.38
419.389	291.38
419.611	295.38
419.834	280.38
420.057	261.38
420.28	261.38
420.503	260.38
420.726	255.38
420.948	243.38
421.171	253.38
421.394	261.38
421.617	255.38
421.839	246.38
422.062	250.38
422.285	263.38
422.507	263.38
422.73	253.38
422.953	252.38
423.175	261.38
423.398	280.38
423.621	275.38
423.843	271.38
424.066	280.38
424.288	285.38
424.511	279.38
424.733	257.38
424.956	252.38
425.178	270.38
425.401	248.38
425.623	254.38
425.846	258.38
426.068	239.38
426.291	243.38
426.513	251.38
426.735	243.38
426.958	262.38
427.18	261.38
427.402	232.38
427.625	231.38
427.847	238.38
428.069	233.38
428.292	238.38
428.514	223.38
428.736	227.38
428.958	211.38
429.181	232.38
429.403	228.38
429.625	219.38
429.847	240.38
430.069	230.38
430.292	216.38
430.514	243.38
430.736	212.38
430.958	226.38
431.18	217.38
431.402	219.38
431.624	232.38
431.846	219.38
432.068	244.38
432.29	245.38
432.512	238.38
432.734	236.38
432.956	240.38
433.178	238.38
433.4	209.38
433.622	231.38
433.844	239.38
434.066	237.38
434.287	216.38
434.509	243.38
434.731	259.38
434.953	261.38
435.175	253.38
435.397	245.38
435.618	251.38
435.84	228.38
436.062	226.38
436.284	237.38
436.505	222.38
436.727	238.38
436.949	248.38
437.17	235.38
437.392	224.38
437.614	226.38
437.835	237.38
438.057	220.38
438.278	236.38
438.5	220.38
438.721	244.38
438.943	221.38
439.165	219.38
439.386	226.38
439.608	227.38
439.829	241.38
440.05	245.38
440.272	225.38
440.493	228.38
440.715	230.38
440.936	235.38
441.158	263.38
441.379	253.38
441.6	251.38
441.822	259.38
442.043	263.38
442.264	262.38
442.486	252.38
442.707	259.38
442.928	259.38
443.149	253.38
443.371	267.38
443.592	230.38
443.813	235.38
444.034	265.38
444.255	255.38
444.476	257.38
444.698	279.38
444.919	309.38
445.14	416.38
445.361	327.38
445.582	249.38
445.803	261.38
446.024	240.38
446.245	253.38
446.466	258.38
446.687	232.38
446.908	237.38
447.129	232.38
447.35	243.38
447.571	232.38
447.792	225.38
448.013	209.38
448.234	216.38
448.455	216.38
448.675	215.38
448.896	238.38
449.117	215.38
449.338	225.38
449.559	213.38
449.779	227.38
450	231.38
450.221	219.38
450.442	225.38
450.662	219.38
450.883	220.38
451.104	213.38
451.324	213.38
451.545	226.38
451.766	219.38
451.986	229.38
452.207	224.38
452.428	212.38
452.648	236.38
452.869	223.38
453.089	227.38
453.31	210.38
453.53	222.38
453.751	224.38
453.971	196.38
454.192	211.38
454.412	213.38
454.633	219.38
454.853	214.38
455.073	208.38
455.294	215.38
455.514	216.38
455.734	204.38
455.955	212.38
456.175	195.38
456.395	225.38
456.616	207.38
456.836	201.38
457.056	205.38
457.276	227.38
457.497	213.38
457.717	208.38
457.937	216.38
458.157	220.38
458.377	211.38
458.598	217.38
458.818	204.38
459.038	230.38
459.258	224.38
459.478	227.38
459.698	222.38
459.918	250.38
460.138	240.38
460.358	263.38
460.578	275.38
460.798	276.38
461.018	266.38
461.238	264.38
461.458	258.38
461.678	279.38
461.898	273.38
462.118	263.38
462.338	277.38
462.558	303.38
462.777	309.38
462.997	328.38
463.217	342.38
463.437	354.38
463.657	310.38
463.876	325.38
464.096	294.38
464.316	319.38
464.536	290.38
464.755	299.38
464.975	287.38
465.195	273.38
465.414	260.38
465.634	256.38
465.854	244.38
466.073	255.38
466.293	244.38
466.512	236.38
466.732	235.38
466.951	229.38
467.171	235.38
467.391	217.38
467.61	224.38
467.829	228.38
468.049	238.38
468.268	225.38
468.488	223.38
468.707	214.38
468.927	228.38
469.146	238.38
469.365	196.38
469.585	224.38
469.804	242.38
470.023	257.38
470.243	228.38
470.462	241.38
470.681	239.38
470.901	232.38
471.12	233.38
471.339	219.38
471.558	233.38
471.777	237.38
471.997	225.38
472.216	213.38
472.435	247.38
472.654	224.38
472.873	219.38
473.092	224.38
473.311	237.38
473.53	220.38
473.749	228.38
473.968	227.38
474.187	225.38
474.406	213.38
474.625	221.38
474.844	215.38
475.063	205.38
475.282	220.38
475.501	217.38
475.72	220.38
475.939	227.38
476.158	212.38
476.377	235.38
476.596	229.38
476.814	222.38
477.033	225.38
477.252	249.38
477.471	226.38
477.69	231.38
477.908	237.38
478.127	257.38
478.346	253.38
478.564	269.38
478.783	267.38
479.002	266.38
479.22	264.38
479.439	260.38
479.658	272.38
479.876	264.38
480.095	260.38
480.313	265.38
480.532	286.38
480.751	295.38
480.969	260.38
481.188	270.38
481.406	263.38
481.624	259.38
481.843	245.38
482.061	233.38
482.28	231.38
482.498	256.38
482.717	232.38
482.935	248.38
483.153	240.38
483.372	248.38
483.59	260.38
483.808	252.38
484.027	242.38
484.245	244.38
484.463	241.38
484.681	254.38
484.9	255.38
485.118	260.38
485.336	265.38
485.554	255.38
485.772	272.38
485.99	286.38
486.209	254.38
486.427	280.38
486.645	269.38
486.863	263.38
487.081	260.38
487.299	240.38
487.517	265.38
487.735	264.38
487.953	263.38
488.171	256.38
488.389	245.38
488.607	243.38
488.825	255.38
489.043	264.38
489.261	251.38
489.479	271.38
489.696	257.38
489.914	271.38
490.132	260.38
490.35	243.38
490.568	264.38
490.786	269.38
491.003	254.38
491.221	278.38
491.439	261.38
491.657	267.38
491.874	270.38
492.092	284.38
492.31	259.38
492.527	269.38
492.745	261.38
492.963	271.38
493.18	271.38
493.398	276.38
493.615	272.38
493.833	281.38
494.05	292.38
494.268	277.38
494.485	281.38
494.703	285.38
494.92	285.38
495.138	272.38
495.355	269.38
495.573	273.38
495.79	259.38
496.008	269.38
496.225	271.38
496.442	273.38
496.66	276.38
496.877	290.38
497.094	306.38
497.312	284.38
497.529	296.38
497.746	320.38
497.963	300.38
498.181	314.38
498.398	333.38
498.615	335.38
498.832	350.38
499.049	374.38
499.267	411.38
499.484	456.38
499.701	470.38
499.918	557.38
500.135	608.38
500.352	721.38
500.569	759.38
500.786	752.38
501.003	661.38
501.22	608.38
501.437	563.38
501.654	484.38
501.871	450.38
502.088	418.38
502.305	372.38
502.522	348.38
502.739	370.38
502.956	337.38
503.172	343.38
503.389	343.38
