Data from 0.5MCu(NO3)2.Standard.Lamp.E10.CV._HRD10591_16-04-27-753.txt Node
Date: Mon Jul 22 16:04:27 EDT 2019
User: cochatt
Spectrometer: HR+D1059
Trigger mode: 1
Integration Time (sec): 1.000000E-1
Scans to average: 1
Electric dark correction enabled: true
Nonlinearity correction enabled: false
Boxcar width: 0
XAxis mode: Wavelengths
Number of Pixels in Spectrum: 2048
>>>>>Begin Spectral Data<<<<<
223.165	-1.94
223.4	-1.94
223.635	-1.94
223.869	-24.94
224.104	-13.94
224.338	-25.94
224.573	-9.94
224.808	-15.94
225.042	-10.94
225.277	-11.94
225.511	-9.94
225.746	3.06
225.98	20.06
226.215	11.06
226.449	14.06
226.683	9.06
226.918	42.06
227.152	26.06
227.387	22.06
227.621	41.06
227.856	33.06
228.09	37.06
228.324	54.06
228.559	40.06
228.793	52.06
229.027	70.06
229.262	68.06
229.496	68.06
229.73	59.06
229.964	82.06
230.199	76.06
230.433	80.06
230.667	81.06
230.901	85.06
231.136	89.06
231.37	93.06
231.604	82.06
231.838	93.06
232.072	96.06
232.306	88.06
232.541	91.06
232.775	85.06
233.009	95.06
233.243	95.06
233.477	79.06
233.711	75.06
233.945	82.06
234.179	87.06
234.413	102.06
234.647	91.06
234.881	85.06
235.115	95.06
235.349	91.06
235.583	75.06
235.817	91.06
236.051	96.06
236.285	97.06
236.519	93.06
236.753	97.06
236.987	101.06
237.221	96.06
237.455	112.06
237.689	83.06
237.922	94.06
238.156	89.06
238.39	86.06
238.624	94.06
238.858	87.06
239.091	82.06
239.325	92.06
239.559	84.06
239.793	87.06
240.027	88.06
240.26	93.06
240.494	99.06
240.728	95.06
240.961	88.06
241.195	84.06
241.429	92.06
241.662	85.06
241.896	85.06
242.13	99.06
242.363	84.06
242.597	96.06
242.83	96.06
243.064	88.06
243.298	95.06
243.531	106.06
243.765	89.06
243.998	90.06
244.232	88.06
244.465	94.06
244.699	110.06
244.932	100.06
245.166	105.06
245.399	88.06
245.633	103.06
245.866	90.06
246.099	94.06
246.333	96.06
246.566	109.06
246.8	110.06
247.033	96.06
247.266	94.06
247.5	110.06
247.733	95.06
247.966	98.06
248.2	86.06
248.433	86.06
248.666	91.06
248.899	106.06
249.133	114.06
249.366	94.06
249.599	105.06
249.832	103.06
250.066	119.06
250.299	124.06
250.532	109.06
250.765	103.06
250.998	90.06
251.231	94.06
251.465	103.06
251.698	101.06
251.931	110.06
252.164	107.06
252.397	122.06
252.63	123.06
252.863	101.06
253.096	96.06
253.329	111.06
253.562	104.06
253.795	104.06
254.028	104.06
254.261	113.06
254.494	122.06
254.727	90.06
254.96	118.06
255.193	100.06
255.426	99.06
255.659	123.06
255.892	119.06
256.124	103.06
256.357	106.06
256.59	101.06
256.823	121.06
257.056	100.06
257.289	104.06
257.521	115.06
257.754	110.06
257.987	115.06
258.22	112.06
258.452	101.06
258.685	105.06
258.918	107.06
259.151	107.06
259.383	108.06
259.616	97.06
259.849	112.06
260.081	113.06
260.314	106.06
260.547	112.06
260.779	132.06
261.012	122.06
261.244	117.06
261.477	126.06
261.71	111.06
261.942	113.06
262.175	124.06
262.407	129.06
262.64	113.06
262.872	122.06
263.105	111.06
263.337	118.06
263.57	121.06
263.802	128.06
264.035	114.06
264.267	127.06
264.499	125.06
264.732	122.06
264.964	120.06
265.197	116.06
265.429	122.06
265.661	118.06
265.894	121.06
266.126	126.06
266.358	127.06
266.591	120.06
266.823	124.06
267.055	115.06
267.287	119.06
267.52	122.06
267.752	131.06
267.984	126.06
268.216	116.06
268.448	124.06
268.681	125.06
268.913	124.06
269.145	128.06
269.377	127.06
269.609	135.06
269.841	138.06
270.073	127.06
270.306	120.06
270.538	122.06
270.77	128.06
271.002	127.06
271.234	130.06
271.466	129.06
271.698	131.06
271.93	129.06
272.162	130.06
272.394	136.06
272.626	132.06
272.858	128.06
273.09	120.06
273.322	133.06
273.553	121.06
273.785	132.06
274.017	130.06
274.249	121.06
274.481	136.06
274.713	133.06
274.945	122.06
275.176	144.06
275.408	134.06
275.64	143.06
275.872	125.06
276.104	130.06
276.335	149.06
276.567	144.06
276.799	130.06
277.031	127.06
277.262	143.06
277.494	136.06
277.726	138.06
277.957	140.06
278.189	134.06
278.421	152.06
278.652	141.06
278.884	136.06
279.115	144.06
279.347	134.06
279.579	144.06
279.81	134.06
280.042	146.06
280.273	144.06
280.505	136.06
280.736	139.06
280.968	138.06
281.199	131.06
281.431	144.06
281.662	141.06
281.894	145.06
282.125	160.06
282.356	155.06
282.588	146.06
282.819	159.06
283.051	155.06
283.282	137.06
283.513	151.06
283.745	163.06
283.976	151.06
284.207	147.06
284.439	136.06
284.67	146.06
284.901	159.06
285.132	148.06
285.364	138.06
285.595	156.06
285.826	158.06
286.057	157.06
286.288	135.06
286.52	154.06
286.751	130.06
286.982	146.06
287.213	154.06
287.444	163.06
287.675	144.06
287.906	158.06
288.138	151.06
288.369	166.06
288.6	161.06
288.831	146.06
289.062	158.06
289.293	166.06
289.524	150.06
289.755	164.06
289.986	167.06
290.217	156.06
290.448	164.06
290.679	173.06
290.91	154.06
291.141	138.06
291.371	179.06
291.602	160.06
291.833	156.06
292.064	159.06
292.295	165.06
292.526	155.06
292.757	167.06
292.987	155.06
293.218	146.06
293.449	159.06
293.68	139.06
293.91	151.06
294.141	158.06
294.372	162.06
294.603	158.06
294.833	176.06
295.064	166.06
295.295	171.06
295.525	165.06
295.756	166.06
295.987	184.06
296.217	162.06
296.448	171.06
296.679	171.06
296.909	192.06
297.14	165.06
297.37	172.06
297.601	174.06
297.831	166.06
298.062	181.06
298.292	165.06
298.523	181.06
298.753	181.06
298.984	172.06
299.214	178.06
299.445	178.06
299.675	170.06
299.905	184.06
300.136	159.06
300.366	172.06
300.597	185.06
300.827	188.06
301.057	182.06
301.288	179.06
301.518	177.06
301.748	180.06
301.979	176.06
302.209	180.06
302.439	173.06
302.669	175.06
302.9	170.06
303.13	159.06
303.36	171.06
303.59	166.06
303.82	163.06
304.051	186.06
304.281	176.06
304.511	181.06
304.741	177.06
304.971	180.06
305.201	178.06
305.431	173.06
305.661	166.06
305.891	186.06
306.121	174.06
306.352	192.06
306.582	174.06
306.812	177.06
307.042	170.06
307.272	186.06
307.502	180.06
307.731	186.06
307.961	183.06
308.191	176.06
308.421	169.06
308.651	183.06
308.881	181.06
309.111	170.06
309.341	163.06
309.571	188.06
309.8	160.06
310.03	164.06
310.26	172.06
310.49	175.06
310.72	176.06
310.949	180.06
311.179	178.06
311.409	198.06
311.639	186.06
311.868	169.06
312.098	168.06
312.328	179.06
312.557	178.06
312.787	192.06
313.017	191.06
313.246	202.06
313.476	198.06
313.706	162.06
313.935	194.06
314.165	175.06
314.394	174.06
314.624	186.06
314.853	191.06
315.083	189.06
315.312	183.06
315.542	176.06
315.771	172.06
316.001	178.06
316.23	184.06
316.46	194.06
316.689	169.06
316.919	188.06
317.148	185.06
317.377	190.06
317.607	171.06
317.836	180.06
318.065	179.06
318.295	178.06
318.524	188.06
318.753	178.06
318.983	182.06
319.212	188.06
319.441	168.06
319.67	193.06
319.9	202.06
320.129	172.06
320.358	177.06
320.587	175.06
320.816	183.06
321.046	180.06
321.275	178.06
321.504	187.06
321.733	183.06
321.962	186.06
322.191	186.06
322.42	189.06
322.649	174.06
322.878	177.06
323.108	186.06
323.337	186.06
323.566	180.06
323.795	192.06
324.024	180.06
324.253	185.06
324.482	200.06
324.71	187.06
324.939	189.06
325.168	192.06
325.397	186.06
325.626	198.06
325.855	201.06
326.084	204.06
326.313	208.06
326.542	214.06
326.77	191.06
326.999	195.06
327.228	193.06
327.457	196.06
327.686	190.06
327.914	185.06
328.143	181.06
328.372	175.06
328.6	179.06
328.829	186.06
329.058	185.06
329.287	195.06
329.515	169.06
329.744	190.06
329.972	176.06
330.201	185.06
330.43	175.06
330.658	190.06
330.887	184.06
331.115	210.06
331.344	194.06
331.572	201.06
331.801	199.06
332.03	217.06
332.258	215.06
332.486	217.06
332.715	226.06
332.943	227.06
333.172	234.06
333.4	242.06
333.629	234.06
333.857	247.06
334.085	248.06
334.314	228.06
334.542	234.06
334.771	242.06
334.999	226.06
335.227	227.06
335.455	244.06
335.684	200.06
335.912	227.06
336.14	239.06
336.369	226.06
336.597	211.06
336.825	218.06
337.053	238.06
337.281	230.06
337.51	202.06
337.738	216.06
337.966	218.06
338.194	196.06
338.422	194.06
338.65	202.06
338.878	211.06
339.106	214.06
339.334	202.06
339.562	193.06
339.79	200.06
340.018	200.06
340.246	214.06
340.474	203.06
340.702	200.06
340.93	198.06
341.158	190.06
341.386	202.06
341.614	208.06
341.842	204.06
342.07	169.06
342.298	197.06
342.526	194.06
342.754	179.06
342.981	202.06
343.209	211.06
343.437	216.06
343.665	219.06
343.893	231.06
344.12	252.06
344.348	225.06
344.576	229.06
344.804	211.06
345.031	194.06
345.259	200.06
345.487	208.06
345.714	203.06
345.942	195.06
346.17	203.06
346.397	188.06
346.625	195.06
346.853	192.06
347.08	194.06
347.308	202.06
347.535	200.06
347.763	192.06
347.99	216.06
348.218	194.06
348.445	194.06
348.673	184.06
348.9	186.06
349.128	192.06
349.355	190.06
349.583	195.06
349.81	169.06
350.037	182.06
350.265	184.06
350.492	194.06
350.72	184.06
350.947	192.06
351.174	203.06
351.402	182.06
351.629	187.06
351.856	184.06
352.083	203.06
352.311	176.06
352.538	180.06
352.765	179.06
352.992	179.06
353.22	170.06
353.447	190.06
353.674	192.06
353.901	186.06
354.128	195.06
354.355	198.06
354.583	207.06
354.81	184.06
355.037	192.06
355.264	187.06
355.491	184.06
355.718	184.06
355.945	190.06
356.172	196.06
356.399	201.06
356.626	179.06
356.853	186.06
357.08	190.06
357.307	178.06
357.534	193.06
357.761	179.06
357.988	181.06
358.215	199.06
358.441	202.06
358.668	178.06
358.895	191.06
359.122	200.06
359.349	187.06
359.576	178.06
359.802	175.06
360.029	192.06
360.256	176.06
360.483	191.06
360.709	198.06
360.936	196.06
361.163	198.06
361.39	184.06
361.616	184.06
361.843	188.06
362.07	195.06
362.296	185.06
362.523	163.06
362.749	196.06
362.976	164.06
363.203	194.06
363.429	176.06
363.656	202.06
363.882	185.06
364.109	200.06
364.335	193.06
364.562	171.06
364.788	180.06
365.015	188.06
365.241	193.06
365.468	201.06
365.694	182.06
365.92	182.06
366.147	182.06
366.373	194.06
366.599	192.06
366.826	177.06
367.052	172.06
367.278	197.06
367.505	179.06
367.731	183.06
367.957	193.06
368.184	192.06
368.41	190.06
368.636	214.06
368.862	181.06
369.089	187.06
369.315	200.06
369.541	190.06
369.767	186.06
369.993	185.06
370.219	187.06
370.445	198.06
370.672	193.06
370.898	202.06
371.124	196.06
371.35	196.06
371.576	204.06
371.802	184.06
372.028	208.06
372.254	185.06
372.48	217.06
372.706	216.06
372.932	203.06
373.158	203.06
373.384	223.06
373.61	201.06
373.835	198.06
374.061	204.06
374.287	210.06
374.513	203.06
374.739	207.06
374.965	224.06
375.191	227.06
375.416	210.06
375.642	210.06
375.868	199.06
376.094	203.06
376.319	196.06
376.545	212.06
376.771	203.06
376.997	207.06
377.222	211.06
377.448	198.06
377.674	200.06
377.899	206.06
378.125	204.06
378.35	201.06
378.576	174.06
378.802	198.06
379.027	204.06
379.253	198.06
379.478	200.06
379.704	207.06
379.929	209.06
380.155	179.06
380.38	197.06
380.606	172.06
380.831	185.06
381.057	204.06
381.282	191.06
381.507	196.06
381.733	203.06
381.958	193.06
382.184	194.06
382.409	190.06
382.634	184.06
382.86	216.06
383.085	204.06
383.31	217.06
383.535	208.06
383.761	201.06
383.986	212.06
384.211	233.06
384.436	215.06
384.662	227.06
384.887	240.06
385.112	227.06
385.337	229.06
385.562	231.06
385.787	221.06
386.013	220.06
386.238	216.06
386.463	222.06
386.688	229.06
386.913	216.06
387.138	209.06
387.363	231.06
387.588	225.06
387.813	214.06
388.038	213.06
388.263	216.06
388.488	237.06
388.713	226.06
388.938	204.06
389.163	222.06
389.387	211.06
389.612	218.06
389.837	220.06
390.062	214.06
390.287	206.06
390.512	226.06
390.736	225.06
390.961	227.06
391.186	231.06
391.411	230.06
391.636	231.06
391.86	251.06
392.085	236.06
392.31	246.06
392.534	244.06
392.759	231.06
392.984	248.06
393.208	231.06
393.433	243.06
393.658	233.06
393.882	231.06
394.107	243.06
394.331	217.06
394.556	236.06
394.78	231.06
395.005	245.06
395.229	221.06
395.454	240.06
395.678	239.06
395.903	247.06
396.127	241.06
396.352	217.06
396.576	223.06
396.801	221.06
397.025	243.06
397.249	248.06
397.474	226.06
397.698	225.06
397.922	226.06
398.147	248.06
398.371	233.06
398.595	246.06
398.82	259.06
399.044	271.06
399.268	307.06
399.492	347.06
399.717	380.06
399.941	361.06
400.165	324.06
400.389	294.06
400.613	280.06
400.837	267.06
401.062	266.06
401.286	273.06
401.51	267.06
401.734	254.06
401.958	279.06
402.182	265.06
402.406	275.06
402.63	273.06
402.854	264.06
403.078	285.06
403.302	271.06
403.526	278.06
403.75	290.06
403.974	309.06
404.198	274.06
404.422	304.06
404.645	298.06
404.869	296.06
405.093	284.06
405.317	266.06
405.541	288.06
405.765	286.06
405.988	282.06
406.212	263.06
406.436	300.06
406.66	296.06
406.883	289.06
407.107	286.06
407.331	316.06
407.555	330.06
407.778	334.06
408.002	318.06
408.226	303.06
408.449	297.06
408.673	307.06
408.896	297.06
409.12	302.06
409.344	291.06
409.567	302.06
409.791	293.06
410.014	290.06
410.238	302.06
410.461	292.06
410.685	289.06
410.908	306.06
411.132	273.06
411.355	274.06
411.578	279.06
411.802	272.06
412.025	289.06
412.249	292.06
412.472	247.06
412.695	232.06
412.919	274.06
413.142	279.06
413.365	266.06
413.589	275.06
413.812	252.06
414.035	260.06
414.258	260.06
414.482	258.06
414.705	274.06
414.928	258.06
415.151	272.06
415.374	258.06
415.597	260.06
415.821	257.06
416.044	247.06
416.267	268.06
416.49	254.06
416.713	264.06
416.936	265.06
417.159	261.06
417.382	248.06
417.605	269.06
417.828	269.06
418.051	268.06
418.274	274.06
418.497	246.06
418.72	266.06
418.943	261.06
419.166	292.06
419.389	299.06
419.611	285.06
419.834	282.06
420.057	292.06
420.28	263.06
420.503	275.06
420.726	256.06
420.948	271.06
421.171	260.06
421.394	253.06
421.617	271.06
421.839	269.06
422.062	265.06
422.285	260.06
422.507	261.06
422.73	274.06
422.953	276.06
423.175	262.06
423.398	292.06
423.621	282.06
423.843	284.06
424.066	288.06
424.288	294.06
424.511	283.06
424.733	278.06
424.956	272.06
425.178	277.06
425.401	274.06
425.623	276.06
425.846	248.06
426.068	265.06
426.291	247.06
426.513	252.06
426.735	223.06
426.958	254.06
427.18	242.06
427.402	227.06
427.625	244.06
427.847	235.06
428.069	246.06
428.292	246.06
428.514	242.06
428.736	222.06
428.958	254.06
429.181	233.06
429.403	243.06
429.625	241.06
429.847	225.06
430.069	234.06
430.292	219.06
430.514	221.06
430.736	240.06
430.958	242.06
431.18	224.06
431.402	233.06
431.624	226.06
431.846	218.06
432.068	239.06
432.29	246.06
432.512	234.06
432.734	246.06
432.956	238.06
433.178	243.06
433.4	229.06
433.622	247.06
433.844	266.06
434.066	231.06
434.287	243.06
434.509	263.06
434.731	264.06
434.953	263.06
435.175	264.06
435.397	262.06
435.618	248.06
435.84	243.06
436.062	240.06
436.284	248.06
436.505	239.06
436.727	252.06
436.949	248.06
437.17	225.06
437.392	233.06
437.614	245.06
437.835	246.06
438.057	212.06
438.278	225.06
438.5	216.06
438.721	247.06
438.943	236.06
439.165	241.06
439.386	233.06
439.608	248.06
439.829	212.06
440.05	248.06
440.272	227.06
440.493	228.06
440.715	246.06
440.936	243.06
441.158	263.06
441.379	250.06
441.6	268.06
441.822	264.06
442.043	264.06
442.264	278.06
442.486	246.06
442.707	267.06
442.928	274.06
443.149	251.06
443.371	256.06
443.592	259.06
443.813	266.06
444.034	264.06
444.255	290.06
444.476	295.06
444.698	283.06
444.919	303.06
445.14	415.06
445.361	341.06
445.582	270.06
445.803	269.06
446.024	236.06
446.245	236.06
446.466	248.06
446.687	249.06
446.908	245.06
447.129	253.06
447.35	235.06
447.571	227.06
447.792	227.06
448.013	222.06
448.234	227.06
448.455	224.06
448.675	239.06
448.896	224.06
449.117	224.06
449.338	226.06
449.559	222.06
449.779	222.06
450	215.06
450.221	225.06
450.442	235.06
450.662	231.06
450.883	226.06
451.104	220.06
451.324	216.06
451.545	240.06
451.766	232.06
451.986	216.06
452.207	203.06
452.428	220.06
452.648	241.06
452.869	219.06
453.089	223.06
453.31	224.06
453.53	205.06
453.751	230.06
453.971	209.06
454.192	224.06
454.412	206.06
454.633	212.06
454.853	211.06
455.073	219.06
455.294	216.06
455.514	222.06
455.734	222.06
455.955	215.06
456.175	224.06
456.395	215.06
456.616	208.06
456.836	212.06
457.056	216.06
457.276	211.06
457.497	217.06
457.717	211.06
457.937	210.06
458.157	203.06
458.377	211.06
458.598	215.06
458.818	227.06
459.038	240.06
459.258	253.06
459.478	254.06
459.698	249.06
459.918	255.06
460.138	254.06
460.358	282.06
460.578	275.06
460.798	273.06
461.018	279.06
461.238	270.06
461.458	277.06
461.678	260.06
461.898	287.06
462.118	290.06
462.338	296.06
462.558	306.06
462.777	288.06
462.997	324.06
463.217	373.06
463.437	346.06
463.657	340.06
463.876	309.06
464.096	315.06
464.316	299.06
464.536	331.06
464.755	313.06
464.975	293.06
465.195	284.06
465.414	286.06
465.634	249.06
465.854	250.06
466.073	236.06
466.293	234.06
466.512	245.06
466.732	228.06
466.951	222.06
467.171	245.06
467.391	229.06
467.61	240.06
467.829	227.06
468.049	234.06
468.268	232.06
468.488	246.06
468.707	240.06
468.927	224.06
469.146	230.06
469.365	231.06
469.585	242.06
469.804	245.06
470.023	242.06
470.243	239.06
470.462	263.06
470.681	266.06
470.901	240.06
471.12	258.06
471.339	235.06
471.558	248.06
471.777	238.06
471.997	240.06
472.216	228.06
472.435	225.06
472.654	220.06
472.873	224.06
473.092	243.06
473.311	217.06
473.53	231.06
473.749	218.06
473.968	224.06
474.187	231.06
474.406	222.06
474.625	231.06
474.844	231.06
475.063	225.06
475.282	216.06
475.501	222.06
475.72	217.06
475.939	243.06
476.158	238.06
476.377	227.06
476.596	221.06
476.814	220.06
477.033	225.06
477.252	260.06
477.471	229.06
477.69	241.06
477.908	244.06
478.127	255.06
478.346	266.06
478.564	268.06
478.783	236.06
479.002	274.06
479.22	271.06
479.439	259.06
479.658	268.06
479.876	269.06
480.095	282.06
480.313	276.06
480.532	294.06
480.751	292.06
480.969	283.06
481.188	286.06
481.406	260.06
481.624	251.06
481.843	268.06
482.061	247.06
482.28	266.06
482.498	251.06
482.717	238.06
482.935	240.06
483.153	263.06
483.372	250.06
483.59	253.06
483.808	257.06
484.027	251.06
484.245	273.06
484.463	268.06
484.681	253.06
484.9	281.06
485.118	269.06
485.336	256.06
485.554	280.06
485.772	271.06
485.99	278.06
486.209	279.06
486.427	273.06
486.645	281.06
486.863	272.06
487.081	273.06
487.299	268.06
487.517	282.06
487.735	261.06
487.953	278.06
488.171	283.06
488.389	241.06
488.607	253.06
488.825	260.06
489.043	260.06
489.261	269.06
489.479	275.06
489.696	286.06
489.914	274.06
490.132	266.06
490.35	252.06
490.568	260.06
490.786	272.06
491.003	267.06
491.221	268.06
491.439	276.06
491.657	280.06
491.874	286.06
492.092	280.06
492.31	274.06
492.527	263.06
492.745	277.06
492.963	291.06
493.18	278.06
493.398	286.06
493.615	282.06
493.833	294.06
494.05	304.06
494.268	289.06
494.485	282.06
494.703	268.06
494.92	284.06
495.138	285.06
495.355	276.06
495.573	289.06
495.79	279.06
496.008	280.06
496.225	291.06
496.442	282.06
496.66	292.06
496.877	286.06
497.094	296.06
497.312	304.06
497.529	312.06
497.746	295.06
497.963	304.06
498.181	330.06
498.398	335.06
498.615	345.06
498.832	380.06
499.049	406.06
499.267	438.06
499.484	462.06
499.701	506.06
499.918	559.06
500.135	628.06
500.352	732.06
500.569	759.06
500.786	765.06
501.003	707.06
501.22	639.06
501.437	579.06
501.654	494.06
501.871	454.06
502.088	410.06
502.305	387.06
502.522	390.06
502.739	388.06
502.956	348.06
503.172	342.06
503.389	326.06
