Data from 0.5MCu(NO3)2.Standard.Lamp.E10.CV._HRD10591_16-05-29-753.txt Node
Date: Mon Jul 22 16:05:29 EDT 2019
User: cochatt
Spectrometer: HR+D1059
Trigger mode: 1
Integration Time (sec): 1.000000E-1
Scans to average: 1
Electric dark correction enabled: true
Nonlinearity correction enabled: false
Boxcar width: 0
XAxis mode: Wavelengths
Number of Pixels in Spectrum: 2048
>>>>>Begin Spectral Data<<<<<
223.165	-20.06
223.4	-20.06
223.635	-20.06
223.869	-9.06
224.104	-28.06
224.338	-22.06
224.573	-12.06
224.808	-16.06
225.042	-23.06
225.277	6.94
225.511	-5.06
225.746	-4.06
225.98	5.94
226.215	23.94
226.449	8.94
226.683	9.94
226.918	37.94
227.152	45.94
227.387	39.94
227.621	38.94
227.856	40.94
228.09	45.94
228.324	44.94
228.559	65.94
228.793	68.94
229.027	55.94
229.262	69.94
229.496	69.94
229.73	85.94
229.964	74.94
230.199	84.94
230.433	76.94
230.667	89.94
230.901	67.94
231.136	78.94
231.37	85.94
231.604	84.94
231.838	82.94
232.072	91.94
232.306	84.94
232.541	98.94
232.775	93.94
233.009	100.94
233.243	90.94
233.477	84.94
233.711	86.94
233.945	84.94
234.179	92.94
234.413	84.94
234.647	78.94
234.881	86.94
235.115	80.94
235.349	93.94
235.583	80.94
235.817	82.94
236.051	88.94
236.285	88.94
236.519	84.94
236.753	93.94
236.987	84.94
237.221	78.94
237.455	94.94
237.689	81.94
237.922	98.94
238.156	85.94
238.39	100.94
238.624	72.94
238.858	82.94
239.091	99.94
239.325	95.94
239.559	92.94
239.793	97.94
240.027	86.94
240.26	80.94
240.494	90.94
240.728	71.94
240.961	94.94
241.195	92.94
241.429	92.94
241.662	93.94
241.896	103.94
242.13	84.94
242.363	90.94
242.597	103.94
242.83	80.94
243.064	92.94
243.298	91.94
243.531	97.94
243.765	101.94
243.998	103.94
244.232	89.94
244.465	107.94
244.699	88.94
244.932	97.94
245.166	93.94
245.399	93.94
245.633	85.94
245.866	111.94
246.099	102.94
246.333	97.94
246.566	91.94
246.8	114.94
247.033	79.94
247.266	101.94
247.5	92.94
247.733	100.94
247.966	92.94
248.2	101.94
248.433	108.94
248.666	86.94
248.899	105.94
249.133	97.94
249.366	97.94
249.599	107.94
249.832	99.94
250.066	105.94
250.299	113.94
250.532	100.94
250.765	96.94
250.998	108.94
251.231	113.94
251.465	108.94
251.698	107.94
251.931	101.94
252.164	109.94
252.397	105.94
252.63	111.94
252.863	96.94
253.096	110.94
253.329	112.94
253.562	86.94
253.795	117.94
254.028	102.94
254.261	102.94
254.494	112.94
254.727	109.94
254.96	113.94
255.193	111.94
255.426	93.94
255.659	99.94
255.892	101.94
256.124	103.94
256.357	98.94
256.59	116.94
256.823	124.94
257.056	107.94
257.289	113.94
257.521	115.94
257.754	116.94
257.987	115.94
258.22	115.94
258.452	97.94
258.685	112.94
258.918	100.94
259.151	99.94
259.383	107.94
259.616	105.94
259.849	122.94
260.081	113.94
260.314	128.94
260.547	113.94
260.779	100.94
261.012	105.94
261.244	113.94
261.477	118.94
261.71	108.94
261.942	104.94
262.175	114.94
262.407	121.94
262.64	113.94
262.872	120.94
263.105	119.94
263.337	129.94
263.57	116.94
263.802	124.94
264.035	137.94
264.267	128.94
264.499	121.94
264.732	124.94
264.964	129.94
265.197	132.94
265.429	120.94
265.661	128.94
265.894	132.94
266.126	128.94
266.358	133.94
266.591	135.94
266.823	112.94
267.055	100.94
267.287	131.94
267.52	127.94
267.752	132.94
267.984	127.94
268.216	119.94
268.448	135.94
268.681	112.94
268.913	116.94
269.145	127.94
269.377	124.94
269.609	109.94
269.841	111.94
270.073	132.94
270.306	118.94
270.538	130.94
270.77	117.94
271.002	126.94
271.234	134.94
271.466	124.94
271.698	123.94
271.93	128.94
272.162	131.94
272.394	140.94
272.626	136.94
272.858	144.94
273.09	142.94
273.322	122.94
273.553	145.94
273.785	127.94
274.017	121.94
274.249	130.94
274.481	128.94
274.713	135.94
274.945	135.94
275.176	130.94
275.408	144.94
275.64	129.94
275.872	124.94
276.104	116.94
276.335	135.94
276.567	129.94
276.799	139.94
277.031	139.94
277.262	149.94
277.494	155.94
277.726	146.94
277.957	130.94
278.189	142.94
278.421	139.94
278.652	123.94
278.884	137.94
279.115	151.94
279.347	135.94
279.579	136.94
279.81	133.94
280.042	139.94
280.273	146.94
280.505	138.94
280.736	139.94
280.968	126.94
281.199	135.94
281.431	136.94
281.662	141.94
281.894	140.94
282.125	130.94
282.356	133.94
282.588	132.94
282.819	158.94
283.051	147.94
283.282	143.94
283.513	135.94
283.745	139.94
283.976	121.94
284.207	146.94
284.439	146.94
284.67	138.94
284.901	143.94
285.132	149.94
285.364	152.94
285.595	141.94
285.826	161.94
286.057	155.94
286.288	149.94
286.52	138.94
286.751	155.94
286.982	148.94
287.213	143.94
287.444	152.94
287.675	161.94
287.906	165.94
288.138	132.94
288.369	143.94
288.6	160.94
288.831	159.94
289.062	155.94
289.293	155.94
289.524	161.94
289.755	163.94
289.986	150.94
290.217	156.94
290.448	159.94
290.679	158.94
290.91	158.94
291.141	160.94
291.371	160.94
291.602	161.94
291.833	160.94
292.064	154.94
292.295	159.94
292.526	159.94
292.757	153.94
292.987	147.94
293.218	156.94
293.449	172.94
293.68	154.94
293.91	164.94
294.141	144.94
294.372	160.94
294.603	159.94
294.833	167.94
295.064	162.94
295.295	157.94
295.525	150.94
295.756	159.94
295.987	166.94
296.217	139.94
296.448	152.94
296.679	154.94
296.909	162.94
297.14	169.94
297.37	159.94
297.601	167.94
297.831	167.94
298.062	155.94
298.292	171.94
298.523	165.94
298.753	171.94
298.984	183.94
299.214	183.94
299.445	169.94
299.675	166.94
299.905	167.94
300.136	175.94
300.366	168.94
300.597	162.94
300.827	171.94
301.057	167.94
301.288	159.94
301.518	171.94
301.748	156.94
301.979	172.94
302.209	180.94
302.439	163.94
302.669	179.94
302.9	178.94
303.13	162.94
303.36	175.94
303.59	188.94
303.82	172.94
304.051	181.94
304.281	178.94
304.511	170.94
304.741	186.94
304.971	168.94
305.201	168.94
305.431	173.94
305.661	169.94
305.891	165.94
306.121	167.94
306.352	170.94
306.582	160.94
306.812	165.94
307.042	167.94
307.272	159.94
307.502	172.94
307.731	165.94
307.961	164.94
308.191	159.94
308.421	186.94
308.651	168.94
308.881	156.94
309.111	157.94
309.341	163.94
309.571	163.94
309.8	180.94
310.03	175.94
310.26	165.94
310.49	175.94
310.72	161.94
310.949	177.94
311.179	184.94
311.409	183.94
311.639	177.94
311.868	187.94
312.098	164.94
312.328	177.94
312.557	174.94
312.787	171.94
313.017	182.94
313.246	183.94
313.476	159.94
313.706	173.94
313.935	192.94
314.165	164.94
314.394	187.94
314.624	182.94
314.853	179.94
315.083	178.94
315.312	172.94
315.542	185.94
315.771	173.94
316.001	175.94
316.23	172.94
316.46	169.94
316.689	171.94
316.919	175.94
317.148	201.94
317.377	177.94
317.607	169.94
317.836	163.94
318.065	179.94
318.295	189.94
318.524	168.94
318.753	175.94
318.983	183.94
319.212	176.94
319.441	175.94
319.67	183.94
319.9	178.94
320.129	181.94
320.358	158.94
320.587	167.94
320.816	171.94
321.046	176.94
321.275	172.94
321.504	170.94
321.733	191.94
321.962	186.94
322.191	184.94
322.42	179.94
322.649	211.94
322.878	179.94
323.108	173.94
323.337	179.94
323.566	193.94
323.795	192.94
324.024	179.94
324.253	179.94
324.482	187.94
324.71	179.94
324.939	182.94
325.168	186.94
325.397	183.94
325.626	180.94
325.855	184.94
326.084	181.94
326.313	185.94
326.542	194.94
326.77	199.94
326.999	182.94
327.228	164.94
327.457	177.94
327.686	169.94
327.914	182.94
328.143	206.94
328.372	189.94
328.6	190.94
328.829	200.94
329.058	198.94
329.287	181.94
329.515	183.94
329.744	197.94
329.972	200.94
330.201	179.94
330.43	192.94
330.658	181.94
330.887	167.94
331.115	193.94
331.344	198.94
331.572	200.94
331.801	179.94
332.03	190.94
332.258	202.94
332.486	186.94
332.715	201.94
332.943	208.94
333.172	228.94
333.4	211.94
333.629	247.94
333.857	235.94
334.085	229.94
334.314	215.94
334.542	224.94
334.771	216.94
334.999	213.94
335.227	239.94
335.455	203.94
335.684	201.94
335.912	198.94
336.14	206.94
336.369	205.94
336.597	198.94
336.825	198.94
337.053	197.94
337.281	225.94
337.51	212.94
337.738	208.94
337.966	207.94
338.194	210.94
338.422	196.94
338.65	187.94
338.878	191.94
339.106	189.94
339.334	206.94
339.562	183.94
339.79	182.94
340.018	194.94
340.246	202.94
340.474	193.94
340.702	186.94
340.93	199.94
341.158	201.94
341.386	199.94
341.614	205.94
341.842	202.94
342.07	198.94
342.298	190.94
342.526	180.94
342.754	194.94
342.981	183.94
343.209	199.94
343.437	220.94
343.665	220.94
343.893	211.94
344.12	226.94
344.348	211.94
344.576	210.94
344.804	196.94
345.031	177.94
345.259	193.94
345.487	199.94
345.714	182.94
345.942	188.94
346.17	191.94
346.397	187.94
346.625	188.94
346.853	196.94
347.08	194.94
347.308	196.94
347.535	195.94
347.763	184.94
347.99	189.94
348.218	214.94
348.445	187.94
348.673	177.94
348.9	193.94
349.128	171.94
349.355	171.94
349.583	191.94
349.81	180.94
350.037	184.94
350.265	185.94
350.492	185.94
350.72	180.94
350.947	192.94
351.174	180.94
351.402	186.94
351.629	189.94
351.856	183.94
352.083	175.94
352.311	175.94
352.538	168.94
352.765	187.94
352.992	183.94
353.22	178.94
353.447	183.94
353.674	188.94
353.901	176.94
354.128	199.94
354.355	203.94
354.583	190.94
354.81	196.94
355.037	191.94
355.264	181.94
355.491	199.94
355.718	177.94
355.945	184.94
356.172	184.94
356.399	191.94
356.626	191.94
356.853	181.94
357.08	187.94
357.307	185.94
357.534	179.94
357.761	169.94
357.988	172.94
358.215	193.94
358.441	193.94
358.668	180.94
358.895	186.94
359.122	180.94
359.349	191.94
359.576	194.94
359.802	175.94
360.029	165.94
360.256	173.94
360.483	180.94
360.709	184.94
360.936	192.94
361.163	191.94
361.39	186.94
361.616	183.94
361.843	175.94
362.07	168.94
362.296	171.94
362.523	176.94
362.749	171.94
362.976	163.94
363.203	179.94
363.429	188.94
363.656	181.94
363.882	195.94
364.109	184.94
364.335	187.94
364.562	182.94
364.788	179.94
365.015	203.94
365.241	167.94
365.468	187.94
365.694	175.94
365.92	169.94
366.147	190.94
366.373	183.94
366.599	210.94
366.826	187.94
367.052	182.94
367.278	173.94
367.505	187.94
367.731	168.94
367.957	169.94
368.184	178.94
368.41	175.94
368.636	168.94
368.862	192.94
369.089	169.94
369.315	184.94
369.541	183.94
369.767	186.94
369.993	184.94
370.219	181.94
370.445	196.94
370.672	184.94
370.898	183.94
371.124	178.94
371.35	178.94
371.576	196.94
371.802	198.94
372.028	200.94
372.254	186.94
372.48	170.94
372.706	204.94
372.932	199.94
373.158	193.94
373.384	183.94
373.61	186.94
373.835	170.94
374.061	181.94
374.287	201.94
374.513	192.94
374.739	204.94
374.965	202.94
375.191	214.94
375.416	202.94
375.642	208.94
375.868	204.94
376.094	215.94
376.319	211.94
376.545	203.94
376.771	201.94
376.997	186.94
377.222	198.94
377.448	215.94
377.674	210.94
377.899	191.94
378.125	199.94
378.35	199.94
378.576	189.94
378.802	189.94
379.027	176.94
379.253	198.94
379.478	186.94
379.704	192.94
379.929	190.94
380.155	180.94
380.38	211.94
380.606	175.94
380.831	203.94
381.057	202.94
381.282	204.94
381.507	190.94
381.733	187.94
381.958	199.94
382.184	191.94
382.409	203.94
382.634	200.94
382.86	204.94
383.085	210.94
383.31	208.94
383.535	194.94
383.761	207.94
383.986	201.94
384.211	208.94
384.436	204.94
384.662	205.94
384.887	208.94
385.112	199.94
385.337	218.94
385.562	216.94
385.787	212.94
386.013	219.94
386.238	218.94
386.463	221.94
386.688	219.94
386.913	223.94
387.138	224.94
387.363	200.94
387.588	199.94
387.813	207.94
388.038	220.94
388.263	227.94
388.488	214.94
388.713	203.94
388.938	207.94
389.163	216.94
389.387	219.94
389.612	230.94
389.837	212.94
390.062	223.94
390.287	210.94
390.512	200.94
390.736	208.94
390.961	227.94
391.186	205.94
391.411	207.94
391.636	212.94
391.86	230.94
392.085	217.94
392.31	257.94
392.534	213.94
392.759	233.94
392.984	222.94
393.208	226.94
393.433	226.94
393.658	206.94
393.882	227.94
394.107	225.94
394.331	226.94
394.556	232.94
394.78	220.94
395.005	230.94
395.229	223.94
395.454	221.94
395.678	233.94
395.903	235.94
396.127	245.94
396.352	226.94
396.576	235.94
396.801	254.94
397.025	231.94
397.249	241.94
397.474	228.94
397.698	207.94
397.922	225.94
398.147	229.94
398.371	219.94
398.595	235.94
398.82	251.94
399.044	260.94
399.268	293.94
399.492	320.94
399.717	353.94
399.941	344.94
400.165	300.94
400.389	293.94
400.613	268.94
400.837	260.94
401.062	263.94
401.286	266.94
401.51	244.94
401.734	239.94
401.958	264.94
402.182	263.94
402.406	237.94
402.63	267.94
402.854	258.94
403.078	249.94
403.302	271.94
403.526	270.94
403.75	286.94
403.974	290.94
404.198	266.94
404.422	281.94
404.645	276.94
404.869	278.94
405.093	268.94
405.317	269.94
405.541	272.94
405.765	273.94
405.988	272.94
406.212	246.94
406.436	271.94
406.66	276.94
406.883	266.94
407.107	289.94
407.331	329.94
407.555	317.94
407.778	323.94
408.002	309.94
408.226	289.94
408.449	290.94
408.673	282.94
408.896	279.94
409.12	269.94
409.344	269.94
409.567	281.94
409.791	280.94
410.014	274.94
410.238	295.94
410.461	283.94
410.685	278.94
410.908	266.94
411.132	242.94
411.355	244.94
411.578	239.94
411.802	248.94
412.025	268.94
412.249	264.94
412.472	274.94
412.695	235.94
412.919	264.94
413.142	263.94
413.365	246.94
413.589	252.94
413.812	239.94
414.035	242.94
414.258	259.94
414.482	244.94
414.705	246.94
414.928	257.94
415.151	245.94
415.374	248.94
415.597	248.94
415.821	244.94
416.044	230.94
416.267	255.94
416.49	245.94
416.713	244.94
416.936	245.94
417.159	231.94
417.382	231.94
417.605	235.94
417.828	266.94
418.051	267.94
418.274	252.94
418.497	260.94
418.72	258.94
418.943	252.94
419.166	268.94
419.389	281.94
419.611	279.94
419.834	252.94
420.057	251.94
420.28	263.94
420.503	247.94
420.726	242.94
420.948	244.94
421.171	240.94
421.394	240.94
421.617	254.94
421.839	251.94
422.062	239.94
422.285	244.94
422.507	263.94
422.73	268.94
422.953	257.94
423.175	263.94
423.398	243.94
423.621	244.94
423.843	261.94
424.066	260.94
424.288	257.94
424.511	263.94
424.733	257.94
424.956	261.94
425.178	245.94
425.401	239.94
425.623	242.94
425.846	254.94
426.068	259.94
426.291	243.94
426.513	240.94
426.735	243.94
426.958	221.94
427.18	216.94
427.402	235.94
427.625	236.94
427.847	226.94
428.069	247.94
428.292	256.94
428.514	213.94
428.736	231.94
428.958	208.94
429.181	216.94
429.403	205.94
429.625	215.94
429.847	214.94
430.069	207.94
430.292	217.94
430.514	224.94
430.736	218.94
430.958	228.94
431.18	230.94
431.402	214.94
431.624	221.94
431.846	243.94
432.068	234.94
432.29	231.94
432.512	225.94
432.734	230.94
432.956	221.94
433.178	224.94
433.4	216.94
433.622	246.94
433.844	245.94
434.066	219.94
434.287	220.94
434.509	244.94
434.731	226.94
434.953	251.94
435.175	247.94
435.397	256.94
435.618	235.94
435.84	224.94
436.062	228.94
436.284	218.94
436.505	221.94
436.727	240.94
436.949	224.94
437.17	225.94
437.392	244.94
437.614	221.94
437.835	228.94
438.057	214.94
438.278	222.94
438.5	217.94
438.721	207.94
438.943	227.94
439.165	237.94
439.386	218.94
439.608	223.94
439.829	224.94
440.05	223.94
440.272	223.94
440.493	216.94
440.715	233.94
440.936	221.94
441.158	227.94
441.379	221.94
441.6	234.94
441.822	243.94
442.043	251.94
442.264	241.94
442.486	234.94
442.707	255.94
442.928	239.94
443.149	235.94
443.371	244.94
443.592	234.94
443.813	248.94
444.034	260.94
444.255	265.94
444.476	259.94
444.698	276.94
444.919	302.94
445.14	423.94
445.361	315.94
445.582	269.94
445.803	244.94
446.024	252.94
446.245	240.94
446.466	234.94
446.687	221.94
446.908	221.94
447.129	231.94
447.35	232.94
447.571	222.94
447.792	203.94
448.013	218.94
448.234	209.94
448.455	228.94
448.675	222.94
448.896	200.94
449.117	224.94
449.338	220.94
449.559	216.94
449.779	232.94
450	206.94
450.221	219.94
450.442	205.94
450.662	216.94
450.883	199.94
451.104	216.94
451.324	228.94
451.545	206.94
451.766	208.94
451.986	218.94
452.207	211.94
452.428	203.94
452.648	217.94
452.869	199.94
453.089	205.94
453.31	221.94
453.53	221.94
453.751	212.94
453.971	211.94
454.192	213.94
454.412	209.94
454.633	210.94
454.853	206.94
455.073	191.94
455.294	204.94
455.514	216.94
455.734	202.94
455.955	199.94
456.175	205.94
456.395	213.94
456.616	210.94
456.836	191.94
457.056	222.94
457.276	185.94
457.497	211.94
457.717	209.94
457.937	208.94
458.157	189.94
458.377	205.94
458.598	210.94
458.818	201.94
459.038	221.94
459.258	230.94
459.478	243.94
459.698	242.94
459.918	241.94
460.138	263.94
460.358	269.94
460.578	276.94
460.798	265.94
461.018	274.94
461.238	255.94
461.458	252.94
461.678	259.94
461.898	268.94
462.118	265.94
462.338	268.94
462.558	277.94
462.777	297.94
462.997	321.94
463.217	336.94
463.437	345.94
463.657	328.94
463.876	292.94
464.096	314.94
464.316	305.94
464.536	312.94
464.755	293.94
464.975	299.94
465.195	270.94
465.414	262.94
465.634	226.94
465.854	233.94
466.073	229.94
466.293	219.94
466.512	233.94
466.732	219.94
466.951	217.94
467.171	236.94
467.391	225.94
467.61	231.94
467.829	228.94
468.049	218.94
468.268	209.94
468.488	225.94
468.707	219.94
468.927	205.94
469.146	216.94
469.365	218.94
469.585	213.94
469.804	215.94
470.023	225.94
470.243	229.94
470.462	225.94
470.681	222.94
470.901	249.94
471.12	213.94
471.339	228.94
471.558	219.94
471.777	223.94
471.997	220.94
472.216	213.94
472.435	212.94
472.654	209.94
472.873	226.94
473.092	203.94
473.311	210.94
473.53	210.94
473.749	221.94
473.968	220.94
474.187	208.94
474.406	205.94
474.625	205.94
474.844	199.94
475.063	217.94
475.282	226.94
475.501	214.94
475.72	226.94
475.939	219.94
476.158	219.94
476.377	221.94
476.596	222.94
476.814	216.94
477.033	243.94
477.252	236.94
477.471	219.94
477.69	225.94
477.908	234.94
478.127	255.94
478.346	242.94
478.564	244.94
478.783	241.94
479.002	259.94
479.22	233.94
479.439	247.94
479.658	244.94
479.876	267.94
480.095	262.94
480.313	258.94
480.532	268.94
480.751	274.94
480.969	260.94
481.188	245.94
481.406	246.94
481.624	247.94
481.843	241.94
482.061	245.94
482.28	254.94
482.498	232.94
482.717	242.94
482.935	252.94
483.153	253.94
483.372	236.94
483.59	242.94
483.808	217.94
484.027	240.94
484.245	230.94
484.463	234.94
484.681	249.94
484.9	248.94
485.118	240.94
485.336	237.94
485.554	249.94
485.772	259.94
485.99	245.94
486.209	266.94
486.427	278.94
486.645	259.94
486.863	274.94
487.081	263.94
487.299	258.94
487.517	256.94
487.735	244.94
487.953	259.94
488.171	278.94
488.389	260.94
488.607	267.94
488.825	248.94
489.043	247.94
489.261	250.94
489.479	250.94
489.696	256.94
489.914	245.94
490.132	247.94
490.35	257.94
490.568	263.94
490.786	252.94
491.003	273.94
491.221	267.94
491.439	248.94
491.657	277.94
491.874	235.94
492.092	273.94
492.31	287.94
492.527	265.94
492.745	256.94
492.963	259.94
493.18	258.94
493.398	254.94
493.615	262.94
493.833	264.94
494.05	248.94
494.268	273.94
494.485	258.94
494.703	255.94
494.92	269.94
495.138	263.94
495.355	259.94
495.573	260.94
495.79	262.94
496.008	274.94
496.225	251.94
496.442	269.94
496.66	281.94
496.877	278.94
497.094	284.94
497.312	280.94
497.529	281.94
497.746	289.94
497.963	306.94
498.181	316.94
498.398	303.94
498.615	352.94
498.832	356.94
499.049	369.94
499.267	400.94
499.484	430.94
499.701	456.94
499.918	516.94
500.135	578.94
500.352	677.94
500.569	705.94
500.786	689.94
501.003	657.94
501.22	584.94
501.437	501.94
501.654	464.94
501.871	411.94
502.088	388.94
502.305	357.94
502.522	327.94
502.739	348.94
502.956	322.94
503.172	322.94
503.389	299.94
