Data from 0.5MCu(NO3)2.Standard.Lamp.E10.CV._HRD10591_16-04-49-753.txt Node
Date: Mon Jul 22 16:04:49 EDT 2019
User: cochatt
Spectrometer: HR+D1059
Trigger mode: 1
Integration Time (sec): 1.000000E-1
Scans to average: 1
Electric dark correction enabled: true
Nonlinearity correction enabled: false
Boxcar width: 0
XAxis mode: Wavelengths
Number of Pixels in Spectrum: 2048
>>>>>Begin Spectral Data<<<<<
223.165	-13.88
223.4	-13.88
223.635	-13.88
223.869	-13.88
224.104	-18.88
224.338	-9.88
224.573	-16.88
224.808	-19.88
225.042	-17.88
225.277	-3.88
225.511	-7.88
225.746	7.12
225.98	6.12
226.215	19.12
226.449	17.12
226.683	29.12
226.918	24.12
227.152	20.12
227.387	35.12
227.621	35.12
227.856	43.12
228.09	44.12
228.324	54.12
228.559	47.12
228.793	62.12
229.027	77.12
229.262	74.12
229.496	75.12
229.73	76.12
229.964	75.12
230.199	90.12
230.433	84.12
230.667	86.12
230.901	94.12
231.136	88.12
231.37	86.12
231.604	87.12
231.838	98.12
232.072	90.12
232.306	76.12
232.541	88.12
232.775	96.12
233.009	111.12
233.243	89.12
233.477	75.12
233.711	108.12
233.945	102.12
234.179	110.12
234.413	90.12
234.647	100.12
234.881	88.12
235.115	84.12
235.349	103.12
235.583	101.12
235.817	86.12
236.051	80.12
236.285	87.12
236.519	94.12
236.753	86.12
236.987	90.12
237.221	98.12
237.455	90.12
237.689	80.12
237.922	83.12
238.156	79.12
238.39	82.12
238.624	95.12
238.858	96.12
239.091	95.12
239.325	89.12
239.559	97.12
239.793	103.12
240.027	100.12
240.26	91.12
240.494	97.12
240.728	86.12
240.961	95.12
241.195	95.12
241.429	97.12
241.662	97.12
241.896	108.12
242.13	100.12
242.363	110.12
242.597	87.12
242.83	107.12
243.064	92.12
243.298	88.12
243.531	94.12
243.765	92.12
243.998	96.12
244.232	110.12
244.465	108.12
244.699	101.12
244.932	83.12
245.166	112.12
245.399	101.12
245.633	94.12
245.866	101.12
246.099	90.12
246.333	101.12
246.566	90.12
246.8	101.12
247.033	101.12
247.266	107.12
247.5	105.12
247.733	112.12
247.966	108.12
248.2	108.12
248.433	92.12
248.666	106.12
248.899	109.12
249.133	100.12
249.366	109.12
249.599	106.12
249.832	110.12
250.066	107.12
250.299	115.12
250.532	101.12
250.765	109.12
250.998	113.12
251.231	119.12
251.465	116.12
251.698	105.12
251.931	105.12
252.164	117.12
252.397	110.12
252.63	122.12
252.863	118.12
253.096	112.12
253.329	108.12
253.562	106.12
253.795	125.12
254.028	103.12
254.261	112.12
254.494	107.12
254.727	128.12
254.96	124.12
255.193	115.12
255.426	114.12
255.659	117.12
255.892	121.12
256.124	120.12
256.357	119.12
256.59	115.12
256.823	110.12
257.056	123.12
257.289	111.12
257.521	111.12
257.754	126.12
257.987	122.12
258.22	111.12
258.452	131.12
258.685	122.12
258.918	125.12
259.151	130.12
259.383	108.12
259.616	115.12
259.849	124.12
260.081	127.12
260.314	111.12
260.547	116.12
260.779	124.12
261.012	128.12
261.244	111.12
261.477	128.12
261.71	128.12
261.942	122.12
262.175	129.12
262.407	135.12
262.64	120.12
262.872	128.12
263.105	123.12
263.337	118.12
263.57	113.12
263.802	130.12
264.035	116.12
264.267	124.12
264.499	121.12
264.732	122.12
264.964	126.12
265.197	127.12
265.429	124.12
265.661	128.12
265.894	138.12
266.126	114.12
266.358	142.12
266.591	130.12
266.823	125.12
267.055	120.12
267.287	142.12
267.52	125.12
267.752	138.12
267.984	140.12
268.216	120.12
268.448	132.12
268.681	123.12
268.913	130.12
269.145	122.12
269.377	124.12
269.609	134.12
269.841	154.12
270.073	127.12
270.306	127.12
270.538	137.12
270.77	134.12
271.002	139.12
271.234	142.12
271.466	131.12
271.698	134.12
271.93	130.12
272.162	148.12
272.394	147.12
272.626	140.12
272.858	127.12
273.09	136.12
273.322	127.12
273.553	123.12
273.785	134.12
274.017	141.12
274.249	143.12
274.481	126.12
274.713	131.12
274.945	131.12
275.176	134.12
275.408	142.12
275.64	134.12
275.872	135.12
276.104	134.12
276.335	146.12
276.567	150.12
276.799	151.12
277.031	144.12
277.262	147.12
277.494	156.12
277.726	147.12
277.957	133.12
278.189	141.12
278.421	143.12
278.652	142.12
278.884	160.12
279.115	157.12
279.347	154.12
279.579	156.12
279.81	160.12
280.042	154.12
280.273	150.12
280.505	150.12
280.736	157.12
280.968	171.12
281.199	152.12
281.431	152.12
281.662	158.12
281.894	151.12
282.125	153.12
282.356	163.12
282.588	142.12
282.819	142.12
283.051	130.12
283.282	146.12
283.513	147.12
283.745	170.12
283.976	158.12
284.207	167.12
284.439	154.12
284.67	156.12
284.901	172.12
285.132	158.12
285.364	141.12
285.595	145.12
285.826	170.12
286.057	161.12
286.288	166.12
286.52	162.12
286.751	163.12
286.982	170.12
287.213	160.12
287.444	164.12
287.675	162.12
287.906	167.12
288.138	164.12
288.369	170.12
288.6	181.12
288.831	164.12
289.062	159.12
289.293	175.12
289.524	170.12
289.755	155.12
289.986	163.12
290.217	171.12
290.448	159.12
290.679	160.12
290.91	155.12
291.141	144.12
291.371	169.12
291.602	172.12
291.833	166.12
292.064	151.12
292.295	173.12
292.526	168.12
292.757	171.12
292.987	163.12
293.218	177.12
293.449	158.12
293.68	162.12
293.91	160.12
294.141	169.12
294.372	156.12
294.603	179.12
294.833	168.12
295.064	160.12
295.295	182.12
295.525	163.12
295.756	164.12
295.987	168.12
296.217	167.12
296.448	164.12
296.679	182.12
296.909	166.12
297.14	163.12
297.37	184.12
297.601	182.12
297.831	174.12
298.062	199.12
298.292	171.12
298.523	183.12
298.753	186.12
298.984	169.12
299.214	187.12
299.445	180.12
299.675	170.12
299.905	175.12
300.136	179.12
300.366	173.12
300.597	164.12
300.827	182.12
301.057	188.12
301.288	179.12
301.518	178.12
301.748	173.12
301.979	183.12
302.209	170.12
302.439	185.12
302.669	197.12
302.9	196.12
303.13	182.12
303.36	181.12
303.59	193.12
303.82	187.12
304.051	186.12
304.281	163.12
304.511	171.12
304.741	185.12
304.971	187.12
305.201	192.12
305.431	188.12
305.661	180.12
305.891	186.12
306.121	184.12
306.352	170.12
306.582	178.12
306.812	184.12
307.042	195.12
307.272	178.12
307.502	174.12
307.731	184.12
307.961	170.12
308.191	183.12
308.421	174.12
308.651	196.12
308.881	181.12
309.111	178.12
309.341	168.12
309.571	187.12
309.8	195.12
310.03	186.12
310.26	186.12
310.49	158.12
310.72	189.12
310.949	184.12
311.179	166.12
311.409	172.12
311.639	187.12
311.868	182.12
312.098	198.12
312.328	179.12
312.557	172.12
312.787	202.12
313.017	191.12
313.246	194.12
313.476	178.12
313.706	197.12
313.935	179.12
314.165	186.12
314.394	196.12
314.624	183.12
314.853	190.12
315.083	190.12
315.312	179.12
315.542	188.12
315.771	198.12
316.001	176.12
316.23	186.12
316.46	189.12
316.689	184.12
316.919	184.12
317.148	190.12
317.377	196.12
317.607	186.12
317.836	172.12
318.065	202.12
318.295	182.12
318.524	194.12
318.753	191.12
318.983	197.12
319.212	193.12
319.441	189.12
319.67	190.12
319.9	182.12
320.129	199.12
320.358	197.12
320.587	186.12
320.816	190.12
321.046	169.12
321.275	194.12
321.504	178.12
321.733	183.12
321.962	194.12
322.191	195.12
322.42	197.12
322.649	175.12
322.878	183.12
323.108	198.12
323.337	168.12
323.566	194.12
323.795	200.12
324.024	196.12
324.253	194.12
324.482	185.12
324.71	191.12
324.939	181.12
325.168	190.12
325.397	177.12
325.626	200.12
325.855	198.12
326.084	200.12
326.313	189.12
326.542	197.12
326.77	175.12
326.999	203.12
327.228	200.12
327.457	203.12
327.686	194.12
327.914	195.12
328.143	206.12
328.372	195.12
328.6	203.12
328.829	188.12
329.058	190.12
329.287	185.12
329.515	209.12
329.744	213.12
329.972	198.12
330.201	208.12
330.43	204.12
330.658	184.12
330.887	206.12
331.115	204.12
331.344	205.12
331.572	208.12
331.801	203.12
332.03	221.12
332.258	212.12
332.486	237.12
332.715	220.12
332.943	237.12
333.172	241.12
333.4	233.12
333.629	244.12
333.857	248.12
334.085	239.12
334.314	251.12
334.542	237.12
334.771	231.12
334.999	228.12
335.227	235.12
335.455	250.12
335.684	239.12
335.912	219.12
336.14	235.12
336.369	211.12
336.597	230.12
336.825	224.12
337.053	254.12
337.281	216.12
337.51	217.12
337.738	216.12
337.966	202.12
338.194	209.12
338.422	187.12
338.65	211.12
338.878	224.12
339.106	202.12
339.334	206.12
339.562	195.12
339.79	210.12
340.018	213.12
340.246	199.12
340.474	201.12
340.702	201.12
340.93	208.12
341.158	199.12
341.386	196.12
341.614	208.12
341.842	218.12
342.07	212.12
342.298	208.12
342.526	194.12
342.754	209.12
342.981	203.12
343.209	215.12
343.437	214.12
343.665	212.12
343.893	238.12
344.12	253.12
344.348	237.12
344.576	216.12
344.804	216.12
345.031	222.12
345.259	204.12
345.487	203.12
345.714	204.12
345.942	205.12
346.17	213.12
346.397	190.12
346.625	208.12
346.853	207.12
347.08	192.12
347.308	207.12
347.535	211.12
347.763	200.12
347.99	214.12
348.218	204.12
348.445	194.12
348.673	182.12
348.9	220.12
349.128	190.12
349.355	196.12
349.583	200.12
349.81	199.12
350.037	199.12
350.265	200.12
350.492	183.12
350.72	190.12
350.947	198.12
351.174	200.12
351.402	203.12
351.629	195.12
351.856	196.12
352.083	191.12
352.311	205.12
352.538	190.12
352.765	187.12
352.992	203.12
353.22	191.12
353.447	183.12
353.674	200.12
353.901	191.12
354.128	194.12
354.355	204.12
354.583	197.12
354.81	182.12
355.037	197.12
355.264	190.12
355.491	210.12
355.718	202.12
355.945	208.12
356.172	193.12
356.399	200.12
356.626	189.12
356.853	183.12
357.08	187.12
357.307	198.12
357.534	183.12
357.761	192.12
357.988	214.12
358.215	185.12
358.441	191.12
358.668	200.12
358.895	180.12
359.122	184.12
359.349	185.12
359.576	179.12
359.802	190.12
360.029	193.12
360.256	213.12
360.483	197.12
360.709	190.12
360.936	193.12
361.163	185.12
361.39	180.12
361.616	191.12
361.843	178.12
362.07	190.12
362.296	192.12
362.523	187.12
362.749	186.12
362.976	173.12
363.203	195.12
363.429	182.12
363.656	205.12
363.882	183.12
364.109	193.12
364.335	195.12
364.562	199.12
364.788	195.12
365.015	202.12
365.241	202.12
365.468	194.12
365.694	192.12
365.92	194.12
366.147	198.12
366.373	200.12
366.599	187.12
366.826	186.12
367.052	175.12
367.278	186.12
367.505	195.12
367.731	192.12
367.957	205.12
368.184	194.12
368.41	199.12
368.636	203.12
368.862	182.12
369.089	185.12
369.315	187.12
369.541	205.12
369.767	190.12
369.993	203.12
370.219	207.12
370.445	211.12
370.672	186.12
370.898	210.12
371.124	205.12
371.35	190.12
371.576	204.12
371.802	200.12
372.028	210.12
372.254	204.12
372.48	207.12
372.706	199.12
372.932	215.12
373.158	206.12
373.384	197.12
373.61	195.12
373.835	209.12
374.061	208.12
374.287	222.12
374.513	208.12
374.739	210.12
374.965	252.12
375.191	228.12
375.416	212.12
375.642	235.12
375.868	219.12
376.094	225.12
376.319	192.12
376.545	209.12
376.771	190.12
376.997	204.12
377.222	213.12
377.448	211.12
377.674	204.12
377.899	206.12
378.125	191.12
378.35	208.12
378.576	193.12
378.802	188.12
379.027	195.12
379.253	197.12
379.478	213.12
379.704	203.12
379.929	216.12
380.155	199.12
380.38	218.12
380.606	190.12
380.831	196.12
381.057	223.12
381.282	194.12
381.507	193.12
381.733	202.12
381.958	216.12
382.184	210.12
382.409	216.12
382.634	213.12
382.86	195.12
383.085	208.12
383.31	218.12
383.535	215.12
383.761	217.12
383.986	212.12
384.211	235.12
384.436	239.12
384.662	216.12
384.887	246.12
385.112	227.12
385.337	213.12
385.562	239.12
385.787	235.12
386.013	238.12
386.238	237.12
386.463	230.12
386.688	222.12
386.913	239.12
387.138	206.12
387.363	232.12
387.588	225.12
387.813	230.12
388.038	240.12
388.263	227.12
388.488	237.12
388.713	225.12
388.938	222.12
389.163	230.12
389.387	209.12
389.612	229.12
389.837	216.12
390.062	222.12
390.287	216.12
390.512	217.12
390.736	223.12
390.961	215.12
391.186	219.12
391.411	214.12
391.636	235.12
391.86	262.12
392.085	262.12
392.31	251.12
392.534	242.12
392.759	238.12
392.984	225.12
393.208	228.12
393.433	217.12
393.658	242.12
393.882	238.12
394.107	232.12
394.331	229.12
394.556	229.12
394.78	218.12
395.005	236.12
395.229	239.12
395.454	258.12
395.678	240.12
395.903	249.12
396.127	239.12
396.352	231.12
396.576	234.12
396.801	238.12
397.025	228.12
397.249	229.12
397.474	226.12
397.698	245.12
397.922	227.12
398.147	244.12
398.371	255.12
398.595	259.12
398.82	271.12
399.044	282.12
399.268	297.12
399.492	340.12
399.717	378.12
399.941	390.12
400.165	330.12
400.389	314.12
400.613	289.12
400.837	273.12
401.062	263.12
401.286	280.12
401.51	270.12
401.734	265.12
401.958	271.12
402.182	253.12
402.406	273.12
402.63	272.12
402.854	267.12
403.078	293.12
403.302	309.12
403.526	292.12
403.75	314.12
403.974	308.12
404.198	299.12
404.422	308.12
404.645	310.12
404.869	303.12
405.093	308.12
405.317	302.12
405.541	286.12
405.765	284.12
405.988	282.12
406.212	320.12
406.436	270.12
406.66	274.12
406.883	285.12
407.107	300.12
407.331	318.12
407.555	341.12
407.778	335.12
408.002	327.12
408.226	314.12
408.449	300.12
408.673	307.12
408.896	286.12
409.12	295.12
409.344	291.12
409.567	303.12
409.791	304.12
410.014	298.12
410.238	311.12
410.461	291.12
410.685	302.12
410.908	278.12
411.132	281.12
411.355	271.12
411.578	276.12
411.802	276.12
412.025	278.12
412.249	269.12
412.472	279.12
412.695	268.12
412.919	278.12
413.142	249.12
413.365	258.12
413.589	282.12
413.812	272.12
414.035	265.12
414.258	263.12
414.482	272.12
414.705	275.12
414.928	256.12
415.151	275.12
415.374	263.12
415.597	279.12
415.821	270.12
416.044	270.12
416.267	261.12
416.49	261.12
416.713	250.12
416.936	254.12
417.159	266.12
417.382	286.12
417.605	270.12
417.828	290.12
418.051	277.12
418.274	265.12
418.497	270.12
418.72	285.12
418.943	263.12
419.166	288.12
419.389	299.12
419.611	318.12
419.834	286.12
420.057	276.12
420.28	279.12
420.503	264.12
420.726	264.12
420.948	261.12
421.171	264.12
421.394	268.12
421.617	281.12
421.839	265.12
422.062	284.12
422.285	271.12
422.507	280.12
422.73	274.12
422.953	286.12
423.175	284.12
423.398	296.12
423.621	287.12
423.843	294.12
424.066	283.12
424.288	282.12
424.511	282.12
424.733	290.12
424.956	265.12
425.178	272.12
425.401	280.12
425.623	264.12
425.846	268.12
426.068	264.12
426.291	267.12
426.513	242.12
426.735	237.12
426.958	235.12
427.18	238.12
427.402	232.12
427.625	254.12
427.847	240.12
428.069	252.12
428.292	257.12
428.514	245.12
428.736	234.12
428.958	243.12
429.181	228.12
429.403	219.12
429.625	247.12
429.847	240.12
430.069	231.12
430.292	261.12
430.514	222.12
430.736	227.12
430.958	244.12
431.18	235.12
431.402	241.12
431.624	239.12
431.846	250.12
432.068	243.12
432.29	260.12
432.512	231.12
432.734	236.12
432.956	236.12
433.178	245.12
433.4	225.12
433.622	254.12
433.844	239.12
434.066	249.12
434.287	238.12
434.509	242.12
434.731	255.12
434.953	267.12
435.175	286.12
435.397	264.12
435.618	251.12
435.84	260.12
436.062	248.12
436.284	237.12
436.505	246.12
436.727	252.12
436.949	250.12
437.17	243.12
437.392	239.12
437.614	240.12
437.835	219.12
438.057	245.12
438.278	242.12
438.5	230.12
438.721	239.12
438.943	230.12
439.165	224.12
439.386	231.12
439.608	252.12
439.829	247.12
440.05	238.12
440.272	245.12
440.493	246.12
440.715	243.12
440.936	250.12
441.158	258.12
441.379	258.12
441.6	280.12
441.822	272.12
442.043	261.12
442.264	259.12
442.486	256.12
442.707	250.12
442.928	267.12
443.149	267.12
443.371	256.12
443.592	274.12
443.813	264.12
444.034	267.12
444.255	286.12
444.476	279.12
444.698	307.12
444.919	335.12
445.14	441.12
445.361	358.12
445.582	270.12
445.803	264.12
446.024	262.12
446.245	248.12
446.466	228.12
446.687	237.12
446.908	262.12
447.129	250.12
447.35	251.12
447.571	236.12
447.792	258.12
448.013	223.12
448.234	200.12
448.455	208.12
448.675	220.12
448.896	235.12
449.117	229.12
449.338	216.12
449.559	220.12
449.779	216.12
450	216.12
450.221	228.12
450.442	220.12
450.662	268.12
450.883	231.12
451.104	244.12
451.324	231.12
451.545	228.12
451.766	234.12
451.986	215.12
452.207	226.12
452.428	226.12
452.648	227.12
452.869	225.12
453.089	225.12
453.31	223.12
453.53	236.12
453.751	232.12
453.971	229.12
454.192	216.12
454.412	219.12
454.633	215.12
454.853	221.12
455.073	211.12
455.294	234.12
455.514	219.12
455.734	208.12
455.955	205.12
456.175	216.12
456.395	223.12
456.616	206.12
456.836	184.12
457.056	224.12
457.276	203.12
457.497	219.12
457.717	214.12
457.937	220.12
458.157	216.12
458.377	213.12
458.598	224.12
458.818	241.12
459.038	239.12
459.258	236.12
459.478	245.12
459.698	248.12
459.918	246.12
460.138	244.12
460.358	273.12
460.578	281.12
460.798	254.12
461.018	257.12
461.238	283.12
461.458	271.12
461.678	277.12
461.898	274.12
462.118	291.12
462.338	299.12
462.558	292.12
462.777	312.12
462.997	328.12
463.217	359.12
463.437	367.12
463.657	347.12
463.876	327.12
464.096	316.12
464.316	326.12
464.536	319.12
464.755	329.12
464.975	308.12
465.195	294.12
465.414	285.12
465.634	256.12
465.854	263.12
466.073	251.12
466.293	238.12
466.512	231.12
466.732	239.12
466.951	245.12
467.171	252.12
467.391	252.12
467.61	233.12
467.829	240.12
468.049	243.12
468.268	223.12
468.488	223.12
468.707	231.12
468.927	235.12
469.146	224.12
469.365	231.12
469.585	239.12
469.804	254.12
470.023	248.12
470.243	250.12
470.462	237.12
470.681	246.12
470.901	236.12
471.12	256.12
471.339	254.12
471.558	243.12
471.777	247.12
471.997	242.12
472.216	227.12
472.435	217.12
472.654	237.12
472.873	235.12
473.092	229.12
473.311	238.12
473.53	208.12
473.749	227.12
473.968	216.12
474.187	215.12
474.406	235.12
474.625	228.12
474.844	232.12
475.063	245.12
475.282	230.12
475.501	209.12
475.72	251.12
475.939	236.12
476.158	244.12
476.377	261.12
476.596	235.12
476.814	248.12
477.033	234.12
477.252	260.12
477.471	267.12
477.69	249.12
477.908	256.12
478.127	259.12
478.346	265.12
478.564	268.12
478.783	272.12
479.002	281.12
479.22	289.12
479.439	270.12
479.658	276.12
479.876	270.12
480.095	271.12
480.313	295.12
480.532	289.12
480.751	280.12
480.969	291.12
481.188	276.12
481.406	260.12
481.624	261.12
481.843	262.12
482.061	265.12
482.28	261.12
482.498	244.12
482.717	247.12
482.935	258.12
483.153	254.12
483.372	250.12
483.59	259.12
483.808	247.12
484.027	276.12
484.245	258.12
484.463	267.12
484.681	267.12
484.9	281.12
485.118	267.12
485.336	268.12
485.554	276.12
485.772	280.12
485.99	290.12
486.209	280.12
486.427	280.12
486.645	280.12
486.863	270.12
487.081	286.12
487.299	284.12
487.517	285.12
487.735	271.12
487.953	270.12
488.171	288.12
488.389	290.12
488.607	287.12
488.825	283.12
489.043	267.12
489.261	254.12
489.479	283.12
489.696	268.12
489.914	272.12
490.132	277.12
490.35	276.12
490.568	269.12
490.786	272.12
491.003	265.12
491.221	265.12
491.439	294.12
491.657	286.12
491.874	287.12
492.092	271.12
492.31	283.12
492.527	258.12
492.745	282.12
492.963	291.12
493.18	314.12
493.398	292.12
493.615	280.12
493.833	281.12
494.05	288.12
494.268	280.12
494.485	277.12
494.703	280.12
494.92	286.12
495.138	290.12
495.355	296.12
495.573	290.12
495.79	287.12
496.008	298.12
496.225	268.12
496.442	307.12
496.66	315.12
496.877	293.12
497.094	300.12
497.312	308.12
497.529	310.12
497.746	302.12
497.963	330.12
498.181	315.12
498.398	336.12
498.615	349.12
498.832	373.12
499.049	408.12
499.267	413.12
499.484	460.12
499.701	498.12
499.918	555.12
500.135	615.12
500.352	731.12
500.569	759.12
500.786	742.12
501.003	710.12
501.22	629.12
501.437	537.12
501.654	488.12
501.871	432.12
502.088	415.12
502.305	396.12
502.522	389.12
502.739	343.12
502.956	337.12
