Data from 0.5MCu(NO3)2.Standard.Lamp.E10.CV._HRD10591_16-06-52-754.txt Node
Date: Mon Jul 22 16:06:52 EDT 2019
User: cochatt
Spectrometer: HR+D1059
Trigger mode: 1
Integration Time (sec): 1.000000E-1
Scans to average: 1
Electric dark correction enabled: true
Nonlinearity correction enabled: false
Boxcar width: 0
XAxis mode: Wavelengths
Number of Pixels in Spectrum: 2048
>>>>>Begin Spectral Data<<<<<
223.165	-12.06
223.4	-12.06
223.635	-12.06
223.869	-17.06
224.104	-17.06
224.338	-6.06
224.573	-3.06
224.808	-25.06
225.042	-19.06
225.277	-6.06
225.511	-0.06
225.746	14.94
225.98	6.94
226.215	12.94
226.449	12.94
226.683	7.94
226.918	27.94
227.152	21.94
227.387	20.94
227.621	40.94
227.856	34.94
228.09	30.94
228.324	51.94
228.559	49.94
228.793	39.94
229.027	53.94
229.262	80.94
229.496	67.94
229.73	77.94
229.964	79.94
230.199	73.94
230.433	68.94
230.667	74.94
230.901	83.94
231.136	78.94
231.37	96.94
231.604	92.94
231.838	93.94
232.072	97.94
232.306	81.94
232.541	87.94
232.775	76.94
233.009	83.94
233.243	87.94
233.477	86.94
233.711	86.94
233.945	97.94
234.179	89.94
234.413	89.94
234.647	104.94
234.881	94.94
235.115	83.94
235.349	88.94
235.583	76.94
235.817	79.94
236.051	89.94
236.285	100.94
236.519	79.94
236.753	74.94
236.987	87.94
237.221	88.94
237.455	79.94
237.689	68.94
237.922	89.94
238.156	92.94
238.39	82.94
238.624	80.94
238.858	92.94
239.091	90.94
239.325	70.94
239.559	90.94
239.793	70.94
240.027	78.94
240.26	75.94
240.494	89.94
240.728	82.94
240.961	95.94
241.195	102.94
241.429	105.94
241.662	87.94
241.896	93.94
242.13	96.94
242.363	99.94
242.597	82.94
242.83	99.94
243.064	84.94
243.298	97.94
243.531	95.94
243.765	100.94
243.998	92.94
244.232	83.94
244.465	82.94
244.699	88.94
244.932	90.94
245.166	95.94
245.399	95.94
245.633	106.94
245.866	87.94
246.099	99.94
246.333	113.94
246.566	97.94
246.8	94.94
247.033	86.94
247.266	98.94
247.5	102.94
247.733	104.94
247.966	79.94
248.2	104.94
248.433	115.94
248.666	95.94
248.899	92.94
249.133	96.94
249.366	109.94
249.599	108.94
249.832	97.94
250.066	102.94
250.299	96.94
250.532	112.94
250.765	104.94
250.998	110.94
251.231	102.94
251.465	87.94
251.698	114.94
251.931	111.94
252.164	97.94
252.397	106.94
252.63	100.94
252.863	113.94
253.096	94.94
253.329	116.94
253.562	106.94
253.795	108.94
254.028	105.94
254.261	103.94
254.494	94.94
254.727	103.94
254.96	102.94
255.193	105.94
255.426	116.94
255.659	89.94
255.892	100.94
256.124	114.94
256.357	84.94
256.59	108.94
256.823	98.94
257.056	88.94
257.289	124.94
257.521	116.94
257.754	107.94
257.987	112.94
258.22	120.94
258.452	101.94
258.685	118.94
258.918	115.94
259.151	118.94
259.383	115.94
259.616	111.94
259.849	114.94
260.081	112.94
260.314	119.94
260.547	113.94
260.779	121.94
261.012	114.94
261.244	115.94
261.477	118.94
261.71	122.94
261.942	118.94
262.175	118.94
262.407	111.94
262.64	118.94
262.872	122.94
263.105	129.94
263.337	120.94
263.57	102.94
263.802	122.94
264.035	117.94
264.267	112.94
264.499	110.94
264.732	117.94
264.964	119.94
265.197	127.94
265.429	120.94
265.661	134.94
265.894	114.94
266.126	116.94
266.358	125.94
266.591	121.94
266.823	122.94
267.055	127.94
267.287	126.94
267.52	126.94
267.752	121.94
267.984	133.94
268.216	119.94
268.448	126.94
268.681	125.94
268.913	123.94
269.145	108.94
269.377	124.94
269.609	114.94
269.841	114.94
270.073	130.94
270.306	129.94
270.538	119.94
270.77	115.94
271.002	126.94
271.234	122.94
271.466	132.94
271.698	129.94
271.93	105.94
272.162	114.94
272.394	115.94
272.626	123.94
272.858	129.94
273.09	135.94
273.322	127.94
273.553	113.94
273.785	135.94
274.017	130.94
274.249	132.94
274.481	132.94
274.713	119.94
274.945	129.94
275.176	130.94
275.408	141.94
275.64	126.94
275.872	130.94
276.104	132.94
276.335	127.94
276.567	129.94
276.799	133.94
277.031	137.94
277.262	124.94
277.494	135.94
277.726	132.94
277.957	135.94
278.189	136.94
278.421	146.94
278.652	131.94
278.884	123.94
279.115	124.94
279.347	131.94
279.579	143.94
279.81	128.94
280.042	131.94
280.273	142.94
280.505	139.94
280.736	136.94
280.968	136.94
281.199	142.94
281.431	139.94
281.662	142.94
281.894	135.94
282.125	129.94
282.356	145.94
282.588	138.94
282.819	144.94
283.051	134.94
283.282	127.94
283.513	139.94
283.745	155.94
283.976	140.94
284.207	150.94
284.439	150.94
284.67	156.94
284.901	141.94
285.132	134.94
285.364	152.94
285.595	137.94
285.826	139.94
286.057	133.94
286.288	134.94
286.52	160.94
286.751	135.94
286.982	166.94
287.213	154.94
287.444	160.94
287.675	160.94
287.906	156.94
288.138	150.94
288.369	164.94
288.6	155.94
288.831	147.94
289.062	162.94
289.293	142.94
289.524	166.94
289.755	139.94
289.986	154.94
290.217	155.94
290.448	170.94
290.679	160.94
290.91	156.94
291.141	147.94
291.371	162.94
291.602	151.94
291.833	156.94
292.064	154.94
292.295	154.94
292.526	167.94
292.757	155.94
292.987	149.94
293.218	145.94
293.449	154.94
293.68	160.94
293.91	154.94
294.141	162.94
294.372	147.94
294.603	150.94
294.833	148.94
295.064	148.94
295.295	141.94
295.525	155.94
295.756	164.94
295.987	146.94
296.217	158.94
296.448	158.94
296.679	146.94
296.909	150.94
297.14	158.94
297.37	166.94
297.601	180.94
297.831	167.94
298.062	154.94
298.292	167.94
298.523	174.94
298.753	188.94
298.984	158.94
299.214	182.94
299.445	167.94
299.675	154.94
299.905	152.94
300.136	170.94
300.366	161.94
300.597	169.94
300.827	164.94
301.057	171.94
301.288	158.94
301.518	167.94
301.748	171.94
301.979	172.94
302.209	175.94
302.439	162.94
302.669	174.94
302.9	162.94
303.13	178.94
303.36	163.94
303.59	168.94
303.82	163.94
304.051	168.94
304.281	166.94
304.511	161.94
304.741	161.94
304.971	161.94
305.201	169.94
305.431	144.94
305.661	179.94
305.891	168.94
306.121	171.94
306.352	169.94
306.582	155.94
306.812	162.94
307.042	184.94
307.272	176.94
307.502	171.94
307.731	156.94
307.961	156.94
308.191	148.94
308.421	164.94
308.651	172.94
308.881	177.94
309.111	162.94
309.341	166.94
309.571	163.94
309.8	175.94
310.03	154.94
310.26	148.94
310.49	161.94
310.72	160.94
310.949	181.94
311.179	174.94
311.409	171.94
311.639	164.94
311.868	168.94
312.098	167.94
312.328	166.94
312.557	162.94
312.787	162.94
313.017	176.94
313.246	166.94
313.476	189.94
313.706	171.94
313.935	174.94
314.165	174.94
314.394	157.94
314.624	168.94
314.853	173.94
315.083	164.94
315.312	184.94
315.542	169.94
315.771	163.94
316.001	184.94
316.23	163.94
316.46	170.94
316.689	181.94
316.919	162.94
317.148	181.94
317.377	174.94
317.607	153.94
317.836	158.94
318.065	169.94
318.295	162.94
318.524	176.94
318.753	174.94
318.983	182.94
319.212	180.94
319.441	171.94
319.67	169.94
319.9	165.94
320.129	160.94
320.358	174.94
320.587	167.94
320.816	166.94
321.046	156.94
321.275	177.94
321.504	165.94
321.733	180.94
321.962	155.94
322.191	160.94
322.42	176.94
322.649	169.94
322.878	166.94
323.108	175.94
323.337	165.94
323.566	160.94
323.795	168.94
324.024	160.94
324.253	179.94
324.482	169.94
324.71	177.94
324.939	190.94
325.168	168.94
325.397	181.94
325.626	166.94
325.855	181.94
326.084	192.94
326.313	176.94
326.542	175.94
326.77	190.94
326.999	169.94
327.228	179.94
327.457	169.94
327.686	185.94
327.914	178.94
328.143	176.94
328.372	174.94
328.6	187.94
328.829	176.94
329.058	196.94
329.287	191.94
329.515	174.94
329.744	183.94
329.972	175.94
330.201	201.94
330.43	190.94
330.658	177.94
330.887	172.94
331.115	192.94
331.344	191.94
331.572	196.94
331.801	198.94
332.03	189.94
332.258	183.94
332.486	184.94
332.715	203.94
332.943	221.94
333.172	207.94
333.4	225.94
333.629	232.94
333.857	222.94
334.085	231.94
334.314	231.94
334.542	217.94
334.771	226.94
334.999	229.94
335.227	218.94
335.455	218.94
335.684	207.94
335.912	219.94
336.14	200.94
336.369	203.94
336.597	193.94
336.825	209.94
337.053	200.94
337.281	195.94
337.51	208.94
337.738	196.94
337.966	202.94
338.194	201.94
338.422	198.94
338.65	198.94
338.878	201.94
339.106	195.94
339.334	194.94
339.562	192.94
339.79	186.94
340.018	192.94
340.246	176.94
340.474	181.94
340.702	190.94
340.93	189.94
341.158	196.94
341.386	186.94
341.614	186.94
341.842	168.94
342.07	188.94
342.298	180.94
342.526	182.94
342.754	199.94
342.981	174.94
343.209	188.94
343.437	201.94
343.665	204.94
343.893	218.94
344.12	207.94
344.348	203.94
344.576	195.94
344.804	187.94
345.031	185.94
345.259	182.94
345.487	185.94
345.714	177.94
345.942	190.94
346.17	182.94
346.397	191.94
346.625	193.94
346.853	180.94
347.08	178.94
347.308	196.94
347.535	188.94
347.763	186.94
347.99	189.94
348.218	191.94
348.445	182.94
348.673	192.94
348.9	196.94
349.128	182.94
349.355	178.94
349.583	201.94
349.81	187.94
350.037	174.94
350.265	190.94
350.492	177.94
350.72	174.94
350.947	190.94
351.174	190.94
351.402	188.94
351.629	182.94
351.856	183.94
352.083	179.94
352.311	164.94
352.538	178.94
352.765	169.94
352.992	177.94
353.22	181.94
353.447	172.94
353.674	167.94
353.901	179.94
354.128	176.94
354.355	170.94
354.583	170.94
354.81	179.94
355.037	190.94
355.264	170.94
355.491	181.94
355.718	173.94
355.945	178.94
356.172	181.94
356.399	181.94
356.626	178.94
356.853	184.94
357.08	175.94
357.307	180.94
357.534	169.94
357.761	186.94
357.988	176.94
358.215	164.94
358.441	178.94
358.668	170.94
358.895	198.94
359.122	181.94
359.349	181.94
359.576	183.94
359.802	170.94
360.029	175.94
360.256	182.94
360.483	176.94
360.709	164.94
360.936	196.94
361.163	187.94
361.39	162.94
361.616	186.94
361.843	181.94
362.07	174.94
362.296	180.94
362.523	158.94
362.749	167.94
362.976	175.94
363.203	179.94
363.429	174.94
363.656	188.94
363.882	176.94
364.109	178.94
364.335	203.94
364.562	178.94
364.788	175.94
365.015	182.94
365.241	171.94
365.468	190.94
365.694	166.94
365.92	177.94
366.147	176.94
366.373	172.94
366.599	179.94
366.826	187.94
367.052	170.94
367.278	176.94
367.505	178.94
367.731	170.94
367.957	167.94
368.184	193.94
368.41	195.94
368.636	193.94
368.862	184.94
369.089	199.94
369.315	185.94
369.541	177.94
369.767	183.94
369.993	179.94
370.219	180.94
370.445	181.94
370.672	180.94
370.898	176.94
371.124	187.94
371.35	186.94
371.576	196.94
371.802	178.94
372.028	186.94
372.254	171.94
372.48	193.94
372.706	183.94
372.932	196.94
373.158	196.94
373.384	201.94
373.61	183.94
373.835	174.94
374.061	195.94
374.287	191.94
374.513	190.94
374.739	181.94
374.965	210.94
375.191	199.94
375.416	199.94
375.642	179.94
375.868	198.94
376.094	190.94
376.319	199.94
376.545	177.94
376.771	190.94
376.997	179.94
377.222	190.94
377.448	192.94
377.674	197.94
377.899	179.94
378.125	183.94
378.35	181.94
378.576	196.94
378.802	177.94
379.027	186.94
379.253	179.94
379.478	184.94
379.704	195.94
379.929	190.94
380.155	182.94
380.38	187.94
380.606	180.94
380.831	176.94
381.057	184.94
381.282	187.94
381.507	183.94
381.733	200.94
381.958	197.94
382.184	188.94
382.409	187.94
382.634	199.94
382.86	187.94
383.085	217.94
383.31	195.94
383.535	200.94
383.761	203.94
383.986	215.94
384.211	204.94
384.436	203.94
384.662	202.94
384.887	202.94
385.112	203.94
385.337	204.94
385.562	207.94
385.787	211.94
386.013	216.94
386.238	202.94
386.463	208.94
386.688	190.94
386.913	196.94
387.138	196.94
387.363	223.94
387.588	212.94
387.813	201.94
388.038	208.94
388.263	192.94
388.488	219.94
388.713	207.94
388.938	220.94
389.163	195.94
389.387	204.94
389.612	195.94
389.837	213.94
390.062	207.94
390.287	201.94
390.512	207.94
390.736	214.94
390.961	209.94
391.186	218.94
391.411	224.94
391.636	238.94
391.86	228.94
392.085	243.94
392.31	223.94
392.534	224.94
392.759	222.94
392.984	229.94
393.208	220.94
393.433	228.94
393.658	220.94
393.882	224.94
394.107	231.94
394.331	211.94
394.556	232.94
394.78	225.94
395.005	222.94
395.229	228.94
395.454	238.94
395.678	242.94
395.903	225.94
396.127	223.94
396.352	211.94
396.576	219.94
396.801	224.94
397.025	215.94
397.249	220.94
397.474	228.94
397.698	216.94
397.922	216.94
398.147	211.94
398.371	225.94
398.595	226.94
398.82	240.94
399.044	242.94
399.268	264.94
399.492	304.94
399.717	349.94
399.941	341.94
400.165	311.94
400.389	275.94
400.613	256.94
400.837	260.94
401.062	256.94
401.286	257.94
401.51	250.94
401.734	226.94
401.958	234.94
402.182	247.94
402.406	241.94
402.63	244.94
402.854	265.94
403.078	264.94
403.302	256.94
403.526	277.94
403.75	280.94
403.974	285.94
404.198	271.94
404.422	288.94
404.645	277.94
404.869	267.94
405.093	278.94
405.317	256.94
405.541	260.94
405.765	256.94
405.988	262.94
406.212	257.94
406.436	259.94
406.66	270.94
406.883	268.94
407.107	295.94
407.331	293.94
407.555	316.94
407.778	300.94
408.002	310.94
408.226	296.94
408.449	292.94
408.673	278.94
408.896	254.94
409.12	266.94
409.344	277.94
409.567	283.94
409.791	258.94
410.014	276.94
410.238	276.94
410.461	269.94
410.685	257.94
410.908	263.94
411.132	276.94
411.355	249.94
411.578	247.94
411.802	254.94
412.025	256.94
412.249	252.94
412.472	266.94
412.695	251.94
412.919	238.94
413.142	246.94
413.365	257.94
413.589	232.94
413.812	244.94
414.035	257.94
414.258	234.94
414.482	250.94
414.705	241.94
414.928	257.94
415.151	240.94
415.374	229.94
415.597	236.94
415.821	230.94
416.044	239.94
416.267	235.94
416.49	225.94
416.713	249.94
416.936	228.94
417.159	238.94
417.382	257.94
417.605	250.94
417.828	257.94
418.051	229.94
418.274	248.94
418.497	244.94
418.72	248.94
418.943	231.94
419.166	265.94
419.389	268.94
419.611	274.94
419.834	258.94
420.057	255.94
420.28	244.94
420.503	244.94
420.726	242.94
420.948	243.94
421.171	243.94
421.394	238.94
421.617	223.94
421.839	241.94
422.062	263.94
422.285	244.94
422.507	233.94
422.73	242.94
422.953	264.94
423.175	240.94
423.398	270.94
423.621	266.94
423.843	263.94
424.066	249.94
424.288	243.94
424.511	259.94
424.733	246.94
424.956	259.94
425.178	250.94
425.401	239.94
425.623	248.94
425.846	244.94
426.068	245.94
426.291	231.94
426.513	227.94
426.735	217.94
426.958	243.94
427.18	211.94
427.402	220.94
427.625	224.94
427.847	215.94
428.069	227.94
428.292	225.94
428.514	224.94
428.736	216.94
428.958	225.94
429.181	210.94
429.403	222.94
429.625	225.94
429.847	220.94
430.069	240.94
430.292	208.94
430.514	221.94
430.736	200.94
430.958	218.94
431.18	223.94
431.402	228.94
431.624	224.94
431.846	233.94
432.068	208.94
432.29	209.94
432.512	211.94
432.734	232.94
432.956	227.94
433.178	232.94
433.4	234.94
433.622	227.94
433.844	241.94
434.066	220.94
434.287	220.94
434.509	218.94
434.731	226.94
434.953	233.94
435.175	267.94
435.397	252.94
435.618	225.94
435.84	222.94
436.062	230.94
436.284	227.94
436.505	217.94
436.727	223.94
436.949	226.94
437.17	223.94
437.392	212.94
437.614	211.94
437.835	225.94
438.057	223.94
438.278	210.94
438.5	221.94
438.721	213.94
438.943	210.94
439.165	226.94
439.386	207.94
439.608	221.94
439.829	222.94
440.05	208.94
440.272	215.94
440.493	224.94
440.715	226.94
440.936	217.94
441.158	240.94
441.379	243.94
441.6	231.94
441.822	238.94
442.043	256.94
442.264	242.94
442.486	244.94
442.707	245.94
442.928	246.94
443.149	235.94
443.371	243.94
443.592	230.94
443.813	243.94
444.034	258.94
444.255	250.94
444.476	247.94
444.698	298.94
444.919	291.94
445.14	370.94
445.361	290.94
445.582	229.94
445.803	230.94
446.024	222.94
446.245	223.94
446.466	233.94
446.687	226.94
446.908	234.94
447.129	216.94
447.35	212.94
447.571	226.94
447.792	215.94
448.013	216.94
448.234	226.94
448.455	223.94
448.675	222.94
448.896	210.94
449.117	199.94
449.338	219.94
449.559	221.94
449.779	194.94
450	212.94
450.221	209.94
450.442	203.94
450.662	208.94
450.883	210.94
451.104	242.94
451.324	211.94
451.545	223.94
451.766	224.94
451.986	215.94
452.207	214.94
452.428	199.94
452.648	200.94
452.869	212.94
453.089	205.94
453.31	194.94
453.53	202.94
453.751	195.94
453.971	207.94
454.192	217.94
454.412	211.94
454.633	205.94
454.853	204.94
455.073	204.94
455.294	206.94
455.514	198.94
455.734	198.94
455.955	195.94
456.175	195.94
456.395	195.94
456.616	211.94
456.836	206.94
457.056	187.94
457.276	186.94
457.497	182.94
457.717	195.94
457.937	186.94
458.157	206.94
458.377	208.94
458.598	205.94
458.818	213.94
459.038	220.94
459.258	238.94
459.478	227.94
459.698	226.94
459.918	225.94
460.138	249.94
460.358	251.94
460.578	230.94
460.798	256.94
461.018	254.94
461.238	260.94
461.458	236.94
461.678	256.94
461.898	254.94
462.118	268.94
462.338	266.94
462.558	271.94
462.777	272.94
462.997	329.94
463.217	332.94
463.437	339.94
463.657	287.94
463.876	284.94
464.096	300.94
464.316	281.94
464.536	295.94
464.755	290.94
464.975	272.94
465.195	282.94
465.414	239.94
465.634	236.94
465.854	246.94
466.073	227.94
466.293	227.94
466.512	234.94
466.732	229.94
466.951	217.94
467.171	223.94
467.391	211.94
467.61	226.94
467.829	224.94
468.049	217.94
468.268	204.94
468.488	199.94
468.707	216.94
468.927	208.94
469.146	219.94
469.365	207.94
469.585	198.94
469.804	222.94
470.023	225.94
470.243	238.94
470.462	241.94
470.681	217.94
470.901	221.94
471.12	204.94
471.339	225.94
471.558	224.94
471.777	195.94
471.997	208.94
472.216	216.94
472.435	186.94
472.654	210.94
472.873	207.94
473.092	190.94
473.311	199.94
473.53	218.94
473.749	208.94
473.968	216.94
474.187	218.94
474.406	200.94
474.625	216.94
474.844	210.94
475.063	212.94
475.282	212.94
475.501	219.94
475.72	198.94
475.939	217.94
476.158	211.94
476.377	223.94
476.596	216.94
476.814	221.94
477.033	209.94
477.252	227.94
477.471	229.94
477.69	241.94
477.908	248.94
478.127	224.94
478.346	228.94
478.564	245.94
478.783	262.94
479.002	252.94
479.22	252.94
479.439	246.94
479.658	248.94
479.876	242.94
480.095	240.94
480.313	266.94
480.532	293.94
480.751	267.94
480.969	248.94
481.188	247.94
481.406	241.94
481.624	240.94
481.843	234.94
482.061	240.94
482.28	229.94
482.498	224.94
482.717	240.94
482.935	217.94
483.153	239.94
483.372	234.94
483.59	221.94
483.808	242.94
484.027	242.94
484.245	252.94
484.463	241.94
484.681	252.94
484.9	228.94
485.118	256.94
485.336	231.94
485.554	267.94
485.772	258.94
485.99	255.94
486.209	265.94
486.427	254.94
486.645	234.94
486.863	258.94
487.081	249.94
487.299	255.94
487.517	243.94
487.735	252.94
487.953	231.94
488.171	260.94
488.389	239.94
488.607	263.94
488.825	250.94
489.043	232.94
489.261	239.94
489.479	246.94
489.696	236.94
489.914	246.94
490.132	240.94
490.35	250.94
490.568	245.94
490.786	261.94
491.003	261.94
491.221	243.94
491.439	246.94
491.657	264.94
491.874	263.94
492.092	234.94
492.31	245.94
492.527	257.94
492.745	249.94
492.963	254.94
493.18	274.94
493.398	250.94
493.615	254.94
493.833	256.94
494.05	274.94
494.268	270.94
494.485	276.94
494.703	248.94
494.92	262.94
495.138	272.94
495.355	265.94
495.573	264.94
495.79	261.94
496.008	265.94
496.225	251.94
496.442	264.94
496.66	275.94
496.877	254.94
497.094	291.94
497.312	263.94
497.529	273.94
497.746	295.94
497.963	285.94
498.181	290.94
498.398	303.94
498.615	322.94
498.832	331.94
499.049	355.94
499.267	378.94
499.484	435.94
499.701	451.94
499.918	507.94
500.135	552.94
500.352	656.94
500.569	710.94
500.786	681.94
501.003	634.94
501.22	570.94
501.437	505.94
501.654	432.94
501.871	376.94
502.088	369.94
502.305	364.94
502.522	347.94
502.739	317.94
502.956	295.94
503.172	331.94
503.389	304.94
