Data from 0.5MCu(NO3)2.Standard.Lamp.E10.CV._HRD10591_16-04-35-753.txt Node
Date: Mon Jul 22 16:04:35 EDT 2019
User: cochatt
Spectrometer: HR+D1059
Trigger mode: 1
Integration Time (sec): 1.000000E-1
Scans to average: 1
Electric dark correction enabled: true
Nonlinearity correction enabled: false
Boxcar width: 0
XAxis mode: Wavelengths
Number of Pixels in Spectrum: 2048
>>>>>Begin Spectral Data<<<<<
223.165	-10.06
223.4	-10.06
223.635	-10.06
223.869	-21.06
224.104	-25.06
224.338	-11.06
224.573	-13.06
224.808	-8.06
225.042	-11.06
225.277	-9.06
225.511	-4.06
225.746	2.94
225.98	14.94
226.215	-4.06
226.449	9.94
226.683	27.94
226.918	27.94
227.152	32.94
227.387	31.94
227.621	34.94
227.856	34.94
228.09	39.94
228.324	46.94
228.559	57.94
228.793	57.94
229.027	67.94
229.262	67.94
229.496	63.94
229.73	65.94
229.964	78.94
230.199	80.94
230.433	70.94
230.667	92.94
230.901	86.94
231.136	86.94
231.37	86.94
231.604	93.94
231.838	82.94
232.072	85.94
232.306	76.94
232.541	85.94
232.775	97.94
233.009	90.94
233.243	86.94
233.477	81.94
233.711	91.94
233.945	88.94
234.179	80.94
234.413	96.94
234.647	84.94
234.881	85.94
235.115	91.94
235.349	97.94
235.583	97.94
235.817	79.94
236.051	80.94
236.285	92.94
236.519	90.94
236.753	82.94
236.987	89.94
237.221	84.94
237.455	95.94
237.689	78.94
237.922	108.94
238.156	85.94
238.39	91.94
238.624	78.94
238.858	83.94
239.091	100.94
239.325	94.94
239.559	92.94
239.793	88.94
240.027	81.94
240.26	87.94
240.494	104.94
240.728	95.94
240.961	84.94
241.195	99.94
241.429	101.94
241.662	89.94
241.896	89.94
242.13	104.94
242.363	94.94
242.597	89.94
242.83	96.94
243.064	87.94
243.298	99.94
243.531	97.94
243.765	99.94
243.998	104.94
244.232	106.94
244.465	82.94
244.699	113.94
244.932	89.94
245.166	94.94
245.399	114.94
245.633	108.94
245.866	108.94
246.099	94.94
246.333	118.94
246.566	100.94
246.8	98.94
247.033	94.94
247.266	101.94
247.5	113.94
247.733	100.94
247.966	97.94
248.2	96.94
248.433	97.94
248.666	93.94
248.899	111.94
249.133	105.94
249.366	99.94
249.599	97.94
249.832	97.94
250.066	104.94
250.299	113.94
250.532	91.94
250.765	99.94
250.998	109.94
251.231	94.94
251.465	120.94
251.698	110.94
251.931	104.94
252.164	111.94
252.397	114.94
252.63	113.94
252.863	108.94
253.096	103.94
253.329	118.94
253.562	119.94
253.795	111.94
254.028	103.94
254.261	104.94
254.494	115.94
254.727	102.94
254.96	113.94
255.193	119.94
255.426	120.94
255.659	120.94
255.892	131.94
256.124	107.94
256.357	118.94
256.59	120.94
256.823	122.94
257.056	113.94
257.289	120.94
257.521	99.94
257.754	110.94
257.987	124.94
258.22	114.94
258.452	114.94
258.685	132.94
258.918	122.94
259.151	115.94
259.383	122.94
259.616	113.94
259.849	122.94
260.081	118.94
260.314	114.94
260.547	120.94
260.779	124.94
261.012	114.94
261.244	114.94
261.477	132.94
261.71	130.94
261.942	122.94
262.175	124.94
262.407	108.94
262.64	120.94
262.872	116.94
263.105	122.94
263.337	126.94
263.57	128.94
263.802	132.94
264.035	123.94
264.267	128.94
264.499	130.94
264.732	152.94
264.964	124.94
265.197	123.94
265.429	120.94
265.661	130.94
265.894	124.94
266.126	127.94
266.358	130.94
266.591	122.94
266.823	115.94
267.055	130.94
267.287	133.94
267.52	132.94
267.752	140.94
267.984	132.94
268.216	126.94
268.448	132.94
268.681	135.94
268.913	130.94
269.145	136.94
269.377	139.94
269.609	121.94
269.841	127.94
270.073	134.94
270.306	132.94
270.538	131.94
270.77	148.94
271.002	127.94
271.234	132.94
271.466	139.94
271.698	126.94
271.93	136.94
272.162	141.94
272.394	140.94
272.626	124.94
272.858	143.94
273.09	136.94
273.322	138.94
273.553	138.94
273.785	141.94
274.017	130.94
274.249	142.94
274.481	139.94
274.713	146.94
274.945	130.94
275.176	140.94
275.408	137.94
275.64	141.94
275.872	142.94
276.104	131.94
276.335	142.94
276.567	151.94
276.799	137.94
277.031	153.94
277.262	130.94
277.494	141.94
277.726	135.94
277.957	156.94
278.189	166.94
278.421	152.94
278.652	147.94
278.884	147.94
279.115	157.94
279.347	153.94
279.579	143.94
279.81	139.94
280.042	135.94
280.273	150.94
280.505	152.94
280.736	157.94
280.968	156.94
281.199	149.94
281.431	149.94
281.662	152.94
281.894	164.94
282.125	154.94
282.356	135.94
282.588	146.94
282.819	150.94
283.051	144.94
283.282	154.94
283.513	162.94
283.745	143.94
283.976	161.94
284.207	166.94
284.439	153.94
284.67	163.94
284.901	154.94
285.132	145.94
285.364	141.94
285.595	146.94
285.826	167.94
286.057	168.94
286.288	154.94
286.52	158.94
286.751	166.94
286.982	167.94
287.213	169.94
287.444	170.94
287.675	160.94
287.906	167.94
288.138	169.94
288.369	167.94
288.6	146.94
288.831	167.94
289.062	168.94
289.293	159.94
289.524	173.94
289.755	160.94
289.986	165.94
290.217	177.94
290.448	160.94
290.679	179.94
290.91	162.94
291.141	156.94
291.371	171.94
291.602	173.94
291.833	188.94
292.064	167.94
292.295	166.94
292.526	153.94
292.757	170.94
292.987	164.94
293.218	169.94
293.449	183.94
293.68	164.94
293.91	180.94
294.141	172.94
294.372	164.94
294.603	177.94
294.833	178.94
295.064	167.94
295.295	184.94
295.525	158.94
295.756	194.94
295.987	193.94
296.217	157.94
296.448	174.94
296.679	170.94
296.909	196.94
297.14	176.94
297.37	182.94
297.601	168.94
297.831	175.94
298.062	190.94
298.292	190.94
298.523	180.94
298.753	190.94
298.984	169.94
299.214	182.94
299.445	187.94
299.675	191.94
299.905	182.94
300.136	187.94
300.366	183.94
300.597	168.94
300.827	185.94
301.057	203.94
301.288	196.94
301.518	194.94
301.748	182.94
301.979	186.94
302.209	188.94
302.439	180.94
302.669	196.94
302.9	202.94
303.13	181.94
303.36	180.94
303.59	184.94
303.82	186.94
304.051	187.94
304.281	195.94
304.511	177.94
304.741	180.94
304.971	194.94
305.201	175.94
305.431	186.94
305.661	174.94
305.891	178.94
306.121	185.94
306.352	184.94
306.582	198.94
306.812	188.94
307.042	202.94
307.272	190.94
307.502	185.94
307.731	198.94
307.961	182.94
308.191	179.94
308.421	183.94
308.651	182.94
308.881	200.94
309.111	191.94
309.341	176.94
309.571	182.94
309.8	185.94
310.03	164.94
310.26	177.94
310.49	166.94
310.72	180.94
310.949	195.94
311.179	186.94
311.409	195.94
311.639	185.94
311.868	170.94
312.098	195.94
312.328	194.94
312.557	209.94
312.787	199.94
313.017	184.94
313.246	201.94
313.476	184.94
313.706	194.94
313.935	185.94
314.165	197.94
314.394	180.94
314.624	200.94
314.853	211.94
315.083	184.94
315.312	194.94
315.542	198.94
315.771	203.94
316.001	201.94
316.23	201.94
316.46	165.94
316.689	201.94
316.919	189.94
317.148	174.94
317.377	191.94
317.607	200.94
317.836	194.94
318.065	199.94
318.295	190.94
318.524	197.94
318.753	177.94
318.983	191.94
319.212	182.94
319.441	192.94
319.67	178.94
319.9	192.94
320.129	197.94
320.358	181.94
320.587	197.94
320.816	190.94
321.046	201.94
321.275	177.94
321.504	186.94
321.733	194.94
321.962	187.94
322.191	190.94
322.42	196.94
322.649	166.94
322.878	191.94
323.108	179.94
323.337	167.94
323.566	203.94
323.795	180.94
324.024	202.94
324.253	199.94
324.482	193.94
324.71	192.94
324.939	201.94
325.168	203.94
325.397	214.94
325.626	194.94
325.855	200.94
326.084	214.94
326.313	211.94
326.542	194.94
326.77	208.94
326.999	188.94
327.228	198.94
327.457	210.94
327.686	200.94
327.914	190.94
328.143	210.94
328.372	204.94
328.6	211.94
328.829	206.94
329.058	194.94
329.287	216.94
329.515	203.94
329.744	190.94
329.972	202.94
330.201	213.94
330.43	216.94
330.658	207.94
330.887	205.94
331.115	212.94
331.344	209.94
331.572	225.94
331.801	212.94
332.03	243.94
332.258	205.94
332.486	219.94
332.715	255.94
332.943	241.94
333.172	240.94
333.4	246.94
333.629	254.94
333.857	245.94
334.085	242.94
334.314	253.94
334.542	229.94
334.771	225.94
334.999	233.94
335.227	243.94
335.455	234.94
335.684	242.94
335.912	224.94
336.14	226.94
336.369	222.94
336.597	227.94
336.825	215.94
337.053	229.94
337.281	231.94
337.51	220.94
337.738	235.94
337.966	214.94
338.194	222.94
338.422	217.94
338.65	221.94
338.878	216.94
339.106	207.94
339.334	211.94
339.562	203.94
339.79	198.94
340.018	203.94
340.246	196.94
340.474	214.94
340.702	197.94
340.93	209.94
341.158	206.94
341.386	194.94
341.614	210.94
341.842	200.94
342.07	189.94
342.298	216.94
342.526	198.94
342.754	194.94
342.981	217.94
343.209	200.94
343.437	229.94
343.665	216.94
343.893	238.94
344.12	252.94
344.348	234.94
344.576	219.94
344.804	214.94
345.031	223.94
345.259	223.94
345.487	191.94
345.714	214.94
345.942	201.94
346.17	202.94
346.397	208.94
346.625	190.94
346.853	207.94
347.08	216.94
347.308	208.94
347.535	201.94
347.763	212.94
347.99	204.94
348.218	202.94
348.445	192.94
348.673	214.94
348.9	188.94
349.128	207.94
349.355	211.94
349.583	199.94
349.81	187.94
350.037	191.94
350.265	194.94
350.492	194.94
350.72	196.94
350.947	178.94
351.174	204.94
351.402	201.94
351.629	207.94
351.856	196.94
352.083	201.94
352.311	180.94
352.538	186.94
352.765	202.94
352.992	191.94
353.22	198.94
353.447	185.94
353.674	194.94
353.901	184.94
354.128	187.94
354.355	202.94
354.583	198.94
354.81	196.94
355.037	193.94
355.264	198.94
355.491	199.94
355.718	166.94
355.945	207.94
356.172	197.94
356.399	204.94
356.626	192.94
356.853	216.94
357.08	209.94
357.307	185.94
357.534	206.94
357.761	202.94
357.988	206.94
358.215	191.94
358.441	195.94
358.668	183.94
358.895	212.94
359.122	197.94
359.349	181.94
359.576	192.94
359.802	192.94
360.029	204.94
360.256	196.94
360.483	199.94
360.709	193.94
360.936	212.94
361.163	191.94
361.39	185.94
361.616	189.94
361.843	202.94
362.07	213.94
362.296	202.94
362.523	176.94
362.749	196.94
362.976	194.94
363.203	195.94
363.429	199.94
363.656	197.94
363.882	187.94
364.109	186.94
364.335	196.94
364.562	181.94
364.788	190.94
365.015	190.94
365.241	199.94
365.468	197.94
365.694	200.94
365.92	200.94
366.147	210.94
366.373	210.94
366.599	190.94
366.826	184.94
367.052	196.94
367.278	189.94
367.505	209.94
367.731	185.94
367.957	200.94
368.184	184.94
368.41	196.94
368.636	209.94
368.862	211.94
369.089	191.94
369.315	201.94
369.541	188.94
369.767	201.94
369.993	209.94
370.219	194.94
370.445	198.94
370.672	218.94
370.898	191.94
371.124	212.94
371.35	197.94
371.576	194.94
371.802	221.94
372.028	210.94
372.254	210.94
372.48	201.94
372.706	195.94
372.932	201.94
373.158	218.94
373.384	226.94
373.61	214.94
373.835	203.94
374.061	200.94
374.287	214.94
374.513	213.94
374.739	217.94
374.965	225.94
375.191	210.94
375.416	216.94
375.642	231.94
375.868	223.94
376.094	228.94
376.319	217.94
376.545	210.94
376.771	199.94
376.997	203.94
377.222	202.94
377.448	220.94
377.674	207.94
377.899	215.94
378.125	202.94
378.35	208.94
378.576	204.94
378.802	198.94
379.027	217.94
379.253	198.94
379.478	212.94
379.704	208.94
379.929	185.94
380.155	215.94
380.38	194.94
380.606	204.94
380.831	218.94
381.057	212.94
381.282	194.94
381.507	206.94
381.733	209.94
381.958	224.94
382.184	203.94
382.409	207.94
382.634	222.94
382.86	209.94
383.085	220.94
383.31	222.94
383.535	214.94
383.761	230.94
383.986	225.94
384.211	235.94
384.436	248.94
384.662	227.94
384.887	230.94
385.112	215.94
385.337	250.94
385.562	216.94
385.787	240.94
386.013	239.94
386.238	242.94
386.463	238.94
386.688	240.94
386.913	251.94
387.138	210.94
387.363	230.94
387.588	228.94
387.813	230.94
388.038	231.94
388.263	238.94
388.488	228.94
388.713	233.94
388.938	231.94
389.163	231.94
389.387	215.94
389.612	241.94
389.837	214.94
390.062	215.94
390.287	242.94
390.512	222.94
390.736	217.94
390.961	234.94
391.186	247.94
391.411	241.94
391.636	242.94
391.86	235.94
392.085	248.94
392.31	258.94
392.534	252.94
392.759	252.94
392.984	255.94
393.208	234.94
393.433	256.94
393.658	244.94
393.882	251.94
394.107	258.94
394.331	256.94
394.556	247.94
394.78	262.94
395.005	265.94
395.229	249.94
395.454	241.94
395.678	264.94
395.903	256.94
396.127	243.94
396.352	238.94
396.576	231.94
396.801	223.94
397.025	245.94
397.249	250.94
397.474	264.94
397.698	254.94
397.922	240.94
398.147	240.94
398.371	256.94
398.595	256.94
398.82	268.94
399.044	299.94
399.268	304.94
399.492	358.94
399.717	402.94
399.941	386.94
400.165	354.94
400.389	322.94
400.613	286.94
400.837	266.94
401.062	288.94
401.286	290.94
401.51	256.94
401.734	269.94
401.958	269.94
402.182	282.94
402.406	293.94
402.63	289.94
402.854	293.94
403.078	298.94
403.302	305.94
403.526	306.94
403.75	331.94
403.974	302.94
404.198	322.94
404.422	331.94
404.645	304.94
404.869	290.94
405.093	318.94
405.317	287.94
405.541	283.94
405.765	296.94
405.988	294.94
406.212	306.94
406.436	295.94
406.66	318.94
406.883	298.94
407.107	324.94
407.331	361.94
407.555	346.94
407.778	356.94
408.002	360.94
408.226	332.94
408.449	326.94
408.673	299.94
408.896	291.94
409.12	316.94
409.344	312.94
409.567	297.94
409.791	304.94
410.014	311.94
410.238	302.94
410.461	323.94
410.685	290.94
410.908	296.94
411.132	305.94
411.355	274.94
411.578	271.94
411.802	275.94
412.025	298.94
412.249	293.94
412.472	292.94
412.695	266.94
412.919	295.94
413.142	266.94
413.365	272.94
413.589	271.94
413.812	286.94
414.035	266.94
414.258	274.94
414.482	281.94
414.705	283.94
414.928	281.94
415.151	265.94
415.374	266.94
415.597	268.94
415.821	277.94
416.044	262.94
416.267	272.94
416.49	273.94
416.713	269.94
416.936	277.94
417.159	269.94
417.382	287.94
417.605	266.94
417.828	273.94
418.051	288.94
418.274	284.94
418.497	266.94
418.72	264.94
418.943	276.94
419.166	290.94
419.389	313.94
419.611	315.94
419.834	283.94
420.057	294.94
420.28	247.94
420.503	262.94
420.726	267.94
420.948	284.94
421.171	280.94
421.394	267.94
421.617	261.94
421.839	266.94
422.062	278.94
422.285	270.94
422.507	284.94
422.73	278.94
422.953	273.94
423.175	282.94
423.398	302.94
423.621	286.94
423.843	278.94
424.066	299.94
424.288	289.94
424.511	276.94
424.733	277.94
424.956	257.94
425.178	268.94
425.401	270.94
425.623	267.94
425.846	258.94
426.068	249.94
426.291	238.94
426.513	258.94
426.735	242.94
426.958	241.94
427.18	252.94
427.402	259.94
427.625	237.94
427.847	223.94
428.069	250.94
428.292	245.94
428.514	247.94
428.736	257.94
428.958	258.94
429.181	257.94
429.403	259.94
429.625	256.94
429.847	243.94
430.069	235.94
430.292	238.94
430.514	238.94
430.736	242.94
430.958	239.94
431.18	240.94
431.402	238.94
431.624	254.94
431.846	251.94
432.068	245.94
432.29	259.94
432.512	257.94
432.734	239.94
432.956	266.94
433.178	235.94
433.4	242.94
433.622	245.94
433.844	268.94
434.066	260.94
434.287	251.94
434.509	268.94
434.731	272.94
434.953	269.94
435.175	258.94
435.397	261.94
435.618	251.94
435.84	253.94
436.062	260.94
436.284	238.94
436.505	241.94
436.727	251.94
436.949	255.94
437.17	239.94
437.392	248.94
437.614	240.94
437.835	239.94
438.057	265.94
438.278	250.94
438.5	247.94
438.721	257.94
438.943	240.94
439.165	225.94
439.386	240.94
439.608	249.94
439.829	240.94
440.05	260.94
440.272	250.94
440.493	242.94
440.715	252.94
440.936	239.94
441.158	246.94
441.379	255.94
441.6	265.94
441.822	278.94
442.043	274.94
442.264	268.94
442.486	265.94
442.707	256.94
442.928	276.94
443.149	268.94
443.371	272.94
443.592	274.94
443.813	268.94
444.034	265.94
444.255	296.94
444.476	275.94
444.698	298.94
444.919	323.94
445.14	418.94
445.361	347.94
445.582	282.94
445.803	256.94
446.024	259.94
446.245	242.94
446.466	250.94
446.687	243.94
446.908	258.94
447.129	253.94
447.35	232.94
447.571	244.94
447.792	235.94
448.013	213.94
448.234	227.94
448.455	241.94
448.675	228.94
448.896	238.94
449.117	228.94
449.338	234.94
449.559	213.94
449.779	242.94
450	233.94
450.221	247.94
450.442	240.94
450.662	244.94
450.883	230.94
451.104	238.94
451.324	245.94
451.545	236.94
451.766	228.94
451.986	227.94
452.207	233.94
452.428	230.94
452.648	242.94
452.869	260.94
453.089	229.94
453.31	226.94
453.53	220.94
453.751	215.94
453.971	246.94
454.192	237.94
454.412	215.94
454.633	214.94
454.853	222.94
455.073	230.94
455.294	206.94
455.514	227.94
455.734	200.94
455.955	214.94
456.175	217.94
456.395	217.94
456.616	208.94
456.836	227.94
457.056	210.94
457.276	220.94
457.497	225.94
457.717	227.94
457.937	219.94
458.157	222.94
458.377	219.94
458.598	234.94
458.818	218.94
459.038	235.94
459.258	254.94
459.478	256.94
459.698	240.94
459.918	250.94
460.138	275.94
460.358	280.94
460.578	276.94
460.798	302.94
461.018	312.94
461.238	280.94
461.458	282.94
461.678	272.94
461.898	290.94
462.118	298.94
462.338	284.94
462.558	308.94
462.777	320.94
462.997	335.94
463.217	379.94
463.437	379.94
463.657	354.94
463.876	330.94
464.096	339.94
464.316	322.94
464.536	336.94
464.755	342.94
464.975	296.94
465.195	295.94
465.414	285.94
465.634	268.94
465.854	246.94
466.073	264.94
466.293	248.94
466.512	244.94
466.732	242.94
466.951	226.94
467.171	235.94
467.391	256.94
467.61	245.94
467.829	231.94
468.049	231.94
468.268	232.94
468.488	233.94
468.707	218.94
468.927	239.94
469.146	235.94
469.365	246.94
469.585	225.94
469.804	256.94
470.023	258.94
470.243	261.94
470.462	258.94
470.681	264.94
470.901	248.94
471.12	237.94
471.339	240.94
471.558	239.94
471.777	249.94
471.997	224.94
472.216	238.94
472.435	225.94
472.654	257.94
472.873	225.94
473.092	233.94
473.311	230.94
473.53	229.94
473.749	233.94
473.968	234.94
474.187	244.94
474.406	239.94
474.625	212.94
474.844	231.94
475.063	225.94
475.282	235.94
475.501	220.94
475.72	255.94
475.939	235.94
476.158	216.94
476.377	244.94
476.596	259.94
476.814	254.94
477.033	238.94
477.252	241.94
477.471	243.94
477.69	272.94
477.908	267.94
478.127	267.94
478.346	272.94
478.564	279.94
478.783	269.94
479.002	284.94
479.22	282.94
479.439	268.94
479.658	284.94
479.876	275.94
480.095	280.94
480.313	304.94
480.532	307.94
480.751	313.94
480.969	299.94
481.188	266.94
481.406	272.94
481.624	265.94
481.843	264.94
482.061	253.94
482.28	265.94
482.498	270.94
482.717	268.94
482.935	262.94
483.153	270.94
483.372	274.94
483.59	252.94
483.808	231.94
484.027	268.94
484.245	268.94
484.463	277.94
484.681	277.94
484.9	268.94
485.118	275.94
485.336	290.94
485.554	292.94
485.772	297.94
485.99	265.94
486.209	290.94
486.427	276.94
486.645	294.94
486.863	304.94
487.081	287.94
487.299	289.94
487.517	269.94
487.735	279.94
487.953	269.94
488.171	282.94
488.389	264.94
488.607	272.94
488.825	289.94
489.043	272.94
489.261	259.94
489.479	274.94
489.696	275.94
489.914	284.94
490.132	279.94
490.35	282.94
490.568	282.94
490.786	290.94
491.003	296.94
491.221	276.94
491.439	275.94
491.657	282.94
491.874	266.94
492.092	287.94
492.31	281.94
492.527	280.94
492.745	275.94
492.963	283.94
493.18	283.94
493.398	280.94
493.615	288.94
493.833	287.94
494.05	271.94
494.268	296.94
494.485	286.94
494.703	295.94
494.92	275.94
495.138	283.94
495.355	288.94
495.573	287.94
495.79	289.94
496.008	307.94
496.225	291.94
496.442	288.94
496.66	318.94
496.877	309.94
497.094	309.94
497.312	299.94
497.529	303.94
497.746	310.94
497.963	322.94
498.181	341.94
498.398	354.94
498.615	359.94
498.832	395.94
499.049	390.94
499.267	444.94
499.484	494.94
499.701	545.94
499.918	578.94
500.135	658.94
500.352	736.94
500.569	821.94
500.786	804.94
501.003	748.94
501.22	652.94
501.437	556.94
501.654	510.94
501.871	462.94
502.088	420.94
502.305	402.94
502.522	401.94
502.739	383.94
502.956	348.94
503.172	361.94
