Data from 0.5MCu(NO3)2.Standard.Lamp.E10.CV._HRD10591_16-03-57-752.txt Node
Date: Mon Jul 22 16:03:57 EDT 2019
User: cochatt
Spectrometer: HR+D1059
Trigger mode: 1
Integration Time (sec): 1.000000E-1
Scans to average: 1
Electric dark correction enabled: true
Nonlinearity correction enabled: false
Boxcar width: 0
XAxis mode: Wavelengths
Number of Pixels in Spectrum: 2048
>>>>>Begin Spectral Data<<<<<
223.165	-10.06
223.4	-10.06
223.635	-10.06
223.869	-17.06
224.104	-21.06
224.338	-7.06
224.573	-16.06
224.808	6.94
225.042	-0.06
225.277	-12.06
225.511	-10.06
225.746	3.94
225.98	4.94
226.215	17.94
226.449	7.94
226.683	19.94
226.918	15.94
227.152	15.94
227.387	31.94
227.621	38.94
227.856	51.94
228.09	54.94
228.324	25.94
228.559	58.94
228.793	70.94
229.027	61.94
229.262	71.94
229.496	97.94
229.73	61.94
229.964	95.94
230.199	85.94
230.433	92.94
230.667	93.94
230.901	84.94
231.136	88.94
231.37	90.94
231.604	80.94
231.838	89.94
232.072	99.94
232.306	93.94
232.541	102.94
232.775	88.94
233.009	73.94
233.243	90.94
233.477	91.94
233.711	92.94
233.945	101.94
234.179	90.94
234.413	96.94
234.647	94.94
234.881	94.94
235.115	104.94
235.349	85.94
235.583	87.94
235.817	92.94
236.051	87.94
236.285	100.94
236.519	106.94
236.753	96.94
236.987	85.94
237.221	92.94
237.455	98.94
237.689	89.94
237.922	82.94
238.156	85.94
238.39	99.94
238.624	84.94
238.858	108.94
239.091	90.94
239.325	89.94
239.559	99.94
239.793	102.94
240.027	95.94
240.26	102.94
240.494	100.94
240.728	89.94
240.961	90.94
241.195	82.94
241.429	107.94
241.662	87.94
241.896	113.94
242.13	82.94
242.363	98.94
242.597	94.94
242.83	96.94
243.064	97.94
243.298	88.94
243.531	91.94
243.765	112.94
243.998	114.94
244.232	106.94
244.465	112.94
244.699	103.94
244.932	111.94
245.166	105.94
245.399	106.94
245.633	102.94
245.866	102.94
246.099	109.94
246.333	108.94
246.566	102.94
246.8	112.94
247.033	116.94
247.266	106.94
247.5	93.94
247.733	102.94
247.966	87.94
248.2	100.94
248.433	104.94
248.666	105.94
248.899	115.94
249.133	117.94
249.366	96.94
249.599	98.94
249.832	110.94
250.066	114.94
250.299	113.94
250.532	115.94
250.765	107.94
250.998	100.94
251.231	115.94
251.465	111.94
251.698	109.94
251.931	123.94
252.164	125.94
252.397	113.94
252.63	126.94
252.863	129.94
253.096	121.94
253.329	130.94
253.562	125.94
253.795	126.94
254.028	115.94
254.261	106.94
254.494	120.94
254.727	128.94
254.96	126.94
255.193	120.94
255.426	122.94
255.659	137.94
255.892	114.94
256.124	115.94
256.357	138.94
256.59	113.94
256.823	130.94
257.056	132.94
257.289	138.94
257.521	146.94
257.754	143.94
257.987	119.94
258.22	117.94
258.452	126.94
258.685	129.94
258.918	111.94
259.151	125.94
259.383	129.94
259.616	125.94
259.849	143.94
260.081	135.94
260.314	133.94
260.547	134.94
260.779	123.94
261.012	138.94
261.244	149.94
261.477	153.94
261.71	134.94
261.942	140.94
262.175	105.94
262.407	136.94
262.64	135.94
262.872	139.94
263.105	125.94
263.337	129.94
263.57	149.94
263.802	134.94
264.035	138.94
264.267	140.94
264.499	135.94
264.732	139.94
264.964	141.94
265.197	131.94
265.429	165.94
265.661	133.94
265.894	142.94
266.126	144.94
266.358	152.94
266.591	141.94
266.823	133.94
267.055	151.94
267.287	143.94
267.52	157.94
267.752	141.94
267.984	155.94
268.216	153.94
268.448	145.94
268.681	162.94
268.913	154.94
269.145	148.94
269.377	152.94
269.609	150.94
269.841	157.94
270.073	153.94
270.306	126.94
270.538	148.94
270.77	154.94
271.002	172.94
271.234	169.94
271.466	144.94
271.698	153.94
271.93	131.94
272.162	146.94
272.394	170.94
272.626	143.94
272.858	160.94
273.09	158.94
273.322	155.94
273.553	139.94
273.785	172.94
274.017	148.94
274.249	163.94
274.481	166.94
274.713	148.94
274.945	164.94
275.176	153.94
275.408	169.94
275.64	164.94
275.872	151.94
276.104	144.94
276.335	159.94
276.567	160.94
276.799	168.94
277.031	156.94
277.262	168.94
277.494	166.94
277.726	153.94
277.957	187.94
278.189	184.94
278.421	167.94
278.652	171.94
278.884	172.94
279.115	149.94
279.347	164.94
279.579	157.94
279.81	154.94
280.042	168.94
280.273	164.94
280.505	164.94
280.736	170.94
280.968	174.94
281.199	170.94
281.431	183.94
281.662	193.94
281.894	182.94
282.125	184.94
282.356	167.94
282.588	175.94
282.819	161.94
283.051	175.94
283.282	172.94
283.513	173.94
283.745	169.94
283.976	190.94
284.207	180.94
284.439	180.94
284.67	190.94
284.901	198.94
285.132	186.94
285.364	180.94
285.595	184.94
285.826	204.94
286.057	174.94
286.288	190.94
286.52	195.94
286.751	179.94
286.982	179.94
287.213	177.94
287.444	184.94
287.675	185.94
287.906	204.94
288.138	199.94
288.369	198.94
288.6	190.94
288.831	193.94
289.062	197.94
289.293	196.94
289.524	194.94
289.755	199.94
289.986	194.94
290.217	202.94
290.448	213.94
290.679	193.94
290.91	179.94
291.141	186.94
291.371	199.94
291.602	197.94
291.833	202.94
292.064	192.94
292.295	203.94
292.526	205.94
292.757	200.94
292.987	203.94
293.218	195.94
293.449	200.94
293.68	204.94
293.91	182.94
294.141	208.94
294.372	207.94
294.603	181.94
294.833	202.94
295.064	210.94
295.295	208.94
295.525	197.94
295.756	204.94
295.987	202.94
296.217	214.94
296.448	210.94
296.679	197.94
296.909	199.94
297.14	202.94
297.37	210.94
297.601	226.94
297.831	210.94
298.062	214.94
298.292	204.94
298.523	217.94
298.753	228.94
298.984	224.94
299.214	227.94
299.445	222.94
299.675	219.94
299.905	235.94
300.136	212.94
300.366	217.94
300.597	205.94
300.827	211.94
301.057	214.94
301.288	198.94
301.518	214.94
301.748	224.94
301.979	232.94
302.209	213.94
302.439	241.94
302.669	215.94
302.9	230.94
303.13	221.94
303.36	222.94
303.59	210.94
303.82	225.94
304.051	214.94
304.281	219.94
304.511	231.94
304.741	216.94
304.971	224.94
305.201	216.94
305.431	217.94
305.661	202.94
305.891	210.94
306.121	211.94
306.352	226.94
306.582	221.94
306.812	212.94
307.042	204.94
307.272	212.94
307.502	202.94
307.731	231.94
307.961	230.94
308.191	219.94
308.421	208.94
308.651	207.94
308.881	213.94
309.111	213.94
309.341	230.94
309.571	216.94
309.8	226.94
310.03	219.94
310.26	217.94
310.49	219.94
310.72	221.94
310.949	219.94
311.179	218.94
311.409	217.94
311.639	215.94
311.868	216.94
312.098	228.94
312.328	219.94
312.557	212.94
312.787	229.94
313.017	223.94
313.246	225.94
313.476	210.94
313.706	225.94
313.935	227.94
314.165	218.94
314.394	222.94
314.624	225.94
314.853	231.94
315.083	215.94
315.312	217.94
315.542	229.94
315.771	231.94
316.001	251.94
316.23	233.94
316.46	234.94
316.689	232.94
316.919	227.94
317.148	215.94
317.377	233.94
317.607	232.94
317.836	220.94
318.065	201.94
318.295	205.94
318.524	217.94
318.753	224.94
318.983	222.94
319.212	213.94
319.441	220.94
319.67	223.94
319.9	211.94
320.129	216.94
320.358	232.94
320.587	217.94
320.816	218.94
321.046	215.94
321.275	222.94
321.504	214.94
321.733	218.94
321.962	219.94
322.191	228.94
322.42	241.94
322.649	232.94
322.878	220.94
323.108	219.94
323.337	239.94
323.566	221.94
323.795	237.94
324.024	221.94
324.253	219.94
324.482	211.94
324.71	240.94
324.939	223.94
325.168	230.94
325.397	236.94
325.626	238.94
325.855	238.94
326.084	241.94
326.313	237.94
326.542	243.94
326.77	251.94
326.999	247.94
327.228	233.94
327.457	231.94
327.686	234.94
327.914	235.94
328.143	236.94
328.372	258.94
328.6	261.94
328.829	225.94
329.058	250.94
329.287	230.94
329.515	247.94
329.744	243.94
329.972	244.94
330.201	232.94
330.43	243.94
330.658	250.94
330.887	221.94
331.115	246.94
331.344	245.94
331.572	265.94
331.801	263.94
332.03	271.94
332.258	265.94
332.486	270.94
332.715	275.94
332.943	293.94
333.172	305.94
333.4	308.94
333.629	318.94
333.857	319.94
334.085	317.94
334.314	310.94
334.542	296.94
334.771	303.94
334.999	293.94
335.227	282.94
335.455	288.94
335.684	281.94
335.912	265.94
336.14	281.94
336.369	267.94
336.597	282.94
336.825	287.94
337.053	274.94
337.281	280.94
337.51	274.94
337.738	263.94
337.966	260.94
338.194	259.94
338.422	273.94
338.65	258.94
338.878	248.94
339.106	250.94
339.334	249.94
339.562	255.94
339.79	248.94
340.018	242.94
340.246	249.94
340.474	244.94
340.702	244.94
340.93	238.94
341.158	230.94
341.386	235.94
341.614	250.94
341.842	243.94
342.07	247.94
342.298	229.94
342.526	246.94
342.754	254.94
342.981	255.94
343.209	271.94
343.437	268.94
343.665	271.94
343.893	292.94
344.12	301.94
344.348	284.94
344.576	269.94
344.804	257.94
345.031	233.94
345.259	263.94
345.487	255.94
345.714	237.94
345.942	228.94
346.17	236.94
346.397	229.94
346.625	238.94
346.853	245.94
347.08	237.94
347.308	236.94
347.535	242.94
347.763	255.94
347.99	245.94
348.218	249.94
348.445	231.94
348.673	231.94
348.9	254.94
349.128	239.94
349.355	261.94
349.583	252.94
349.81	242.94
350.037	247.94
350.265	214.94
350.492	237.94
350.72	248.94
350.947	227.94
351.174	235.94
351.402	239.94
351.629	252.94
351.856	240.94
352.083	250.94
352.311	222.94
352.538	224.94
352.765	243.94
352.992	245.94
353.22	219.94
353.447	230.94
353.674	247.94
353.901	219.94
354.128	220.94
354.355	225.94
354.583	231.94
354.81	230.94
355.037	233.94
355.264	230.94
355.491	243.94
355.718	233.94
355.945	235.94
356.172	230.94
356.399	233.94
356.626	219.94
356.853	234.94
357.08	241.94
357.307	235.94
357.534	242.94
357.761	228.94
357.988	239.94
358.215	235.94
358.441	231.94
358.668	223.94
358.895	221.94
359.122	241.94
359.349	230.94
359.576	229.94
359.802	236.94
360.029	218.94
360.256	238.94
360.483	230.94
360.709	224.94
360.936	233.94
361.163	243.94
361.39	231.94
361.616	229.94
361.843	228.94
362.07	223.94
362.296	246.94
362.523	225.94
362.749	230.94
362.976	224.94
363.203	231.94
363.429	225.94
363.656	234.94
363.882	230.94
364.109	239.94
364.335	232.94
364.562	229.94
364.788	213.94
365.015	232.94
365.241	237.94
365.468	230.94
365.694	214.94
365.92	225.94
366.147	222.94
366.373	219.94
366.599	222.94
366.826	241.94
367.052	220.94
367.278	238.94
367.505	226.94
367.731	230.94
367.957	218.94
368.184	221.94
368.41	230.94
368.636	239.94
368.862	237.94
369.089	237.94
369.315	230.94
369.541	258.94
369.767	233.94
369.993	255.94
370.219	254.94
370.445	238.94
370.672	228.94
370.898	239.94
371.124	242.94
371.35	242.94
371.576	247.94
371.802	246.94
372.028	238.94
372.254	241.94
372.48	246.94
372.706	259.94
372.932	263.94
373.158	255.94
373.384	265.94
373.61	249.94
373.835	220.94
374.061	234.94
374.287	233.94
374.513	263.94
374.739	253.94
374.965	254.94
375.191	261.94
375.416	261.94
375.642	255.94
375.868	269.94
376.094	249.94
376.319	243.94
376.545	261.94
376.771	259.94
376.997	270.94
377.222	240.94
377.448	235.94
377.674	249.94
377.899	243.94
378.125	262.94
378.35	245.94
378.576	239.94
378.802	236.94
379.027	244.94
379.253	242.94
379.478	242.94
379.704	243.94
379.929	229.94
380.155	263.94
380.38	234.94
380.606	232.94
380.831	239.94
381.057	238.94
381.282	244.94
381.507	246.94
381.733	249.94
381.958	255.94
382.184	243.94
382.409	249.94
382.634	258.94
382.86	257.94
383.085	282.94
383.31	260.94
383.535	282.94
383.761	256.94
383.986	264.94
384.211	281.94
384.436	285.94
384.662	288.94
384.887	293.94
385.112	275.94
385.337	275.94
385.562	289.94
385.787	294.94
386.013	297.94
386.238	282.94
386.463	286.94
386.688	279.94
386.913	292.94
387.138	267.94
387.363	295.94
387.588	274.94
387.813	272.94
388.038	280.94
388.263	282.94
388.488	275.94
388.713	274.94
388.938	277.94
389.163	267.94
389.387	273.94
389.612	282.94
389.837	280.94
390.062	259.94
390.287	268.94
390.512	279.94
390.736	281.94
390.961	286.94
391.186	275.94
391.411	283.94
391.636	309.94
391.86	286.94
392.085	289.94
392.31	329.94
392.534	295.94
392.759	313.94
392.984	286.94
393.208	299.94
393.433	289.94
393.658	297.94
393.882	297.94
394.107	305.94
394.331	301.94
394.556	301.94
394.78	292.94
395.005	296.94
395.229	294.94
395.454	313.94
395.678	305.94
395.903	295.94
396.127	273.94
396.352	309.94
396.576	297.94
396.801	287.94
397.025	306.94
397.249	289.94
397.474	299.94
397.698	290.94
397.922	297.94
398.147	294.94
398.371	307.94
398.595	298.94
398.82	327.94
399.044	337.94
399.268	378.94
399.492	430.94
399.717	473.94
399.941	486.94
400.165	415.94
400.389	388.94
400.613	368.94
400.837	329.94
401.062	339.94
401.286	331.94
401.51	323.94
401.734	322.94
401.958	329.94
402.182	339.94
402.406	339.94
402.63	349.94
402.854	354.94
403.078	373.94
403.302	361.94
403.526	375.94
403.75	387.94
403.974	380.94
404.198	380.94
404.422	395.94
404.645	382.94
404.869	381.94
405.093	358.94
405.317	363.94
405.541	346.94
405.765	353.94
405.988	347.94
406.212	374.94
406.436	331.94
406.66	364.94
406.883	369.94
407.107	382.94
407.331	417.94
407.555	413.94
407.778	402.94
408.002	396.94
408.226	383.94
408.449	374.94
408.673	369.94
408.896	364.94
409.12	380.94
409.344	366.94
409.567	369.94
409.791	375.94
410.014	361.94
410.238	383.94
410.461	377.94
410.685	353.94
410.908	347.94
411.132	365.94
411.355	351.94
411.578	329.94
411.802	331.94
412.025	341.94
412.249	350.94
412.472	339.94
412.695	340.94
412.919	326.94
413.142	333.94
413.365	334.94
413.589	331.94
413.812	319.94
414.035	333.94
414.258	313.94
414.482	325.94
414.705	323.94
414.928	319.94
415.151	341.94
415.374	323.94
415.597	316.94
415.821	338.94
416.044	318.94
416.267	319.94
416.49	335.94
416.713	337.94
416.936	322.94
417.159	315.94
417.382	334.94
417.605	316.94
417.828	335.94
418.051	331.94
418.274	323.94
418.497	326.94
418.72	329.94
418.943	350.94
419.166	355.94
419.389	377.94
419.611	357.94
419.834	346.94
420.057	335.94
420.28	338.94
420.503	346.94
420.726	343.94
420.948	330.94
421.171	312.94
421.394	329.94
421.617	341.94
421.839	325.94
422.062	339.94
422.285	319.94
422.507	323.94
422.73	332.94
422.953	341.94
423.175	350.94
423.398	347.94
423.621	353.94
423.843	363.94
424.066	352.94
424.288	376.94
424.511	341.94
424.733	355.94
424.956	342.94
425.178	345.94
425.401	315.94
425.623	340.94
425.846	313.94
426.068	307.94
426.291	319.94
426.513	300.94
426.735	309.94
426.958	318.94
427.18	308.94
427.402	284.94
427.625	293.94
427.847	305.94
428.069	296.94
428.292	299.94
428.514	301.94
428.736	301.94
428.958	299.94
429.181	283.94
429.403	284.94
429.625	279.94
429.847	293.94
430.069	290.94
430.292	289.94
430.514	287.94
430.736	300.94
430.958	295.94
431.18	297.94
431.402	311.94
431.624	283.94
431.846	286.94
432.068	295.94
432.29	298.94
432.512	289.94
432.734	302.94
432.956	278.94
433.178	306.94
433.4	272.94
433.622	299.94
433.844	309.94
434.066	294.94
434.287	303.94
434.509	323.94
434.731	321.94
434.953	317.94
435.175	326.94
435.397	317.94
435.618	317.94
435.84	298.94
436.062	289.94
436.284	286.94
436.505	301.94
436.727	302.94
436.949	314.94
437.17	302.94
437.392	282.94
437.614	301.94
437.835	287.94
438.057	289.94
438.278	285.94
438.5	273.94
438.721	284.94
438.943	297.94
439.165	307.94
439.386	301.94
439.608	282.94
439.829	295.94
440.05	297.94
440.272	311.94
440.493	285.94
440.715	307.94
440.936	319.94
441.158	326.94
441.379	316.94
441.6	335.94
441.822	339.94
442.043	322.94
442.264	332.94
442.486	330.94
442.707	307.94
442.928	319.94
443.149	328.94
443.371	315.94
443.592	316.94
443.813	333.94
444.034	330.94
444.255	332.94
444.476	351.94
444.698	375.94
444.919	402.94
445.14	502.94
445.361	414.94
445.582	333.94
445.803	318.94
446.024	314.94
446.245	280.94
446.466	298.94
446.687	284.94
446.908	285.94
447.129	297.94
447.35	302.94
447.571	284.94
447.792	310.94
448.013	277.94
448.234	278.94
448.455	283.94
448.675	288.94
448.896	284.94
449.117	268.94
449.338	266.94
449.559	277.94
449.779	261.94
450	265.94
450.221	262.94
450.442	268.94
450.662	298.94
450.883	288.94
451.104	285.94
451.324	278.94
451.545	291.94
451.766	274.94
451.986	282.94
452.207	291.94
452.428	270.94
452.648	278.94
452.869	259.94
453.089	275.94
453.31	263.94
453.53	280.94
453.751	257.94
453.971	276.94
454.192	273.94
454.412	238.94
454.633	284.94
454.853	277.94
455.073	259.94
455.294	262.94
455.514	262.94
455.734	268.94
455.955	247.94
456.175	277.94
456.395	271.94
456.616	276.94
456.836	257.94
457.056	247.94
457.276	233.94
457.497	267.94
457.717	239.94
457.937	264.94
458.157	289.94
458.377	256.94
458.598	280.94
458.818	269.94
459.038	282.94
459.258	281.94
459.478	302.94
459.698	296.94
459.918	292.94
460.138	321.94
460.358	343.94
460.578	335.94
460.798	338.94
461.018	332.94
461.238	348.94
461.458	348.94
461.678	341.94
461.898	333.94
462.118	345.94
462.338	355.94
462.558	381.94
462.777	383.94
462.997	423.94
463.217	453.94
463.437	476.94
463.657	440.94
463.876	403.94
464.096	394.94
464.316	400.94
464.536	386.94
464.755	393.94
464.975	377.94
465.195	360.94
465.414	325.94
465.634	322.94
465.854	327.94
466.073	296.94
466.293	300.94
466.512	302.94
466.732	288.94
466.951	277.94
467.171	278.94
467.391	291.94
467.61	282.94
467.829	281.94
468.049	309.94
468.268	276.94
468.488	285.94
468.707	273.94
468.927	282.94
469.146	291.94
469.365	263.94
469.585	278.94
469.804	305.94
470.023	273.94
470.243	305.94
470.462	296.94
470.681	290.94
470.901	307.94
471.12	291.94
471.339	289.94
471.558	295.94
471.777	281.94
471.997	287.94
472.216	297.94
472.435	272.94
472.654	276.94
472.873	286.94
473.092	265.94
473.311	285.94
473.53	264.94
473.749	287.94
473.968	273.94
474.187	267.94
474.406	264.94
474.625	278.94
474.844	283.94
475.063	283.94
475.282	274.94
475.501	269.94
475.72	279.94
475.939	284.94
476.158	291.94
476.377	300.94
476.596	276.94
476.814	277.94
477.033	296.94
477.252	298.94
477.471	307.94
477.69	302.94
477.908	301.94
478.127	297.94
478.346	314.94
478.564	350.94
478.783	326.94
479.002	342.94
479.22	337.94
479.439	336.94
479.658	321.94
479.876	341.94
480.095	346.94
480.313	335.94
480.532	363.94
480.751	343.94
480.969	328.94
481.188	351.94
481.406	321.94
481.624	320.94
481.843	316.94
482.061	324.94
482.28	306.94
482.498	313.94
482.717	309.94
482.935	311.94
483.153	325.94
483.372	317.94
483.59	322.94
483.808	328.94
484.027	314.94
484.245	311.94
484.463	309.94
484.681	316.94
484.9	323.94
485.118	329.94
485.336	324.94
485.554	341.94
485.772	330.94
485.99	336.94
486.209	341.94
486.427	342.94
486.645	362.94
486.863	347.94
487.081	323.94
487.299	337.94
487.517	351.94
487.735	341.94
487.953	325.94
488.171	333.94
488.389	339.94
488.607	314.94
488.825	313.94
489.043	346.94
489.261	333.94
489.479	324.94
489.696	325.94
489.914	333.94
490.132	326.94
490.35	334.94
490.568	327.94
490.786	335.94
491.003	322.94
491.221	331.94
491.439	341.94
491.657	334.94
491.874	324.94
492.092	349.94
492.31	327.94
492.527	341.94
492.745	327.94
492.963	334.94
493.18	349.94
493.398	357.94
493.615	334.94
493.833	355.94
494.05	348.94
494.268	344.94
494.485	350.94
494.703	361.94
494.92	350.94
495.138	348.94
495.355	336.94
495.573	343.94
495.79	331.94
496.008	348.94
496.225	354.94
496.442	337.94
496.66	340.94
496.877	346.94
497.094	366.94
497.312	350.94
497.529	366.94
497.746	379.94
497.963	385.94
498.181	399.94
498.398	419.94
498.615	431.94
498.832	448.94
499.049	492.94
499.267	536.94
499.484	585.94
499.701	628.94
499.918	699.94
500.135	788.94
500.352	933.94
500.569	1019.94
500.786	967.94
501.003	919.94
501.22	793.94
501.437	696.94
501.654	613.94
501.871	579.94
502.088	522.94
502.305	500.94
502.522	479.94
502.739	457.94
502.956	433.94
