Data from 0.5MCu(NO3)2.Standard.Lamp.E10.CV._HRD10591_16-06-50-754.txt Node
Date: Mon Jul 22 16:06:50 EDT 2019
User: cochatt
Spectrometer: HR+D1059
Trigger mode: 1
Integration Time (sec): 1.000000E-1
Scans to average: 1
Electric dark correction enabled: true
Nonlinearity correction enabled: false
Boxcar width: 0
XAxis mode: Wavelengths
Number of Pixels in Spectrum: 2048
>>>>>Begin Spectral Data<<<<<
223.165	-0.44
223.4	-0.44
223.635	-0.44
223.869	-16.44
224.104	-21.44
224.338	-16.44
224.573	-30.44
224.808	-7.44
225.042	1.56
225.277	5.56
225.511	-7.44
225.746	-9.44
225.98	10.56
226.215	0.56
226.449	10.56
226.683	23.56
226.918	23.56
227.152	33.56
227.387	51.56
227.621	47.56
227.856	32.56
228.09	44.56
228.324	43.56
228.559	45.56
228.793	55.56
229.027	57.56
229.262	72.56
229.496	76.56
229.73	87.56
229.964	78.56
230.199	70.56
230.433	80.56
230.667	86.56
230.901	81.56
231.136	77.56
231.37	83.56
231.604	104.56
231.838	89.56
232.072	96.56
232.306	85.56
232.541	82.56
232.775	88.56
233.009	91.56
233.243	95.56
233.477	89.56
233.711	92.56
233.945	88.56
234.179	88.56
234.413	92.56
234.647	84.56
234.881	84.56
235.115	72.56
235.349	89.56
235.583	85.56
235.817	92.56
236.051	95.56
236.285	94.56
236.519	95.56
236.753	99.56
236.987	79.56
237.221	79.56
237.455	95.56
237.689	79.56
237.922	95.56
238.156	85.56
238.39	87.56
238.624	98.56
238.858	97.56
239.091	86.56
239.325	98.56
239.559	92.56
239.793	89.56
240.027	80.56
240.26	90.56
240.494	96.56
240.728	87.56
240.961	90.56
241.195	93.56
241.429	92.56
241.662	102.56
241.896	79.56
242.13	78.56
242.363	95.56
242.597	81.56
242.83	96.56
243.064	92.56
243.298	85.56
243.531	87.56
243.765	84.56
243.998	90.56
244.232	81.56
244.465	88.56
244.699	83.56
244.932	91.56
245.166	99.56
245.399	76.56
245.633	97.56
245.866	102.56
246.099	90.56
246.333	102.56
246.566	97.56
246.8	92.56
247.033	96.56
247.266	107.56
247.5	79.56
247.733	107.56
247.966	98.56
248.2	94.56
248.433	113.56
248.666	109.56
248.899	93.56
249.133	88.56
249.366	111.56
249.599	95.56
249.832	109.56
250.066	103.56
250.299	106.56
250.532	103.56
250.765	104.56
250.998	109.56
251.231	108.56
251.465	111.56
251.698	109.56
251.931	102.56
252.164	110.56
252.397	99.56
252.63	101.56
252.863	114.56
253.096	90.56
253.329	108.56
253.562	110.56
253.795	106.56
254.028	107.56
254.261	117.56
254.494	98.56
254.727	111.56
254.96	99.56
255.193	83.56
255.426	115.56
255.659	122.56
255.892	117.56
256.124	102.56
256.357	116.56
256.59	99.56
256.823	98.56
257.056	118.56
257.289	104.56
257.521	100.56
257.754	116.56
257.987	100.56
258.22	122.56
258.452	111.56
258.685	135.56
258.918	114.56
259.151	101.56
259.383	111.56
259.616	99.56
259.849	112.56
260.081	116.56
260.314	118.56
260.547	106.56
260.779	97.56
261.012	116.56
261.244	106.56
261.477	124.56
261.71	114.56
261.942	111.56
262.175	109.56
262.407	112.56
262.64	120.56
262.872	104.56
263.105	113.56
263.337	125.56
263.57	113.56
263.802	115.56
264.035	134.56
264.267	109.56
264.499	126.56
264.732	113.56
264.964	125.56
265.197	115.56
265.429	133.56
265.661	125.56
265.894	115.56
266.126	125.56
266.358	119.56
266.591	130.56
266.823	146.56
267.055	122.56
267.287	139.56
267.52	123.56
267.752	111.56
267.984	119.56
268.216	131.56
268.448	136.56
268.681	134.56
268.913	118.56
269.145	122.56
269.377	131.56
269.609	129.56
269.841	144.56
270.073	121.56
270.306	126.56
270.538	127.56
270.77	128.56
271.002	119.56
271.234	129.56
271.466	148.56
271.698	123.56
271.93	120.56
272.162	125.56
272.394	135.56
272.626	125.56
272.858	137.56
273.09	151.56
273.322	143.56
273.553	124.56
273.785	151.56
274.017	130.56
274.249	122.56
274.481	143.56
274.713	129.56
274.945	138.56
275.176	133.56
275.408	134.56
275.64	150.56
275.872	145.56
276.104	145.56
276.335	125.56
276.567	149.56
276.799	132.56
277.031	128.56
277.262	144.56
277.494	135.56
277.726	126.56
277.957	150.56
278.189	149.56
278.421	141.56
278.652	140.56
278.884	126.56
279.115	148.56
279.347	137.56
279.579	147.56
279.81	136.56
280.042	137.56
280.273	156.56
280.505	127.56
280.736	129.56
280.968	141.56
281.199	147.56
281.431	153.56
281.662	163.56
281.894	149.56
282.125	145.56
282.356	135.56
282.588	128.56
282.819	138.56
283.051	144.56
283.282	144.56
283.513	156.56
283.745	138.56
283.976	160.56
284.207	136.56
284.439	159.56
284.67	121.56
284.901	140.56
285.132	148.56
285.364	143.56
285.595	155.56
285.826	159.56
286.057	157.56
286.288	153.56
286.52	157.56
286.751	159.56
286.982	141.56
287.213	151.56
287.444	171.56
287.675	142.56
287.906	157.56
288.138	157.56
288.369	157.56
288.6	156.56
288.831	157.56
289.062	155.56
289.293	161.56
289.524	165.56
289.755	150.56
289.986	155.56
290.217	162.56
290.448	156.56
290.679	161.56
290.91	158.56
291.141	173.56
291.371	169.56
291.602	163.56
291.833	172.56
292.064	151.56
292.295	159.56
292.526	150.56
292.757	158.56
292.987	148.56
293.218	163.56
293.449	168.56
293.68	168.56
293.91	167.56
294.141	164.56
294.372	152.56
294.603	166.56
294.833	161.56
295.064	147.56
295.295	156.56
295.525	176.56
295.756	158.56
295.987	150.56
296.217	163.56
296.448	178.56
296.679	169.56
296.909	162.56
297.14	168.56
297.37	169.56
297.601	155.56
297.831	164.56
298.062	185.56
298.292	181.56
298.523	181.56
298.753	193.56
298.984	179.56
299.214	164.56
299.445	175.56
299.675	172.56
299.905	177.56
300.136	176.56
300.366	167.56
300.597	195.56
300.827	183.56
301.057	172.56
301.288	179.56
301.518	184.56
301.748	171.56
301.979	168.56
302.209	177.56
302.439	172.56
302.669	180.56
302.9	172.56
303.13	163.56
303.36	180.56
303.59	191.56
303.82	184.56
304.051	172.56
304.281	168.56
304.511	179.56
304.741	171.56
304.971	170.56
305.201	183.56
305.431	181.56
305.661	175.56
305.891	160.56
306.121	165.56
306.352	182.56
306.582	168.56
306.812	165.56
307.042	172.56
307.272	188.56
307.502	153.56
307.731	172.56
307.961	181.56
308.191	169.56
308.421	187.56
308.651	168.56
308.881	177.56
309.111	163.56
309.341	187.56
309.571	181.56
309.8	160.56
310.03	164.56
310.26	183.56
310.49	175.56
310.72	176.56
310.949	177.56
311.179	172.56
311.409	168.56
311.639	171.56
311.868	177.56
312.098	195.56
312.328	190.56
312.557	164.56
312.787	177.56
313.017	180.56
313.246	172.56
313.476	178.56
313.706	184.56
313.935	176.56
314.165	193.56
314.394	188.56
314.624	180.56
314.853	176.56
315.083	177.56
315.312	173.56
315.542	187.56
315.771	181.56
316.001	187.56
316.23	177.56
316.46	172.56
316.689	169.56
316.919	183.56
317.148	187.56
317.377	175.56
317.607	178.56
317.836	167.56
318.065	176.56
318.295	150.56
318.524	167.56
318.753	189.56
318.983	177.56
319.212	177.56
319.441	171.56
319.67	169.56
319.9	170.56
320.129	172.56
320.358	175.56
320.587	175.56
320.816	173.56
321.046	185.56
321.275	187.56
321.504	183.56
321.733	186.56
321.962	189.56
322.191	192.56
322.42	171.56
322.649	171.56
322.878	184.56
323.108	186.56
323.337	176.56
323.566	181.56
323.795	179.56
324.024	177.56
324.253	184.56
324.482	172.56
324.71	183.56
324.939	193.56
325.168	191.56
325.397	186.56
325.626	178.56
325.855	180.56
326.084	189.56
326.313	183.56
326.542	187.56
326.77	199.56
326.999	208.56
327.228	175.56
327.457	205.56
327.686	179.56
327.914	187.56
328.143	185.56
328.372	182.56
328.6	200.56
328.829	199.56
329.058	215.56
329.287	191.56
329.515	193.56
329.744	187.56
329.972	179.56
330.201	177.56
330.43	185.56
330.658	210.56
330.887	208.56
331.115	198.56
331.344	204.56
331.572	204.56
331.801	189.56
332.03	220.56
332.258	191.56
332.486	207.56
332.715	221.56
332.943	221.56
333.172	228.56
333.4	247.56
333.629	249.56
333.857	250.56
334.085	240.56
334.314	209.56
334.542	203.56
334.771	230.56
334.999	219.56
335.227	225.56
335.455	219.56
335.684	222.56
335.912	210.56
336.14	209.56
336.369	220.56
336.597	231.56
336.825	214.56
337.053	217.56
337.281	205.56
337.51	208.56
337.738	201.56
337.966	214.56
338.194	222.56
338.422	203.56
338.65	182.56
338.878	210.56
339.106	222.56
339.334	208.56
339.562	212.56
339.79	181.56
340.018	197.56
340.246	198.56
340.474	216.56
340.702	185.56
340.93	187.56
341.158	205.56
341.386	204.56
341.614	195.56
341.842	200.56
342.07	181.56
342.298	185.56
342.526	195.56
342.754	191.56
342.981	198.56
343.209	214.56
343.437	212.56
343.665	227.56
343.893	234.56
344.12	208.56
344.348	211.56
344.576	222.56
344.804	212.56
345.031	188.56
345.259	192.56
345.487	185.56
345.714	183.56
345.942	202.56
346.17	203.56
346.397	191.56
346.625	191.56
346.853	201.56
347.08	197.56
347.308	187.56
347.535	189.56
347.763	187.56
347.99	210.56
348.218	197.56
348.445	185.56
348.673	187.56
348.9	193.56
349.128	194.56
349.355	196.56
349.583	184.56
349.81	176.56
350.037	179.56
350.265	179.56
350.492	187.56
350.72	175.56
350.947	187.56
351.174	184.56
351.402	177.56
351.629	184.56
351.856	195.56
352.083	179.56
352.311	175.56
352.538	179.56
352.765	194.56
352.992	183.56
353.22	188.56
353.447	185.56
353.674	199.56
353.901	189.56
354.128	179.56
354.355	180.56
354.583	193.56
354.81	200.56
355.037	188.56
355.264	188.56
355.491	193.56
355.718	187.56
355.945	184.56
356.172	193.56
356.399	182.56
356.626	176.56
356.853	163.56
357.08	185.56
357.307	183.56
357.534	179.56
357.761	179.56
357.988	178.56
358.215	199.56
358.441	175.56
358.668	191.56
358.895	172.56
359.122	184.56
359.349	186.56
359.576	195.56
359.802	185.56
360.029	184.56
360.256	187.56
360.483	185.56
360.709	183.56
360.936	178.56
361.163	183.56
361.39	173.56
361.616	193.56
361.843	193.56
362.07	187.56
362.296	179.56
362.523	178.56
362.749	190.56
362.976	196.56
363.203	175.56
363.429	181.56
363.656	184.56
363.882	177.56
364.109	166.56
364.335	182.56
364.562	198.56
364.788	192.56
365.015	187.56
365.241	186.56
365.468	178.56
365.694	190.56
365.92	192.56
366.147	190.56
366.373	186.56
366.599	194.56
366.826	172.56
367.052	187.56
367.278	191.56
367.505	186.56
367.731	178.56
367.957	194.56
368.184	177.56
368.41	175.56
368.636	184.56
368.862	172.56
369.089	196.56
369.315	185.56
369.541	169.56
369.767	179.56
369.993	209.56
370.219	203.56
370.445	186.56
370.672	183.56
370.898	195.56
371.124	185.56
371.35	191.56
371.576	182.56
371.802	193.56
372.028	196.56
372.254	188.56
372.48	194.56
372.706	194.56
372.932	207.56
373.158	197.56
373.384	195.56
373.61	196.56
373.835	197.56
374.061	198.56
374.287	188.56
374.513	202.56
374.739	201.56
374.965	211.56
375.191	211.56
375.416	226.56
375.642	200.56
375.868	205.56
376.094	187.56
376.319	191.56
376.545	191.56
376.771	208.56
376.997	204.56
377.222	190.56
377.448	208.56
377.674	199.56
377.899	201.56
378.125	186.56
378.35	190.56
378.576	202.56
378.802	198.56
379.027	212.56
379.253	190.56
379.478	181.56
379.704	189.56
379.929	185.56
380.155	213.56
380.38	169.56
380.606	201.56
380.831	183.56
381.057	205.56
381.282	191.56
381.507	191.56
381.733	193.56
381.958	200.56
382.184	187.56
382.409	208.56
382.634	201.56
382.86	205.56
383.085	218.56
383.31	196.56
383.535	211.56
383.761	224.56
383.986	199.56
384.211	216.56
384.436	215.56
384.662	231.56
384.887	231.56
385.112	197.56
385.337	216.56
385.562	226.56
385.787	213.56
386.013	228.56
386.238	226.56
386.463	236.56
386.688	235.56
386.913	220.56
387.138	213.56
387.363	228.56
387.588	217.56
387.813	225.56
388.038	206.56
388.263	218.56
388.488	233.56
388.713	226.56
388.938	233.56
389.163	223.56
389.387	217.56
389.612	221.56
389.837	217.56
390.062	211.56
390.287	203.56
390.512	203.56
390.736	208.56
390.961	210.56
391.186	239.56
391.411	228.56
391.636	225.56
391.86	237.56
392.085	214.56
392.31	226.56
392.534	214.56
392.759	247.56
392.984	229.56
393.208	218.56
393.433	222.56
393.658	221.56
393.882	221.56
394.107	220.56
394.331	232.56
394.556	225.56
394.78	238.56
395.005	230.56
395.229	230.56
395.454	247.56
395.678	245.56
395.903	239.56
396.127	237.56
396.352	220.56
396.576	223.56
396.801	222.56
397.025	234.56
397.249	213.56
397.474	225.56
397.698	235.56
397.922	252.56
398.147	247.56
398.371	260.56
398.595	241.56
398.82	275.56
399.044	267.56
399.268	284.56
399.492	320.56
399.717	371.56
399.941	341.56
400.165	323.56
400.389	293.56
400.613	265.56
400.837	268.56
401.062	265.56
401.286	262.56
401.51	268.56
401.734	250.56
401.958	245.56
402.182	253.56
402.406	272.56
402.63	271.56
402.854	259.56
403.078	268.56
403.302	284.56
403.526	280.56
403.75	292.56
403.974	287.56
404.198	316.56
404.422	297.56
404.645	308.56
404.869	290.56
405.093	300.56
405.317	294.56
405.541	287.56
405.765	268.56
405.988	261.56
406.212	275.56
406.436	279.56
406.66	277.56
406.883	282.56
407.107	303.56
407.331	297.56
407.555	318.56
407.778	307.56
408.002	313.56
408.226	307.56
408.449	294.56
408.673	283.56
408.896	293.56
409.12	283.56
409.344	288.56
409.567	287.56
409.791	282.56
410.014	279.56
410.238	294.56
410.461	296.56
410.685	286.56
410.908	290.56
411.132	271.56
411.355	261.56
411.578	262.56
411.802	257.56
412.025	236.56
412.249	273.56
412.472	284.56
412.695	267.56
412.919	257.56
413.142	265.56
413.365	267.56
413.589	245.56
413.812	249.56
414.035	240.56
414.258	259.56
414.482	270.56
414.705	263.56
414.928	264.56
415.151	255.56
415.374	249.56
415.597	274.56
415.821	252.56
416.044	237.56
416.267	271.56
416.49	245.56
416.713	246.56
416.936	257.56
417.159	244.56
417.382	257.56
417.605	235.56
417.828	237.56
418.051	261.56
418.274	247.56
418.497	264.56
418.72	258.56
418.943	256.56
419.166	256.56
419.389	283.56
419.611	271.56
419.834	262.56
420.057	259.56
420.28	259.56
420.503	244.56
420.726	265.56
420.948	236.56
421.171	246.56
421.394	256.56
421.617	259.56
421.839	218.56
422.062	241.56
422.285	247.56
422.507	266.56
422.73	255.56
422.953	268.56
423.175	260.56
423.398	256.56
423.621	258.56
423.843	269.56
424.066	272.56
424.288	257.56
424.511	289.56
424.733	268.56
424.956	261.56
425.178	266.56
425.401	232.56
425.623	258.56
425.846	257.56
426.068	243.56
426.291	242.56
426.513	242.56
426.735	245.56
426.958	239.56
427.18	242.56
427.402	245.56
427.625	233.56
427.847	228.56
428.069	236.56
428.292	224.56
428.514	237.56
428.736	229.56
428.958	218.56
429.181	236.56
429.403	224.56
429.625	218.56
429.847	224.56
430.069	219.56
430.292	209.56
430.514	212.56
430.736	210.56
430.958	243.56
431.18	224.56
431.402	210.56
431.624	200.56
431.846	220.56
432.068	227.56
432.29	226.56
432.512	252.56
432.734	231.56
432.956	225.56
433.178	219.56
433.4	224.56
433.622	231.56
433.844	243.56
434.066	224.56
434.287	229.56
434.509	242.56
434.731	255.56
434.953	256.56
435.175	235.56
435.397	243.56
435.618	237.56
435.84	239.56
436.062	232.56
436.284	229.56
436.505	237.56
436.727	221.56
436.949	244.56
437.17	235.56
437.392	221.56
437.614	212.56
437.835	220.56
438.057	213.56
438.278	218.56
438.5	235.56
438.721	206.56
438.943	237.56
439.165	230.56
439.386	215.56
439.608	230.56
439.829	226.56
440.05	244.56
440.272	234.56
440.493	226.56
440.715	236.56
440.936	236.56
441.158	225.56
441.379	240.56
441.6	265.56
441.822	249.56
442.043	244.56
442.264	248.56
442.486	246.56
442.707	246.56
442.928	265.56
443.149	234.56
443.371	246.56
443.592	246.56
443.813	242.56
444.034	249.56
444.255	277.56
444.476	265.56
444.698	286.56
444.919	283.56
445.14	376.56
445.361	325.56
445.582	269.56
445.803	256.56
446.024	245.56
446.245	248.56
446.466	233.56
446.687	235.56
446.908	237.56
447.129	229.56
447.35	203.56
447.571	219.56
447.792	211.56
448.013	212.56
448.234	218.56
448.455	230.56
448.675	209.56
448.896	225.56
449.117	228.56
449.338	209.56
449.559	218.56
449.779	204.56
450	227.56
450.221	201.56
450.442	225.56
450.662	211.56
450.883	236.56
451.104	226.56
451.324	220.56
451.545	223.56
451.766	209.56
451.986	224.56
452.207	204.56
452.428	210.56
452.648	215.56
452.869	237.56
453.089	213.56
453.31	213.56
453.53	224.56
453.751	217.56
453.971	211.56
454.192	203.56
454.412	203.56
454.633	212.56
454.853	216.56
455.073	219.56
455.294	196.56
455.514	212.56
455.734	202.56
455.955	201.56
456.175	195.56
456.395	212.56
456.616	191.56
456.836	195.56
457.056	192.56
457.276	203.56
457.497	209.56
457.717	213.56
457.937	209.56
458.157	207.56
458.377	211.56
458.598	209.56
458.818	213.56
459.038	212.56
459.258	221.56
459.478	237.56
459.698	231.56
459.918	242.56
460.138	275.56
460.358	266.56
460.578	279.56
460.798	258.56
461.018	275.56
461.238	259.56
461.458	265.56
461.678	257.56
461.898	269.56
462.118	268.56
462.338	276.56
462.558	291.56
462.777	312.56
462.997	319.56
463.217	352.56
463.437	354.56
463.657	320.56
463.876	292.56
464.096	311.56
464.316	293.56
464.536	299.56
464.755	304.56
464.975	285.56
465.195	265.56
465.414	253.56
465.634	250.56
465.854	265.56
466.073	233.56
466.293	243.56
466.512	215.56
466.732	231.56
466.951	223.56
467.171	211.56
467.391	230.56
467.61	223.56
467.829	217.56
468.049	239.56
468.268	219.56
468.488	214.56
468.707	206.56
468.927	215.56
469.146	218.56
469.365	237.56
469.585	228.56
469.804	224.56
470.023	231.56
470.243	259.56
470.462	249.56
470.681	257.56
470.901	242.56
471.12	226.56
471.339	211.56
471.558	212.56
471.777	221.56
471.997	224.56
472.216	233.56
472.435	221.56
472.654	213.56
472.873	236.56
473.092	199.56
473.311	214.56
473.53	218.56
473.749	218.56
473.968	198.56
474.187	209.56
474.406	229.56
474.625	200.56
474.844	213.56
475.063	216.56
475.282	208.56
475.501	241.56
475.72	225.56
475.939	222.56
476.158	232.56
476.377	216.56
476.596	223.56
476.814	205.56
477.033	231.56
477.252	215.56
477.471	236.56
477.69	241.56
477.908	225.56
478.127	255.56
478.346	255.56
478.564	260.56
478.783	259.56
479.002	265.56
479.22	271.56
479.439	275.56
479.658	252.56
479.876	250.56
480.095	268.56
480.313	268.56
480.532	285.56
480.751	287.56
480.969	262.56
481.188	247.56
481.406	244.56
481.624	263.56
481.843	237.56
482.061	224.56
482.28	236.56
482.498	226.56
482.717	244.56
482.935	243.56
483.153	236.56
483.372	244.56
483.59	253.56
483.808	249.56
484.027	253.56
484.245	262.56
484.463	239.56
484.681	259.56
484.9	265.56
485.118	270.56
485.336	234.56
485.554	275.56
485.772	260.56
485.99	247.56
486.209	258.56
486.427	261.56
486.645	253.56
486.863	254.56
487.081	250.56
487.299	259.56
487.517	268.56
487.735	267.56
487.953	264.56
488.171	272.56
488.389	265.56
488.607	231.56
488.825	272.56
489.043	259.56
489.261	261.56
489.479	250.56
489.696	248.56
489.914	257.56
490.132	258.56
490.35	254.56
490.568	265.56
490.786	259.56
491.003	240.56
491.221	268.56
491.439	270.56
491.657	265.56
491.874	260.56
492.092	267.56
492.31	260.56
492.527	280.56
492.745	266.56
492.963	288.56
493.18	265.56
493.398	266.56
493.615	271.56
493.833	273.56
494.05	280.56
494.268	279.56
494.485	274.56
494.703	259.56
494.92	259.56
495.138	280.56
495.355	269.56
495.573	267.56
495.79	284.56
496.008	271.56
496.225	272.56
496.442	283.56
496.66	290.56
496.877	293.56
497.094	296.56
497.312	300.56
497.529	296.56
497.746	301.56
497.963	313.56
498.181	305.56
498.398	321.56
498.615	331.56
498.832	353.56
499.049	364.56
499.267	398.56
499.484	454.56
499.701	452.56
499.918	543.56
500.135	597.56
500.352	717.56
500.569	729.56
500.786	727.56
501.003	670.56
501.22	612.56
501.437	523.56
501.654	449.56
501.871	435.56
502.088	401.56
502.305	379.56
502.522	354.56
502.739	342.56
502.956	328.56
503.172	326.56
503.389	281.56
