Data from 0.5MCu(NO3)2.Standard.Lamp.E10.CV._HRD10591_16-04-52-753.txt Node
Date: Mon Jul 22 16:04:52 EDT 2019
User: cochatt
Spectrometer: HR+D1059
Trigger mode: 1
Integration Time (sec): 1.000000E-1
Scans to average: 1
Electric dark correction enabled: true
Nonlinearity correction enabled: false
Boxcar width: 0
XAxis mode: Wavelengths
Number of Pixels in Spectrum: 2048
>>>>>Begin Spectral Data<<<<<
223.165	-12.38
223.4	-12.38
223.635	-12.38
223.869	-14.38
224.104	-15.38
224.338	-6.38
224.573	-8.38
224.808	-22.38
225.042	-16.38
225.277	-2.38
225.511	-6.38
225.746	-3.38
225.98	15.62
226.215	-2.38
226.449	25.62
226.683	19.62
226.918	25.62
227.152	23.62
227.387	33.62
227.621	30.62
227.856	50.62
228.09	42.62
228.324	55.62
228.559	38.62
228.793	58.62
229.027	75.62
229.262	56.62
229.496	73.62
229.73	77.62
229.964	65.62
230.199	84.62
230.433	100.62
230.667	89.62
230.901	87.62
231.136	86.62
231.37	96.62
231.604	74.62
231.838	84.62
232.072	97.62
232.306	97.62
232.541	98.62
232.775	97.62
233.009	89.62
233.243	90.62
233.477	101.62
233.711	100.62
233.945	96.62
234.179	99.62
234.413	87.62
234.647	97.62
234.881	103.62
235.115	94.62
235.349	84.62
235.583	96.62
235.817	103.62
236.051	94.62
236.285	91.62
236.519	97.62
236.753	93.62
236.987	91.62
237.221	99.62
237.455	89.62
237.689	82.62
237.922	105.62
238.156	89.62
238.39	92.62
238.624	85.62
238.858	100.62
239.091	87.62
239.325	97.62
239.559	102.62
239.793	87.62
240.027	93.62
240.26	94.62
240.494	86.62
240.728	90.62
240.961	101.62
241.195	85.62
241.429	102.62
241.662	109.62
241.896	95.62
242.13	104.62
242.363	99.62
242.597	115.62
242.83	107.62
243.064	96.62
243.298	95.62
243.531	114.62
243.765	113.62
243.998	103.62
244.232	87.62
244.465	108.62
244.699	98.62
244.932	123.62
245.166	111.62
245.399	94.62
245.633	115.62
245.866	115.62
246.099	118.62
246.333	106.62
246.566	116.62
246.8	117.62
247.033	123.62
247.266	114.62
247.5	117.62
247.733	115.62
247.966	124.62
248.2	104.62
248.433	116.62
248.666	117.62
248.899	117.62
249.133	128.62
249.366	126.62
249.599	115.62
249.832	135.62
250.066	115.62
250.299	121.62
250.532	126.62
250.765	129.62
250.998	121.62
251.231	125.62
251.465	130.62
251.698	129.62
251.931	121.62
252.164	122.62
252.397	125.62
252.63	114.62
252.863	137.62
253.096	117.62
253.329	133.62
253.562	122.62
253.795	123.62
254.028	131.62
254.261	124.62
254.494	127.62
254.727	134.62
254.96	127.62
255.193	137.62
255.426	105.62
255.659	131.62
255.892	140.62
256.124	139.62
256.357	134.62
256.59	128.62
256.823	123.62
257.056	135.62
257.289	147.62
257.521	139.62
257.754	137.62
257.987	146.62
258.22	147.62
258.452	143.62
258.685	133.62
258.918	127.62
259.151	144.62
259.383	135.62
259.616	137.62
259.849	145.62
260.081	123.62
260.314	138.62
260.547	144.62
260.779	139.62
261.012	144.62
261.244	139.62
261.477	150.62
261.71	127.62
261.942	146.62
262.175	130.62
262.407	148.62
262.64	145.62
262.872	143.62
263.105	130.62
263.337	154.62
263.57	151.62
263.802	149.62
264.035	154.62
264.267	149.62
264.499	149.62
264.732	153.62
264.964	147.62
265.197	152.62
265.429	150.62
265.661	142.62
265.894	147.62
266.126	176.62
266.358	161.62
266.591	150.62
266.823	150.62
267.055	165.62
267.287	153.62
267.52	158.62
267.752	165.62
267.984	166.62
268.216	152.62
268.448	156.62
268.681	157.62
268.913	173.62
269.145	158.62
269.377	163.62
269.609	154.62
269.841	157.62
270.073	164.62
270.306	173.62
270.538	164.62
270.77	170.62
271.002	169.62
271.234	155.62
271.466	159.62
271.698	160.62
271.93	165.62
272.162	175.62
272.394	162.62
272.626	160.62
272.858	173.62
273.09	170.62
273.322	173.62
273.553	147.62
273.785	160.62
274.017	161.62
274.249	153.62
274.481	158.62
274.713	183.62
274.945	169.62
275.176	183.62
275.408	175.62
275.64	174.62
275.872	184.62
276.104	170.62
276.335	169.62
276.567	166.62
276.799	165.62
277.031	181.62
277.262	181.62
277.494	177.62
277.726	197.62
277.957	177.62
278.189	185.62
278.421	185.62
278.652	180.62
278.884	194.62
279.115	190.62
279.347	181.62
279.579	193.62
279.81	174.62
280.042	188.62
280.273	194.62
280.505	176.62
280.736	186.62
280.968	191.62
281.199	203.62
281.431	182.62
281.662	197.62
281.894	192.62
282.125	192.62
282.356	182.62
282.588	174.62
282.819	190.62
283.051	217.62
283.282	191.62
283.513	193.62
283.745	199.62
283.976	211.62
284.207	206.62
284.439	200.62
284.67	196.62
284.901	198.62
285.132	201.62
285.364	199.62
285.595	195.62
285.826	214.62
286.057	200.62
286.288	218.62
286.52	195.62
286.751	199.62
286.982	191.62
287.213	201.62
287.444	198.62
287.675	209.62
287.906	194.62
288.138	193.62
288.369	210.62
288.6	199.62
288.831	211.62
289.062	230.62
289.293	199.62
289.524	197.62
289.755	218.62
289.986	207.62
290.217	209.62
290.448	214.62
290.679	222.62
290.91	221.62
291.141	213.62
291.371	225.62
291.602	200.62
291.833	228.62
292.064	214.62
292.295	221.62
292.526	215.62
292.757	217.62
292.987	223.62
293.218	210.62
293.449	221.62
293.68	227.62
293.91	226.62
294.141	224.62
294.372	232.62
294.603	219.62
294.833	233.62
295.064	226.62
295.295	219.62
295.525	237.62
295.756	224.62
295.987	217.62
296.217	217.62
296.448	238.62
296.679	223.62
296.909	236.62
297.14	240.62
297.37	235.62
297.601	238.62
297.831	243.62
298.062	234.62
298.292	227.62
298.523	260.62
298.753	233.62
298.984	224.62
299.214	229.62
299.445	247.62
299.675	252.62
299.905	225.62
300.136	237.62
300.366	246.62
300.597	247.62
300.827	240.62
301.057	246.62
301.288	261.62
301.518	253.62
301.748	238.62
301.979	230.62
302.209	223.62
302.439	232.62
302.669	249.62
302.9	226.62
303.13	232.62
303.36	240.62
303.59	237.62
303.82	239.62
304.051	246.62
304.281	246.62
304.511	244.62
304.741	247.62
304.971	244.62
305.201	244.62
305.431	247.62
305.661	243.62
305.891	252.62
306.121	235.62
306.352	226.62
306.582	255.62
306.812	247.62
307.042	226.62
307.272	242.62
307.502	239.62
307.731	240.62
307.961	254.62
308.191	244.62
308.421	232.62
308.651	249.62
308.881	244.62
309.111	223.62
309.341	243.62
309.571	223.62
309.8	226.62
310.03	224.62
310.26	231.62
310.49	225.62
310.72	245.62
310.949	251.62
311.179	243.62
311.409	244.62
311.639	236.62
311.868	248.62
312.098	248.62
312.328	263.62
312.557	241.62
312.787	246.62
313.017	257.62
313.246	261.62
313.476	258.62
313.706	271.62
313.935	254.62
314.165	249.62
314.394	272.62
314.624	249.62
314.853	265.62
315.083	238.62
315.312	239.62
315.542	255.62
315.771	249.62
316.001	260.62
316.23	257.62
316.46	252.62
316.689	266.62
316.919	272.62
317.148	233.62
317.377	248.62
317.607	249.62
317.836	260.62
318.065	224.62
318.295	240.62
318.524	257.62
318.753	266.62
318.983	254.62
319.212	234.62
319.441	246.62
319.67	253.62
319.9	246.62
320.129	253.62
320.358	245.62
320.587	238.62
320.816	253.62
321.046	254.62
321.275	251.62
321.504	253.62
321.733	253.62
321.962	257.62
322.191	248.62
322.42	262.62
322.649	255.62
322.878	254.62
323.108	239.62
323.337	257.62
323.566	261.62
323.795	258.62
324.024	263.62
324.253	259.62
324.482	241.62
324.71	254.62
324.939	273.62
325.168	263.62
325.397	265.62
325.626	264.62
325.855	260.62
326.084	267.62
326.313	277.62
326.542	275.62
326.77	275.62
326.999	254.62
327.228	266.62
327.457	266.62
327.686	273.62
327.914	259.62
328.143	282.62
328.372	290.62
328.6	264.62
328.829	280.62
329.058	289.62
329.287	276.62
329.515	286.62
329.744	290.62
329.972	288.62
330.201	291.62
330.43	288.62
330.658	253.62
330.887	280.62
331.115	279.62
331.344	292.62
331.572	297.62
331.801	290.62
332.03	303.62
332.258	300.62
332.486	305.62
332.715	312.62
332.943	323.62
333.172	349.62
333.4	354.62
333.629	349.62
333.857	349.62
334.085	354.62
334.314	344.62
334.542	334.62
334.771	329.62
334.999	335.62
335.227	301.62
335.455	314.62
335.684	334.62
335.912	323.62
336.14	305.62
336.369	328.62
336.597	313.62
336.825	309.62
337.053	315.62
337.281	311.62
337.51	286.62
337.738	314.62
337.966	293.62
338.194	295.62
338.422	306.62
338.65	298.62
338.878	288.62
339.106	283.62
339.334	294.62
339.562	297.62
339.79	296.62
340.018	275.62
340.246	267.62
340.474	279.62
340.702	297.62
340.93	274.62
341.158	269.62
341.386	267.62
341.614	274.62
341.842	258.62
342.07	268.62
342.298	272.62
342.526	278.62
342.754	267.62
342.981	275.62
343.209	273.62
343.437	294.62
343.665	313.62
343.893	335.62
344.12	335.62
344.348	309.62
344.576	290.62
344.804	298.62
345.031	294.62
345.259	273.62
345.487	279.62
345.714	280.62
345.942	270.62
346.17	269.62
346.397	273.62
346.625	274.62
346.853	273.62
347.08	244.62
347.308	266.62
347.535	273.62
347.763	268.62
347.99	281.62
348.218	268.62
348.445	280.62
348.673	275.62
348.9	275.62
349.128	292.62
349.355	256.62
349.583	261.62
349.81	251.62
350.037	255.62
350.265	279.62
350.492	269.62
350.72	267.62
350.947	238.62
351.174	273.62
351.402	261.62
351.629	253.62
351.856	259.62
352.083	258.62
352.311	271.62
352.538	278.62
352.765	260.62
352.992	272.62
353.22	255.62
353.447	262.62
353.674	262.62
353.901	254.62
354.128	241.62
354.355	253.62
354.583	255.62
354.81	246.62
355.037	245.62
355.264	263.62
355.491	258.62
355.718	283.62
355.945	270.62
356.172	261.62
356.399	257.62
356.626	259.62
356.853	260.62
357.08	262.62
357.307	258.62
357.534	273.62
357.761	262.62
357.988	257.62
358.215	262.62
358.441	267.62
358.668	245.62
358.895	250.62
359.122	256.62
359.349	258.62
359.576	245.62
359.802	265.62
360.029	266.62
360.256	260.62
360.483	265.62
360.709	258.62
360.936	263.62
361.163	245.62
361.39	265.62
361.616	263.62
361.843	272.62
362.07	249.62
362.296	263.62
362.523	241.62
362.749	243.62
362.976	276.62
363.203	275.62
363.429	275.62
363.656	262.62
363.882	261.62
364.109	260.62
364.335	245.62
364.562	256.62
364.788	256.62
365.015	248.62
365.241	263.62
365.468	258.62
365.694	250.62
365.92	270.62
366.147	237.62
366.373	250.62
366.599	263.62
366.826	242.62
367.052	256.62
367.278	251.62
367.505	255.62
367.731	232.62
367.957	258.62
368.184	230.62
368.41	263.62
368.636	257.62
368.862	269.62
369.089	257.62
369.315	267.62
369.541	258.62
369.767	261.62
369.993	262.62
370.219	244.62
370.445	263.62
370.672	261.62
370.898	258.62
371.124	275.62
371.35	276.62
371.576	280.62
371.802	252.62
372.028	256.62
372.254	277.62
372.48	265.62
372.706	273.62
372.932	279.62
373.158	266.62
373.384	279.62
373.61	272.62
373.835	261.62
374.061	254.62
374.287	278.62
374.513	282.62
374.739	291.62
374.965	299.62
375.191	302.62
375.416	301.62
375.642	302.62
375.868	278.62
376.094	285.62
376.319	273.62
376.545	277.62
376.771	266.62
376.997	274.62
377.222	258.62
377.448	275.62
377.674	281.62
377.899	251.62
378.125	272.62
378.35	289.62
378.576	291.62
378.802	274.62
379.027	263.62
379.253	265.62
379.478	288.62
379.704	264.62
379.929	284.62
380.155	277.62
380.38	254.62
380.606	265.62
380.831	279.62
381.057	271.62
381.282	265.62
381.507	261.62
381.733	267.62
381.958	272.62
382.184	291.62
382.409	270.62
382.634	290.62
382.86	274.62
383.085	287.62
383.31	288.62
383.535	278.62
383.761	293.62
383.986	305.62
384.211	307.62
384.436	308.62
384.662	321.62
384.887	321.62
385.112	326.62
385.337	316.62
385.562	322.62
385.787	308.62
386.013	323.62
386.238	335.62
386.463	322.62
386.688	312.62
386.913	303.62
387.138	322.62
387.363	323.62
387.588	298.62
387.813	320.62
388.038	303.62
388.263	306.62
388.488	311.62
388.713	319.62
388.938	299.62
389.163	309.62
389.387	301.62
389.612	291.62
389.837	291.62
390.062	306.62
390.287	299.62
390.512	306.62
390.736	307.62
390.961	299.62
391.186	312.62
391.411	311.62
391.636	332.62
391.86	335.62
392.085	352.62
392.31	349.62
392.534	342.62
392.759	321.62
392.984	337.62
393.208	330.62
393.433	321.62
393.658	337.62
393.882	319.62
394.107	322.62
394.331	328.62
394.556	317.62
394.78	329.62
395.005	342.62
395.229	326.62
395.454	340.62
395.678	334.62
395.903	368.62
396.127	330.62
396.352	335.62
396.576	322.62
396.801	308.62
397.025	322.62
397.249	319.62
397.474	335.62
397.698	341.62
397.922	329.62
398.147	313.62
398.371	337.62
398.595	366.62
398.82	360.62
399.044	385.62
399.268	419.62
399.492	500.62
399.717	545.62
399.941	536.62
400.165	494.62
400.389	412.62
400.613	414.62
400.837	383.62
401.062	383.62
401.286	382.62
401.51	377.62
401.734	328.62
401.958	365.62
402.182	368.62
402.406	381.62
402.63	382.62
402.854	386.62
403.078	396.62
403.302	408.62
403.526	413.62
403.75	405.62
403.974	426.62
404.198	423.62
404.422	450.62
404.645	411.62
404.869	425.62
405.093	420.62
405.317	393.62
405.541	387.62
405.765	383.62
405.988	391.62
406.212	392.62
406.436	409.62
406.66	421.62
406.883	414.62
407.107	423.62
407.331	438.62
407.555	469.62
407.778	453.62
408.002	463.62
408.226	441.62
408.449	427.62
408.673	433.62
408.896	394.62
409.12	391.62
409.344	405.62
409.567	401.62
409.791	424.62
410.014	415.62
410.238	410.62
410.461	411.62
410.685	385.62
410.908	383.62
411.132	379.62
411.355	382.62
411.578	389.62
411.802	355.62
412.025	365.62
412.249	393.62
412.472	381.62
412.695	355.62
412.919	362.62
413.142	362.62
413.365	365.62
413.589	366.62
413.812	383.62
414.035	363.62
414.258	360.62
414.482	370.62
414.705	383.62
414.928	383.62
415.151	356.62
415.374	365.62
415.597	364.62
415.821	365.62
416.044	347.62
416.267	354.62
416.49	338.62
416.713	350.62
416.936	350.62
417.159	357.62
417.382	358.62
417.605	341.62
417.828	379.62
418.051	364.62
418.274	345.62
418.497	355.62
418.72	382.62
418.943	370.62
419.166	386.62
419.389	406.62
419.611	410.62
419.834	401.62
420.057	377.62
420.28	367.62
420.503	342.62
420.726	345.62
420.948	350.62
421.171	359.62
421.394	357.62
421.617	366.62
421.839	355.62
422.062	373.62
422.285	371.62
422.507	358.62
422.73	377.62
422.953	385.62
423.175	371.62
423.398	388.62
423.621	382.62
423.843	394.62
424.066	373.62
424.288	357.62
424.511	365.62
424.733	367.62
424.956	361.62
425.178	371.62
425.401	347.62
425.623	368.62
425.846	333.62
426.068	349.62
426.291	361.62
426.513	337.62
426.735	343.62
426.958	329.62
427.18	326.62
427.402	323.62
427.625	336.62
427.847	315.62
428.069	337.62
428.292	330.62
428.514	319.62
428.736	326.62
428.958	332.62
429.181	309.62
429.403	296.62
429.625	296.62
429.847	318.62
430.069	317.62
430.292	323.62
430.514	314.62
430.736	331.62
430.958	312.62
431.18	327.62
431.402	325.62
431.624	319.62
431.846	333.62
432.068	334.62
432.29	341.62
432.512	339.62
432.734	326.62
432.956	318.62
433.178	340.62
433.4	336.62
433.622	329.62
433.844	337.62
434.066	345.62
434.287	315.62
434.509	353.62
434.731	355.62
434.953	374.62
435.175	355.62
435.397	343.62
435.618	350.62
435.84	344.62
436.062	337.62
436.284	322.62
436.505	298.62
436.727	308.62
436.949	325.62
437.17	332.62
437.392	332.62
437.614	303.62
437.835	297.62
438.057	301.62
438.278	317.62
438.5	312.62
438.721	311.62
438.943	325.62
439.165	296.62
439.386	319.62
439.608	315.62
439.829	307.62
440.05	340.62
440.272	329.62
440.493	329.62
440.715	321.62
440.936	328.62
441.158	343.62
441.379	338.62
441.6	354.62
441.822	362.62
442.043	376.62
442.264	351.62
442.486	354.62
442.707	361.62
442.928	354.62
443.149	368.62
443.371	339.62
443.592	366.62
443.813	365.62
444.034	370.62
444.255	381.62
444.476	383.62
444.698	392.62
444.919	430.62
445.14	559.62
445.361	450.62
445.582	372.62
445.803	350.62
446.024	328.62
446.245	324.62
446.466	328.62
446.687	330.62
446.908	326.62
447.129	326.62
447.35	318.62
447.571	306.62
447.792	301.62
448.013	298.62
448.234	291.62
448.455	303.62
448.675	312.62
448.896	322.62
449.117	298.62
449.338	297.62
449.559	290.62
449.779	291.62
450	291.62
450.221	280.62
450.442	293.62
450.662	301.62
450.883	302.62
451.104	316.62
451.324	319.62
451.545	309.62
451.766	303.62
451.986	313.62
452.207	296.62
452.428	299.62
452.648	284.62
452.869	297.62
453.089	288.62
453.31	290.62
453.53	297.62
453.751	302.62
453.971	297.62
454.192	276.62
454.412	278.62
454.633	272.62
454.853	283.62
455.073	303.62
455.294	298.62
455.514	289.62
455.734	279.62
455.955	277.62
456.175	268.62
456.395	275.62
456.616	276.62
456.836	282.62
457.056	279.62
457.276	276.62
457.497	277.62
457.717	272.62
457.937	275.62
458.157	296.62
458.377	290.62
458.598	296.62
458.818	296.62
459.038	308.62
459.258	310.62
459.478	314.62
459.698	353.62
459.918	346.62
460.138	367.62
460.358	383.62
460.578	362.62
460.798	379.62
461.018	375.62
461.238	383.62
461.458	378.62
461.678	363.62
461.898	385.62
462.118	377.62
462.338	394.62
462.558	417.62
462.777	393.62
462.997	448.62
463.217	496.62
463.437	505.62
463.657	456.62
463.876	456.62
464.096	433.62
464.316	443.62
464.536	452.62
464.755	424.62
464.975	405.62
465.195	401.62
465.414	372.62
465.634	367.62
465.854	329.62
466.073	340.62
466.293	331.62
466.512	325.62
466.732	331.62
466.951	310.62
467.171	305.62
467.391	319.62
467.61	317.62
467.829	335.62
468.049	316.62
468.268	310.62
468.488	305.62
468.707	279.62
468.927	301.62
469.146	294.62
469.365	317.62
469.585	317.62
469.804	315.62
470.023	315.62
470.243	352.62
470.462	327.62
470.681	331.62
470.901	324.62
471.12	314.62
471.339	331.62
471.558	322.62
471.777	315.62
471.997	340.62
472.216	318.62
472.435	311.62
472.654	286.62
472.873	295.62
473.092	295.62
473.311	289.62
473.53	288.62
473.749	325.62
473.968	297.62
474.187	289.62
474.406	305.62
474.625	301.62
474.844	284.62
475.063	301.62
475.282	321.62
475.501	315.62
475.72	317.62
475.939	281.62
476.158	306.62
476.377	303.62
476.596	310.62
476.814	338.62
477.033	314.62
477.252	332.62
477.471	326.62
477.69	351.62
477.908	360.62
478.127	383.62
478.346	333.62
478.564	359.62
478.783	373.62
479.002	374.62
479.22	374.62
479.439	358.62
479.658	389.62
479.876	359.62
480.095	349.62
480.313	385.62
480.532	401.62
480.751	393.62
480.969	377.62
481.188	359.62
481.406	348.62
481.624	349.62
481.843	347.62
482.061	354.62
482.28	337.62
482.498	366.62
482.717	337.62
482.935	355.62
483.153	349.62
483.372	361.62
483.59	350.62
483.808	353.62
484.027	344.62
484.245	367.62
484.463	361.62
484.681	355.62
484.9	353.62
485.118	358.62
485.336	388.62
485.554	376.62
485.772	372.62
485.99	373.62
486.209	395.62
486.427	365.62
486.645	385.62
486.863	387.62
487.081	381.62
487.299	383.62
487.517	382.62
487.735	368.62
487.953	371.62
488.171	362.62
488.389	370.62
488.607	345.62
488.825	356.62
489.043	357.62
489.261	360.62
489.479	358.62
489.696	354.62
489.914	368.62
490.132	365.62
490.35	365.62
490.568	357.62
490.786	375.62
491.003	364.62
491.221	350.62
491.439	379.62
491.657	378.62
491.874	366.62
492.092	369.62
492.31	353.62
492.527	374.62
492.745	381.62
492.963	376.62
493.18	371.62
493.398	379.62
493.615	361.62
493.833	387.62
494.05	398.62
494.268	392.62
494.485	393.62
494.703	401.62
494.92	385.62
495.138	365.62
495.355	377.62
495.573	379.62
495.79	367.62
496.008	386.62
496.225	383.62
496.442	383.62
496.66	394.62
496.877	396.62
497.094	419.62
497.312	410.62
497.529	422.62
497.746	411.62
497.963	417.62
498.181	443.62
498.398	477.62
498.615	486.62
498.832	517.62
499.049	563.62
499.267	605.62
499.484	660.62
499.701	738.62
499.918	791.62
500.135	945.62
500.352	1053.62
500.569	1117.62
500.786	1091.62
501.003	1024.62
501.22	927.62
501.437	826.62
501.654	693.62
501.871	661.62
502.088	597.62
502.305	571.62
502.522	515.62
502.739	496.62
