Data from 0.5MCu(NO3)2.Standard.Lamp.E10.CV._HRD10591_16-04-46-753.txt Node
Date: Mon Jul 22 16:04:46 EDT 2019
User: cochatt
Spectrometer: HR+D1059
Trigger mode: 1
Integration Time (sec): 1.000000E-1
Scans to average: 1
Electric dark correction enabled: true
Nonlinearity correction enabled: false
Boxcar width: 0
XAxis mode: Wavelengths
Number of Pixels in Spectrum: 2048
>>>>>Begin Spectral Data<<<<<
223.165	-16.38
223.4	-16.38
223.635	-16.38
223.869	-30.38
224.104	-17.38
224.338	-12.38
224.573	-12.38
224.808	-6.38
225.042	2.62
225.277	-17.38
225.511	-1.38
225.746	-12.38
225.98	11.62
226.215	21.62
226.449	9.62
226.683	29.62
226.918	32.62
227.152	18.62
227.387	31.62
227.621	41.62
227.856	34.62
228.09	53.62
228.324	66.62
228.559	54.62
228.793	69.62
229.027	65.62
229.262	83.62
229.496	93.62
229.73	71.62
229.964	81.62
230.199	84.62
230.433	94.62
230.667	78.62
230.901	90.62
231.136	88.62
231.37	86.62
231.604	89.62
231.838	94.62
232.072	77.62
232.306	95.62
232.541	108.62
232.775	101.62
233.009	93.62
233.243	90.62
233.477	102.62
233.711	110.62
233.945	87.62
234.179	100.62
234.413	91.62
234.647	90.62
234.881	88.62
235.115	79.62
235.349	103.62
235.583	89.62
235.817	87.62
236.051	84.62
236.285	94.62
236.519	83.62
236.753	85.62
236.987	96.62
237.221	80.62
237.455	85.62
237.689	87.62
237.922	81.62
238.156	75.62
238.39	93.62
238.624	89.62
238.858	95.62
239.091	101.62
239.325	107.62
239.559	99.62
239.793	99.62
240.027	94.62
240.26	85.62
240.494	117.62
240.728	106.62
240.961	96.62
241.195	110.62
241.429	102.62
241.662	104.62
241.896	81.62
242.13	92.62
242.363	88.62
242.597	110.62
242.83	90.62
243.064	106.62
243.298	103.62
243.531	96.62
243.765	101.62
243.998	102.62
244.232	92.62
244.465	105.62
244.699	118.62
244.932	91.62
245.166	87.62
245.399	103.62
245.633	106.62
245.866	105.62
246.099	108.62
246.333	95.62
246.566	123.62
246.8	104.62
247.033	105.62
247.266	99.62
247.5	123.62
247.733	110.62
247.966	117.62
248.2	111.62
248.433	106.62
248.666	98.62
248.899	109.62
249.133	103.62
249.366	105.62
249.599	125.62
249.832	120.62
250.066	106.62
250.299	113.62
250.532	103.62
250.765	99.62
250.998	116.62
251.231	115.62
251.465	116.62
251.698	108.62
251.931	119.62
252.164	117.62
252.397	108.62
252.63	101.62
252.863	102.62
253.096	107.62
253.329	119.62
253.562	114.62
253.795	115.62
254.028	118.62
254.261	117.62
254.494	124.62
254.727	120.62
254.96	116.62
255.193	116.62
255.426	122.62
255.659	106.62
255.892	120.62
256.124	116.62
256.357	125.62
256.59	114.62
256.823	116.62
257.056	118.62
257.289	129.62
257.521	127.62
257.754	110.62
257.987	121.62
258.22	121.62
258.452	114.62
258.685	121.62
258.918	115.62
259.151	111.62
259.383	129.62
259.616	111.62
259.849	140.62
260.081	133.62
260.314	130.62
260.547	106.62
260.779	115.62
261.012	117.62
261.244	121.62
261.477	120.62
261.71	114.62
261.942	125.62
262.175	116.62
262.407	114.62
262.64	116.62
262.872	135.62
263.105	120.62
263.337	130.62
263.57	125.62
263.802	115.62
264.035	125.62
264.267	143.62
264.499	110.62
264.732	131.62
264.964	124.62
265.197	127.62
265.429	147.62
265.661	137.62
265.894	136.62
266.126	142.62
266.358	135.62
266.591	139.62
266.823	129.62
267.055	125.62
267.287	123.62
267.52	135.62
267.752	157.62
267.984	141.62
268.216	132.62
268.448	135.62
268.681	130.62
268.913	126.62
269.145	103.62
269.377	137.62
269.609	132.62
269.841	132.62
270.073	142.62
270.306	150.62
270.538	132.62
270.77	147.62
271.002	135.62
271.234	130.62
271.466	139.62
271.698	138.62
271.93	136.62
272.162	137.62
272.394	135.62
272.626	151.62
272.858	129.62
273.09	129.62
273.322	133.62
273.553	131.62
273.785	143.62
274.017	138.62
274.249	150.62
274.481	139.62
274.713	137.62
274.945	158.62
275.176	143.62
275.408	126.62
275.64	136.62
275.872	146.62
276.104	138.62
276.335	136.62
276.567	128.62
276.799	146.62
277.031	157.62
277.262	133.62
277.494	138.62
277.726	140.62
277.957	155.62
278.189	145.62
278.421	157.62
278.652	153.62
278.884	149.62
279.115	141.62
279.347	147.62
279.579	143.62
279.81	153.62
280.042	156.62
280.273	136.62
280.505	151.62
280.736	151.62
280.968	148.62
281.199	170.62
281.431	166.62
281.662	152.62
281.894	155.62
282.125	169.62
282.356	140.62
282.588	172.62
282.819	164.62
283.051	150.62
283.282	155.62
283.513	148.62
283.745	164.62
283.976	152.62
284.207	171.62
284.439	150.62
284.67	154.62
284.901	158.62
285.132	159.62
285.364	157.62
285.595	157.62
285.826	177.62
286.057	177.62
286.288	161.62
286.52	177.62
286.751	169.62
286.982	173.62
287.213	178.62
287.444	175.62
287.675	158.62
287.906	151.62
288.138	154.62
288.369	167.62
288.6	173.62
288.831	169.62
289.062	156.62
289.293	159.62
289.524	165.62
289.755	173.62
289.986	168.62
290.217	182.62
290.448	171.62
290.679	174.62
290.91	151.62
291.141	187.62
291.371	171.62
291.602	167.62
291.833	173.62
292.064	153.62
292.295	162.62
292.526	183.62
292.757	174.62
292.987	169.62
293.218	164.62
293.449	182.62
293.68	183.62
293.91	182.62
294.141	163.62
294.372	162.62
294.603	184.62
294.833	172.62
295.064	177.62
295.295	187.62
295.525	184.62
295.756	188.62
295.987	163.62
296.217	188.62
296.448	173.62
296.679	164.62
296.909	188.62
297.14	156.62
297.37	193.62
297.601	177.62
297.831	191.62
298.062	193.62
298.292	187.62
298.523	193.62
298.753	194.62
298.984	179.62
299.214	168.62
299.445	183.62
299.675	185.62
299.905	182.62
300.136	198.62
300.366	193.62
300.597	182.62
300.827	187.62
301.057	198.62
301.288	185.62
301.518	205.62
301.748	198.62
301.979	181.62
302.209	177.62
302.439	190.62
302.669	191.62
302.9	186.62
303.13	181.62
303.36	179.62
303.59	171.62
303.82	192.62
304.051	179.62
304.281	189.62
304.511	205.62
304.741	183.62
304.971	197.62
305.201	187.62
305.431	203.62
305.661	181.62
305.891	210.62
306.121	195.62
306.352	185.62
306.582	167.62
306.812	191.62
307.042	181.62
307.272	200.62
307.502	194.62
307.731	199.62
307.961	191.62
308.191	178.62
308.421	187.62
308.651	198.62
308.881	180.62
309.111	189.62
309.341	177.62
309.571	177.62
309.8	186.62
310.03	191.62
310.26	199.62
310.49	201.62
310.72	183.62
310.949	192.62
311.179	189.62
311.409	178.62
311.639	181.62
311.868	191.62
312.098	196.62
312.328	198.62
312.557	178.62
312.787	196.62
313.017	195.62
313.246	186.62
313.476	190.62
313.706	196.62
313.935	194.62
314.165	209.62
314.394	199.62
314.624	193.62
314.853	187.62
315.083	201.62
315.312	197.62
315.542	204.62
315.771	200.62
316.001	182.62
316.23	199.62
316.46	194.62
316.689	191.62
316.919	193.62
317.148	205.62
317.377	201.62
317.607	191.62
317.836	202.62
318.065	181.62
318.295	199.62
318.524	193.62
318.753	185.62
318.983	197.62
319.212	189.62
319.441	184.62
319.67	186.62
319.9	185.62
320.129	190.62
320.358	185.62
320.587	189.62
320.816	180.62
321.046	188.62
321.275	210.62
321.504	201.62
321.733	185.62
321.962	196.62
322.191	182.62
322.42	183.62
322.649	184.62
322.878	189.62
323.108	188.62
323.337	206.62
323.566	190.62
323.795	202.62
324.024	205.62
324.253	191.62
324.482	179.62
324.71	197.62
324.939	201.62
325.168	185.62
325.397	198.62
325.626	195.62
325.855	182.62
326.084	202.62
326.313	213.62
326.542	230.62
326.77	214.62
326.999	215.62
327.228	206.62
327.457	215.62
327.686	198.62
327.914	218.62
328.143	212.62
328.372	211.62
328.6	213.62
328.829	212.62
329.058	214.62
329.287	202.62
329.515	198.62
329.744	211.62
329.972	209.62
330.201	210.62
330.43	220.62
330.658	217.62
330.887	211.62
331.115	213.62
331.344	215.62
331.572	228.62
331.801	222.62
332.03	215.62
332.258	221.62
332.486	228.62
332.715	231.62
332.943	231.62
333.172	247.62
333.4	259.62
333.629	270.62
333.857	267.62
334.085	261.62
334.314	252.62
334.542	261.62
334.771	233.62
334.999	254.62
335.227	228.62
335.455	234.62
335.684	254.62
335.912	254.62
336.14	228.62
336.369	233.62
336.597	246.62
336.825	245.62
337.053	247.62
337.281	213.62
337.51	216.62
337.738	236.62
337.966	222.62
338.194	223.62
338.422	220.62
338.65	244.62
338.878	210.62
339.106	228.62
339.334	223.62
339.562	214.62
339.79	208.62
340.018	215.62
340.246	203.62
340.474	204.62
340.702	214.62
340.93	220.62
341.158	208.62
341.386	208.62
341.614	217.62
341.842	220.62
342.07	203.62
342.298	213.62
342.526	202.62
342.754	230.62
342.981	207.62
343.209	217.62
343.437	226.62
343.665	220.62
343.893	257.62
344.12	280.62
344.348	248.62
344.576	230.62
344.804	226.62
345.031	218.62
345.259	219.62
345.487	210.62
345.714	204.62
345.942	211.62
346.17	224.62
346.397	203.62
346.625	206.62
346.853	214.62
347.08	199.62
347.308	211.62
347.535	221.62
347.763	215.62
347.99	203.62
348.218	204.62
348.445	199.62
348.673	203.62
348.9	214.62
349.128	213.62
349.355	214.62
349.583	219.62
349.81	217.62
350.037	211.62
350.265	198.62
350.492	210.62
350.72	202.62
350.947	190.62
351.174	190.62
351.402	190.62
351.629	194.62
351.856	204.62
352.083	199.62
352.311	210.62
352.538	196.62
352.765	204.62
352.992	193.62
353.22	188.62
353.447	199.62
353.674	204.62
353.901	207.62
354.128	204.62
354.355	203.62
354.583	203.62
354.81	189.62
355.037	199.62
355.264	189.62
355.491	197.62
355.718	216.62
355.945	201.62
356.172	212.62
356.399	201.62
356.626	200.62
356.853	209.62
357.08	208.62
357.307	216.62
357.534	198.62
357.761	189.62
357.988	215.62
358.215	202.62
358.441	197.62
358.668	200.62
358.895	197.62
359.122	222.62
359.349	205.62
359.576	205.62
359.802	199.62
360.029	206.62
360.256	185.62
360.483	184.62
360.709	194.62
360.936	210.62
361.163	207.62
361.39	215.62
361.616	212.62
361.843	204.62
362.07	195.62
362.296	195.62
362.523	201.62
362.749	205.62
362.976	196.62
363.203	198.62
363.429	199.62
363.656	206.62
363.882	200.62
364.109	191.62
364.335	204.62
364.562	183.62
364.788	199.62
365.015	203.62
365.241	195.62
365.468	218.62
365.694	207.62
365.92	207.62
366.147	215.62
366.373	189.62
366.599	199.62
366.826	211.62
367.052	206.62
367.278	201.62
367.505	207.62
367.731	206.62
367.957	203.62
368.184	195.62
368.41	207.62
368.636	206.62
368.862	204.62
369.089	206.62
369.315	210.62
369.541	225.62
369.767	203.62
369.993	213.62
370.219	213.62
370.445	214.62
370.672	212.62
370.898	210.62
371.124	217.62
371.35	210.62
371.576	225.62
371.802	212.62
372.028	209.62
372.254	204.62
372.48	211.62
372.706	202.62
372.932	209.62
373.158	208.62
373.384	223.62
373.61	220.62
373.835	213.62
374.061	196.62
374.287	226.62
374.513	221.62
374.739	238.62
374.965	230.62
375.191	251.62
375.416	255.62
375.642	235.62
375.868	220.62
376.094	219.62
376.319	215.62
376.545	222.62
376.771	198.62
376.997	201.62
377.222	199.62
377.448	211.62
377.674	196.62
377.899	213.62
378.125	212.62
378.35	207.62
378.576	206.62
378.802	199.62
379.027	212.62
379.253	203.62
379.478	214.62
379.704	202.62
379.929	220.62
380.155	212.62
380.38	219.62
380.606	218.62
380.831	188.62
381.057	191.62
381.282	197.62
381.507	211.62
381.733	206.62
381.958	215.62
382.184	223.62
382.409	229.62
382.634	234.62
382.86	199.62
383.085	222.62
383.31	228.62
383.535	232.62
383.761	222.62
383.986	243.62
384.211	231.62
384.436	256.62
384.662	230.62
384.887	241.62
385.112	259.62
385.337	260.62
385.562	239.62
385.787	248.62
386.013	241.62
386.238	234.62
386.463	255.62
386.688	263.62
386.913	242.62
387.138	248.62
387.363	234.62
387.588	238.62
387.813	233.62
388.038	251.62
388.263	251.62
388.488	249.62
388.713	250.62
388.938	250.62
389.163	245.62
389.387	251.62
389.612	242.62
389.837	234.62
390.062	238.62
390.287	232.62
390.512	243.62
390.736	231.62
390.961	236.62
391.186	260.62
391.411	261.62
391.636	260.62
391.86	269.62
392.085	255.62
392.31	266.62
392.534	259.62
392.759	263.62
392.984	252.62
393.208	260.62
393.433	239.62
393.658	255.62
393.882	255.62
394.107	250.62
394.331	239.62
394.556	257.62
394.78	215.62
395.005	255.62
395.229	235.62
395.454	259.62
395.678	264.62
395.903	263.62
396.127	254.62
396.352	241.62
396.576	244.62
396.801	242.62
397.025	253.62
397.249	237.62
397.474	257.62
397.698	252.62
397.922	245.62
398.147	248.62
398.371	261.62
398.595	271.62
398.82	250.62
399.044	286.62
399.268	317.62
399.492	385.62
399.717	421.62
399.941	415.62
400.165	358.62
400.389	321.62
400.613	309.62
400.837	304.62
401.062	285.62
401.286	277.62
401.51	278.62
401.734	283.62
401.958	293.62
402.182	302.62
402.406	283.62
402.63	286.62
402.854	295.62
403.078	301.62
403.302	325.62
403.526	303.62
403.75	319.62
403.974	338.62
404.198	342.62
404.422	338.62
404.645	284.62
404.869	314.62
405.093	315.62
405.317	325.62
405.541	313.62
405.765	282.62
405.988	281.62
406.212	320.62
406.436	301.62
406.66	316.62
406.883	312.62
407.107	337.62
407.331	339.62
407.555	353.62
407.778	370.62
408.002	369.62
408.226	342.62
408.449	302.62
408.673	327.62
408.896	316.62
409.12	329.62
409.344	327.62
409.567	323.62
409.791	328.62
410.014	306.62
410.238	324.62
410.461	321.62
410.685	324.62
410.908	307.62
411.132	303.62
411.355	298.62
411.578	284.62
411.802	277.62
412.025	287.62
412.249	311.62
412.472	296.62
412.695	287.62
412.919	285.62
413.142	266.62
413.365	265.62
413.589	287.62
413.812	269.62
414.035	282.62
414.258	273.62
414.482	290.62
414.705	281.62
414.928	295.62
415.151	302.62
415.374	271.62
415.597	273.62
415.821	265.62
416.044	276.62
416.267	269.62
416.49	284.62
416.713	267.62
416.936	279.62
417.159	282.62
417.382	267.62
417.605	275.62
417.828	294.62
418.051	264.62
418.274	286.62
418.497	282.62
418.72	280.62
418.943	278.62
419.166	301.62
419.389	306.62
419.611	311.62
419.834	310.62
420.057	295.62
420.28	274.62
420.503	280.62
420.726	289.62
420.948	283.62
421.171	279.62
421.394	270.62
421.617	282.62
421.839	276.62
422.062	284.62
422.285	287.62
422.507	285.62
422.73	292.62
422.953	294.62
423.175	289.62
423.398	307.62
423.621	299.62
423.843	302.62
424.066	291.62
424.288	301.62
424.511	305.62
424.733	316.62
424.956	277.62
425.178	285.62
425.401	278.62
425.623	292.62
425.846	265.62
426.068	269.62
426.291	291.62
426.513	264.62
426.735	268.62
426.958	276.62
427.18	275.62
427.402	258.62
427.625	262.62
427.847	256.62
428.069	275.62
428.292	266.62
428.514	257.62
428.736	240.62
428.958	274.62
429.181	259.62
429.403	269.62
429.625	250.62
429.847	261.62
430.069	252.62
430.292	268.62
430.514	246.62
430.736	248.62
430.958	248.62
431.18	246.62
431.402	265.62
431.624	274.62
431.846	234.62
432.068	237.62
432.29	255.62
432.512	257.62
432.734	260.62
432.956	246.62
433.178	260.62
433.4	273.62
433.622	269.62
433.844	270.62
434.066	241.62
434.287	251.62
434.509	286.62
434.731	280.62
434.953	278.62
435.175	297.62
435.397	281.62
435.618	266.62
435.84	278.62
436.062	275.62
436.284	245.62
436.505	270.62
436.727	273.62
436.949	255.62
437.17	259.62
437.392	245.62
437.614	247.62
437.835	234.62
438.057	254.62
438.278	251.62
438.5	241.62
438.721	247.62
438.943	246.62
439.165	257.62
439.386	237.62
439.608	263.62
439.829	272.62
440.05	278.62
440.272	266.62
440.493	266.62
440.715	274.62
440.936	253.62
441.158	269.62
441.379	257.62
441.6	279.62
441.822	296.62
442.043	294.62
442.264	268.62
442.486	281.62
442.707	268.62
442.928	268.62
443.149	279.62
443.371	285.62
443.592	283.62
443.813	276.62
444.034	281.62
444.255	280.62
444.476	313.62
444.698	313.62
444.919	342.62
445.14	461.62
445.361	377.62
445.582	278.62
445.803	265.62
446.024	279.62
446.245	261.62
446.466	277.62
446.687	261.62
446.908	263.62
447.129	245.62
447.35	250.62
447.571	256.62
447.792	235.62
448.013	253.62
448.234	246.62
448.455	238.62
448.675	245.62
448.896	225.62
449.117	238.62
449.338	227.62
449.559	225.62
449.779	247.62
450	233.62
450.221	227.62
450.442	228.62
450.662	242.62
450.883	237.62
451.104	263.62
451.324	240.62
451.545	235.62
451.766	243.62
451.986	239.62
452.207	222.62
452.428	258.62
452.648	231.62
452.869	243.62
453.089	221.62
453.31	231.62
453.53	219.62
453.751	227.62
453.971	215.62
454.192	226.62
454.412	210.62
454.633	229.62
454.853	215.62
455.073	230.62
455.294	221.62
455.514	225.62
455.734	229.62
455.955	235.62
456.175	225.62
456.395	225.62
456.616	230.62
456.836	226.62
457.056	229.62
457.276	218.62
457.497	239.62
457.717	219.62
457.937	222.62
458.157	212.62
458.377	230.62
458.598	227.62
458.818	233.62
459.038	247.62
459.258	261.62
459.478	257.62
459.698	268.62
459.918	258.62
460.138	262.62
460.358	305.62
460.578	293.62
460.798	294.62
461.018	294.62
461.238	300.62
461.458	290.62
461.678	285.62
461.898	293.62
462.118	286.62
462.338	315.62
462.558	329.62
462.777	325.62
462.997	350.62
463.217	395.62
463.437	391.62
463.657	374.62
463.876	349.62
464.096	338.62
464.316	328.62
464.536	348.62
464.755	314.62
464.975	331.62
465.195	316.62
465.414	311.62
465.634	277.62
465.854	263.62
466.073	287.62
466.293	259.62
466.512	261.62
466.732	246.62
466.951	243.62
467.171	262.62
467.391	234.62
467.61	252.62
467.829	263.62
468.049	262.62
468.268	245.62
468.488	241.62
468.707	242.62
468.927	241.62
469.146	234.62
469.365	256.62
469.585	233.62
469.804	253.62
470.023	264.62
470.243	253.62
470.462	271.62
470.681	255.62
470.901	262.62
471.12	255.62
471.339	267.62
471.558	250.62
471.777	235.62
471.997	245.62
472.216	235.62
472.435	238.62
472.654	228.62
472.873	224.62
473.092	246.62
473.311	223.62
473.53	234.62
473.749	237.62
473.968	237.62
474.187	233.62
474.406	258.62
474.625	236.62
474.844	232.62
475.063	238.62
475.282	239.62
475.501	230.62
475.72	250.62
475.939	243.62
476.158	239.62
476.377	257.62
476.596	256.62
476.814	251.62
477.033	237.62
477.252	260.62
477.471	247.62
477.69	260.62
477.908	290.62
478.127	287.62
478.346	285.62
478.564	295.62
478.783	281.62
479.002	305.62
479.22	296.62
479.439	294.62
479.658	299.62
479.876	291.62
480.095	281.62
480.313	320.62
480.532	319.62
480.751	322.62
480.969	303.62
481.188	283.62
481.406	275.62
481.624	292.62
481.843	260.62
482.061	274.62
482.28	249.62
482.498	264.62
482.717	260.62
482.935	255.62
483.153	284.62
483.372	277.62
483.59	258.62
483.808	262.62
484.027	280.62
484.245	295.62
484.463	286.62
484.681	259.62
484.9	277.62
485.118	266.62
485.336	279.62
485.554	290.62
485.772	284.62
485.99	307.62
486.209	293.62
486.427	297.62
486.645	294.62
486.863	278.62
487.081	297.62
487.299	305.62
487.517	301.62
487.735	298.62
487.953	280.62
488.171	287.62
488.389	297.62
488.607	295.62
488.825	287.62
489.043	282.62
489.261	289.62
489.479	306.62
489.696	280.62
489.914	270.62
490.132	278.62
490.35	290.62
490.568	302.62
490.786	305.62
491.003	293.62
491.221	289.62
491.439	297.62
491.657	285.62
491.874	286.62
492.092	283.62
492.31	289.62
492.527	292.62
492.745	299.62
492.963	289.62
493.18	299.62
493.398	313.62
493.615	298.62
493.833	307.62
494.05	317.62
494.268	301.62
494.485	303.62
494.703	308.62
494.92	299.62
495.138	292.62
495.355	297.62
495.573	301.62
495.79	308.62
496.008	307.62
496.225	309.62
496.442	307.62
496.66	296.62
496.877	302.62
497.094	316.62
497.312	316.62
497.529	325.62
497.746	315.62
497.963	320.62
498.181	369.62
498.398	361.62
498.615	379.62
498.832	386.62
499.049	437.62
499.267	459.62
499.484	476.62
499.701	537.62
499.918	594.62
500.135	687.62
500.352	801.62
500.569	834.62
500.786	831.62
501.003	731.62
501.22	665.62
501.437	580.62
501.654	545.62
501.871	481.62
502.088	453.62
502.305	430.62
502.522	413.62
502.739	413.62
502.956	388.62
