Data from 0.5MCu(NO3)2.Standard.Lamp.E10.CV._HRD10591_16-06-05-753.txt Node
Date: Mon Jul 22 16:06:05 EDT 2019
User: cochatt
Spectrometer: HR+D1059
Trigger mode: 1
Integration Time (sec): 1.000000E-1
Scans to average: 1
Electric dark correction enabled: true
Nonlinearity correction enabled: false
Boxcar width: 0
XAxis mode: Wavelengths
Number of Pixels in Spectrum: 2048
>>>>>Begin Spectral Data<<<<<
223.165	-12.06
223.4	-12.06
223.635	-12.06
223.869	-7.06
224.104	-25.06
224.338	-11.06
224.573	-6.06
224.808	-7.06
225.042	-9.06
225.277	-15.06
225.511	-16.06
225.746	-19.06
225.98	13.94
226.215	10.94
226.449	18.94
226.683	17.94
226.918	36.94
227.152	28.94
227.387	27.94
227.621	39.94
227.856	52.94
228.09	58.94
228.324	51.94
228.559	51.94
228.793	45.94
229.027	47.94
229.262	74.94
229.496	79.94
229.73	100.94
229.964	72.94
230.199	71.94
230.433	86.94
230.667	88.94
230.901	72.94
231.136	93.94
231.37	99.94
231.604	81.94
231.838	98.94
232.072	85.94
232.306	86.94
232.541	82.94
232.775	87.94
233.009	89.94
233.243	90.94
233.477	91.94
233.711	95.94
233.945	102.94
234.179	86.94
234.413	92.94
234.647	95.94
234.881	86.94
235.115	98.94
235.349	96.94
235.583	93.94
235.817	97.94
236.051	82.94
236.285	95.94
236.519	95.94
236.753	104.94
236.987	96.94
237.221	85.94
237.455	89.94
237.689	83.94
237.922	88.94
238.156	95.94
238.39	91.94
238.624	73.94
238.858	87.94
239.091	99.94
239.325	89.94
239.559	86.94
239.793	98.94
240.027	76.94
240.26	83.94
240.494	99.94
240.728	96.94
240.961	97.94
241.195	81.94
241.429	94.94
241.662	104.94
241.896	85.94
242.13	86.94
242.363	113.94
242.597	92.94
242.83	108.94
243.064	91.94
243.298	97.94
243.531	87.94
243.765	95.94
243.998	94.94
244.232	98.94
244.465	102.94
244.699	99.94
244.932	100.94
245.166	92.94
245.399	80.94
245.633	90.94
245.866	97.94
246.099	98.94
246.333	104.94
246.566	115.94
246.8	87.94
247.033	93.94
247.266	87.94
247.5	94.94
247.733	104.94
247.966	108.94
248.2	108.94
248.433	82.94
248.666	100.94
248.899	105.94
249.133	129.94
249.366	104.94
249.599	101.94
249.832	88.94
250.066	103.94
250.299	105.94
250.532	107.94
250.765	116.94
250.998	126.94
251.231	118.94
251.465	100.94
251.698	112.94
251.931	110.94
252.164	107.94
252.397	112.94
252.63	104.94
252.863	122.94
253.096	116.94
253.329	112.94
253.562	108.94
253.795	118.94
254.028	120.94
254.261	114.94
254.494	108.94
254.727	116.94
254.96	113.94
255.193	102.94
255.426	114.94
255.659	117.94
255.892	103.94
256.124	116.94
256.357	114.94
256.59	111.94
256.823	99.94
257.056	103.94
257.289	115.94
257.521	120.94
257.754	119.94
257.987	116.94
258.22	96.94
258.452	115.94
258.685	109.94
258.918	125.94
259.151	119.94
259.383	121.94
259.616	113.94
259.849	116.94
260.081	118.94
260.314	106.94
260.547	124.94
260.779	131.94
261.012	128.94
261.244	114.94
261.477	137.94
261.71	121.94
261.942	115.94
262.175	126.94
262.407	120.94
262.64	125.94
262.872	129.94
263.105	124.94
263.337	129.94
263.57	135.94
263.802	120.94
264.035	115.94
264.267	118.94
264.499	116.94
264.732	135.94
264.964	116.94
265.197	129.94
265.429	114.94
265.661	125.94
265.894	136.94
266.126	120.94
266.358	120.94
266.591	133.94
266.823	122.94
267.055	140.94
267.287	123.94
267.52	132.94
267.752	134.94
267.984	118.94
268.216	111.94
268.448	128.94
268.681	132.94
268.913	134.94
269.145	123.94
269.377	128.94
269.609	124.94
269.841	141.94
270.073	146.94
270.306	126.94
270.538	132.94
270.77	128.94
271.002	139.94
271.234	125.94
271.466	131.94
271.698	122.94
271.93	138.94
272.162	143.94
272.394	155.94
272.626	141.94
272.858	129.94
273.09	129.94
273.322	143.94
273.553	132.94
273.785	129.94
274.017	115.94
274.249	129.94
274.481	131.94
274.713	130.94
274.945	133.94
275.176	136.94
275.408	139.94
275.64	131.94
275.872	142.94
276.104	140.94
276.335	142.94
276.567	142.94
276.799	140.94
277.031	128.94
277.262	147.94
277.494	152.94
277.726	148.94
277.957	130.94
278.189	152.94
278.421	146.94
278.652	134.94
278.884	144.94
279.115	148.94
279.347	152.94
279.579	143.94
279.81	135.94
280.042	167.94
280.273	140.94
280.505	145.94
280.736	148.94
280.968	133.94
281.199	146.94
281.431	135.94
281.662	149.94
281.894	152.94
282.125	142.94
282.356	152.94
282.588	142.94
282.819	154.94
283.051	150.94
283.282	138.94
283.513	152.94
283.745	146.94
283.976	140.94
284.207	161.94
284.439	138.94
284.67	162.94
284.901	136.94
285.132	143.94
285.364	147.94
285.595	142.94
285.826	158.94
286.057	139.94
286.288	147.94
286.52	151.94
286.751	158.94
286.982	151.94
287.213	155.94
287.444	154.94
287.675	150.94
287.906	142.94
288.138	161.94
288.369	168.94
288.6	160.94
288.831	158.94
289.062	169.94
289.293	167.94
289.524	170.94
289.755	162.94
289.986	153.94
290.217	149.94
290.448	155.94
290.679	174.94
290.91	166.94
291.141	164.94
291.371	167.94
291.602	163.94
291.833	154.94
292.064	149.94
292.295	175.94
292.526	168.94
292.757	149.94
292.987	173.94
293.218	148.94
293.449	160.94
293.68	169.94
293.91	171.94
294.141	169.94
294.372	161.94
294.603	162.94
294.833	169.94
295.064	155.94
295.295	153.94
295.525	179.94
295.756	162.94
295.987	175.94
296.217	158.94
296.448	187.94
296.679	154.94
296.909	165.94
297.14	157.94
297.37	176.94
297.601	173.94
297.831	154.94
298.062	161.94
298.292	166.94
298.523	175.94
298.753	175.94
298.984	175.94
299.214	168.94
299.445	182.94
299.675	186.94
299.905	173.94
300.136	167.94
300.366	178.94
300.597	178.94
300.827	173.94
301.057	188.94
301.288	188.94
301.518	187.94
301.748	161.94
301.979	173.94
302.209	172.94
302.439	189.94
302.669	190.94
302.9	166.94
303.13	174.94
303.36	162.94
303.59	168.94
303.82	181.94
304.051	168.94
304.281	172.94
304.511	179.94
304.741	178.94
304.971	167.94
305.201	170.94
305.431	186.94
305.661	180.94
305.891	174.94
306.121	190.94
306.352	185.94
306.582	175.94
306.812	178.94
307.042	165.94
307.272	150.94
307.502	177.94
307.731	178.94
307.961	179.94
308.191	175.94
308.421	158.94
308.651	173.94
308.881	189.94
309.111	174.94
309.341	191.94
309.571	155.94
309.8	169.94
310.03	173.94
310.26	176.94
310.49	181.94
310.72	180.94
310.949	170.94
311.179	174.94
311.409	161.94
311.639	172.94
311.868	182.94
312.098	161.94
312.328	174.94
312.557	178.94
312.787	178.94
313.017	183.94
313.246	164.94
313.476	174.94
313.706	170.94
313.935	197.94
314.165	186.94
314.394	178.94
314.624	188.94
314.853	187.94
315.083	174.94
315.312	181.94
315.542	184.94
315.771	172.94
316.001	171.94
316.23	173.94
316.46	188.94
316.689	193.94
316.919	185.94
317.148	168.94
317.377	188.94
317.607	164.94
317.836	170.94
318.065	192.94
318.295	180.94
318.524	185.94
318.753	184.94
318.983	172.94
319.212	173.94
319.441	195.94
319.67	167.94
319.9	185.94
320.129	159.94
320.358	163.94
320.587	174.94
320.816	178.94
321.046	179.94
321.275	187.94
321.504	180.94
321.733	174.94
321.962	168.94
322.191	192.94
322.42	182.94
322.649	186.94
322.878	187.94
323.108	170.94
323.337	186.94
323.566	196.94
323.795	190.94
324.024	180.94
324.253	186.94
324.482	182.94
324.71	168.94
324.939	171.94
325.168	183.94
325.397	182.94
325.626	201.94
325.855	203.94
326.084	183.94
326.313	188.94
326.542	203.94
326.77	187.94
326.999	202.94
327.228	188.94
327.457	186.94
327.686	171.94
327.914	181.94
328.143	189.94
328.372	177.94
328.6	187.94
328.829	199.94
329.058	203.94
329.287	196.94
329.515	191.94
329.744	199.94
329.972	195.94
330.201	186.94
330.43	184.94
330.658	195.94
330.887	205.94
331.115	193.94
331.344	191.94
331.572	199.94
331.801	192.94
332.03	207.94
332.258	203.94
332.486	222.94
332.715	206.94
332.943	218.94
333.172	245.94
333.4	242.94
333.629	240.94
333.857	238.94
334.085	239.94
334.314	226.94
334.542	211.94
334.771	226.94
334.999	218.94
335.227	220.94
335.455	226.94
335.684	220.94
335.912	217.94
336.14	204.94
336.369	218.94
336.597	228.94
336.825	198.94
337.053	210.94
337.281	216.94
337.51	217.94
337.738	207.94
337.966	194.94
338.194	203.94
338.422	207.94
338.65	199.94
338.878	203.94
339.106	214.94
339.334	214.94
339.562	195.94
339.79	207.94
340.018	200.94
340.246	184.94
340.474	187.94
340.702	186.94
340.93	199.94
341.158	193.94
341.386	200.94
341.614	183.94
341.842	191.94
342.07	201.94
342.298	193.94
342.526	184.94
342.754	195.94
342.981	197.94
343.209	206.94
343.437	206.94
343.665	212.94
343.893	224.94
344.12	239.94
344.348	227.94
344.576	203.94
344.804	208.94
345.031	205.94
345.259	203.94
345.487	201.94
345.714	189.94
345.942	197.94
346.17	187.94
346.397	198.94
346.625	211.94
346.853	190.94
347.08	198.94
347.308	185.94
347.535	191.94
347.763	201.94
347.99	190.94
348.218	203.94
348.445	179.94
348.673	183.94
348.9	182.94
349.128	202.94
349.355	190.94
349.583	203.94
349.81	186.94
350.037	171.94
350.265	166.94
350.492	185.94
350.72	183.94
350.947	186.94
351.174	178.94
351.402	178.94
351.629	191.94
351.856	162.94
352.083	182.94
352.311	190.94
352.538	196.94
352.765	180.94
352.992	199.94
353.22	176.94
353.447	184.94
353.674	194.94
353.901	194.94
354.128	184.94
354.355	192.94
354.583	166.94
354.81	186.94
355.037	185.94
355.264	162.94
355.491	186.94
355.718	171.94
355.945	200.94
356.172	191.94
356.399	201.94
356.626	194.94
356.853	181.94
357.08	192.94
357.307	193.94
357.534	171.94
357.761	184.94
357.988	192.94
358.215	190.94
358.441	185.94
358.668	186.94
358.895	191.94
359.122	186.94
359.349	176.94
359.576	195.94
359.802	197.94
360.029	185.94
360.256	181.94
360.483	178.94
360.709	176.94
360.936	188.94
361.163	179.94
361.39	194.94
361.616	203.94
361.843	184.94
362.07	179.94
362.296	175.94
362.523	169.94
362.749	183.94
362.976	176.94
363.203	196.94
363.429	178.94
363.656	165.94
363.882	188.94
364.109	175.94
364.335	176.94
364.562	176.94
364.788	174.94
365.015	178.94
365.241	186.94
365.468	183.94
365.694	188.94
365.92	183.94
366.147	171.94
366.373	174.94
366.599	190.94
366.826	190.94
367.052	190.94
367.278	168.94
367.505	191.94
367.731	187.94
367.957	190.94
368.184	179.94
368.41	184.94
368.636	176.94
368.862	190.94
369.089	182.94
369.315	187.94
369.541	172.94
369.767	178.94
369.993	181.94
370.219	202.94
370.445	197.94
370.672	178.94
370.898	200.94
371.124	197.94
371.35	194.94
371.576	194.94
371.802	196.94
372.028	187.94
372.254	174.94
372.48	186.94
372.706	195.94
372.932	195.94
373.158	211.94
373.384	189.94
373.61	205.94
373.835	192.94
374.061	196.94
374.287	201.94
374.513	213.94
374.739	189.94
374.965	191.94
375.191	206.94
375.416	205.94
375.642	207.94
375.868	200.94
376.094	203.94
376.319	204.94
376.545	197.94
376.771	199.94
376.997	195.94
377.222	196.94
377.448	191.94
377.674	205.94
377.899	195.94
378.125	192.94
378.35	198.94
378.576	174.94
378.802	198.94
379.027	208.94
379.253	197.94
379.478	198.94
379.704	181.94
379.929	182.94
380.155	204.94
380.38	180.94
380.606	190.94
380.831	176.94
381.057	212.94
381.282	190.94
381.507	204.94
381.733	202.94
381.958	200.94
382.184	205.94
382.409	190.94
382.634	193.94
382.86	196.94
383.085	205.94
383.31	209.94
383.535	220.94
383.761	208.94
383.986	203.94
384.211	199.94
384.436	226.94
384.662	209.94
384.887	216.94
385.112	216.94
385.337	213.94
385.562	224.94
385.787	207.94
386.013	233.94
386.238	236.94
386.463	243.94
386.688	219.94
386.913	214.94
387.138	226.94
387.363	216.94
387.588	204.94
387.813	222.94
388.038	213.94
388.263	219.94
388.488	217.94
388.713	209.94
388.938	215.94
389.163	216.94
389.387	227.94
389.612	211.94
389.837	228.94
390.062	210.94
390.287	218.94
390.512	199.94
390.736	199.94
390.961	201.94
391.186	225.94
391.411	228.94
391.636	253.94
391.86	214.94
392.085	231.94
392.31	217.94
392.534	222.94
392.759	243.94
392.984	243.94
393.208	220.94
393.433	221.94
393.658	242.94
393.882	234.94
394.107	216.94
394.331	224.94
394.556	232.94
394.78	230.94
395.005	218.94
395.229	230.94
395.454	235.94
395.678	225.94
395.903	232.94
396.127	240.94
396.352	239.94
396.576	218.94
396.801	225.94
397.025	227.94
397.249	223.94
397.474	227.94
397.698	230.94
397.922	217.94
398.147	236.94
398.371	230.94
398.595	246.94
398.82	248.94
399.044	267.94
399.268	292.94
399.492	330.94
399.717	365.94
399.941	355.94
400.165	341.94
400.389	292.94
400.613	276.94
400.837	275.94
401.062	262.94
401.286	264.94
401.51	251.94
401.734	239.94
401.958	244.94
402.182	242.94
402.406	273.94
402.63	262.94
402.854	268.94
403.078	280.94
403.302	284.94
403.526	279.94
403.75	293.94
403.974	291.94
404.198	286.94
404.422	303.94
404.645	272.94
404.869	268.94
405.093	288.94
405.317	284.94
405.541	298.94
405.765	283.94
405.988	280.94
406.212	283.94
406.436	266.94
406.66	284.94
406.883	269.94
407.107	288.94
407.331	295.94
407.555	326.94
407.778	324.94
408.002	311.94
408.226	304.94
408.449	279.94
408.673	292.94
408.896	285.94
409.12	274.94
409.344	268.94
409.567	286.94
409.791	294.94
410.014	281.94
410.238	270.94
410.461	271.94
410.685	286.94
410.908	265.94
411.132	256.94
411.355	254.94
411.578	279.94
411.802	258.94
412.025	260.94
412.249	252.94
412.472	253.94
412.695	242.94
412.919	261.94
413.142	262.94
413.365	257.94
413.589	250.94
413.812	235.94
414.035	242.94
414.258	228.94
414.482	240.94
414.705	265.94
414.928	253.94
415.151	262.94
415.374	264.94
415.597	241.94
415.821	249.94
416.044	248.94
416.267	250.94
416.49	233.94
416.713	229.94
416.936	255.94
417.159	244.94
417.382	248.94
417.605	254.94
417.828	259.94
418.051	238.94
418.274	264.94
418.497	264.94
418.72	260.94
418.943	262.94
419.166	276.94
419.389	280.94
419.611	266.94
419.834	268.94
420.057	259.94
420.28	242.94
420.503	235.94
420.726	254.94
420.948	251.94
421.171	271.94
421.394	270.94
421.617	262.94
421.839	262.94
422.062	245.94
422.285	258.94
422.507	254.94
422.73	275.94
422.953	272.94
423.175	271.94
423.398	273.94
423.621	263.94
423.843	258.94
424.066	286.94
424.288	283.94
424.511	264.94
424.733	293.94
424.956	266.94
425.178	273.94
425.401	250.94
425.623	250.94
425.846	248.94
426.068	235.94
426.291	240.94
426.513	244.94
426.735	255.94
426.958	234.94
427.18	230.94
427.402	236.94
427.625	214.94
427.847	205.94
428.069	231.94
428.292	235.94
428.514	219.94
428.736	233.94
428.958	233.94
429.181	215.94
429.403	221.94
429.625	228.94
429.847	233.94
430.069	221.94
430.292	242.94
430.514	226.94
430.736	214.94
430.958	236.94
431.18	237.94
431.402	227.94
431.624	214.94
431.846	224.94
432.068	218.94
432.29	219.94
432.512	242.94
432.734	226.94
432.956	245.94
433.178	242.94
433.4	246.94
433.622	235.94
433.844	228.94
434.066	233.94
434.287	246.94
434.509	247.94
434.731	258.94
434.953	262.94
435.175	284.94
435.397	259.94
435.618	245.94
435.84	245.94
436.062	223.94
436.284	229.94
436.505	242.94
436.727	222.94
436.949	252.94
437.17	217.94
437.392	227.94
437.614	227.94
437.835	230.94
438.057	220.94
438.278	230.94
438.5	247.94
438.721	232.94
438.943	227.94
439.165	234.94
439.386	220.94
439.608	217.94
439.829	238.94
440.05	229.94
440.272	226.94
440.493	234.94
440.715	234.94
440.936	233.94
441.158	239.94
441.379	252.94
441.6	243.94
441.822	266.94
442.043	244.94
442.264	252.94
442.486	240.94
442.707	234.94
442.928	250.94
443.149	249.94
443.371	249.94
443.592	242.94
443.813	258.94
444.034	240.94
444.255	274.94
444.476	264.94
444.698	279.94
444.919	283.94
445.14	374.94
445.361	320.94
445.582	250.94
445.803	248.94
446.024	254.94
446.245	234.94
446.466	251.94
446.687	242.94
446.908	237.94
447.129	236.94
447.35	220.94
447.571	223.94
447.792	219.94
448.013	216.94
448.234	226.94
448.455	221.94
448.675	246.94
448.896	215.94
449.117	214.94
449.338	211.94
449.559	225.94
449.779	212.94
450	221.94
450.221	218.94
450.442	218.94
450.662	219.94
450.883	224.94
451.104	229.94
451.324	217.94
451.545	203.94
451.766	219.94
451.986	224.94
452.207	217.94
452.428	227.94
452.648	220.94
452.869	217.94
453.089	200.94
453.31	218.94
453.53	227.94
453.751	216.94
453.971	221.94
454.192	203.94
454.412	214.94
454.633	208.94
454.853	200.94
455.073	207.94
455.294	210.94
455.514	206.94
455.734	207.94
455.955	207.94
456.175	199.94
456.395	201.94
456.616	193.94
456.836	214.94
457.056	205.94
457.276	202.94
457.497	195.94
457.717	196.94
457.937	208.94
458.157	221.94
458.377	216.94
458.598	210.94
458.818	236.94
459.038	213.94
459.258	216.94
459.478	226.94
459.698	231.94
459.918	237.94
460.138	250.94
460.358	268.94
460.578	261.94
460.798	265.94
461.018	265.94
461.238	264.94
461.458	262.94
461.678	262.94
461.898	264.94
462.118	263.94
462.338	279.94
462.558	299.94
462.777	292.94
462.997	334.94
463.217	361.94
463.437	355.94
463.657	324.94
463.876	302.94
464.096	314.94
464.316	309.94
464.536	318.94
464.755	298.94
464.975	268.94
465.195	273.94
465.414	279.94
465.634	255.94
465.854	242.94
466.073	243.94
466.293	236.94
466.512	234.94
466.732	231.94
466.951	217.94
467.171	236.94
467.391	216.94
467.61	238.94
467.829	219.94
468.049	228.94
468.268	233.94
468.488	203.94
468.707	212.94
468.927	220.94
469.146	226.94
469.365	216.94
469.585	237.94
469.804	247.94
470.023	226.94
470.243	227.94
470.462	241.94
470.681	248.94
470.901	242.94
471.12	238.94
471.339	240.94
471.558	222.94
471.777	226.94
471.997	234.94
472.216	223.94
472.435	230.94
472.654	216.94
472.873	222.94
473.092	218.94
473.311	205.94
473.53	236.94
473.749	235.94
473.968	210.94
474.187	218.94
474.406	212.94
474.625	226.94
474.844	206.94
475.063	202.94
475.282	210.94
475.501	231.94
475.72	215.94
475.939	228.94
476.158	230.94
476.377	233.94
476.596	224.94
476.814	225.94
477.033	215.94
477.252	234.94
477.471	253.94
477.69	251.94
477.908	253.94
478.127	234.94
478.346	248.94
478.564	239.94
478.783	242.94
479.002	273.94
479.22	242.94
479.439	262.94
479.658	259.94
479.876	259.94
480.095	275.94
480.313	271.94
480.532	283.94
480.751	300.94
480.969	255.94
481.188	264.94
481.406	255.94
481.624	270.94
481.843	238.94
482.061	224.94
482.28	251.94
482.498	242.94
482.717	226.94
482.935	254.94
483.153	251.94
483.372	255.94
483.59	235.94
483.808	236.94
484.027	249.94
484.245	264.94
484.463	257.94
484.681	256.94
484.9	239.94
485.118	267.94
485.336	267.94
485.554	265.94
485.772	254.94
485.99	267.94
486.209	262.94
486.427	276.94
486.645	260.94
486.863	273.94
487.081	260.94
487.299	244.94
487.517	244.94
487.735	256.94
487.953	268.94
488.171	271.94
488.389	255.94
488.607	246.94
488.825	239.94
489.043	260.94
489.261	270.94
489.479	257.94
489.696	234.94
489.914	245.94
490.132	245.94
490.35	254.94
490.568	272.94
490.786	265.94
491.003	278.94
491.221	266.94
491.439	250.94
491.657	265.94
491.874	252.94
492.092	256.94
492.31	268.94
492.527	263.94
492.745	247.94
492.963	267.94
493.18	266.94
493.398	257.94
493.615	271.94
493.833	286.94
494.05	258.94
494.268	262.94
494.485	286.94
494.703	278.94
494.92	264.94
495.138	271.94
495.355	262.94
495.573	266.94
495.79	271.94
496.008	283.94
496.225	278.94
496.442	279.94
496.66	290.94
496.877	276.94
497.094	266.94
497.312	287.94
497.529	284.94
497.746	308.94
497.963	313.94
498.181	306.94
498.398	301.94
498.615	332.94
498.832	373.94
499.049	372.94
499.267	394.94
499.484	442.94
499.701	469.94
499.918	521.94
500.135	592.94
500.352	701.94
500.569	722.94
500.786	713.94
501.003	664.94
501.22	596.94
501.437	527.94
501.654	461.94
501.871	418.94
502.088	390.94
502.305	377.94
502.522	358.94
502.739	347.94
502.956	342.94
503.172	322.94
