Data from 0.5MCu(NO3)2.Standard.Lamp.E10.CV._HRD10591_16-06-55-753.txt Node
Date: Mon Jul 22 16:06:55 EDT 2019
User: cochatt
Spectrometer: HR+D1059
Trigger mode: 1
Integration Time (sec): 1.000000E-1
Scans to average: 1
Electric dark correction enabled: true
Nonlinearity correction enabled: false
Boxcar width: 0
XAxis mode: Wavelengths
Number of Pixels in Spectrum: 2048
>>>>>Begin Spectral Data<<<<<
223.165	-22.06
223.4	-22.06
223.635	-22.06
223.869	-22.06
224.104	-17.06
224.338	-16.06
224.573	-11.06
224.808	-23.06
225.042	-11.06
225.277	-2.06
225.511	-5.06
225.746	-10.06
225.98	1.94
226.215	14.94
226.449	23.94
226.683	31.94
226.918	23.94
227.152	42.94
227.387	26.94
227.621	37.94
227.856	32.94
228.09	43.94
228.324	50.94
228.559	55.94
228.793	51.94
229.027	65.94
229.262	70.94
229.496	75.94
229.73	70.94
229.964	83.94
230.199	82.94
230.433	80.94
230.667	85.94
230.901	90.94
231.136	74.94
231.37	80.94
231.604	80.94
231.838	81.94
232.072	86.94
232.306	71.94
232.541	81.94
232.775	101.94
233.009	93.94
233.243	81.94
233.477	91.94
233.711	74.94
233.945	72.94
234.179	84.94
234.413	99.94
234.647	88.94
234.881	80.94
235.115	99.94
235.349	81.94
235.583	85.94
235.817	75.94
236.051	86.94
236.285	74.94
236.519	78.94
236.753	59.94
236.987	81.94
237.221	88.94
237.455	84.94
237.689	74.94
237.922	85.94
238.156	82.94
238.39	83.94
238.624	72.94
238.858	78.94
239.091	85.94
239.325	70.94
239.559	81.94
239.793	87.94
240.027	79.94
240.26	88.94
240.494	73.94
240.728	82.94
240.961	85.94
241.195	81.94
241.429	96.94
241.662	86.94
241.896	79.94
242.13	74.94
242.363	76.94
242.597	66.94
242.83	92.94
243.064	84.94
243.298	94.94
243.531	84.94
243.765	89.94
243.998	94.94
244.232	98.94
244.465	91.94
244.699	105.94
244.932	97.94
245.166	80.94
245.399	97.94
245.633	99.94
245.866	95.94
246.099	98.94
246.333	93.94
246.566	84.94
246.8	84.94
247.033	93.94
247.266	106.94
247.5	99.94
247.733	97.94
247.966	97.94
248.2	90.94
248.433	102.94
248.666	100.94
248.899	94.94
249.133	99.94
249.366	103.94
249.599	103.94
249.832	105.94
250.066	110.94
250.299	95.94
250.532	102.94
250.765	102.94
250.998	94.94
251.231	114.94
251.465	109.94
251.698	98.94
251.931	104.94
252.164	103.94
252.397	97.94
252.63	113.94
252.863	99.94
253.096	96.94
253.329	103.94
253.562	106.94
253.795	102.94
254.028	103.94
254.261	93.94
254.494	109.94
254.727	113.94
254.96	95.94
255.193	93.94
255.426	111.94
255.659	103.94
255.892	101.94
256.124	104.94
256.357	113.94
256.59	104.94
256.823	95.94
257.056	117.94
257.289	101.94
257.521	120.94
257.754	100.94
257.987	109.94
258.22	93.94
258.452	102.94
258.685	103.94
258.918	110.94
259.151	120.94
259.383	105.94
259.616	122.94
259.849	102.94
260.081	115.94
260.314	107.94
260.547	98.94
260.779	101.94
261.012	110.94
261.244	109.94
261.477	125.94
261.71	109.94
261.942	110.94
262.175	102.94
262.407	114.94
262.64	119.94
262.872	123.94
263.105	122.94
263.337	104.94
263.57	107.94
263.802	125.94
264.035	113.94
264.267	130.94
264.499	108.94
264.732	103.94
264.964	119.94
265.197	116.94
265.429	104.94
265.661	129.94
265.894	125.94
266.126	111.94
266.358	121.94
266.591	135.94
266.823	118.94
267.055	121.94
267.287	121.94
267.52	130.94
267.752	131.94
267.984	114.94
268.216	132.94
268.448	119.94
268.681	121.94
268.913	122.94
269.145	121.94
269.377	121.94
269.609	121.94
269.841	122.94
270.073	123.94
270.306	126.94
270.538	120.94
270.77	116.94
271.002	117.94
271.234	134.94
271.466	126.94
271.698	124.94
271.93	117.94
272.162	125.94
272.394	127.94
272.626	124.94
272.858	119.94
273.09	116.94
273.322	125.94
273.553	120.94
273.785	122.94
274.017	121.94
274.249	132.94
274.481	124.94
274.713	112.94
274.945	115.94
275.176	128.94
275.408	120.94
275.64	125.94
275.872	137.94
276.104	113.94
276.335	121.94
276.567	119.94
276.799	134.94
277.031	130.94
277.262	123.94
277.494	121.94
277.726	134.94
277.957	153.94
278.189	129.94
278.421	133.94
278.652	131.94
278.884	136.94
279.115	138.94
279.347	141.94
279.579	152.94
279.81	138.94
280.042	143.94
280.273	131.94
280.505	130.94
280.736	124.94
280.968	131.94
281.199	135.94
281.431	130.94
281.662	136.94
281.894	135.94
282.125	160.94
282.356	147.94
282.588	131.94
282.819	139.94
283.051	150.94
283.282	139.94
283.513	131.94
283.745	149.94
283.976	148.94
284.207	138.94
284.439	136.94
284.67	139.94
284.901	131.94
285.132	153.94
285.364	140.94
285.595	145.94
285.826	132.94
286.057	139.94
286.288	143.94
286.52	145.94
286.751	154.94
286.982	154.94
287.213	151.94
287.444	162.94
287.675	151.94
287.906	131.94
288.138	137.94
288.369	148.94
288.6	146.94
288.831	160.94
289.062	152.94
289.293	158.94
289.524	149.94
289.755	137.94
289.986	143.94
290.217	151.94
290.448	157.94
290.679	167.94
290.91	163.94
291.141	162.94
291.371	163.94
291.602	151.94
291.833	155.94
292.064	147.94
292.295	143.94
292.526	147.94
292.757	155.94
292.987	163.94
293.218	145.94
293.449	151.94
293.68	156.94
293.91	158.94
294.141	143.94
294.372	139.94
294.603	162.94
294.833	168.94
295.064	150.94
295.295	157.94
295.525	146.94
295.756	151.94
295.987	148.94
296.217	151.94
296.448	141.94
296.679	161.94
296.909	170.94
297.14	155.94
297.37	159.94
297.601	157.94
297.831	166.94
298.062	160.94
298.292	153.94
298.523	169.94
298.753	175.94
298.984	177.94
299.214	159.94
299.445	165.94
299.675	154.94
299.905	146.94
300.136	173.94
300.366	165.94
300.597	166.94
300.827	187.94
301.057	169.94
301.288	168.94
301.518	170.94
301.748	182.94
301.979	169.94
302.209	165.94
302.439	177.94
302.669	177.94
302.9	165.94
303.13	173.94
303.36	157.94
303.59	153.94
303.82	159.94
304.051	164.94
304.281	173.94
304.511	165.94
304.741	153.94
304.971	178.94
305.201	150.94
305.431	164.94
305.661	170.94
305.891	165.94
306.121	168.94
306.352	160.94
306.582	168.94
306.812	177.94
307.042	166.94
307.272	164.94
307.502	177.94
307.731	169.94
307.961	148.94
308.191	155.94
308.421	165.94
308.651	161.94
308.881	153.94
309.111	167.94
309.341	165.94
309.571	175.94
309.8	161.94
310.03	161.94
310.26	160.94
310.49	157.94
310.72	156.94
310.949	166.94
311.179	169.94
311.409	147.94
311.639	154.94
311.868	155.94
312.098	168.94
312.328	166.94
312.557	177.94
312.787	180.94
313.017	175.94
313.246	185.94
313.476	179.94
313.706	175.94
313.935	177.94
314.165	173.94
314.394	173.94
314.624	174.94
314.853	160.94
315.083	162.94
315.312	166.94
315.542	177.94
315.771	179.94
316.001	170.94
316.23	158.94
316.46	179.94
316.689	175.94
316.919	158.94
317.148	169.94
317.377	169.94
317.607	153.94
317.836	162.94
318.065	181.94
318.295	163.94
318.524	169.94
318.753	161.94
318.983	166.94
319.212	181.94
319.441	183.94
319.67	174.94
319.9	177.94
320.129	152.94
320.358	163.94
320.587	166.94
320.816	150.94
321.046	173.94
321.275	175.94
321.504	174.94
321.733	170.94
321.962	156.94
322.191	158.94
322.42	164.94
322.649	175.94
322.878	167.94
323.108	180.94
323.337	166.94
323.566	170.94
323.795	182.94
324.024	170.94
324.253	188.94
324.482	169.94
324.71	173.94
324.939	163.94
325.168	164.94
325.397	166.94
325.626	195.94
325.855	171.94
326.084	178.94
326.313	168.94
326.542	177.94
326.77	187.94
326.999	190.94
327.228	186.94
327.457	181.94
327.686	187.94
327.914	176.94
328.143	171.94
328.372	189.94
328.6	189.94
328.829	168.94
329.058	167.94
329.287	180.94
329.515	180.94
329.744	194.94
329.972	197.94
330.201	178.94
330.43	177.94
330.658	176.94
330.887	199.94
331.115	189.94
331.344	179.94
331.572	178.94
331.801	183.94
332.03	205.94
332.258	186.94
332.486	209.94
332.715	186.94
332.943	204.94
333.172	220.94
333.4	237.94
333.629	232.94
333.857	239.94
334.085	237.94
334.314	205.94
334.542	201.94
334.771	221.94
334.999	200.94
335.227	195.94
335.455	219.94
335.684	207.94
335.912	206.94
336.14	210.94
336.369	224.94
336.597	202.94
336.825	223.94
337.053	204.94
337.281	191.94
337.51	193.94
337.738	184.94
337.966	198.94
338.194	161.94
338.422	194.94
338.65	182.94
338.878	180.94
339.106	194.94
339.334	190.94
339.562	189.94
339.79	189.94
340.018	182.94
340.246	197.94
340.474	177.94
340.702	178.94
340.93	168.94
341.158	176.94
341.386	181.94
341.614	189.94
341.842	189.94
342.07	180.94
342.298	158.94
342.526	176.94
342.754	182.94
342.981	168.94
343.209	171.94
343.437	200.94
343.665	213.94
343.893	203.94
344.12	213.94
344.348	209.94
344.576	214.94
344.804	203.94
345.031	194.94
345.259	208.94
345.487	177.94
345.714	193.94
345.942	183.94
346.17	193.94
346.397	171.94
346.625	188.94
346.853	179.94
347.08	179.94
347.308	188.94
347.535	189.94
347.763	188.94
347.99	182.94
348.218	190.94
348.445	192.94
348.673	200.94
348.9	193.94
349.128	183.94
349.355	194.94
349.583	177.94
349.81	193.94
350.037	179.94
350.265	173.94
350.492	162.94
350.72	186.94
350.947	164.94
351.174	179.94
351.402	170.94
351.629	183.94
351.856	184.94
352.083	175.94
352.311	182.94
352.538	174.94
352.765	190.94
352.992	181.94
353.22	186.94
353.447	157.94
353.674	186.94
353.901	161.94
354.128	167.94
354.355	160.94
354.583	182.94
354.81	164.94
355.037	167.94
355.264	190.94
355.491	173.94
355.718	182.94
355.945	185.94
356.172	174.94
356.399	182.94
356.626	177.94
356.853	175.94
357.08	179.94
357.307	181.94
357.534	181.94
357.761	172.94
357.988	171.94
358.215	194.94
358.441	182.94
358.668	168.94
358.895	173.94
359.122	167.94
359.349	174.94
359.576	176.94
359.802	198.94
360.029	177.94
360.256	189.94
360.483	169.94
360.709	176.94
360.936	182.94
361.163	181.94
361.39	179.94
361.616	186.94
361.843	173.94
362.07	169.94
362.296	181.94
362.523	175.94
362.749	169.94
362.976	166.94
363.203	164.94
363.429	172.94
363.656	180.94
363.882	177.94
364.109	181.94
364.335	181.94
364.562	160.94
364.788	172.94
365.015	163.94
365.241	167.94
365.468	186.94
365.694	180.94
365.92	176.94
366.147	166.94
366.373	167.94
366.599	169.94
366.826	174.94
367.052	180.94
367.278	176.94
367.505	168.94
367.731	167.94
367.957	179.94
368.184	162.94
368.41	187.94
368.636	170.94
368.862	173.94
369.089	181.94
369.315	189.94
369.541	181.94
369.767	176.94
369.993	186.94
370.219	169.94
370.445	178.94
370.672	176.94
370.898	188.94
371.124	193.94
371.35	192.94
371.576	187.94
371.802	166.94
372.028	174.94
372.254	197.94
372.48	188.94
372.706	195.94
372.932	187.94
373.158	180.94
373.384	173.94
373.61	186.94
373.835	199.94
374.061	183.94
374.287	181.94
374.513	184.94
374.739	180.94
374.965	183.94
375.191	216.94
375.416	197.94
375.642	210.94
375.868	192.94
376.094	201.94
376.319	174.94
376.545	187.94
376.771	178.94
376.997	178.94
377.222	197.94
377.448	192.94
377.674	182.94
377.899	186.94
378.125	177.94
378.35	166.94
378.576	170.94
378.802	175.94
379.027	187.94
379.253	189.94
379.478	190.94
379.704	194.94
379.929	185.94
380.155	176.94
380.38	201.94
380.606	187.94
380.831	180.94
381.057	193.94
381.282	182.94
381.507	193.94
381.733	188.94
381.958	189.94
382.184	188.94
382.409	190.94
382.634	200.94
382.86	195.94
383.085	188.94
383.31	186.94
383.535	192.94
383.761	207.94
383.986	207.94
384.211	194.94
384.436	195.94
384.662	221.94
384.887	214.94
385.112	215.94
385.337	207.94
385.562	213.94
385.787	202.94
386.013	217.94
386.238	209.94
386.463	198.94
386.688	199.94
386.913	210.94
387.138	209.94
387.363	204.94
387.588	193.94
387.813	209.94
388.038	206.94
388.263	227.94
388.488	232.94
388.713	205.94
388.938	199.94
389.163	203.94
389.387	195.94
389.612	203.94
389.837	205.94
390.062	208.94
390.287	200.94
390.512	192.94
390.736	200.94
390.961	195.94
391.186	203.94
391.411	226.94
391.636	208.94
391.86	229.94
392.085	223.94
392.31	223.94
392.534	227.94
392.759	206.94
392.984	231.94
393.208	214.94
393.433	221.94
393.658	223.94
393.882	217.94
394.107	238.94
394.331	234.94
394.556	229.94
394.78	214.94
395.005	202.94
395.229	206.94
395.454	225.94
395.678	224.94
395.903	246.94
396.127	220.94
396.352	224.94
396.576	207.94
396.801	217.94
397.025	217.94
397.249	230.94
397.474	219.94
397.698	210.94
397.922	234.94
398.147	222.94
398.371	219.94
398.595	241.94
398.82	223.94
399.044	278.94
399.268	272.94
399.492	327.94
399.717	367.94
399.941	347.94
400.165	301.94
400.389	274.94
400.613	257.94
400.837	223.94
401.062	249.94
401.286	241.94
401.51	236.94
401.734	251.94
401.958	258.94
402.182	242.94
402.406	254.94
402.63	251.94
402.854	265.94
403.078	271.94
403.302	275.94
403.526	292.94
403.75	285.94
403.974	284.94
404.198	306.94
404.422	290.94
404.645	287.94
404.869	287.94
405.093	270.94
405.317	248.94
405.541	271.94
405.765	260.94
405.988	265.94
406.212	255.94
406.436	249.94
406.66	266.94
406.883	274.94
407.107	274.94
407.331	311.94
407.555	322.94
407.778	314.94
408.002	302.94
408.226	281.94
408.449	280.94
408.673	273.94
408.896	267.94
409.12	275.94
409.344	286.94
409.567	288.94
409.791	280.94
410.014	291.94
410.238	271.94
410.461	269.94
410.685	257.94
410.908	267.94
411.132	253.94
411.355	242.94
411.578	250.94
411.802	247.94
412.025	249.94
412.249	276.94
412.472	241.94
412.695	261.94
412.919	223.94
413.142	242.94
413.365	235.94
413.589	251.94
413.812	237.94
414.035	211.94
414.258	229.94
414.482	248.94
414.705	250.94
414.928	248.94
415.151	250.94
415.374	229.94
415.597	253.94
415.821	244.94
416.044	228.94
416.267	232.94
416.49	256.94
416.713	229.94
416.936	244.94
417.159	244.94
417.382	244.94
417.605	251.94
417.828	251.94
418.051	248.94
418.274	258.94
418.497	227.94
418.72	263.94
418.943	254.94
419.166	275.94
419.389	271.94
419.611	273.94
419.834	243.94
420.057	255.94
420.28	255.94
420.503	235.94
420.726	245.94
420.948	247.94
421.171	250.94
421.394	233.94
421.617	229.94
421.839	230.94
422.062	247.94
422.285	240.94
422.507	254.94
422.73	266.94
422.953	244.94
423.175	241.94
423.398	254.94
423.621	256.94
423.843	246.94
424.066	287.94
424.288	243.94
424.511	237.94
424.733	257.94
424.956	251.94
425.178	264.94
425.401	259.94
425.623	248.94
425.846	224.94
426.068	224.94
426.291	238.94
426.513	238.94
426.735	230.94
426.958	227.94
427.18	239.94
427.402	241.94
427.625	228.94
427.847	225.94
428.069	221.94
428.292	204.94
428.514	218.94
428.736	215.94
428.958	212.94
429.181	213.94
429.403	200.94
429.625	207.94
429.847	197.94
430.069	228.94
430.292	226.94
430.514	211.94
430.736	214.94
430.958	213.94
431.18	223.94
431.402	226.94
431.624	215.94
431.846	235.94
432.068	238.94
432.29	229.94
432.512	217.94
432.734	235.94
432.956	226.94
433.178	227.94
433.4	239.94
433.622	232.94
433.844	235.94
434.066	213.94
434.287	237.94
434.509	226.94
434.731	244.94
434.953	246.94
435.175	245.94
435.397	226.94
435.618	234.94
435.84	224.94
436.062	238.94
436.284	217.94
436.505	201.94
436.727	218.94
436.949	216.94
437.17	222.94
437.392	212.94
437.614	226.94
437.835	223.94
438.057	216.94
438.278	212.94
438.5	216.94
438.721	216.94
438.943	218.94
439.165	229.94
439.386	206.94
439.608	244.94
439.829	218.94
440.05	209.94
440.272	213.94
440.493	230.94
440.715	224.94
440.936	230.94
441.158	244.94
441.379	226.94
441.6	238.94
441.822	258.94
442.043	245.94
442.264	241.94
442.486	250.94
442.707	271.94
442.928	230.94
443.149	244.94
443.371	238.94
443.592	250.94
443.813	235.94
444.034	250.94
444.255	256.94
444.476	285.94
444.698	288.94
444.919	273.94
445.14	385.94
445.361	286.94
445.582	269.94
445.803	240.94
446.024	232.94
446.245	242.94
446.466	226.94
446.687	227.94
446.908	222.94
447.129	230.94
447.35	202.94
447.571	219.94
447.792	218.94
448.013	216.94
448.234	217.94
448.455	194.94
448.675	207.94
448.896	214.94
449.117	227.94
449.338	205.94
449.559	210.94
449.779	210.94
450	219.94
450.221	206.94
450.442	215.94
450.662	224.94
450.883	203.94
451.104	209.94
451.324	218.94
451.545	220.94
451.766	223.94
451.986	220.94
452.207	213.94
452.428	208.94
452.648	213.94
452.869	215.94
453.089	221.94
453.31	226.94
453.53	201.94
453.751	191.94
453.971	211.94
454.192	186.94
454.412	206.94
454.633	217.94
454.853	199.94
455.073	201.94
455.294	201.94
455.514	197.94
455.734	202.94
455.955	187.94
456.175	216.94
456.395	186.94
456.616	194.94
456.836	200.94
457.056	217.94
457.276	202.94
457.497	209.94
457.717	189.94
457.937	178.94
458.157	212.94
458.377	192.94
458.598	209.94
458.818	227.94
459.038	205.94
459.258	221.94
459.478	244.94
459.698	222.94
459.918	245.94
460.138	244.94
460.358	248.94
460.578	258.94
460.798	263.94
461.018	265.94
461.238	271.94
461.458	265.94
461.678	234.94
461.898	256.94
462.118	263.94
462.338	277.94
462.558	292.94
462.777	283.94
462.997	311.94
463.217	327.94
463.437	334.94
463.657	327.94
463.876	275.94
464.096	307.94
464.316	280.94
464.536	283.94
464.755	295.94
464.975	289.94
465.195	286.94
465.414	261.94
465.634	237.94
465.854	229.94
466.073	240.94
466.293	232.94
466.512	241.94
466.732	227.94
466.951	229.94
467.171	210.94
467.391	213.94
467.61	213.94
467.829	216.94
468.049	221.94
468.268	212.94
468.488	217.94
468.707	219.94
468.927	238.94
469.146	218.94
469.365	216.94
469.585	218.94
469.804	234.94
470.023	221.94
470.243	235.94
470.462	228.94
470.681	242.94
470.901	226.94
471.12	222.94
471.339	215.94
471.558	216.94
471.777	220.94
471.997	202.94
472.216	218.94
472.435	209.94
472.654	205.94
472.873	219.94
473.092	207.94
473.311	214.94
473.53	221.94
473.749	215.94
473.968	210.94
474.187	211.94
474.406	199.94
474.625	220.94
474.844	221.94
475.063	208.94
475.282	225.94
475.501	230.94
475.72	221.94
475.939	209.94
476.158	217.94
476.377	209.94
476.596	217.94
476.814	226.94
477.033	237.94
477.252	208.94
477.471	223.94
477.69	241.94
477.908	248.94
478.127	249.94
478.346	217.94
478.564	259.94
478.783	259.94
479.002	249.94
479.22	261.94
479.439	250.94
479.658	249.94
479.876	244.94
480.095	242.94
480.313	253.94
480.532	273.94
480.751	271.94
480.969	258.94
481.188	240.94
481.406	245.94
481.624	232.94
481.843	254.94
482.061	241.94
482.28	241.94
482.498	244.94
482.717	233.94
482.935	223.94
483.153	229.94
483.372	233.94
483.59	238.94
483.808	234.94
484.027	247.94
484.245	234.94
484.463	242.94
484.681	272.94
484.9	245.94
485.118	258.94
485.336	234.94
485.554	249.94
485.772	260.94
485.99	247.94
486.209	261.94
486.427	262.94
486.645	262.94
486.863	255.94
487.081	236.94
487.299	247.94
487.517	250.94
487.735	250.94
487.953	232.94
488.171	259.94
488.389	237.94
488.607	247.94
488.825	243.94
489.043	234.94
489.261	246.94
489.479	231.94
489.696	250.94
489.914	253.94
490.132	248.94
490.35	246.94
490.568	251.94
490.786	248.94
491.003	252.94
491.221	264.94
491.439	248.94
491.657	244.94
491.874	259.94
492.092	244.94
492.31	261.94
492.527	255.94
492.745	248.94
492.963	244.94
493.18	237.94
493.398	272.94
493.615	257.94
493.833	266.94
494.05	261.94
494.268	254.94
494.485	256.94
494.703	258.94
494.92	267.94
495.138	261.94
495.355	259.94
495.573	259.94
495.79	275.94
496.008	263.94
496.225	261.94
496.442	260.94
496.66	260.94
496.877	262.94
497.094	285.94
497.312	261.94
497.529	272.94
497.746	281.94
497.963	294.94
498.181	289.94
498.398	290.94
498.615	344.94
498.832	334.94
499.049	366.94
499.267	393.94
499.484	431.94
499.701	473.94
499.918	503.94
500.135	593.94
500.352	693.94
500.569	732.94
500.786	692.94
501.003	643.94
501.22	559.94
501.437	506.94
501.654	450.94
501.871	406.94
502.088	384.94
502.305	369.94
502.522	353.94
502.739	336.94
502.956	333.94
503.172	307.94
503.389	314.94
