Data from 0.5MCu(NO3)2.Standard.Lamp.E10.CV._HRD10591_16-06-28-754.txt Node
Date: Mon Jul 22 16:06:28 EDT 2019
User: cochatt
Spectrometer: HR+D1059
Trigger mode: 1
Integration Time (sec): 1.000000E-1
Scans to average: 1
Electric dark correction enabled: true
Nonlinearity correction enabled: false
Boxcar width: 0
XAxis mode: Wavelengths
Number of Pixels in Spectrum: 2048
>>>>>Begin Spectral Data<<<<<
223.165	-1.12
223.4	-1.12
223.635	-1.12
223.869	-11.12
224.104	-21.12
224.338	-19.12
224.573	-17.12
224.808	-24.12
225.042	-9.12
225.277	-13.12
225.511	13.88
225.746	4.88
225.98	-4.12
226.215	20.88
226.449	15.88
226.683	21.88
226.918	18.88
227.152	23.88
227.387	40.88
227.621	30.88
227.856	50.88
228.09	54.88
228.324	52.88
228.559	66.88
228.793	58.88
229.027	61.88
229.262	71.88
229.496	74.88
229.73	83.88
229.964	87.88
230.199	77.88
230.433	96.88
230.667	74.88
230.901	79.88
231.136	87.88
231.37	67.88
231.604	63.88
231.838	90.88
232.072	82.88
232.306	97.88
232.541	100.88
232.775	87.88
233.009	88.88
233.243	89.88
233.477	77.88
233.711	81.88
233.945	85.88
234.179	90.88
234.413	89.88
234.647	87.88
234.881	90.88
235.115	93.88
235.349	72.88
235.583	81.88
235.817	89.88
236.051	86.88
236.285	89.88
236.519	83.88
236.753	83.88
236.987	93.88
237.221	86.88
237.455	88.88
237.689	87.88
237.922	97.88
238.156	86.88
238.39	89.88
238.624	82.88
238.858	84.88
239.091	73.88
239.325	87.88
239.559	107.88
239.793	83.88
240.027	79.88
240.26	83.88
240.494	95.88
240.728	93.88
240.961	83.88
241.195	76.88
241.429	74.88
241.662	79.88
241.896	96.88
242.13	89.88
242.363	93.88
242.597	92.88
242.83	84.88
243.064	87.88
243.298	90.88
243.531	83.88
243.765	99.88
243.998	89.88
244.232	89.88
244.465	87.88
244.699	81.88
244.932	89.88
245.166	75.88
245.399	92.88
245.633	94.88
245.866	89.88
246.099	103.88
246.333	86.88
246.566	101.88
246.8	109.88
247.033	95.88
247.266	92.88
247.5	89.88
247.733	85.88
247.966	77.88
248.2	96.88
248.433	97.88
248.666	77.88
248.899	81.88
249.133	85.88
249.366	85.88
249.599	103.88
249.832	86.88
250.066	115.88
250.299	95.88
250.532	109.88
250.765	97.88
250.998	107.88
251.231	83.88
251.465	90.88
251.698	98.88
251.931	97.88
252.164	105.88
252.397	107.88
252.63	107.88
252.863	97.88
253.096	108.88
253.329	98.88
253.562	91.88
253.795	106.88
254.028	105.88
254.261	101.88
254.494	99.88
254.727	96.88
254.96	84.88
255.193	112.88
255.426	102.88
255.659	97.88
255.892	107.88
256.124	107.88
256.357	100.88
256.59	92.88
256.823	94.88
257.056	103.88
257.289	110.88
257.521	103.88
257.754	104.88
257.987	114.88
258.22	101.88
258.452	99.88
258.685	109.88
258.918	106.88
259.151	104.88
259.383	104.88
259.616	103.88
259.849	108.88
260.081	105.88
260.314	106.88
260.547	98.88
260.779	112.88
261.012	105.88
261.244	122.88
261.477	97.88
261.71	93.88
261.942	103.88
262.175	100.88
262.407	108.88
262.64	106.88
262.872	103.88
263.105	105.88
263.337	116.88
263.57	112.88
263.802	121.88
264.035	108.88
264.267	105.88
264.499	104.88
264.732	110.88
264.964	105.88
265.197	102.88
265.429	115.88
265.661	113.88
265.894	108.88
266.126	132.88
266.358	115.88
266.591	115.88
266.823	122.88
267.055	117.88
267.287	102.88
267.52	114.88
267.752	123.88
267.984	111.88
268.216	115.88
268.448	120.88
268.681	120.88
268.913	105.88
269.145	114.88
269.377	114.88
269.609	109.88
269.841	120.88
270.073	124.88
270.306	108.88
270.538	110.88
270.77	114.88
271.002	106.88
271.234	118.88
271.466	116.88
271.698	106.88
271.93	110.88
272.162	110.88
272.394	106.88
272.626	107.88
272.858	107.88
273.09	104.88
273.322	124.88
273.553	120.88
273.785	113.88
274.017	115.88
274.249	123.88
274.481	112.88
274.713	122.88
274.945	117.88
275.176	117.88
275.408	108.88
275.64	119.88
275.872	125.88
276.104	111.88
276.335	133.88
276.567	117.88
276.799	129.88
277.031	129.88
277.262	108.88
277.494	124.88
277.726	132.88
277.957	125.88
278.189	112.88
278.421	125.88
278.652	126.88
278.884	126.88
279.115	130.88
279.347	121.88
279.579	132.88
279.81	112.88
280.042	118.88
280.273	109.88
280.505	127.88
280.736	125.88
280.968	130.88
281.199	136.88
281.431	122.88
281.662	109.88
281.894	127.88
282.125	119.88
282.356	125.88
282.588	133.88
282.819	133.88
283.051	139.88
283.282	134.88
283.513	130.88
283.745	139.88
283.976	129.88
284.207	129.88
284.439	128.88
284.67	133.88
284.901	135.88
285.132	131.88
285.364	132.88
285.595	127.88
285.826	126.88
286.057	129.88
286.288	128.88
286.52	120.88
286.751	129.88
286.982	124.88
287.213	137.88
287.444	149.88
287.675	125.88
287.906	140.88
288.138	137.88
288.369	141.88
288.6	127.88
288.831	123.88
289.062	131.88
289.293	140.88
289.524	125.88
289.755	136.88
289.986	118.88
290.217	133.88
290.448	126.88
290.679	149.88
290.91	137.88
291.141	139.88
291.371	130.88
291.602	131.88
291.833	143.88
292.064	153.88
292.295	147.88
292.526	130.88
292.757	136.88
292.987	141.88
293.218	135.88
293.449	124.88
293.68	143.88
293.91	143.88
294.141	129.88
294.372	129.88
294.603	145.88
294.833	127.88
295.064	126.88
295.295	126.88
295.525	143.88
295.756	142.88
295.987	125.88
296.217	138.88
296.448	140.88
296.679	141.88
296.909	137.88
297.14	133.88
297.37	142.88
297.601	132.88
297.831	141.88
298.062	136.88
298.292	133.88
298.523	150.88
298.753	144.88
298.984	137.88
299.214	139.88
299.445	151.88
299.675	149.88
299.905	154.88
300.136	156.88
300.366	147.88
300.597	137.88
300.827	145.88
301.057	141.88
301.288	129.88
301.518	146.88
301.748	149.88
301.979	137.88
302.209	147.88
302.439	151.88
302.669	134.88
302.9	135.88
303.13	133.88
303.36	139.88
303.59	147.88
303.82	129.88
304.051	142.88
304.281	144.88
304.511	149.88
304.741	137.88
304.971	152.88
305.201	139.88
305.431	149.88
305.661	143.88
305.891	144.88
306.121	151.88
306.352	129.88
306.582	142.88
306.812	134.88
307.042	140.88
307.272	150.88
307.502	143.88
307.731	149.88
307.961	135.88
308.191	141.88
308.421	147.88
308.651	150.88
308.881	128.88
309.111	142.88
309.341	122.88
309.571	134.88
309.8	154.88
310.03	147.88
310.26	135.88
310.49	138.88
310.72	137.88
310.949	146.88
311.179	139.88
311.409	141.88
311.639	136.88
311.868	147.88
312.098	135.88
312.328	133.88
312.557	145.88
312.787	153.88
313.017	136.88
313.246	141.88
313.476	141.88
313.706	144.88
313.935	163.88
314.165	147.88
314.394	149.88
314.624	146.88
314.853	147.88
315.083	138.88
315.312	143.88
315.542	144.88
315.771	143.88
316.001	157.88
316.23	149.88
316.46	138.88
316.689	147.88
316.919	139.88
317.148	142.88
317.377	144.88
317.607	134.88
317.836	144.88
318.065	138.88
318.295	154.88
318.524	144.88
318.753	145.88
318.983	161.88
319.212	139.88
319.441	134.88
319.67	149.88
319.9	141.88
320.129	150.88
320.358	141.88
320.587	151.88
320.816	143.88
321.046	150.88
321.275	156.88
321.504	160.88
321.733	131.88
321.962	163.88
322.191	159.88
322.42	162.88
322.649	151.88
322.878	159.88
323.108	152.88
323.337	147.88
323.566	155.88
323.795	149.88
324.024	149.88
324.253	135.88
324.482	144.88
324.71	143.88
324.939	150.88
325.168	151.88
325.397	153.88
325.626	155.88
325.855	142.88
326.084	167.88
326.313	160.88
326.542	138.88
326.77	165.88
326.999	153.88
327.228	161.88
327.457	158.88
327.686	153.88
327.914	174.88
328.143	140.88
328.372	155.88
328.6	145.88
328.829	141.88
329.058	157.88
329.287	147.88
329.515	155.88
329.744	143.88
329.972	163.88
330.201	161.88
330.43	168.88
330.658	171.88
330.887	167.88
331.115	165.88
331.344	168.88
331.572	163.88
331.801	165.88
332.03	172.88
332.258	167.88
332.486	167.88
332.715	180.88
332.943	172.88
333.172	184.88
333.4	198.88
333.629	195.88
333.857	190.88
334.085	197.88
334.314	170.88
334.542	178.88
334.771	177.88
334.999	183.88
335.227	180.88
335.455	169.88
335.684	181.88
335.912	181.88
336.14	150.88
336.369	175.88
336.597	177.88
336.825	169.88
337.053	167.88
337.281	170.88
337.51	161.88
337.738	165.88
337.966	164.88
338.194	163.88
338.422	161.88
338.65	159.88
338.878	172.88
339.106	168.88
339.334	171.88
339.562	151.88
339.79	154.88
340.018	160.88
340.246	161.88
340.474	168.88
340.702	157.88
340.93	163.88
341.158	166.88
341.386	158.88
341.614	152.88
341.842	163.88
342.07	161.88
342.298	167.88
342.526	160.88
342.754	170.88
342.981	152.88
343.209	149.88
343.437	179.88
343.665	159.88
343.893	155.88
344.12	174.88
344.348	181.88
344.576	183.88
344.804	180.88
345.031	169.88
345.259	175.88
345.487	164.88
345.714	167.88
345.942	151.88
346.17	141.88
346.397	148.88
346.625	163.88
346.853	163.88
347.08	148.88
347.308	170.88
347.535	159.88
347.763	164.88
347.99	151.88
348.218	164.88
348.445	159.88
348.673	159.88
348.9	164.88
349.128	158.88
349.355	142.88
349.583	139.88
349.81	161.88
350.037	145.88
350.265	158.88
350.492	163.88
350.72	140.88
350.947	147.88
351.174	162.88
351.402	150.88
351.629	161.88
351.856	158.88
352.083	148.88
352.311	158.88
352.538	150.88
352.765	150.88
352.992	163.88
353.22	145.88
353.447	152.88
353.674	163.88
353.901	155.88
354.128	142.88
354.355	149.88
354.583	166.88
354.81	166.88
355.037	148.88
355.264	161.88
355.491	172.88
355.718	138.88
355.945	137.88
356.172	157.88
356.399	159.88
356.626	165.88
356.853	173.88
357.08	165.88
357.307	157.88
357.534	147.88
357.761	145.88
357.988	157.88
358.215	169.88
358.441	142.88
358.668	153.88
358.895	160.88
359.122	144.88
359.349	153.88
359.576	156.88
359.802	150.88
360.029	164.88
360.256	155.88
360.483	155.88
360.709	165.88
360.936	151.88
361.163	159.88
361.39	156.88
361.616	152.88
361.843	131.88
362.07	153.88
362.296	135.88
362.523	168.88
362.749	156.88
362.976	157.88
363.203	158.88
363.429	149.88
363.656	149.88
363.882	166.88
364.109	166.88
364.335	159.88
364.562	144.88
364.788	155.88
365.015	165.88
365.241	153.88
365.468	158.88
365.694	152.88
365.92	159.88
366.147	149.88
366.373	150.88
366.599	159.88
366.826	145.88
367.052	146.88
367.278	145.88
367.505	164.88
367.731	139.88
367.957	153.88
368.184	149.88
368.41	163.88
368.636	151.88
368.862	145.88
369.089	154.88
369.315	147.88
369.541	157.88
369.767	156.88
369.993	148.88
370.219	151.88
370.445	155.88
370.672	161.88
370.898	168.88
371.124	151.88
371.35	161.88
371.576	170.88
371.802	157.88
372.028	163.88
372.254	152.88
372.48	162.88
372.706	154.88
372.932	183.88
373.158	159.88
373.384	167.88
373.61	159.88
373.835	173.88
374.061	157.88
374.287	159.88
374.513	156.88
374.739	173.88
374.965	170.88
375.191	156.88
375.416	179.88
375.642	168.88
375.868	161.88
376.094	155.88
376.319	171.88
376.545	165.88
376.771	180.88
376.997	154.88
377.222	174.88
377.448	157.88
377.674	170.88
377.899	165.88
378.125	143.88
378.35	157.88
378.576	158.88
378.802	152.88
379.027	155.88
379.253	162.88
379.478	151.88
379.704	157.88
379.929	150.88
380.155	151.88
380.38	163.88
380.606	163.88
380.831	163.88
381.057	182.88
381.282	166.88
381.507	141.88
381.733	148.88
381.958	173.88
382.184	170.88
382.409	155.88
382.634	170.88
382.86	165.88
383.085	166.88
383.31	167.88
383.535	162.88
383.761	189.88
383.986	176.88
384.211	177.88
384.436	169.88
384.662	183.88
384.887	181.88
385.112	185.88
385.337	189.88
385.562	169.88
385.787	193.88
386.013	189.88
386.238	186.88
386.463	175.88
386.688	173.88
386.913	190.88
387.138	183.88
387.363	192.88
387.588	170.88
387.813	188.88
388.038	162.88
388.263	179.88
388.488	170.88
388.713	165.88
388.938	169.88
389.163	181.88
389.387	170.88
389.612	161.88
389.837	171.88
390.062	180.88
390.287	167.88
390.512	179.88
390.736	171.88
390.961	187.88
391.186	175.88
391.411	178.88
391.636	182.88
391.86	198.88
392.085	207.88
392.31	177.88
392.534	195.88
392.759	188.88
392.984	181.88
393.208	200.88
393.433	195.88
393.658	188.88
393.882	196.88
394.107	178.88
394.331	175.88
394.556	195.88
394.78	174.88
395.005	193.88
395.229	189.88
395.454	209.88
395.678	194.88
395.903	198.88
396.127	166.88
396.352	183.88
396.576	180.88
396.801	181.88
397.025	175.88
397.249	188.88
397.474	204.88
397.698	188.88
397.922	203.88
398.147	191.88
398.371	192.88
398.595	211.88
398.82	201.88
399.044	223.88
399.268	211.88
399.492	254.88
399.717	289.88
399.941	278.88
400.165	240.88
400.389	217.88
400.613	226.88
400.837	189.88
401.062	217.88
401.286	202.88
401.51	205.88
401.734	211.88
401.958	209.88
402.182	203.88
402.406	205.88
402.63	220.88
402.854	228.88
403.078	216.88
403.302	208.88
403.526	231.88
403.75	233.88
403.974	217.88
404.198	226.88
404.422	235.88
404.645	239.88
404.869	228.88
405.093	222.88
405.317	224.88
405.541	228.88
405.765	243.88
405.988	211.88
406.212	213.88
406.436	217.88
406.66	231.88
406.883	248.88
407.107	241.88
407.331	239.88
407.555	254.88
407.778	263.88
408.002	241.88
408.226	237.88
408.449	226.88
408.673	226.88
408.896	227.88
409.12	237.88
409.344	216.88
409.567	227.88
409.791	239.88
410.014	243.88
410.238	244.88
410.461	233.88
410.685	233.88
410.908	214.88
411.132	225.88
411.355	211.88
411.578	222.88
411.802	218.88
412.025	210.88
412.249	228.88
412.472	217.88
412.695	201.88
412.919	204.88
413.142	196.88
413.365	201.88
413.589	208.88
413.812	204.88
414.035	215.88
414.258	202.88
414.482	210.88
414.705	210.88
414.928	212.88
415.151	213.88
415.374	218.88
415.597	214.88
415.821	193.88
416.044	181.88
416.267	196.88
416.49	192.88
416.713	220.88
416.936	199.88
417.159	210.88
417.382	215.88
417.605	203.88
417.828	200.88
418.051	211.88
418.274	226.88
418.497	205.88
418.72	206.88
418.943	214.88
419.166	210.88
419.389	226.88
419.611	234.88
419.834	220.88
420.057	212.88
420.28	205.88
420.503	203.88
420.726	199.88
420.948	197.88
421.171	210.88
421.394	187.88
421.617	224.88
421.839	203.88
422.062	204.88
422.285	213.88
422.507	221.88
422.73	195.88
422.953	206.88
423.175	222.88
423.398	219.88
423.621	227.88
423.843	217.88
424.066	213.88
424.288	198.88
424.511	210.88
424.733	228.88
424.956	225.88
425.178	206.88
425.401	191.88
425.623	188.88
425.846	207.88
426.068	208.88
426.291	198.88
426.513	210.88
426.735	197.88
426.958	201.88
427.18	201.88
427.402	186.88
427.625	201.88
427.847	198.88
428.069	187.88
428.292	195.88
428.514	187.88
428.736	166.88
428.958	193.88
429.181	196.88
429.403	198.88
429.625	197.88
429.847	177.88
430.069	185.88
430.292	172.88
430.514	163.88
430.736	181.88
430.958	169.88
431.18	185.88
431.402	201.88
431.624	177.88
431.846	190.88
432.068	190.88
432.29	183.88
432.512	175.88
432.734	199.88
432.956	176.88
433.178	189.88
433.4	185.88
433.622	194.88
433.844	174.88
434.066	190.88
434.287	187.88
434.509	195.88
434.731	195.88
434.953	206.88
435.175	218.88
435.397	201.88
435.618	204.88
435.84	203.88
436.062	190.88
436.284	178.88
436.505	189.88
436.727	182.88
436.949	187.88
437.17	190.88
437.392	169.88
437.614	182.88
437.835	178.88
438.057	185.88
438.278	189.88
438.5	199.88
438.721	194.88
438.943	183.88
439.165	190.88
439.386	206.88
439.608	189.88
439.829	191.88
440.05	185.88
440.272	193.88
440.493	191.88
440.715	198.88
440.936	193.88
441.158	210.88
441.379	194.88
441.6	199.88
441.822	204.88
442.043	209.88
442.264	203.88
442.486	209.88
442.707	210.88
442.928	198.88
443.149	207.88
443.371	202.88
443.592	217.88
443.813	202.88
444.034	214.88
444.255	226.88
444.476	237.88
444.698	224.88
444.919	251.88
445.14	324.88
445.361	268.88
445.582	195.88
445.803	210.88
446.024	218.88
446.245	203.88
446.466	178.88
446.687	179.88
446.908	191.88
447.129	187.88
447.35	197.88
447.571	188.88
447.792	171.88
448.013	188.88
448.234	189.88
448.455	177.88
448.675	192.88
448.896	188.88
449.117	187.88
449.338	182.88
449.559	172.88
449.779	188.88
450	184.88
450.221	179.88
450.442	174.88
450.662	198.88
450.883	180.88
451.104	205.88
451.324	195.88
451.545	169.88
451.766	175.88
451.986	198.88
452.207	169.88
452.428	190.88
452.648	196.88
452.869	196.88
453.089	181.88
453.31	180.88
453.53	174.88
453.751	171.88
453.971	169.88
454.192	164.88
454.412	179.88
454.633	187.88
454.853	170.88
455.073	169.88
455.294	160.88
455.514	182.88
455.734	171.88
455.955	171.88
456.175	175.88
456.395	177.88
456.616	169.88
456.836	175.88
457.056	181.88
457.276	170.88
457.497	169.88
457.717	166.88
457.937	167.88
458.157	172.88
458.377	175.88
458.598	171.88
458.818	180.88
459.038	183.88
459.258	187.88
459.478	173.88
459.698	191.88
459.918	225.88
460.138	192.88
460.358	206.88
460.578	227.88
460.798	210.88
461.018	213.88
461.238	220.88
461.458	205.88
461.678	224.88
461.898	210.88
462.118	235.88
462.338	240.88
462.558	229.88
462.777	222.88
462.997	257.88
463.217	275.88
463.437	280.88
463.657	269.88
463.876	253.88
464.096	256.88
464.316	241.88
464.536	236.88
464.755	238.88
464.975	249.88
465.195	212.88
465.414	213.88
465.634	187.88
465.854	190.88
466.073	201.88
466.293	207.88
466.512	191.88
466.732	183.88
466.951	178.88
467.171	186.88
467.391	182.88
467.61	190.88
467.829	180.88
468.049	185.88
468.268	175.88
468.488	181.88
468.707	175.88
468.927	179.88
469.146	180.88
469.365	172.88
469.585	189.88
469.804	178.88
470.023	203.88
470.243	191.88
470.462	185.88
470.681	206.88
470.901	196.88
471.12	191.88
471.339	187.88
471.558	192.88
471.777	190.88
471.997	180.88
472.216	189.88
472.435	181.88
472.654	185.88
472.873	185.88
473.092	188.88
473.311	175.88
473.53	174.88
473.749	182.88
473.968	192.88
474.187	185.88
474.406	179.88
474.625	196.88
474.844	179.88
475.063	185.88
475.282	180.88
475.501	173.88
475.72	188.88
475.939	185.88
476.158	173.88
476.377	183.88
476.596	178.88
476.814	190.88
477.033	187.88
477.252	189.88
477.471	190.88
477.69	196.88
477.908	194.88
478.127	203.88
478.346	222.88
478.564	231.88
478.783	214.88
479.002	217.88
479.22	210.88
479.439	231.88
479.658	213.88
479.876	219.88
480.095	219.88
480.313	209.88
480.532	228.88
480.751	219.88
480.969	224.88
481.188	220.88
481.406	196.88
481.624	213.88
481.843	197.88
482.061	209.88
482.28	197.88
482.498	219.88
482.717	197.88
482.935	215.88
483.153	218.88
483.372	221.88
483.59	201.88
483.808	191.88
484.027	201.88
484.245	196.88
484.463	201.88
484.681	211.88
484.9	211.88
485.118	215.88
485.336	215.88
485.554	213.88
485.772	227.88
485.99	205.88
486.209	220.88
486.427	218.88
486.645	208.88
486.863	206.88
487.081	195.88
487.299	207.88
487.517	216.88
487.735	226.88
487.953	210.88
488.171	217.88
488.389	223.88
488.607	213.88
488.825	213.88
489.043	205.88
489.261	216.88
489.479	221.88
489.696	205.88
489.914	200.88
490.132	220.88
490.35	205.88
490.568	216.88
490.786	206.88
491.003	227.88
491.221	231.88
491.439	207.88
491.657	202.88
491.874	226.88
492.092	180.88
492.31	219.88
492.527	228.88
492.745	222.88
492.963	233.88
493.18	221.88
493.398	229.88
493.615	225.88
493.833	219.88
494.05	228.88
494.268	227.88
494.485	225.88
494.703	215.88
494.92	233.88
495.138	214.88
495.355	236.88
495.573	231.88
495.79	219.88
496.008	210.88
496.225	237.88
496.442	243.88
496.66	238.88
496.877	217.88
497.094	228.88
497.312	227.88
497.529	235.88
497.746	244.88
497.963	233.88
498.181	257.88
498.398	263.88
498.615	254.88
498.832	298.88
499.049	307.88
499.267	326.88
499.484	360.88
499.701	383.88
499.918	430.88
500.135	466.88
500.352	548.88
500.569	593.88
500.786	550.88
501.003	521.88
501.22	477.88
501.437	418.88
501.654	376.88
501.871	334.88
502.088	322.88
502.305	308.88
502.522	289.88
502.739	291.88
502.956	265.88
503.172	269.88
503.389	254.88
503.606	237.88
