Data from 0.5MCu(NO3)2.Standard.Lamp.E10.CV._HRD10591_16-05-38-753.txt Node
Date: Mon Jul 22 16:05:38 EDT 2019
User: cochatt
Spectrometer: HR+D1059
Trigger mode: 1
Integration Time (sec): 1.000000E-1
Scans to average: 1
Electric dark correction enabled: true
Nonlinearity correction enabled: false
Boxcar width: 0
XAxis mode: Wavelengths
Number of Pixels in Spectrum: 2048
>>>>>Begin Spectral Data<<<<<
223.165	-17.31
223.4	-17.31
223.635	-17.31
223.869	-14.31
224.104	-23.31
224.338	-2.31
224.573	-20.31
224.808	-26.31
225.042	-8.31
225.277	-1.31
225.511	-3.31
225.746	12.69
225.98	10.69
226.215	-1.31
226.449	23.69
226.683	20.69
226.918	17.69
227.152	32.69
227.387	20.69
227.621	39.69
227.856	39.69
228.09	50.69
228.324	48.69
228.559	59.69
228.793	62.69
229.027	77.69
229.262	68.69
229.496	58.69
229.73	79.69
229.964	68.69
230.199	83.69
230.433	83.69
230.667	73.69
230.901	91.69
231.136	77.69
231.37	91.69
231.604	87.69
231.838	78.69
232.072	94.69
232.306	105.69
232.541	87.69
232.775	106.69
233.009	76.69
233.243	91.69
233.477	86.69
233.711	106.69
233.945	72.69
234.179	80.69
234.413	91.69
234.647	74.69
234.881	89.69
235.115	83.69
235.349	92.69
235.583	87.69
235.817	87.69
236.051	80.69
236.285	96.69
236.519	97.69
236.753	88.69
236.987	86.69
237.221	98.69
237.455	102.69
237.689	86.69
237.922	96.69
238.156	88.69
238.39	85.69
238.624	86.69
238.858	76.69
239.091	75.69
239.325	87.69
239.559	94.69
239.793	85.69
240.027	99.69
240.26	83.69
240.494	74.69
240.728	83.69
240.961	92.69
241.195	101.69
241.429	85.69
241.662	87.69
241.896	70.69
242.13	84.69
242.363	102.69
242.597	85.69
242.83	97.69
243.064	97.69
243.298	83.69
243.531	93.69
243.765	88.69
243.998	112.69
244.232	94.69
244.465	108.69
244.699	87.69
244.932	99.69
245.166	91.69
245.399	91.69
245.633	95.69
245.866	85.69
246.099	100.69
246.333	110.69
246.566	99.69
246.8	114.69
247.033	101.69
247.266	95.69
247.5	113.69
247.733	101.69
247.966	98.69
248.2	101.69
248.433	99.69
248.666	107.69
248.899	102.69
249.133	89.69
249.366	110.69
249.599	90.69
249.832	103.69
250.066	105.69
250.299	100.69
250.532	103.69
250.765	98.69
250.998	98.69
251.231	96.69
251.465	100.69
251.698	94.69
251.931	111.69
252.164	107.69
252.397	111.69
252.63	113.69
252.863	119.69
253.096	108.69
253.329	105.69
253.562	98.69
253.795	102.69
254.028	118.69
254.261	110.69
254.494	117.69
254.727	121.69
254.96	105.69
255.193	110.69
255.426	108.69
255.659	106.69
255.892	108.69
256.124	117.69
256.357	110.69
256.59	106.69
256.823	118.69
257.056	100.69
257.289	110.69
257.521	112.69
257.754	115.69
257.987	119.69
258.22	120.69
258.452	113.69
258.685	114.69
258.918	118.69
259.151	123.69
259.383	105.69
259.616	114.69
259.849	124.69
260.081	131.69
260.314	118.69
260.547	119.69
260.779	112.69
261.012	114.69
261.244	126.69
261.477	121.69
261.71	122.69
261.942	105.69
262.175	120.69
262.407	116.69
262.64	119.69
262.872	101.69
263.105	128.69
263.337	128.69
263.57	106.69
263.802	113.69
264.035	130.69
264.267	118.69
264.499	122.69
264.732	124.69
264.964	125.69
265.197	120.69
265.429	107.69
265.661	106.69
265.894	119.69
266.126	128.69
266.358	122.69
266.591	123.69
266.823	118.69
267.055	119.69
267.287	124.69
267.52	118.69
267.752	121.69
267.984	135.69
268.216	129.69
268.448	125.69
268.681	113.69
268.913	129.69
269.145	137.69
269.377	136.69
269.609	120.69
269.841	128.69
270.073	127.69
270.306	130.69
270.538	125.69
270.77	132.69
271.002	136.69
271.234	117.69
271.466	129.69
271.698	126.69
271.93	127.69
272.162	121.69
272.394	136.69
272.626	132.69
272.858	132.69
273.09	127.69
273.322	131.69
273.553	137.69
273.785	138.69
274.017	136.69
274.249	134.69
274.481	139.69
274.713	124.69
274.945	127.69
275.176	148.69
275.408	135.69
275.64	128.69
275.872	152.69
276.104	148.69
276.335	137.69
276.567	144.69
276.799	124.69
277.031	133.69
277.262	135.69
277.494	130.69
277.726	148.69
277.957	155.69
278.189	135.69
278.421	126.69
278.652	139.69
278.884	150.69
279.115	148.69
279.347	140.69
279.579	139.69
279.81	139.69
280.042	139.69
280.273	144.69
280.505	152.69
280.736	139.69
280.968	151.69
281.199	139.69
281.431	150.69
281.662	130.69
281.894	147.69
282.125	140.69
282.356	139.69
282.588	151.69
282.819	139.69
283.051	138.69
283.282	137.69
283.513	152.69
283.745	148.69
283.976	137.69
284.207	150.69
284.439	144.69
284.67	150.69
284.901	157.69
285.132	147.69
285.364	146.69
285.595	146.69
285.826	153.69
286.057	151.69
286.288	143.69
286.52	152.69
286.751	144.69
286.982	149.69
287.213	149.69
287.444	150.69
287.675	158.69
287.906	144.69
288.138	137.69
288.369	150.69
288.6	152.69
288.831	137.69
289.062	152.69
289.293	169.69
289.524	147.69
289.755	148.69
289.986	174.69
290.217	159.69
290.448	173.69
290.679	167.69
290.91	149.69
291.141	167.69
291.371	171.69
291.602	147.69
291.833	160.69
292.064	169.69
292.295	164.69
292.526	159.69
292.757	166.69
292.987	166.69
293.218	142.69
293.449	161.69
293.68	160.69
293.91	175.69
294.141	152.69
294.372	152.69
294.603	162.69
294.833	156.69
295.064	168.69
295.295	176.69
295.525	176.69
295.756	160.69
295.987	168.69
296.217	170.69
296.448	167.69
296.679	166.69
296.909	175.69
297.14	173.69
297.37	169.69
297.601	168.69
297.831	175.69
298.062	167.69
298.292	185.69
298.523	187.69
298.753	172.69
298.984	186.69
299.214	172.69
299.445	162.69
299.675	175.69
299.905	166.69
300.136	169.69
300.366	180.69
300.597	166.69
300.827	182.69
301.057	175.69
301.288	180.69
301.518	167.69
301.748	186.69
301.979	169.69
302.209	162.69
302.439	176.69
302.669	196.69
302.9	198.69
303.13	172.69
303.36	170.69
303.59	178.69
303.82	188.69
304.051	166.69
304.281	162.69
304.511	188.69
304.741	178.69
304.971	164.69
305.201	187.69
305.431	174.69
305.661	188.69
305.891	192.69
306.121	168.69
306.352	168.69
306.582	177.69
306.812	175.69
307.042	165.69
307.272	176.69
307.502	170.69
307.731	164.69
307.961	169.69
308.191	175.69
308.421	163.69
308.651	186.69
308.881	179.69
309.111	164.69
309.341	185.69
309.571	174.69
309.8	194.69
310.03	162.69
310.26	186.69
310.49	186.69
310.72	164.69
310.949	174.69
311.179	164.69
311.409	191.69
311.639	174.69
311.868	166.69
312.098	184.69
312.328	194.69
312.557	197.69
312.787	186.69
313.017	167.69
313.246	190.69
313.476	172.69
313.706	195.69
313.935	195.69
314.165	185.69
314.394	194.69
314.624	188.69
314.853	185.69
315.083	188.69
315.312	182.69
315.542	187.69
315.771	197.69
316.001	195.69
316.23	185.69
316.46	176.69
316.689	179.69
316.919	186.69
317.148	177.69
317.377	165.69
317.607	182.69
317.836	188.69
318.065	175.69
318.295	187.69
318.524	179.69
318.753	163.69
318.983	191.69
319.212	168.69
319.441	177.69
319.67	186.69
319.9	186.69
320.129	171.69
320.358	181.69
320.587	174.69
320.816	185.69
321.046	190.69
321.275	180.69
321.504	185.69
321.733	186.69
321.962	204.69
322.191	195.69
322.42	172.69
322.649	172.69
322.878	174.69
323.108	194.69
323.337	208.69
323.566	167.69
323.795	200.69
324.024	187.69
324.253	186.69
324.482	180.69
324.71	184.69
324.939	189.69
325.168	176.69
325.397	202.69
325.626	183.69
325.855	179.69
326.084	178.69
326.313	201.69
326.542	194.69
326.77	210.69
326.999	190.69
327.228	178.69
327.457	188.69
327.686	202.69
327.914	184.69
328.143	195.69
328.372	194.69
328.6	200.69
328.829	198.69
329.058	194.69
329.287	192.69
329.515	177.69
329.744	194.69
329.972	198.69
330.201	204.69
330.43	187.69
330.658	192.69
330.887	197.69
331.115	200.69
331.344	208.69
331.572	214.69
331.801	207.69
332.03	208.69
332.258	201.69
332.486	211.69
332.715	212.69
332.943	212.69
333.172	214.69
333.4	247.69
333.629	248.69
333.857	246.69
334.085	266.69
334.314	233.69
334.542	234.69
334.771	223.69
334.999	222.69
335.227	230.69
335.455	238.69
335.684	232.69
335.912	229.69
336.14	211.69
336.369	219.69
336.597	214.69
336.825	216.69
337.053	216.69
337.281	216.69
337.51	205.69
337.738	218.69
337.966	201.69
338.194	206.69
338.422	199.69
338.65	214.69
338.878	212.69
339.106	196.69
339.334	198.69
339.562	195.69
339.79	194.69
340.018	215.69
340.246	199.69
340.474	195.69
340.702	208.69
340.93	183.69
341.158	210.69
341.386	191.69
341.614	203.69
341.842	192.69
342.07	196.69
342.298	195.69
342.526	208.69
342.754	195.69
342.981	207.69
343.209	211.69
343.437	196.69
343.665	206.69
343.893	219.69
344.12	252.69
344.348	222.69
344.576	212.69
344.804	197.69
345.031	193.69
345.259	190.69
345.487	182.69
345.714	187.69
345.942	192.69
346.17	198.69
346.397	181.69
346.625	196.69
346.853	189.69
347.08	189.69
347.308	195.69
347.535	183.69
347.763	193.69
347.99	214.69
348.218	206.69
348.445	209.69
348.673	200.69
348.9	197.69
349.128	195.69
349.355	193.69
349.583	178.69
349.81	184.69
350.037	174.69
350.265	185.69
350.492	199.69
350.72	184.69
350.947	192.69
351.174	189.69
351.402	188.69
351.629	178.69
351.856	176.69
352.083	183.69
352.311	189.69
352.538	192.69
352.765	169.69
352.992	189.69
353.22	196.69
353.447	178.69
353.674	188.69
353.901	206.69
354.128	196.69
354.355	191.69
354.583	191.69
354.81	185.69
355.037	186.69
355.264	170.69
355.491	192.69
355.718	190.69
355.945	189.69
356.172	175.69
356.399	185.69
356.626	182.69
356.853	182.69
357.08	187.69
357.307	179.69
357.534	202.69
357.761	184.69
357.988	189.69
358.215	181.69
358.441	187.69
358.668	191.69
358.895	187.69
359.122	197.69
359.349	179.69
359.576	195.69
359.802	182.69
360.029	179.69
360.256	196.69
360.483	198.69
360.709	183.69
360.936	197.69
361.163	182.69
361.39	187.69
361.616	187.69
361.843	183.69
362.07	186.69
362.296	184.69
362.523	185.69
362.749	194.69
362.976	164.69
363.203	198.69
363.429	192.69
363.656	175.69
363.882	188.69
364.109	192.69
364.335	190.69
364.562	183.69
364.788	180.69
365.015	176.69
365.241	200.69
365.468	172.69
365.694	182.69
365.92	182.69
366.147	194.69
366.373	175.69
366.599	193.69
366.826	181.69
367.052	194.69
367.278	190.69
367.505	188.69
367.731	207.69
367.957	182.69
368.184	185.69
368.41	194.69
368.636	200.69
368.862	198.69
369.089	205.69
369.315	190.69
369.541	178.69
369.767	184.69
369.993	203.69
370.219	188.69
370.445	202.69
370.672	190.69
370.898	188.69
371.124	190.69
371.35	183.69
371.576	196.69
371.802	192.69
372.028	215.69
372.254	199.69
372.48	191.69
372.706	192.69
372.932	211.69
373.158	203.69
373.384	222.69
373.61	182.69
373.835	199.69
374.061	185.69
374.287	180.69
374.513	199.69
374.739	210.69
374.965	207.69
375.191	204.69
375.416	208.69
375.642	186.69
375.868	216.69
376.094	201.69
376.319	199.69
376.545	192.69
376.771	198.69
376.997	186.69
377.222	184.69
377.448	206.69
377.674	184.69
377.899	197.69
378.125	193.69
378.35	193.69
378.576	199.69
378.802	192.69
379.027	195.69
379.253	198.69
379.478	196.69
379.704	213.69
379.929	215.69
380.155	207.69
380.38	200.69
380.606	194.69
380.831	190.69
381.057	207.69
381.282	221.69
381.507	193.69
381.733	181.69
381.958	201.69
382.184	196.69
382.409	198.69
382.634	207.69
382.86	196.69
383.085	196.69
383.31	217.69
383.535	218.69
383.761	194.69
383.986	234.69
384.211	214.69
384.436	230.69
384.662	207.69
384.887	223.69
385.112	230.69
385.337	224.69
385.562	218.69
385.787	229.69
386.013	223.69
386.238	215.69
386.463	219.69
386.688	242.69
386.913	239.69
387.138	237.69
387.363	231.69
387.588	210.69
387.813	222.69
388.038	221.69
388.263	214.69
388.488	223.69
388.713	220.69
388.938	215.69
389.163	203.69
389.387	222.69
389.612	217.69
389.837	225.69
390.062	202.69
390.287	190.69
390.512	212.69
390.736	219.69
390.961	220.69
391.186	228.69
391.411	216.69
391.636	244.69
391.86	227.69
392.085	248.69
392.31	252.69
392.534	247.69
392.759	233.69
392.984	217.69
393.208	218.69
393.433	223.69
393.658	233.69
393.882	236.69
394.107	224.69
394.331	230.69
394.556	238.69
394.78	240.69
395.005	221.69
395.229	231.69
395.454	226.69
395.678	221.69
395.903	237.69
396.127	236.69
396.352	236.69
396.576	244.69
396.801	209.69
397.025	227.69
397.249	228.69
397.474	241.69
397.698	231.69
397.922	226.69
398.147	222.69
398.371	255.69
398.595	266.69
398.82	245.69
399.044	265.69
399.268	304.69
399.492	328.69
399.717	376.69
399.941	366.69
400.165	331.69
400.389	296.69
400.613	288.69
400.837	247.69
401.062	261.69
401.286	270.69
401.51	249.69
401.734	259.69
401.958	258.69
402.182	263.69
402.406	251.69
402.63	274.69
402.854	277.69
403.078	273.69
403.302	284.69
403.526	290.69
403.75	287.69
403.974	285.69
404.198	299.69
404.422	304.69
404.645	260.69
404.869	278.69
405.093	281.69
405.317	280.69
405.541	268.69
405.765	287.69
405.988	273.69
406.212	286.69
406.436	265.69
406.66	278.69
406.883	291.69
407.107	288.69
407.331	289.69
407.555	314.69
407.778	321.69
408.002	313.69
408.226	292.69
408.449	305.69
408.673	294.69
408.896	274.69
409.12	274.69
409.344	292.69
409.567	302.69
409.791	311.69
410.014	304.69
410.238	289.69
410.461	278.69
410.685	292.69
410.908	281.69
411.132	285.69
411.355	261.69
411.578	264.69
411.802	244.69
412.025	275.69
412.249	272.69
412.472	273.69
412.695	266.69
412.919	265.69
413.142	266.69
413.365	267.69
413.589	269.69
413.812	262.69
414.035	267.69
414.258	254.69
414.482	267.69
414.705	272.69
414.928	247.69
415.151	254.69
415.374	278.69
415.597	239.69
415.821	247.69
416.044	259.69
416.267	263.69
416.49	243.69
416.713	253.69
416.936	233.69
417.159	276.69
417.382	258.69
417.605	237.69
417.828	240.69
418.051	263.69
418.274	258.69
418.497	248.69
418.72	259.69
418.943	259.69
419.166	286.69
419.389	299.69
419.611	277.69
419.834	272.69
420.057	263.69
420.28	262.69
420.503	256.69
420.726	255.69
420.948	259.69
421.171	263.69
421.394	252.69
421.617	255.69
421.839	248.69
422.062	276.69
422.285	252.69
422.507	255.69
422.73	286.69
422.953	263.69
423.175	251.69
423.398	271.69
423.621	276.69
423.843	272.69
424.066	260.69
424.288	270.69
424.511	287.69
424.733	254.69
424.956	255.69
425.178	252.69
425.401	268.69
425.623	240.69
425.846	257.69
426.068	247.69
426.291	244.69
426.513	246.69
426.735	249.69
426.958	248.69
427.18	232.69
427.402	249.69
427.625	237.69
427.847	227.69
428.069	238.69
428.292	240.69
428.514	233.69
428.736	233.69
428.958	234.69
429.181	226.69
429.403	235.69
429.625	229.69
429.847	209.69
430.069	239.69
430.292	220.69
430.514	238.69
430.736	223.69
430.958	217.69
431.18	219.69
431.402	228.69
431.624	223.69
431.846	237.69
432.068	252.69
432.29	234.69
432.512	229.69
432.734	244.69
432.956	235.69
433.178	229.69
433.4	235.69
433.622	231.69
433.844	239.69
434.066	238.69
434.287	234.69
434.509	235.69
434.731	246.69
434.953	267.69
435.175	252.69
435.397	245.69
435.618	246.69
435.84	231.69
436.062	232.69
436.284	226.69
436.505	237.69
436.727	247.69
436.949	235.69
437.17	232.69
437.392	221.69
437.614	203.69
437.835	226.69
438.057	226.69
438.278	211.69
438.5	245.69
438.721	213.69
438.943	240.69
439.165	205.69
439.386	214.69
439.608	237.69
439.829	219.69
440.05	221.69
440.272	242.69
440.493	234.69
440.715	232.69
440.936	230.69
441.158	257.69
441.379	243.69
441.6	254.69
441.822	272.69
442.043	256.69
442.264	260.69
442.486	253.69
442.707	252.69
442.928	235.69
443.149	242.69
443.371	252.69
443.592	255.69
443.813	247.69
444.034	268.69
444.255	268.69
444.476	268.69
444.698	264.69
444.919	303.69
445.14	410.69
445.361	330.69
445.582	246.69
445.803	251.69
446.024	233.69
446.245	244.69
446.466	233.69
446.687	250.69
446.908	245.69
447.129	224.69
447.35	228.69
447.571	228.69
447.792	217.69
448.013	217.69
448.234	229.69
448.455	215.69
448.675	212.69
448.896	220.69
449.117	212.69
449.338	215.69
449.559	223.69
449.779	206.69
450	220.69
450.221	216.69
450.442	224.69
450.662	220.69
450.883	219.69
451.104	228.69
451.324	218.69
451.545	219.69
451.766	220.69
451.986	215.69
452.207	224.69
452.428	210.69
452.648	217.69
452.869	203.69
453.089	219.69
453.31	196.69
453.53	214.69
453.751	223.69
453.971	221.69
454.192	230.69
454.412	213.69
454.633	212.69
454.853	200.69
455.073	226.69
455.294	210.69
455.514	198.69
455.734	211.69
455.955	211.69
456.175	202.69
456.395	207.69
456.616	212.69
456.836	200.69
457.056	219.69
457.276	219.69
457.497	216.69
457.717	210.69
457.937	199.69
458.157	219.69
458.377	196.69
458.598	202.69
458.818	215.69
459.038	226.69
459.258	250.69
459.478	241.69
459.698	228.69
459.918	260.69
460.138	248.69
460.358	257.69
460.578	256.69
460.798	287.69
461.018	275.69
461.238	274.69
461.458	262.69
461.678	263.69
461.898	274.69
462.118	262.69
462.338	297.69
462.558	292.69
462.777	276.69
462.997	298.69
463.217	349.69
463.437	345.69
463.657	307.69
463.876	308.69
464.096	300.69
464.316	312.69
464.536	319.69
464.755	294.69
464.975	286.69
465.195	272.69
465.414	273.69
465.634	252.69
465.854	246.69
466.073	249.69
466.293	253.69
466.512	226.69
466.732	228.69
466.951	232.69
467.171	246.69
467.391	231.69
467.61	228.69
467.829	239.69
468.049	216.69
468.268	217.69
468.488	224.69
468.707	231.69
468.927	226.69
469.146	225.69
469.365	242.69
469.585	231.69
469.804	234.69
470.023	238.69
470.243	235.69
470.462	233.69
470.681	227.69
470.901	250.69
471.12	225.69
471.339	231.69
471.558	227.69
471.777	222.69
471.997	226.69
472.216	244.69
472.435	238.69
472.654	215.69
472.873	234.69
473.092	219.69
473.311	225.69
473.53	220.69
473.749	226.69
473.968	228.69
474.187	205.69
474.406	219.69
474.625	218.69
474.844	224.69
475.063	214.69
475.282	215.69
475.501	224.69
475.72	214.69
475.939	236.69
476.158	225.69
476.377	217.69
476.596	224.69
476.814	225.69
477.033	244.69
477.252	217.69
477.471	227.69
477.69	227.69
477.908	245.69
478.127	252.69
478.346	266.69
478.564	260.69
478.783	275.69
479.002	252.69
479.22	275.69
479.439	271.69
479.658	277.69
479.876	265.69
480.095	268.69
480.313	273.69
480.532	289.69
480.751	271.69
480.969	268.69
481.188	267.69
481.406	271.69
481.624	258.69
481.843	244.69
482.061	244.69
482.28	260.69
482.498	246.69
482.717	227.69
482.935	259.69
483.153	257.69
483.372	258.69
483.59	232.69
483.808	272.69
484.027	236.69
484.245	260.69
484.463	244.69
484.681	262.69
484.9	244.69
485.118	273.69
485.336	248.69
485.554	245.69
485.772	275.69
485.99	279.69
486.209	269.69
486.427	275.69
486.645	246.69
486.863	276.69
487.081	277.69
487.299	259.69
487.517	265.69
487.735	279.69
487.953	267.69
488.171	270.69
488.389	266.69
488.607	258.69
488.825	241.69
489.043	247.69
489.261	267.69
489.479	262.69
489.696	248.69
489.914	256.69
490.132	262.69
490.35	266.69
490.568	267.69
490.786	250.69
491.003	282.69
491.221	270.69
491.439	282.69
491.657	254.69
491.874	275.69
492.092	259.69
492.31	284.69
492.527	290.69
492.745	258.69
492.963	281.69
493.18	262.69
493.398	259.69
493.615	282.69
493.833	277.69
494.05	268.69
494.268	278.69
494.485	269.69
494.703	287.69
494.92	272.69
495.138	273.69
495.355	265.69
495.573	289.69
495.79	280.69
496.008	286.69
496.225	273.69
496.442	259.69
496.66	287.69
496.877	277.69
497.094	301.69
497.312	283.69
497.529	278.69
497.746	293.69
497.963	307.69
498.181	318.69
498.398	336.69
498.615	352.69
498.832	367.69
499.049	394.69
499.267	404.69
499.484	454.69
499.701	483.69
499.918	530.69
500.135	600.69
500.352	697.69
500.569	752.69
500.786	749.69
501.003	641.69
501.22	603.69
501.437	539.69
501.654	475.69
501.871	429.69
502.088	412.69
502.305	406.69
502.522	366.69
502.739	367.69
502.956	329.69
503.172	324.69
