Data from 0.5MCu(NO3)2.Standard.Lamp.E10.CV._HRD10591_16-05-35-753.txt Node
Date: Mon Jul 22 16:05:35 EDT 2019
User: cochatt
Spectrometer: HR+D1059
Trigger mode: 1
Integration Time (sec): 1.000000E-1
Scans to average: 1
Electric dark correction enabled: true
Nonlinearity correction enabled: false
Boxcar width: 0
XAxis mode: Wavelengths
Number of Pixels in Spectrum: 2048
>>>>>Begin Spectral Data<<<<<
223.165	-18.94
223.4	-18.94
223.635	-18.94
223.869	-24.94
224.104	-12.94
224.338	-2.94
224.573	-3.94
224.808	-17.94
225.042	-24.94
225.277	-5.94
225.511	11.06
225.746	0.06
225.98	6.06
226.215	9.06
226.449	14.06
226.683	11.06
226.918	38.06
227.152	23.06
227.387	27.06
227.621	41.06
227.856	35.06
228.09	35.06
228.324	40.06
228.559	54.06
228.793	59.06
229.027	72.06
229.262	67.06
229.496	73.06
229.73	77.06
229.964	78.06
230.199	77.06
230.433	87.06
230.667	70.06
230.901	75.06
231.136	82.06
231.37	88.06
231.604	89.06
231.838	99.06
232.072	98.06
232.306	83.06
232.541	89.06
232.775	79.06
233.009	76.06
233.243	91.06
233.477	92.06
233.711	96.06
233.945	69.06
234.179	85.06
234.413	78.06
234.647	102.06
234.881	101.06
235.115	91.06
235.349	91.06
235.583	91.06
235.817	89.06
236.051	84.06
236.285	80.06
236.519	85.06
236.753	81.06
236.987	95.06
237.221	89.06
237.455	91.06
237.689	84.06
237.922	84.06
238.156	86.06
238.39	103.06
238.624	77.06
238.858	88.06
239.091	98.06
239.325	79.06
239.559	95.06
239.793	78.06
240.027	95.06
240.26	91.06
240.494	88.06
240.728	84.06
240.961	99.06
241.195	93.06
241.429	85.06
241.662	93.06
241.896	81.06
242.13	89.06
242.363	84.06
242.597	102.06
242.83	90.06
243.064	89.06
243.298	85.06
243.531	88.06
243.765	91.06
243.998	94.06
244.232	90.06
244.465	107.06
244.699	85.06
244.932	94.06
245.166	101.06
245.399	107.06
245.633	103.06
245.866	112.06
246.099	95.06
246.333	85.06
246.566	94.06
246.8	89.06
247.033	107.06
247.266	104.06
247.5	100.06
247.733	80.06
247.966	87.06
248.2	103.06
248.433	100.06
248.666	111.06
248.899	103.06
249.133	83.06
249.366	101.06
249.599	124.06
249.832	113.06
250.066	93.06
250.299	100.06
250.532	98.06
250.765	84.06
250.998	92.06
251.231	96.06
251.465	115.06
251.698	111.06
251.931	103.06
252.164	96.06
252.397	111.06
252.63	104.06
252.863	108.06
253.096	115.06
253.329	111.06
253.562	107.06
253.795	102.06
254.028	112.06
254.261	110.06
254.494	122.06
254.727	118.06
254.96	125.06
255.193	106.06
255.426	97.06
255.659	117.06
255.892	104.06
256.124	102.06
256.357	104.06
256.59	105.06
256.823	91.06
257.056	114.06
257.289	120.06
257.521	104.06
257.754	96.06
257.987	95.06
258.22	112.06
258.452	113.06
258.685	98.06
258.918	107.06
259.151	110.06
259.383	122.06
259.616	124.06
259.849	111.06
260.081	117.06
260.314	119.06
260.547	114.06
260.779	127.06
261.012	126.06
261.244	108.06
261.477	127.06
261.71	107.06
261.942	105.06
262.175	113.06
262.407	105.06
262.64	105.06
262.872	114.06
263.105	111.06
263.337	120.06
263.57	108.06
263.802	129.06
264.035	129.06
264.267	112.06
264.499	106.06
264.732	121.06
264.964	112.06
265.197	111.06
265.429	119.06
265.661	126.06
265.894	117.06
266.126	122.06
266.358	111.06
266.591	124.06
266.823	122.06
267.055	123.06
267.287	112.06
267.52	126.06
267.752	116.06
267.984	120.06
268.216	118.06
268.448	120.06
268.681	129.06
268.913	120.06
269.145	125.06
269.377	123.06
269.609	98.06
269.841	125.06
270.073	113.06
270.306	123.06
270.538	120.06
270.77	113.06
271.002	128.06
271.234	140.06
271.466	124.06
271.698	111.06
271.93	120.06
272.162	138.06
272.394	123.06
272.626	115.06
272.858	115.06
273.09	134.06
273.322	129.06
273.553	114.06
273.785	139.06
274.017	123.06
274.249	123.06
274.481	139.06
274.713	131.06
274.945	141.06
275.176	127.06
275.408	127.06
275.64	126.06
275.872	133.06
276.104	137.06
276.335	131.06
276.567	144.06
276.799	129.06
277.031	135.06
277.262	141.06
277.494	140.06
277.726	135.06
277.957	123.06
278.189	129.06
278.421	129.06
278.652	120.06
278.884	138.06
279.115	143.06
279.347	135.06
279.579	149.06
279.81	152.06
280.042	134.06
280.273	120.06
280.505	129.06
280.736	146.06
280.968	134.06
281.199	146.06
281.431	133.06
281.662	132.06
281.894	129.06
282.125	155.06
282.356	151.06
282.588	149.06
282.819	140.06
283.051	155.06
283.282	144.06
283.513	142.06
283.745	142.06
283.976	151.06
284.207	157.06
284.439	139.06
284.67	138.06
284.901	146.06
285.132	141.06
285.364	143.06
285.595	132.06
285.826	142.06
286.057	137.06
286.288	164.06
286.52	145.06
286.751	151.06
286.982	151.06
287.213	154.06
287.444	134.06
287.675	154.06
287.906	156.06
288.138	147.06
288.369	135.06
288.6	156.06
288.831	152.06
289.062	168.06
289.293	144.06
289.524	151.06
289.755	149.06
289.986	149.06
290.217	152.06
290.448	163.06
290.679	139.06
290.91	162.06
291.141	167.06
291.371	159.06
291.602	169.06
291.833	157.06
292.064	168.06
292.295	150.06
292.526	161.06
292.757	143.06
292.987	163.06
293.218	169.06
293.449	155.06
293.68	167.06
293.91	155.06
294.141	139.06
294.372	162.06
294.603	168.06
294.833	153.06
295.064	155.06
295.295	149.06
295.525	149.06
295.756	151.06
295.987	155.06
296.217	168.06
296.448	168.06
296.679	155.06
296.909	165.06
297.14	161.06
297.37	178.06
297.601	167.06
297.831	166.06
298.062	167.06
298.292	178.06
298.523	173.06
298.753	161.06
298.984	166.06
299.214	161.06
299.445	175.06
299.675	161.06
299.905	160.06
300.136	177.06
300.366	159.06
300.597	159.06
300.827	165.06
301.057	150.06
301.288	166.06
301.518	176.06
301.748	160.06
301.979	182.06
302.209	180.06
302.439	172.06
302.669	185.06
302.9	160.06
303.13	163.06
303.36	164.06
303.59	173.06
303.82	169.06
304.051	189.06
304.281	168.06
304.511	181.06
304.741	167.06
304.971	172.06
305.201	168.06
305.431	162.06
305.661	159.06
305.891	183.06
306.121	166.06
306.352	167.06
306.582	160.06
306.812	172.06
307.042	172.06
307.272	184.06
307.502	166.06
307.731	166.06
307.961	169.06
308.191	194.06
308.421	171.06
308.651	176.06
308.881	173.06
309.111	164.06
309.341	156.06
309.571	183.06
309.8	171.06
310.03	171.06
310.26	169.06
310.49	171.06
310.72	156.06
310.949	160.06
311.179	163.06
311.409	165.06
311.639	170.06
311.868	182.06
312.098	163.06
312.328	166.06
312.557	155.06
312.787	172.06
313.017	167.06
313.246	160.06
313.476	165.06
313.706	172.06
313.935	172.06
314.165	180.06
314.394	177.06
314.624	179.06
314.853	169.06
315.083	184.06
315.312	175.06
315.542	177.06
315.771	160.06
316.001	175.06
316.23	179.06
316.46	156.06
316.689	158.06
316.919	172.06
317.148	163.06
317.377	180.06
317.607	170.06
317.836	178.06
318.065	179.06
318.295	176.06
318.524	167.06
318.753	172.06
318.983	183.06
319.212	173.06
319.441	182.06
319.67	161.06
319.9	172.06
320.129	172.06
320.358	184.06
320.587	167.06
320.816	179.06
321.046	177.06
321.275	179.06
321.504	161.06
321.733	176.06
321.962	175.06
322.191	178.06
322.42	189.06
322.649	172.06
322.878	181.06
323.108	165.06
323.337	176.06
323.566	177.06
323.795	173.06
324.024	179.06
324.253	169.06
324.482	174.06
324.71	187.06
324.939	191.06
325.168	188.06
325.397	182.06
325.626	173.06
325.855	193.06
326.084	186.06
326.313	179.06
326.542	188.06
326.77	190.06
326.999	199.06
327.228	189.06
327.457	186.06
327.686	181.06
327.914	179.06
328.143	186.06
328.372	215.06
328.6	184.06
328.829	189.06
329.058	183.06
329.287	184.06
329.515	199.06
329.744	202.06
329.972	177.06
330.201	198.06
330.43	183.06
330.658	193.06
330.887	185.06
331.115	189.06
331.344	186.06
331.572	198.06
331.801	191.06
332.03	199.06
332.258	200.06
332.486	205.06
332.715	204.06
332.943	223.06
333.172	228.06
333.4	227.06
333.629	240.06
333.857	228.06
334.085	227.06
334.314	223.06
334.542	224.06
334.771	224.06
334.999	221.06
335.227	224.06
335.455	209.06
335.684	202.06
335.912	207.06
336.14	226.06
336.369	199.06
336.597	206.06
336.825	211.06
337.053	204.06
337.281	201.06
337.51	202.06
337.738	209.06
337.966	187.06
338.194	195.06
338.422	205.06
338.65	212.06
338.878	206.06
339.106	196.06
339.334	202.06
339.562	195.06
339.79	184.06
340.018	194.06
340.246	182.06
340.474	201.06
340.702	187.06
340.93	188.06
341.158	203.06
341.386	188.06
341.614	187.06
341.842	190.06
342.07	198.06
342.298	187.06
342.526	187.06
342.754	189.06
342.981	201.06
343.209	183.06
343.437	202.06
343.665	203.06
343.893	203.06
344.12	224.06
344.348	224.06
344.576	210.06
344.804	179.06
345.031	186.06
345.259	191.06
345.487	186.06
345.714	195.06
345.942	194.06
346.17	204.06
346.397	185.06
346.625	186.06
346.853	189.06
347.08	181.06
347.308	196.06
347.535	176.06
347.763	185.06
347.99	173.06
348.218	191.06
348.445	175.06
348.673	174.06
348.9	179.06
349.128	175.06
349.355	187.06
349.583	167.06
349.81	178.06
350.037	177.06
350.265	176.06
350.492	195.06
350.72	180.06
350.947	175.06
351.174	202.06
351.402	166.06
351.629	190.06
351.856	175.06
352.083	195.06
352.311	188.06
352.538	171.06
352.765	166.06
352.992	160.06
353.22	179.06
353.447	169.06
353.674	191.06
353.901	175.06
354.128	171.06
354.355	173.06
354.583	179.06
354.81	177.06
355.037	177.06
355.264	172.06
355.491	200.06
355.718	185.06
355.945	183.06
356.172	191.06
356.399	161.06
356.626	183.06
356.853	173.06
357.08	183.06
357.307	180.06
357.534	181.06
357.761	180.06
357.988	171.06
358.215	173.06
358.441	190.06
358.668	184.06
358.895	195.06
359.122	175.06
359.349	183.06
359.576	188.06
359.802	184.06
360.029	175.06
360.256	168.06
360.483	185.06
360.709	177.06
360.936	187.06
361.163	183.06
361.39	196.06
361.616	179.06
361.843	189.06
362.07	182.06
362.296	175.06
362.523	173.06
362.749	189.06
362.976	165.06
363.203	192.06
363.429	191.06
363.656	188.06
363.882	197.06
364.109	181.06
364.335	188.06
364.562	163.06
364.788	170.06
365.015	179.06
365.241	190.06
365.468	171.06
365.694	167.06
365.92	191.06
366.147	196.06
366.373	178.06
366.599	193.06
366.826	177.06
367.052	199.06
367.278	167.06
367.505	192.06
367.731	181.06
367.957	180.06
368.184	178.06
368.41	178.06
368.636	189.06
368.862	185.06
369.089	180.06
369.315	179.06
369.541	184.06
369.767	178.06
369.993	160.06
370.219	186.06
370.445	177.06
370.672	188.06
370.898	194.06
371.124	201.06
371.35	202.06
371.576	211.06
371.802	182.06
372.028	194.06
372.254	189.06
372.48	181.06
372.706	186.06
372.932	211.06
373.158	193.06
373.384	198.06
373.61	190.06
373.835	198.06
374.061	170.06
374.287	186.06
374.513	190.06
374.739	215.06
374.965	213.06
375.191	224.06
375.416	194.06
375.642	190.06
375.868	197.06
376.094	197.06
376.319	183.06
376.545	202.06
376.771	171.06
376.997	196.06
377.222	200.06
377.448	179.06
377.674	196.06
377.899	191.06
378.125	173.06
378.35	197.06
378.576	185.06
378.802	181.06
379.027	182.06
379.253	196.06
379.478	183.06
379.704	192.06
379.929	183.06
380.155	196.06
380.38	186.06
380.606	191.06
380.831	207.06
381.057	206.06
381.282	186.06
381.507	181.06
381.733	192.06
381.958	217.06
382.184	184.06
382.409	192.06
382.634	208.06
382.86	216.06
383.085	205.06
383.31	185.06
383.535	199.06
383.761	221.06
383.986	210.06
384.211	200.06
384.436	197.06
384.662	221.06
384.887	231.06
385.112	212.06
385.337	219.06
385.562	216.06
385.787	211.06
386.013	224.06
386.238	231.06
386.463	215.06
386.688	221.06
386.913	201.06
387.138	222.06
387.363	224.06
387.588	211.06
387.813	206.06
388.038	208.06
388.263	206.06
388.488	215.06
388.713	199.06
388.938	200.06
389.163	189.06
389.387	211.06
389.612	212.06
389.837	218.06
390.062	205.06
390.287	200.06
390.512	213.06
390.736	208.06
390.961	221.06
391.186	212.06
391.411	208.06
391.636	228.06
391.86	223.06
392.085	238.06
392.31	219.06
392.534	195.06
392.759	215.06
392.984	208.06
393.208	224.06
393.433	226.06
393.658	213.06
393.882	223.06
394.107	230.06
394.331	214.06
394.556	214.06
394.78	219.06
395.005	214.06
395.229	223.06
395.454	217.06
395.678	222.06
395.903	242.06
396.127	234.06
396.352	224.06
396.576	225.06
396.801	217.06
397.025	219.06
397.249	227.06
397.474	231.06
397.698	225.06
397.922	224.06
398.147	230.06
398.371	228.06
398.595	247.06
398.82	243.06
399.044	265.06
399.268	267.06
399.492	318.06
399.717	357.06
399.941	348.06
400.165	309.06
400.389	287.06
400.613	260.06
400.837	260.06
401.062	246.06
401.286	245.06
401.51	241.06
401.734	256.06
401.958	257.06
402.182	256.06
402.406	239.06
402.63	257.06
402.854	267.06
403.078	264.06
403.302	293.06
403.526	287.06
403.75	281.06
403.974	283.06
404.198	283.06
404.422	286.06
404.645	276.06
404.869	283.06
405.093	273.06
405.317	260.06
405.541	243.06
405.765	277.06
405.988	269.06
406.212	249.06
406.436	262.06
406.66	263.06
406.883	264.06
407.107	291.06
407.331	307.06
407.555	322.06
407.778	312.06
408.002	287.06
408.226	275.06
408.449	265.06
408.673	257.06
408.896	284.06
409.12	262.06
409.344	282.06
409.567	283.06
409.791	295.06
410.014	282.06
410.238	269.06
410.461	276.06
410.685	259.06
410.908	265.06
411.132	267.06
411.355	263.06
411.578	247.06
411.802	250.06
412.025	259.06
412.249	271.06
412.472	250.06
412.695	259.06
412.919	243.06
413.142	233.06
413.365	233.06
413.589	252.06
413.812	242.06
414.035	238.06
414.258	231.06
414.482	237.06
414.705	245.06
414.928	237.06
415.151	247.06
415.374	259.06
415.597	242.06
415.821	248.06
416.044	252.06
416.267	252.06
416.49	232.06
416.713	243.06
416.936	233.06
417.159	273.06
417.382	234.06
417.605	243.06
417.828	243.06
418.051	257.06
418.274	241.06
418.497	239.06
418.72	243.06
418.943	261.06
419.166	265.06
419.389	281.06
419.611	265.06
419.834	249.06
420.057	251.06
420.28	263.06
420.503	243.06
420.726	231.06
420.948	249.06
421.171	242.06
421.394	240.06
421.617	237.06
421.839	259.06
422.062	249.06
422.285	239.06
422.507	228.06
422.73	234.06
422.953	273.06
423.175	275.06
423.398	249.06
423.621	255.06
423.843	279.06
424.066	260.06
424.288	234.06
424.511	235.06
424.733	256.06
424.956	242.06
425.178	258.06
425.401	240.06
425.623	229.06
425.846	229.06
426.068	224.06
426.291	229.06
426.513	253.06
426.735	216.06
426.958	228.06
427.18	234.06
427.402	234.06
427.625	219.06
427.847	229.06
428.069	239.06
428.292	227.06
428.514	231.06
428.736	216.06
428.958	226.06
429.181	225.06
429.403	203.06
429.625	232.06
429.847	214.06
430.069	218.06
430.292	240.06
430.514	224.06
430.736	221.06
430.958	220.06
431.18	215.06
431.402	239.06
431.624	222.06
431.846	221.06
432.068	204.06
432.29	224.06
432.512	240.06
432.734	220.06
432.956	218.06
433.178	245.06
433.4	233.06
433.622	208.06
433.844	219.06
434.066	222.06
434.287	241.06
434.509	234.06
434.731	242.06
434.953	236.06
435.175	252.06
435.397	239.06
435.618	223.06
435.84	231.06
436.062	234.06
436.284	217.06
436.505	212.06
436.727	205.06
436.949	224.06
437.17	239.06
437.392	229.06
437.614	216.06
437.835	213.06
438.057	238.06
438.278	223.06
438.5	206.06
438.721	214.06
438.943	218.06
439.165	224.06
439.386	237.06
439.608	223.06
439.829	216.06
440.05	239.06
440.272	202.06
440.493	225.06
440.715	224.06
440.936	224.06
441.158	237.06
441.379	245.06
441.6	261.06
441.822	229.06
442.043	241.06
442.264	251.06
442.486	253.06
442.707	222.06
442.928	236.06
443.149	242.06
443.371	263.06
443.592	233.06
443.813	250.06
444.034	243.06
444.255	269.06
444.476	254.06
444.698	284.06
444.919	287.06
445.14	377.06
445.361	315.06
445.582	230.06
445.803	233.06
446.024	216.06
446.245	225.06
446.466	231.06
446.687	235.06
446.908	211.06
447.129	216.06
447.35	211.06
447.571	215.06
447.792	209.06
448.013	210.06
448.234	225.06
448.455	220.06
448.675	203.06
448.896	204.06
449.117	215.06
449.338	213.06
449.559	198.06
449.779	215.06
450	202.06
450.221	204.06
450.442	211.06
450.662	201.06
450.883	210.06
451.104	226.06
451.324	207.06
451.545	209.06
451.766	226.06
451.986	214.06
452.207	211.06
452.428	215.06
452.648	215.06
452.869	214.06
453.089	201.06
453.31	216.06
453.53	203.06
453.751	203.06
453.971	201.06
454.192	203.06
454.412	203.06
454.633	204.06
454.853	200.06
455.073	199.06
455.294	192.06
455.514	192.06
455.734	188.06
455.955	183.06
456.175	209.06
456.395	215.06
456.616	198.06
456.836	207.06
457.056	199.06
457.276	177.06
457.497	205.06
457.717	195.06
457.937	208.06
458.157	220.06
458.377	203.06
458.598	212.06
458.818	211.06
459.038	218.06
459.258	219.06
459.478	235.06
459.698	232.06
459.918	224.06
460.138	239.06
460.358	259.06
460.578	284.06
460.798	261.06
461.018	247.06
461.238	254.06
461.458	251.06
461.678	273.06
461.898	237.06
462.118	264.06
462.338	284.06
462.558	268.06
462.777	279.06
462.997	300.06
463.217	355.06
463.437	347.06
463.657	306.06
463.876	317.06
464.096	303.06
464.316	293.06
464.536	294.06
464.755	288.06
464.975	275.06
465.195	268.06
465.414	248.06
465.634	251.06
465.854	231.06
466.073	227.06
466.293	211.06
466.512	218.06
466.732	211.06
466.951	202.06
467.171	228.06
467.391	227.06
467.61	204.06
467.829	230.06
468.049	210.06
468.268	204.06
468.488	186.06
468.707	209.06
468.927	213.06
469.146	220.06
469.365	213.06
469.585	223.06
469.804	243.06
470.023	221.06
470.243	217.06
470.462	227.06
470.681	231.06
470.901	216.06
471.12	236.06
471.339	223.06
471.558	209.06
471.777	223.06
471.997	220.06
472.216	198.06
472.435	216.06
472.654	213.06
472.873	199.06
473.092	209.06
473.311	208.06
473.53	207.06
473.749	221.06
473.968	209.06
474.187	210.06
474.406	221.06
474.625	205.06
474.844	197.06
475.063	230.06
475.282	226.06
475.501	210.06
475.72	224.06
475.939	215.06
476.158	193.06
476.377	220.06
476.596	213.06
476.814	211.06
477.033	198.06
477.252	234.06
477.471	226.06
477.69	221.06
477.908	242.06
478.127	247.06
478.346	229.06
478.564	257.06
478.783	239.06
479.002	244.06
479.22	249.06
479.439	257.06
479.658	245.06
479.876	240.06
480.095	268.06
480.313	268.06
480.532	283.06
480.751	261.06
480.969	261.06
481.188	259.06
481.406	248.06
481.624	237.06
481.843	230.06
482.061	240.06
482.28	233.06
482.498	234.06
482.717	219.06
482.935	244.06
483.153	245.06
483.372	239.06
483.59	236.06
483.808	245.06
484.027	251.06
484.245	239.06
484.463	256.06
484.681	249.06
484.9	257.06
485.118	260.06
485.336	245.06
485.554	261.06
485.772	274.06
485.99	251.06
486.209	266.06
486.427	253.06
486.645	255.06
486.863	259.06
487.081	239.06
487.299	247.06
487.517	243.06
487.735	257.06
487.953	267.06
488.171	257.06
488.389	245.06
488.607	248.06
488.825	251.06
489.043	257.06
489.261	237.06
489.479	245.06
489.696	255.06
489.914	236.06
490.132	261.06
490.35	248.06
490.568	248.06
490.786	232.06
491.003	249.06
491.221	263.06
491.439	250.06
491.657	251.06
491.874	244.06
492.092	268.06
492.31	279.06
492.527	257.06
492.745	250.06
492.963	263.06
493.18	257.06
493.398	267.06
493.615	253.06
493.833	247.06
494.05	248.06
494.268	257.06
494.485	251.06
494.703	275.06
494.92	253.06
495.138	264.06
495.355	279.06
495.573	265.06
495.79	278.06
496.008	278.06
496.225	260.06
496.442	262.06
496.66	267.06
496.877	271.06
497.094	266.06
497.312	280.06
497.529	277.06
497.746	282.06
497.963	305.06
498.181	282.06
498.398	293.06
498.615	322.06
498.832	336.06
499.049	349.06
499.267	383.06
499.484	421.06
499.701	475.06
499.918	495.06
500.135	575.06
500.352	650.06
500.569	683.06
500.786	691.06
501.003	633.06
501.22	568.06
501.437	528.06
501.654	473.06
501.871	414.06
502.088	368.06
502.305	363.06
502.522	345.06
502.739	334.06
502.956	322.06
503.172	325.06
503.389	296.06
