Data from 0.5MCu(NO3)2.Standard.Lamp.E10.CV._HRD10591_16-05-03-753.txt Node
Date: Mon Jul 22 16:05:03 EDT 2019
User: cochatt
Spectrometer: HR+D1059
Trigger mode: 1
Integration Time (sec): 1.000000E-1
Scans to average: 1
Electric dark correction enabled: true
Nonlinearity correction enabled: false
Boxcar width: 0
XAxis mode: Wavelengths
Number of Pixels in Spectrum: 2048
>>>>>Begin Spectral Data<<<<<
223.165	-7.56
223.4	-7.56
223.635	-7.56
223.869	-31.56
224.104	-7.56
224.338	-15.56
224.573	-9.56
224.808	-32.56
225.042	-2.56
225.277	-10.56
225.511	1.44
225.746	3.44
225.98	13.44
226.215	7.44
226.449	11.44
226.683	31.44
226.918	22.44
227.152	26.44
227.387	23.44
227.621	46.44
227.856	36.44
228.09	49.44
228.324	58.44
228.559	48.44
228.793	71.44
229.027	62.44
229.262	56.44
229.496	72.44
229.73	68.44
229.964	88.44
230.199	76.44
230.433	69.44
230.667	84.44
230.901	75.44
231.136	82.44
231.37	78.44
231.604	79.44
231.838	82.44
232.072	76.44
232.306	80.44
232.541	96.44
232.775	95.44
233.009	77.44
233.243	89.44
233.477	92.44
233.711	97.44
233.945	86.44
234.179	81.44
234.413	86.44
234.647	87.44
234.881	75.44
235.115	94.44
235.349	83.44
235.583	82.44
235.817	67.44
236.051	94.44
236.285	83.44
236.519	86.44
236.753	84.44
236.987	87.44
237.221	83.44
237.455	85.44
237.689	82.44
237.922	88.44
238.156	95.44
238.39	88.44
238.624	74.44
238.858	88.44
239.091	87.44
239.325	87.44
239.559	94.44
239.793	92.44
240.027	81.44
240.26	97.44
240.494	87.44
240.728	87.44
240.961	79.44
241.195	84.44
241.429	92.44
241.662	102.44
241.896	80.44
242.13	83.44
242.363	89.44
242.597	78.44
242.83	85.44
243.064	89.44
243.298	78.44
243.531	91.44
243.765	95.44
243.998	80.44
244.232	100.44
244.465	89.44
244.699	94.44
244.932	91.44
245.166	92.44
245.399	97.44
245.633	86.44
245.866	81.44
246.099	109.44
246.333	85.44
246.566	101.44
246.8	98.44
247.033	88.44
247.266	102.44
247.5	96.44
247.733	95.44
247.966	100.44
248.2	108.44
248.433	99.44
248.666	93.44
248.899	91.44
249.133	96.44
249.366	78.44
249.599	89.44
249.832	93.44
250.066	107.44
250.299	104.44
250.532	104.44
250.765	103.44
250.998	105.44
251.231	104.44
251.465	116.44
251.698	92.44
251.931	103.44
252.164	110.44
252.397	100.44
252.63	78.44
252.863	113.44
253.096	107.44
253.329	103.44
253.562	109.44
253.795	117.44
254.028	105.44
254.261	101.44
254.494	110.44
254.727	109.44
254.96	113.44
255.193	102.44
255.426	107.44
255.659	116.44
255.892	93.44
256.124	117.44
256.357	103.44
256.59	125.44
256.823	108.44
257.056	107.44
257.289	98.44
257.521	117.44
257.754	101.44
257.987	106.44
258.22	108.44
258.452	112.44
258.685	115.44
258.918	108.44
259.151	114.44
259.383	116.44
259.616	106.44
259.849	121.44
260.081	99.44
260.314	109.44
260.547	121.44
260.779	110.44
261.012	94.44
261.244	110.44
261.477	120.44
261.71	100.44
261.942	116.44
262.175	105.44
262.407	120.44
262.64	125.44
262.872	117.44
263.105	116.44
263.337	131.44
263.57	116.44
263.802	128.44
264.035	127.44
264.267	118.44
264.499	131.44
264.732	117.44
264.964	113.44
265.197	92.44
265.429	118.44
265.661	107.44
265.894	115.44
266.126	120.44
266.358	113.44
266.591	113.44
266.823	116.44
267.055	124.44
267.287	119.44
267.52	112.44
267.752	142.44
267.984	93.44
268.216	110.44
268.448	118.44
268.681	125.44
268.913	123.44
269.145	121.44
269.377	123.44
269.609	129.44
269.841	129.44
270.073	129.44
270.306	123.44
270.538	119.44
270.77	126.44
271.002	125.44
271.234	128.44
271.466	135.44
271.698	131.44
271.93	117.44
272.162	140.44
272.394	124.44
272.626	125.44
272.858	118.44
273.09	127.44
273.322	123.44
273.553	141.44
273.785	137.44
274.017	126.44
274.249	113.44
274.481	132.44
274.713	132.44
274.945	124.44
275.176	138.44
275.408	120.44
275.64	115.44
275.872	118.44
276.104	146.44
276.335	128.44
276.567	134.44
276.799	134.44
277.031	148.44
277.262	133.44
277.494	143.44
277.726	136.44
277.957	137.44
278.189	127.44
278.421	133.44
278.652	126.44
278.884	143.44
279.115	129.44
279.347	145.44
279.579	134.44
279.81	137.44
280.042	143.44
280.273	140.44
280.505	155.44
280.736	137.44
280.968	141.44
281.199	143.44
281.431	149.44
281.662	141.44
281.894	135.44
282.125	146.44
282.356	131.44
282.588	150.44
282.819	135.44
283.051	136.44
283.282	149.44
283.513	149.44
283.745	166.44
283.976	139.44
284.207	139.44
284.439	143.44
284.67	145.44
284.901	133.44
285.132	145.44
285.364	146.44
285.595	151.44
285.826	141.44
286.057	164.44
286.288	129.44
286.52	173.44
286.751	152.44
286.982	137.44
287.213	147.44
287.444	149.44
287.675	150.44
287.906	150.44
288.138	161.44
288.369	153.44
288.6	158.44
288.831	150.44
289.062	148.44
289.293	147.44
289.524	144.44
289.755	155.44
289.986	155.44
290.217	145.44
290.448	154.44
290.679	163.44
290.91	165.44
291.141	160.44
291.371	151.44
291.602	155.44
291.833	152.44
292.064	163.44
292.295	150.44
292.526	153.44
292.757	158.44
292.987	149.44
293.218	152.44
293.449	148.44
293.68	166.44
293.91	150.44
294.141	147.44
294.372	145.44
294.603	151.44
294.833	170.44
295.064	156.44
295.295	160.44
295.525	166.44
295.756	160.44
295.987	147.44
296.217	145.44
296.448	158.44
296.679	155.44
296.909	152.44
297.14	169.44
297.37	175.44
297.601	168.44
297.831	172.44
298.062	185.44
298.292	167.44
298.523	179.44
298.753	164.44
298.984	173.44
299.214	161.44
299.445	181.44
299.675	158.44
299.905	168.44
300.136	163.44
300.366	176.44
300.597	158.44
300.827	173.44
301.057	199.44
301.288	163.44
301.518	179.44
301.748	171.44
301.979	163.44
302.209	171.44
302.439	193.44
302.669	175.44
302.9	165.44
303.13	182.44
303.36	171.44
303.59	174.44
303.82	168.44
304.051	183.44
304.281	158.44
304.511	175.44
304.741	160.44
304.971	171.44
305.201	177.44
305.431	172.44
305.661	167.44
305.891	165.44
306.121	166.44
306.352	160.44
306.582	165.44
306.812	158.44
307.042	169.44
307.272	171.44
307.502	181.44
307.731	167.44
307.961	173.44
308.191	175.44
308.421	159.44
308.651	162.44
308.881	173.44
309.111	171.44
309.341	174.44
309.571	183.44
309.8	171.44
310.03	164.44
310.26	155.44
310.49	155.44
310.72	187.44
310.949	159.44
311.179	179.44
311.409	161.44
311.639	167.44
311.868	182.44
312.098	172.44
312.328	186.44
312.557	182.44
312.787	175.44
313.017	192.44
313.246	172.44
313.476	192.44
313.706	178.44
313.935	173.44
314.165	184.44
314.394	166.44
314.624	167.44
314.853	165.44
315.083	185.44
315.312	185.44
315.542	176.44
315.771	171.44
316.001	178.44
316.23	175.44
316.46	173.44
316.689	182.44
316.919	171.44
317.148	179.44
317.377	193.44
317.607	167.44
317.836	175.44
318.065	153.44
318.295	164.44
318.524	165.44
318.753	159.44
318.983	181.44
319.212	180.44
319.441	166.44
319.67	164.44
319.9	169.44
320.129	161.44
320.358	179.44
320.587	181.44
320.816	176.44
321.046	174.44
321.275	182.44
321.504	172.44
321.733	177.44
321.962	179.44
322.191	173.44
322.42	183.44
322.649	183.44
322.878	161.44
323.108	163.44
323.337	188.44
323.566	171.44
323.795	171.44
324.024	178.44
324.253	182.44
324.482	202.44
324.71	176.44
324.939	166.44
325.168	188.44
325.397	167.44
325.626	181.44
325.855	171.44
326.084	184.44
326.313	196.44
326.542	189.44
326.77	176.44
326.999	195.44
327.228	177.44
327.457	183.44
327.686	199.44
327.914	189.44
328.143	194.44
328.372	192.44
328.6	179.44
328.829	187.44
329.058	183.44
329.287	172.44
329.515	198.44
329.744	184.44
329.972	204.44
330.201	188.44
330.43	188.44
330.658	191.44
330.887	184.44
331.115	201.44
331.344	191.44
331.572	192.44
331.801	202.44
332.03	212.44
332.258	195.44
332.486	206.44
332.715	209.44
332.943	214.44
333.172	205.44
333.4	237.44
333.629	242.44
333.857	230.44
334.085	229.44
334.314	226.44
334.542	219.44
334.771	228.44
334.999	207.44
335.227	235.44
335.455	216.44
335.684	206.44
335.912	212.44
336.14	188.44
336.369	231.44
336.597	215.44
336.825	215.44
337.053	224.44
337.281	200.44
337.51	206.44
337.738	206.44
337.966	202.44
338.194	208.44
338.422	208.44
338.65	187.44
338.878	177.44
339.106	188.44
339.334	195.44
339.562	171.44
339.79	186.44
340.018	198.44
340.246	193.44
340.474	193.44
340.702	191.44
340.93	195.44
341.158	191.44
341.386	187.44
341.614	196.44
341.842	167.44
342.07	189.44
342.298	163.44
342.526	200.44
342.754	195.44
342.981	193.44
343.209	202.44
343.437	200.44
343.665	204.44
343.893	227.44
344.12	212.44
344.348	210.44
344.576	196.44
344.804	192.44
345.031	204.44
345.259	205.44
345.487	206.44
345.714	195.44
345.942	195.44
346.17	182.44
346.397	180.44
346.625	188.44
346.853	187.44
347.08	202.44
347.308	189.44
347.535	185.44
347.763	180.44
347.99	186.44
348.218	197.44
348.445	172.44
348.673	185.44
348.9	185.44
349.128	172.44
349.355	172.44
349.583	196.44
349.81	179.44
350.037	175.44
350.265	183.44
350.492	196.44
350.72	175.44
350.947	183.44
351.174	182.44
351.402	187.44
351.629	183.44
351.856	185.44
352.083	177.44
352.311	176.44
352.538	183.44
352.765	184.44
352.992	169.44
353.22	181.44
353.447	195.44
353.674	180.44
353.901	183.44
354.128	177.44
354.355	182.44
354.583	192.44
354.81	201.44
355.037	173.44
355.264	175.44
355.491	202.44
355.718	184.44
355.945	190.44
356.172	186.44
356.399	174.44
356.626	190.44
356.853	206.44
357.08	190.44
357.307	188.44
357.534	198.44
357.761	174.44
357.988	179.44
358.215	189.44
358.441	180.44
358.668	178.44
358.895	183.44
359.122	178.44
359.349	182.44
359.576	187.44
359.802	179.44
360.029	185.44
360.256	188.44
360.483	173.44
360.709	174.44
360.936	193.44
361.163	185.44
361.39	191.44
361.616	174.44
361.843	195.44
362.07	174.44
362.296	188.44
362.523	187.44
362.749	174.44
362.976	173.44
363.203	181.44
363.429	179.44
363.656	166.44
363.882	186.44
364.109	179.44
364.335	189.44
364.562	172.44
364.788	175.44
365.015	169.44
365.241	157.44
365.468	194.44
365.694	198.44
365.92	161.44
366.147	175.44
366.373	172.44
366.599	189.44
366.826	180.44
367.052	179.44
367.278	167.44
367.505	166.44
367.731	185.44
367.957	192.44
368.184	181.44
368.41	181.44
368.636	179.44
368.862	188.44
369.089	179.44
369.315	180.44
369.541	196.44
369.767	192.44
369.993	192.44
370.219	185.44
370.445	179.44
370.672	183.44
370.898	195.44
371.124	193.44
371.35	191.44
371.576	188.44
371.802	198.44
372.028	196.44
372.254	186.44
372.48	186.44
372.706	192.44
372.932	180.44
373.158	182.44
373.384	191.44
373.61	182.44
373.835	187.44
374.061	196.44
374.287	198.44
374.513	203.44
374.739	194.44
374.965	201.44
375.191	213.44
375.416	215.44
375.642	202.44
375.868	198.44
376.094	206.44
376.319	183.44
376.545	203.44
376.771	192.44
376.997	192.44
377.222	173.44
377.448	191.44
377.674	205.44
377.899	196.44
378.125	196.44
378.35	186.44
378.576	195.44
378.802	182.44
379.027	190.44
379.253	189.44
379.478	185.44
379.704	186.44
379.929	185.44
380.155	170.44
380.38	176.44
380.606	179.44
380.831	183.44
381.057	181.44
381.282	200.44
381.507	187.44
381.733	179.44
381.958	191.44
382.184	193.44
382.409	203.44
382.634	199.44
382.86	183.44
383.085	200.44
383.31	199.44
383.535	217.44
383.761	209.44
383.986	216.44
384.211	220.44
384.436	205.44
384.662	231.44
384.887	220.44
385.112	205.44
385.337	216.44
385.562	211.44
385.787	208.44
386.013	238.44
386.238	222.44
386.463	242.44
386.688	217.44
386.913	213.44
387.138	228.44
387.363	219.44
387.588	209.44
387.813	224.44
388.038	209.44
388.263	211.44
388.488	226.44
388.713	222.44
388.938	216.44
389.163	207.44
389.387	202.44
389.612	198.44
389.837	207.44
390.062	206.44
390.287	211.44
390.512	222.44
390.736	208.44
390.961	206.44
391.186	213.44
391.411	211.44
391.636	225.44
391.86	256.44
392.085	236.44
392.31	226.44
392.534	228.44
392.759	215.44
392.984	224.44
393.208	219.44
393.433	222.44
393.658	224.44
393.882	224.44
394.107	223.44
394.331	238.44
394.556	231.44
394.78	226.44
395.005	221.44
395.229	235.44
395.454	224.44
395.678	229.44
395.903	238.44
396.127	229.44
396.352	223.44
396.576	217.44
396.801	213.44
397.025	223.44
397.249	229.44
397.474	227.44
397.698	260.44
397.922	244.44
398.147	244.44
398.371	224.44
398.595	249.44
398.82	251.44
399.044	251.44
399.268	281.44
399.492	333.44
399.717	375.44
399.941	365.44
400.165	315.44
400.389	274.44
400.613	245.44
400.837	247.44
401.062	252.44
401.286	257.44
401.51	237.44
401.734	245.44
401.958	238.44
402.182	259.44
402.406	258.44
402.63	266.44
402.854	262.44
403.078	257.44
403.302	268.44
403.526	271.44
403.75	286.44
403.974	288.44
404.198	290.44
404.422	308.44
404.645	291.44
404.869	281.44
405.093	263.44
405.317	263.44
405.541	271.44
405.765	271.44
405.988	274.44
406.212	289.44
406.436	273.44
406.66	281.44
406.883	287.44
407.107	284.44
407.331	303.44
407.555	315.44
407.778	307.44
408.002	288.44
408.226	267.44
408.449	264.44
408.673	276.44
408.896	284.44
409.12	292.44
409.344	278.44
409.567	274.44
409.791	286.44
410.014	290.44
410.238	283.44
410.461	266.44
410.685	277.44
410.908	279.44
411.132	265.44
411.355	277.44
411.578	273.44
411.802	249.44
412.025	272.44
412.249	273.44
412.472	273.44
412.695	253.44
412.919	256.44
413.142	252.44
413.365	255.44
413.589	239.44
413.812	237.44
414.035	272.44
414.258	252.44
414.482	244.44
414.705	252.44
414.928	252.44
415.151	255.44
415.374	257.44
415.597	241.44
415.821	250.44
416.044	276.44
416.267	242.44
416.49	258.44
416.713	243.44
416.936	240.44
417.159	247.44
417.382	240.44
417.605	244.44
417.828	250.44
418.051	238.44
418.274	263.44
418.497	242.44
418.72	265.44
418.943	264.44
419.166	274.44
419.389	281.44
419.611	281.44
419.834	277.44
420.057	273.44
420.28	268.44
420.503	248.44
420.726	253.44
420.948	250.44
421.171	244.44
421.394	246.44
421.617	248.44
421.839	264.44
422.062	260.44
422.285	254.44
422.507	271.44
422.73	259.44
422.953	261.44
423.175	264.44
423.398	269.44
423.621	277.44
423.843	275.44
424.066	270.44
424.288	253.44
424.511	250.44
424.733	250.44
424.956	253.44
425.178	262.44
425.401	281.44
425.623	264.44
425.846	249.44
426.068	245.44
426.291	229.44
426.513	241.44
426.735	251.44
426.958	251.44
427.18	235.44
427.402	227.44
427.625	243.44
427.847	224.44
428.069	231.44
428.292	205.44
428.514	237.44
428.736	229.44
428.958	214.44
429.181	227.44
429.403	227.44
429.625	231.44
429.847	226.44
430.069	231.44
430.292	229.44
430.514	233.44
430.736	225.44
430.958	221.44
431.18	216.44
431.402	213.44
431.624	216.44
431.846	231.44
432.068	224.44
432.29	233.44
432.512	226.44
432.734	222.44
432.956	236.44
433.178	216.44
433.4	237.44
433.622	240.44
433.844	239.44
434.066	237.44
434.287	252.44
434.509	237.44
434.731	245.44
434.953	251.44
435.175	259.44
435.397	254.44
435.618	245.44
435.84	221.44
436.062	232.44
436.284	223.44
436.505	232.44
436.727	212.44
436.949	253.44
437.17	233.44
437.392	236.44
437.614	231.44
437.835	208.44
438.057	213.44
438.278	217.44
438.5	219.44
438.721	219.44
438.943	219.44
439.165	231.44
439.386	230.44
439.608	211.44
439.829	227.44
440.05	237.44
440.272	237.44
440.493	238.44
440.715	238.44
440.936	243.44
441.158	240.44
441.379	247.44
441.6	251.44
441.822	261.44
442.043	251.44
442.264	241.44
442.486	235.44
442.707	230.44
442.928	225.44
443.149	243.44
443.371	253.44
443.592	257.44
443.813	245.44
444.034	261.44
444.255	262.44
444.476	255.44
444.698	281.44
444.919	294.44
445.14	423.44
445.361	319.44
445.582	245.44
445.803	231.44
446.024	255.44
446.245	249.44
446.466	230.44
446.687	244.44
446.908	228.44
447.129	221.44
447.35	211.44
447.571	223.44
447.792	195.44
448.013	220.44
448.234	204.44
448.455	208.44
448.675	216.44
448.896	224.44
449.117	217.44
449.338	227.44
449.559	203.44
449.779	194.44
450	208.44
450.221	230.44
450.442	214.44
450.662	204.44
450.883	214.44
451.104	222.44
451.324	230.44
451.545	235.44
451.766	222.44
451.986	221.44
452.207	234.44
452.428	227.44
452.648	215.44
452.869	199.44
453.089	200.44
453.31	227.44
453.53	200.44
453.751	205.44
453.971	202.44
454.192	205.44
454.412	195.44
454.633	197.44
454.853	214.44
455.073	206.44
455.294	206.44
455.514	194.44
455.734	218.44
455.955	214.44
456.175	192.44
456.395	200.44
456.616	217.44
456.836	200.44
457.056	191.44
457.276	209.44
457.497	212.44
457.717	204.44
457.937	197.44
458.157	213.44
458.377	207.44
458.598	209.44
458.818	217.44
459.038	220.44
459.258	213.44
459.478	249.44
459.698	237.44
459.918	253.44
460.138	257.44
460.358	271.44
460.578	275.44
460.798	272.44
461.018	277.44
461.238	257.44
461.458	263.44
461.678	277.44
461.898	264.44
462.118	276.44
462.338	292.44
462.558	287.44
462.777	310.44
462.997	312.44
463.217	338.44
463.437	331.44
463.657	307.44
463.876	300.44
464.096	303.44
464.316	295.44
464.536	312.44
464.755	307.44
464.975	273.44
465.195	271.44
465.414	271.44
465.634	248.44
465.854	225.44
466.073	215.44
466.293	231.44
466.512	214.44
466.732	223.44
466.951	236.44
467.171	224.44
467.391	227.44
467.61	218.44
467.829	233.44
468.049	220.44
468.268	224.44
468.488	197.44
468.707	224.44
468.927	212.44
469.146	204.44
469.365	225.44
469.585	213.44
469.804	233.44
470.023	220.44
470.243	237.44
470.462	225.44
470.681	239.44
470.901	242.44
471.12	229.44
471.339	232.44
471.558	215.44
471.777	228.44
471.997	219.44
472.216	226.44
472.435	227.44
472.654	211.44
472.873	200.44
473.092	207.44
473.311	230.44
473.53	222.44
473.749	218.44
473.968	212.44
474.187	217.44
474.406	219.44
474.625	210.44
474.844	226.44
475.063	215.44
475.282	217.44
475.501	223.44
475.72	225.44
475.939	206.44
476.158	218.44
476.377	233.44
476.596	235.44
476.814	235.44
477.033	226.44
477.252	216.44
477.471	235.44
477.69	231.44
477.908	224.44
478.127	236.44
478.346	263.44
478.564	255.44
478.783	248.44
479.002	264.44
479.22	265.44
479.439	242.44
479.658	246.44
479.876	262.44
480.095	275.44
480.313	281.44
480.532	283.44
480.751	275.44
480.969	283.44
481.188	259.44
481.406	228.44
481.624	257.44
481.843	253.44
482.061	256.44
482.28	243.44
482.498	260.44
482.717	248.44
482.935	243.44
483.153	235.44
483.372	245.44
483.59	246.44
483.808	244.44
484.027	264.44
484.245	255.44
484.463	253.44
484.681	255.44
484.9	260.44
485.118	261.44
485.336	256.44
485.554	251.44
485.772	240.44
485.99	249.44
486.209	266.44
486.427	279.44
486.645	261.44
486.863	264.44
487.081	238.44
487.299	255.44
487.517	255.44
487.735	252.44
487.953	259.44
488.171	272.44
488.389	247.44
488.607	260.44
488.825	250.44
489.043	245.44
489.261	237.44
489.479	261.44
489.696	253.44
489.914	257.44
490.132	262.44
490.35	260.44
490.568	267.44
490.786	256.44
491.003	256.44
491.221	246.44
491.439	251.44
491.657	257.44
491.874	259.44
492.092	242.44
492.31	254.44
492.527	257.44
492.745	273.44
492.963	265.44
493.18	255.44
493.398	276.44
493.615	256.44
493.833	275.44
494.05	254.44
494.268	277.44
494.485	277.44
494.703	269.44
494.92	258.44
495.138	272.44
495.355	268.44
495.573	277.44
495.79	256.44
496.008	266.44
496.225	264.44
496.442	278.44
496.66	273.44
496.877	275.44
497.094	295.44
497.312	282.44
497.529	294.44
497.746	302.44
497.963	286.44
498.181	314.44
498.398	316.44
498.615	348.44
498.832	351.44
499.049	364.44
499.267	413.44
499.484	437.44
499.701	497.44
499.918	535.44
500.135	596.44
500.352	721.44
500.569	737.44
500.786	716.44
501.003	665.44
501.22	590.44
501.437	533.44
501.654	464.44
501.871	435.44
502.088	402.44
502.305	389.44
502.522	373.44
502.739	344.44
502.956	329.44
503.172	339.44
503.389	312.44
