Data from 0.5MCu(NO3)2.Standard.Lamp.E10.CV._HRD10591_16-04-20-753.txt Node
Date: Mon Jul 22 16:04:20 EDT 2019
User: cochatt
Spectrometer: HR+D1059
Trigger mode: 1
Integration Time (sec): 1.000000E-1
Scans to average: 1
Electric dark correction enabled: true
Nonlinearity correction enabled: false
Boxcar width: 0
XAxis mode: Wavelengths
Number of Pixels in Spectrum: 2048
>>>>>Begin Spectral Data<<<<<
223.165	-14.5
223.4	-14.5
223.635	-14.5
223.869	-13.5
224.104	-29.5
224.338	-10.5
224.573	-22.5
224.808	-1.5
225.042	-8.5
225.277	-12.5
225.511	-3.5
225.746	1.5
225.98	10.5
226.215	22.5
226.449	27.5
226.683	10.5
226.918	18.5
227.152	25.5
227.387	31.5
227.621	26.5
227.856	45.5
228.09	46.5
228.324	48.5
228.559	64.5
228.793	65.5
229.027	76.5
229.262	67.5
229.496	82.5
229.73	80.5
229.964	80.5
230.199	79.5
230.433	85.5
230.667	96.5
230.901	80.5
231.136	74.5
231.37	93.5
231.604	91.5
231.838	90.5
232.072	87.5
232.306	91.5
232.541	100.5
232.775	94.5
233.009	97.5
233.243	92.5
233.477	90.5
233.711	91.5
233.945	102.5
234.179	98.5
234.413	99.5
234.647	95.5
234.881	96.5
235.115	86.5
235.349	86.5
235.583	84.5
235.817	82.5
236.051	90.5
236.285	90.5
236.519	93.5
236.753	85.5
236.987	84.5
237.221	83.5
237.455	91.5
237.689	85.5
237.922	92.5
238.156	89.5
238.39	88.5
238.624	94.5
238.858	91.5
239.091	84.5
239.325	101.5
239.559	80.5
239.793	104.5
240.027	96.5
240.26	82.5
240.494	100.5
240.728	81.5
240.961	84.5
241.195	99.5
241.429	106.5
241.662	96.5
241.896	93.5
242.13	104.5
242.363	99.5
242.597	81.5
242.83	107.5
243.064	96.5
243.298	109.5
243.531	106.5
243.765	93.5
243.998	107.5
244.232	86.5
244.465	100.5
244.699	94.5
244.932	94.5
245.166	85.5
245.399	93.5
245.633	83.5
245.866	104.5
246.099	97.5
246.333	106.5
246.566	94.5
246.8	115.5
247.033	92.5
247.266	106.5
247.5	101.5
247.733	89.5
247.966	97.5
248.2	112.5
248.433	111.5
248.666	112.5
248.899	113.5
249.133	104.5
249.366	106.5
249.599	95.5
249.832	107.5
250.066	106.5
250.299	109.5
250.532	124.5
250.765	103.5
250.998	104.5
251.231	130.5
251.465	96.5
251.698	109.5
251.931	117.5
252.164	104.5
252.397	114.5
252.63	113.5
252.863	111.5
253.096	118.5
253.329	108.5
253.562	95.5
253.795	98.5
254.028	109.5
254.261	109.5
254.494	115.5
254.727	106.5
254.96	116.5
255.193	105.5
255.426	124.5
255.659	110.5
255.892	107.5
256.124	105.5
256.357	117.5
256.59	128.5
256.823	112.5
257.056	121.5
257.289	112.5
257.521	140.5
257.754	113.5
257.987	114.5
258.22	120.5
258.452	124.5
258.685	107.5
258.918	114.5
259.151	114.5
259.383	128.5
259.616	122.5
259.849	121.5
260.081	125.5
260.314	125.5
260.547	121.5
260.779	120.5
261.012	135.5
261.244	136.5
261.477	123.5
261.71	127.5
261.942	125.5
262.175	111.5
262.407	128.5
262.64	123.5
262.872	124.5
263.105	132.5
263.337	136.5
263.57	124.5
263.802	132.5
264.035	133.5
264.267	129.5
264.499	131.5
264.732	133.5
264.964	131.5
265.197	130.5
265.429	133.5
265.661	125.5
265.894	134.5
266.126	135.5
266.358	123.5
266.591	128.5
266.823	132.5
267.055	144.5
267.287	137.5
267.52	120.5
267.752	111.5
267.984	120.5
268.216	138.5
268.448	142.5
268.681	122.5
268.913	126.5
269.145	137.5
269.377	128.5
269.609	131.5
269.841	131.5
270.073	137.5
270.306	119.5
270.538	134.5
270.77	126.5
271.002	136.5
271.234	156.5
271.466	139.5
271.698	139.5
271.93	135.5
272.162	128.5
272.394	140.5
272.626	144.5
272.858	136.5
273.09	156.5
273.322	139.5
273.553	143.5
273.785	150.5
274.017	135.5
274.249	148.5
274.481	144.5
274.713	149.5
274.945	144.5
275.176	138.5
275.408	148.5
275.64	145.5
275.872	152.5
276.104	148.5
276.335	139.5
276.567	128.5
276.799	156.5
277.031	144.5
277.262	156.5
277.494	139.5
277.726	150.5
277.957	149.5
278.189	151.5
278.421	146.5
278.652	152.5
278.884	168.5
279.115	167.5
279.347	160.5
279.579	153.5
279.81	141.5
280.042	164.5
280.273	153.5
280.505	158.5
280.736	170.5
280.968	143.5
281.199	162.5
281.431	160.5
281.662	146.5
281.894	160.5
282.125	134.5
282.356	160.5
282.588	153.5
282.819	153.5
283.051	167.5
283.282	154.5
283.513	168.5
283.745	177.5
283.976	162.5
284.207	172.5
284.439	155.5
284.67	168.5
284.901	170.5
285.132	159.5
285.364	151.5
285.595	160.5
285.826	161.5
286.057	162.5
286.288	168.5
286.52	173.5
286.751	168.5
286.982	166.5
287.213	161.5
287.444	165.5
287.675	152.5
287.906	160.5
288.138	182.5
288.369	174.5
288.6	173.5
288.831	158.5
289.062	174.5
289.293	186.5
289.524	178.5
289.755	186.5
289.986	168.5
290.217	167.5
290.448	168.5
290.679	188.5
290.91	176.5
291.141	169.5
291.371	154.5
291.602	169.5
291.833	177.5
292.064	176.5
292.295	172.5
292.526	181.5
292.757	181.5
292.987	172.5
293.218	188.5
293.449	173.5
293.68	168.5
293.91	172.5
294.141	172.5
294.372	168.5
294.603	168.5
294.833	171.5
295.064	160.5
295.295	197.5
295.525	173.5
295.756	188.5
295.987	186.5
296.217	187.5
296.448	192.5
296.679	188.5
296.909	169.5
297.14	184.5
297.37	202.5
297.601	178.5
297.831	197.5
298.062	189.5
298.292	178.5
298.523	181.5
298.753	194.5
298.984	190.5
299.214	198.5
299.445	191.5
299.675	181.5
299.905	191.5
300.136	193.5
300.366	197.5
300.597	183.5
300.827	216.5
301.057	189.5
301.288	205.5
301.518	192.5
301.748	188.5
301.979	190.5
302.209	198.5
302.439	195.5
302.669	197.5
302.9	195.5
303.13	176.5
303.36	185.5
303.59	188.5
303.82	181.5
304.051	184.5
304.281	182.5
304.511	200.5
304.741	199.5
304.971	191.5
305.201	188.5
305.431	169.5
305.661	175.5
305.891	192.5
306.121	175.5
306.352	194.5
306.582	189.5
306.812	184.5
307.042	194.5
307.272	197.5
307.502	180.5
307.731	198.5
307.961	186.5
308.191	190.5
308.421	194.5
308.651	198.5
308.881	190.5
309.111	196.5
309.341	195.5
309.571	183.5
309.8	179.5
310.03	189.5
310.26	185.5
310.49	213.5
310.72	190.5
310.949	199.5
311.179	200.5
311.409	200.5
311.639	187.5
311.868	186.5
312.098	188.5
312.328	220.5
312.557	213.5
312.787	187.5
313.017	184.5
313.246	199.5
313.476	196.5
313.706	199.5
313.935	206.5
314.165	190.5
314.394	195.5
314.624	189.5
314.853	190.5
315.083	197.5
315.312	201.5
315.542	188.5
315.771	203.5
316.001	196.5
316.23	201.5
316.46	212.5
316.689	188.5
316.919	191.5
317.148	201.5
317.377	205.5
317.607	198.5
317.836	194.5
318.065	196.5
318.295	195.5
318.524	192.5
318.753	184.5
318.983	193.5
319.212	196.5
319.441	208.5
319.67	202.5
319.9	204.5
320.129	201.5
320.358	205.5
320.587	190.5
320.816	201.5
321.046	201.5
321.275	203.5
321.504	198.5
321.733	191.5
321.962	189.5
322.191	210.5
322.42	219.5
322.649	205.5
322.878	201.5
323.108	198.5
323.337	216.5
323.566	189.5
323.795	185.5
324.024	204.5
324.253	206.5
324.482	193.5
324.71	199.5
324.939	183.5
325.168	188.5
325.397	203.5
325.626	215.5
325.855	210.5
326.084	188.5
326.313	203.5
326.542	222.5
326.77	221.5
326.999	211.5
327.228	215.5
327.457	205.5
327.686	189.5
327.914	218.5
328.143	209.5
328.372	212.5
328.6	212.5
328.829	209.5
329.058	212.5
329.287	212.5
329.515	210.5
329.744	196.5
329.972	218.5
330.201	208.5
330.43	229.5
330.658	208.5
330.887	198.5
331.115	224.5
331.344	232.5
331.572	220.5
331.801	219.5
332.03	234.5
332.258	221.5
332.486	246.5
332.715	258.5
332.943	243.5
333.172	254.5
333.4	256.5
333.629	257.5
333.857	263.5
334.085	257.5
334.314	256.5
334.542	258.5
334.771	265.5
334.999	234.5
335.227	248.5
335.455	252.5
335.684	243.5
335.912	231.5
336.14	251.5
336.369	240.5
336.597	244.5
336.825	239.5
337.053	238.5
337.281	236.5
337.51	234.5
337.738	212.5
337.966	214.5
338.194	235.5
338.422	227.5
338.65	219.5
338.878	230.5
339.106	214.5
339.334	222.5
339.562	217.5
339.79	212.5
340.018	209.5
340.246	216.5
340.474	218.5
340.702	209.5
340.93	197.5
341.158	214.5
341.386	204.5
341.614	210.5
341.842	221.5
342.07	215.5
342.298	205.5
342.526	215.5
342.754	225.5
342.981	219.5
343.209	216.5
343.437	240.5
343.665	225.5
343.893	238.5
344.12	243.5
344.348	240.5
344.576	227.5
344.804	237.5
345.031	236.5
345.259	212.5
345.487	210.5
345.714	200.5
345.942	219.5
346.17	205.5
346.397	204.5
346.625	222.5
346.853	209.5
347.08	215.5
347.308	203.5
347.535	210.5
347.763	216.5
347.99	222.5
348.218	206.5
348.445	212.5
348.673	227.5
348.9	225.5
349.128	224.5
349.355	224.5
349.583	213.5
349.81	192.5
350.037	218.5
350.265	204.5
350.492	202.5
350.72	197.5
350.947	208.5
351.174	213.5
351.402	210.5
351.629	195.5
351.856	201.5
352.083	222.5
352.311	203.5
352.538	193.5
352.765	188.5
352.992	214.5
353.22	208.5
353.447	200.5
353.674	187.5
353.901	201.5
354.128	214.5
354.355	195.5
354.583	215.5
354.81	185.5
355.037	210.5
355.264	205.5
355.491	204.5
355.718	196.5
355.945	212.5
356.172	226.5
356.399	199.5
356.626	204.5
356.853	194.5
357.08	207.5
357.307	193.5
357.534	210.5
357.761	210.5
357.988	203.5
358.215	202.5
358.441	188.5
358.668	198.5
358.895	205.5
359.122	207.5
359.349	212.5
359.576	215.5
359.802	210.5
360.029	193.5
360.256	205.5
360.483	208.5
360.709	198.5
360.936	211.5
361.163	215.5
361.39	202.5
361.616	216.5
361.843	192.5
362.07	191.5
362.296	213.5
362.523	199.5
362.749	216.5
362.976	197.5
363.203	212.5
363.429	187.5
363.656	195.5
363.882	211.5
364.109	202.5
364.335	192.5
364.562	196.5
364.788	201.5
365.015	195.5
365.241	199.5
365.468	202.5
365.694	203.5
365.92	189.5
366.147	193.5
366.373	215.5
366.599	218.5
366.826	181.5
367.052	212.5
367.278	209.5
367.505	204.5
367.731	200.5
367.957	217.5
368.184	223.5
368.41	215.5
368.636	205.5
368.862	204.5
369.089	208.5
369.315	212.5
369.541	198.5
369.767	205.5
369.993	185.5
370.219	183.5
370.445	200.5
370.672	224.5
370.898	210.5
371.124	214.5
371.35	211.5
371.576	215.5
371.802	195.5
372.028	208.5
372.254	224.5
372.48	223.5
372.706	212.5
372.932	224.5
373.158	215.5
373.384	202.5
373.61	212.5
373.835	205.5
374.061	233.5
374.287	210.5
374.513	209.5
374.739	236.5
374.965	223.5
375.191	237.5
375.416	219.5
375.642	227.5
375.868	220.5
376.094	226.5
376.319	208.5
376.545	226.5
376.771	216.5
376.997	202.5
377.222	204.5
377.448	206.5
377.674	207.5
377.899	232.5
378.125	225.5
378.35	216.5
378.576	203.5
378.802	212.5
379.027	208.5
379.253	217.5
379.478	222.5
379.704	214.5
379.929	217.5
380.155	199.5
380.38	193.5
380.606	212.5
380.831	219.5
381.057	226.5
381.282	223.5
381.507	222.5
381.733	213.5
381.958	218.5
382.184	220.5
382.409	205.5
382.634	218.5
382.86	222.5
383.085	226.5
383.31	230.5
383.535	234.5
383.761	246.5
383.986	237.5
384.211	229.5
384.436	234.5
384.662	223.5
384.887	236.5
385.112	242.5
385.337	245.5
385.562	242.5
385.787	244.5
386.013	254.5
386.238	237.5
386.463	230.5
386.688	255.5
386.913	244.5
387.138	233.5
387.363	241.5
387.588	243.5
387.813	231.5
388.038	240.5
388.263	236.5
388.488	256.5
388.713	262.5
388.938	243.5
389.163	219.5
389.387	236.5
389.612	221.5
389.837	236.5
390.062	237.5
390.287	234.5
390.512	209.5
390.736	224.5
390.961	229.5
391.186	226.5
391.411	239.5
391.636	254.5
391.86	265.5
392.085	274.5
392.31	256.5
392.534	242.5
392.759	263.5
392.984	260.5
393.208	240.5
393.433	240.5
393.658	238.5
393.882	242.5
394.107	244.5
394.331	233.5
394.556	248.5
394.78	248.5
395.005	251.5
395.229	259.5
395.454	260.5
395.678	266.5
395.903	261.5
396.127	262.5
396.352	242.5
396.576	250.5
396.801	252.5
397.025	240.5
397.249	249.5
397.474	272.5
397.698	278.5
397.922	257.5
398.147	254.5
398.371	256.5
398.595	275.5
398.82	282.5
399.044	286.5
399.268	302.5
399.492	362.5
399.717	406.5
399.941	398.5
400.165	352.5
400.389	333.5
400.613	316.5
400.837	296.5
401.062	287.5
401.286	276.5
401.51	301.5
401.734	275.5
401.958	289.5
402.182	294.5
402.406	304.5
402.63	282.5
402.854	308.5
403.078	294.5
403.302	306.5
403.526	311.5
403.75	336.5
403.974	336.5
404.198	324.5
404.422	332.5
404.645	332.5
404.869	317.5
405.093	310.5
405.317	302.5
405.541	310.5
405.765	297.5
405.988	318.5
406.212	298.5
406.436	304.5
406.66	300.5
406.883	301.5
407.107	322.5
407.331	352.5
407.555	339.5
407.778	355.5
408.002	337.5
408.226	324.5
408.449	324.5
408.673	309.5
408.896	310.5
409.12	301.5
409.344	319.5
409.567	307.5
409.791	322.5
410.014	317.5
410.238	318.5
410.461	323.5
410.685	297.5
410.908	306.5
411.132	290.5
411.355	304.5
411.578	280.5
411.802	291.5
412.025	279.5
412.249	309.5
412.472	290.5
412.695	258.5
412.919	265.5
413.142	296.5
413.365	289.5
413.589	268.5
413.812	262.5
414.035	280.5
414.258	276.5
414.482	273.5
414.705	310.5
414.928	288.5
415.151	289.5
415.374	279.5
415.597	294.5
415.821	280.5
416.044	264.5
416.267	261.5
416.49	281.5
416.713	272.5
416.936	275.5
417.159	268.5
417.382	276.5
417.605	278.5
417.828	284.5
418.051	267.5
418.274	283.5
418.497	292.5
418.72	294.5
418.943	287.5
419.166	302.5
419.389	320.5
419.611	314.5
419.834	297.5
420.057	292.5
420.28	278.5
420.503	278.5
420.726	280.5
420.948	280.5
421.171	289.5
421.394	281.5
421.617	277.5
421.839	296.5
422.062	304.5
422.285	263.5
422.507	276.5
422.73	286.5
422.953	280.5
423.175	299.5
423.398	312.5
423.621	319.5
423.843	309.5
424.066	299.5
424.288	286.5
424.511	312.5
424.733	285.5
424.956	281.5
425.178	290.5
425.401	304.5
425.623	295.5
425.846	265.5
426.068	279.5
426.291	274.5
426.513	278.5
426.735	283.5
426.958	273.5
427.18	252.5
427.402	270.5
427.625	264.5
427.847	245.5
428.069	250.5
428.292	259.5
428.514	263.5
428.736	234.5
428.958	246.5
429.181	268.5
429.403	268.5
429.625	231.5
429.847	236.5
430.069	235.5
430.292	236.5
430.514	245.5
430.736	260.5
430.958	240.5
431.18	228.5
431.402	233.5
431.624	246.5
431.846	268.5
432.068	272.5
432.29	265.5
432.512	265.5
432.734	265.5
432.956	268.5
433.178	262.5
433.4	246.5
433.622	268.5
433.844	264.5
434.066	267.5
434.287	272.5
434.509	255.5
434.731	272.5
434.953	267.5
435.175	287.5
435.397	298.5
435.618	265.5
435.84	260.5
436.062	275.5
436.284	241.5
436.505	234.5
436.727	250.5
436.949	245.5
437.17	277.5
437.392	254.5
437.614	241.5
437.835	241.5
438.057	233.5
438.278	261.5
438.5	250.5
438.721	248.5
438.943	259.5
439.165	255.5
439.386	275.5
439.608	250.5
439.829	254.5
440.05	253.5
440.272	248.5
440.493	254.5
440.715	261.5
440.936	268.5
441.158	277.5
441.379	253.5
441.6	291.5
441.822	274.5
442.043	276.5
442.264	271.5
442.486	275.5
442.707	276.5
442.928	279.5
443.149	288.5
443.371	264.5
443.592	278.5
443.813	286.5
444.034	272.5
444.255	309.5
444.476	300.5
444.698	333.5
444.919	333.5
445.14	437.5
445.361	358.5
445.582	294.5
445.803	262.5
446.024	264.5
446.245	269.5
446.466	253.5
446.687	241.5
446.908	255.5
447.129	244.5
447.35	250.5
447.571	246.5
447.792	216.5
448.013	252.5
448.234	231.5
448.455	241.5
448.675	254.5
448.896	243.5
449.117	238.5
449.338	213.5
449.559	220.5
449.779	249.5
450	227.5
450.221	228.5
450.442	225.5
450.662	227.5
450.883	242.5
451.104	244.5
451.324	243.5
451.545	262.5
451.766	259.5
451.986	228.5
452.207	228.5
452.428	244.5
452.648	227.5
452.869	228.5
453.089	232.5
453.31	250.5
453.53	235.5
453.751	232.5
453.971	242.5
454.192	256.5
454.412	238.5
454.633	227.5
454.853	242.5
455.073	215.5
455.294	219.5
455.514	241.5
455.734	218.5
455.955	222.5
456.175	240.5
456.395	211.5
456.616	219.5
456.836	205.5
457.056	235.5
457.276	219.5
457.497	222.5
457.717	239.5
457.937	207.5
458.157	219.5
458.377	220.5
458.598	247.5
458.818	230.5
459.038	232.5
459.258	258.5
459.478	288.5
459.698	255.5
459.918	264.5
460.138	286.5
460.358	285.5
460.578	315.5
460.798	279.5
461.018	288.5
461.238	297.5
461.458	289.5
461.678	261.5
461.898	297.5
462.118	291.5
462.338	329.5
462.558	323.5
462.777	331.5
462.997	341.5
463.217	392.5
463.437	376.5
463.657	343.5
463.876	326.5
464.096	361.5
464.316	311.5
464.536	341.5
464.755	331.5
464.975	340.5
465.195	305.5
465.414	295.5
465.634	274.5
465.854	276.5
466.073	256.5
466.293	254.5
466.512	262.5
466.732	266.5
466.951	260.5
467.171	246.5
467.391	250.5
467.61	258.5
467.829	250.5
468.049	236.5
468.268	243.5
468.488	232.5
468.707	248.5
468.927	256.5
469.146	242.5
469.365	249.5
469.585	250.5
469.804	241.5
470.023	247.5
470.243	260.5
470.462	266.5
470.681	259.5
470.901	258.5
471.12	270.5
471.339	256.5
471.558	250.5
471.777	242.5
471.997	254.5
472.216	241.5
472.435	225.5
472.654	265.5
472.873	227.5
473.092	222.5
473.311	229.5
473.53	227.5
473.749	240.5
473.968	234.5
474.187	242.5
474.406	248.5
474.625	237.5
474.844	238.5
475.063	250.5
475.282	217.5
475.501	244.5
475.72	258.5
475.939	233.5
476.158	241.5
476.377	256.5
476.596	259.5
476.814	268.5
477.033	263.5
477.252	277.5
477.471	245.5
477.69	266.5
477.908	270.5
478.127	290.5
478.346	292.5
478.564	277.5
478.783	273.5
479.002	267.5
479.22	298.5
479.439	280.5
479.658	270.5
479.876	274.5
480.095	271.5
480.313	308.5
480.532	330.5
480.751	304.5
480.969	299.5
481.188	285.5
481.406	267.5
481.624	286.5
481.843	277.5
482.061	279.5
482.28	278.5
482.498	264.5
482.717	266.5
482.935	245.5
483.153	277.5
483.372	264.5
483.59	262.5
483.808	271.5
484.027	256.5
484.245	282.5
484.463	291.5
484.681	301.5
484.9	290.5
485.118	281.5
485.336	295.5
485.554	295.5
485.772	284.5
485.99	288.5
486.209	296.5
486.427	295.5
486.645	280.5
486.863	272.5
487.081	302.5
487.299	282.5
487.517	304.5
487.735	279.5
487.953	286.5
488.171	300.5
488.389	278.5
488.607	285.5
488.825	272.5
489.043	280.5
489.261	282.5
489.479	292.5
489.696	304.5
489.914	293.5
490.132	286.5
490.35	296.5
490.568	288.5
490.786	291.5
491.003	292.5
491.221	280.5
491.439	299.5
491.657	283.5
491.874	289.5
492.092	294.5
492.31	307.5
492.527	290.5
492.745	297.5
492.963	297.5
493.18	308.5
493.398	304.5
493.615	297.5
493.833	314.5
494.05	289.5
494.268	293.5
494.485	289.5
494.703	304.5
494.92	310.5
495.138	294.5
495.355	295.5
495.573	305.5
495.79	318.5
496.008	316.5
496.225	304.5
496.442	299.5
496.66	299.5
496.877	292.5
497.094	324.5
497.312	311.5
497.529	292.5
497.746	299.5
497.963	339.5
498.181	364.5
498.398	368.5
498.615	372.5
498.832	392.5
499.049	416.5
499.267	455.5
499.484	480.5
499.701	556.5
499.918	597.5
500.135	684.5
500.352	788.5
500.569	823.5
500.786	813.5
501.003	760.5
501.22	669.5
501.437	592.5
501.654	523.5
501.871	466.5
502.088	434.5
502.305	414.5
502.522	375.5
502.739	377.5
502.956	363.5
503.172	338.5
503.389	348.5
503.606	345.5
503.823	337.5
504.04	318.5
504.256	321.5
504.473	353.5
504.69	363.5
504.907	364.5
505.123	330.5
505.34	302.5
505.557	296.5
505.773	284.5
505.99	280.5
506.207	281.5
506.423	259.5
506.64	268.5
506.856	285.5
507.073	280.5
507.289	270.5
507.506	287.5
507.722	280.5
507.939	247.5
508.155	251.5
508.372	267.5
508.588	253.5
508.805	271.5
509.021	244.5
509.238	263.5
509.454	264.5
509.67	240.5
509.887	260.5
510.103	269.5
510.319	247.5
510.536	258.5
510.752	272.5
510.968	242.5
511.184	253.5
511.401	237.5
511.617	252.5
511.833	244.5
512.049	257.5
512.265	246.5
512.481	244.5
512.698	253.5
512.914	248.5
513.13	253.5
513.346	247.5
513.562	260.5
513.778	258.5
513.994	250.5
514.21	256.5
514.426	245.5
514.642	258.5
514.858	246.5
515.074	255.5
515.29	264.5
515.506	230.5
515.721	231.5
515.937	269.5
516.153	273.5
516.369	282.5
516.585	299.5
516.801	294.5
517.016	278.5
517.232	331.5
517.448	332.5
517.664	349.5
517.879	368.5
518.095	342.5
518.311	327.5
518.527	312.5
518.742	319.5
518.958	307.5
519.173	297.5
519.389	280.5
519.605	281.5
519.82	279.5
520.036	285.5
520.251	262.5
520.467	272.5
520.682	261.5
520.898	253.5
521.113	246.5
