Data from 0.5MCu(NO3)2.Standard.Lamp.E10.CV._HRD10591_16-06-22-753.txt Node
Date: Mon Jul 22 16:06:22 EDT 2019
User: cochatt
Spectrometer: HR+D1059
Trigger mode: 1
Integration Time (sec): 1.000000E-1
Scans to average: 1
Electric dark correction enabled: true
Nonlinearity correction enabled: false
Boxcar width: 0
XAxis mode: Wavelengths
Number of Pixels in Spectrum: 2048
>>>>>Begin Spectral Data<<<<<
223.165	-10.81
223.4	-10.81
223.635	-10.81
223.869	-18.81
224.104	-9.81
224.338	-15.81
224.573	-16.81
224.808	-3.81
225.042	-13.81
225.277	-13.81
225.511	6.19
225.746	8.19
225.98	3.19
226.215	10.19
226.449	8.19
226.683	13.19
226.918	26.19
227.152	28.19
227.387	50.19
227.621	36.19
227.856	46.19
228.09	51.19
228.324	51.19
228.559	57.19
228.793	59.19
229.027	67.19
229.262	67.19
229.496	85.19
229.73	74.19
229.964	78.19
230.199	82.19
230.433	73.19
230.667	81.19
230.901	83.19
231.136	63.19
231.37	90.19
231.604	101.19
231.838	95.19
232.072	96.19
232.306	101.19
232.541	97.19
232.775	92.19
233.009	94.19
233.243	103.19
233.477	94.19
233.711	101.19
233.945	92.19
234.179	84.19
234.413	97.19
234.647	114.19
234.881	95.19
235.115	83.19
235.349	91.19
235.583	89.19
235.817	96.19
236.051	91.19
236.285	83.19
236.519	97.19
236.753	111.19
236.987	108.19
237.221	88.19
237.455	82.19
237.689	95.19
237.922	99.19
238.156	94.19
238.39	98.19
238.624	96.19
238.858	98.19
239.091	103.19
239.325	84.19
239.559	87.19
239.793	93.19
240.027	108.19
240.26	86.19
240.494	104.19
240.728	100.19
240.961	90.19
241.195	99.19
241.429	90.19
241.662	92.19
241.896	92.19
242.13	84.19
242.363	99.19
242.597	76.19
242.83	96.19
243.064	96.19
243.298	96.19
243.531	97.19
243.765	103.19
243.998	94.19
244.232	100.19
244.465	98.19
244.699	107.19
244.932	96.19
245.166	102.19
245.399	118.19
245.633	88.19
245.866	105.19
246.099	109.19
246.333	100.19
246.566	103.19
246.8	113.19
247.033	100.19
247.266	109.19
247.5	112.19
247.733	109.19
247.966	105.19
248.2	109.19
248.433	110.19
248.666	107.19
248.899	105.19
249.133	104.19
249.366	106.19
249.599	112.19
249.832	120.19
250.066	114.19
250.299	108.19
250.532	117.19
250.765	123.19
250.998	121.19
251.231	116.19
251.465	122.19
251.698	126.19
251.931	124.19
252.164	124.19
252.397	109.19
252.63	126.19
252.863	131.19
253.096	118.19
253.329	118.19
253.562	111.19
253.795	108.19
254.028	124.19
254.261	113.19
254.494	122.19
254.727	113.19
254.96	122.19
255.193	134.19
255.426	120.19
255.659	118.19
255.892	126.19
256.124	100.19
256.357	110.19
256.59	136.19
256.823	116.19
257.056	128.19
257.289	113.19
257.521	114.19
257.754	116.19
257.987	107.19
258.22	113.19
258.452	124.19
258.685	126.19
258.918	128.19
259.151	117.19
259.383	123.19
259.616	112.19
259.849	128.19
260.081	130.19
260.314	132.19
260.547	110.19
260.779	125.19
261.012	124.19
261.244	129.19
261.477	120.19
261.71	129.19
261.942	109.19
262.175	128.19
262.407	116.19
262.64	140.19
262.872	147.19
263.105	133.19
263.337	132.19
263.57	131.19
263.802	136.19
264.035	136.19
264.267	123.19
264.499	122.19
264.732	126.19
264.964	125.19
265.197	138.19
265.429	138.19
265.661	140.19
265.894	143.19
266.126	132.19
266.358	138.19
266.591	151.19
266.823	141.19
267.055	134.19
267.287	135.19
267.52	124.19
267.752	142.19
267.984	138.19
268.216	134.19
268.448	146.19
268.681	149.19
268.913	138.19
269.145	155.19
269.377	153.19
269.609	152.19
269.841	148.19
270.073	146.19
270.306	149.19
270.538	147.19
270.77	130.19
271.002	146.19
271.234	148.19
271.466	160.19
271.698	147.19
271.93	139.19
272.162	154.19
272.394	154.19
272.626	143.19
272.858	153.19
273.09	150.19
273.322	149.19
273.553	140.19
273.785	138.19
274.017	141.19
274.249	154.19
274.481	148.19
274.713	153.19
274.945	147.19
275.176	161.19
275.408	148.19
275.64	148.19
275.872	148.19
276.104	141.19
276.335	152.19
276.567	146.19
276.799	161.19
277.031	154.19
277.262	162.19
277.494	163.19
277.726	145.19
277.957	159.19
278.189	153.19
278.421	158.19
278.652	161.19
278.884	174.19
279.115	164.19
279.347	169.19
279.579	159.19
279.81	159.19
280.042	148.19
280.273	158.19
280.505	165.19
280.736	167.19
280.968	170.19
281.199	164.19
281.431	164.19
281.662	162.19
281.894	158.19
282.125	155.19
282.356	160.19
282.588	172.19
282.819	181.19
283.051	162.19
283.282	171.19
283.513	176.19
283.745	164.19
283.976	180.19
284.207	176.19
284.439	166.19
284.67	178.19
284.901	163.19
285.132	186.19
285.364	173.19
285.595	171.19
285.826	160.19
286.057	177.19
286.288	162.19
286.52	178.19
286.751	154.19
286.982	168.19
287.213	193.19
287.444	180.19
287.675	174.19
287.906	186.19
288.138	178.19
288.369	180.19
288.6	190.19
288.831	173.19
289.062	192.19
289.293	178.19
289.524	194.19
289.755	189.19
289.986	177.19
290.217	169.19
290.448	180.19
290.679	162.19
290.91	191.19
291.141	184.19
291.371	173.19
291.602	190.19
291.833	182.19
292.064	173.19
292.295	189.19
292.526	193.19
292.757	183.19
292.987	193.19
293.218	190.19
293.449	173.19
293.68	194.19
293.91	187.19
294.141	191.19
294.372	189.19
294.603	189.19
294.833	199.19
295.064	184.19
295.295	198.19
295.525	194.19
295.756	192.19
295.987	196.19
296.217	180.19
296.448	196.19
296.679	179.19
296.909	199.19
297.14	201.19
297.37	202.19
297.601	187.19
297.831	177.19
298.062	191.19
298.292	201.19
298.523	206.19
298.753	202.19
298.984	200.19
299.214	201.19
299.445	203.19
299.675	194.19
299.905	197.19
300.136	200.19
300.366	201.19
300.597	216.19
300.827	208.19
301.057	210.19
301.288	201.19
301.518	196.19
301.748	229.19
301.979	224.19
302.209	205.19
302.439	209.19
302.669	208.19
302.9	201.19
303.13	197.19
303.36	200.19
303.59	213.19
303.82	196.19
304.051	205.19
304.281	200.19
304.511	206.19
304.741	212.19
304.971	197.19
305.201	194.19
305.431	217.19
305.661	196.19
305.891	198.19
306.121	198.19
306.352	200.19
306.582	201.19
306.812	199.19
307.042	196.19
307.272	204.19
307.502	204.19
307.731	204.19
307.961	199.19
308.191	187.19
308.421	192.19
308.651	194.19
308.881	176.19
309.111	180.19
309.341	198.19
309.571	184.19
309.8	204.19
310.03	197.19
310.26	205.19
310.49	200.19
310.72	194.19
310.949	190.19
311.179	186.19
311.409	208.19
311.639	203.19
311.868	206.19
312.098	192.19
312.328	203.19
312.557	204.19
312.787	198.19
313.017	205.19
313.246	212.19
313.476	224.19
313.706	223.19
313.935	216.19
314.165	211.19
314.394	197.19
314.624	235.19
314.853	212.19
315.083	217.19
315.312	218.19
315.542	208.19
315.771	210.19
316.001	210.19
316.23	201.19
316.46	197.19
316.689	210.19
316.919	221.19
317.148	216.19
317.377	214.19
317.607	209.19
317.836	204.19
318.065	214.19
318.295	200.19
318.524	216.19
318.753	197.19
318.983	202.19
319.212	204.19
319.441	206.19
319.67	215.19
319.9	206.19
320.129	203.19
320.358	218.19
320.587	206.19
320.816	191.19
321.046	207.19
321.275	209.19
321.504	212.19
321.733	214.19
321.962	218.19
322.191	219.19
322.42	207.19
322.649	202.19
322.878	207.19
323.108	205.19
323.337	221.19
323.566	225.19
323.795	208.19
324.024	226.19
324.253	219.19
324.482	210.19
324.71	219.19
324.939	214.19
325.168	215.19
325.397	219.19
325.626	215.19
325.855	221.19
326.084	224.19
326.313	215.19
326.542	229.19
326.77	237.19
326.999	224.19
327.228	216.19
327.457	212.19
327.686	211.19
327.914	224.19
328.143	234.19
328.372	229.19
328.6	224.19
328.829	215.19
329.058	212.19
329.287	226.19
329.515	229.19
329.744	235.19
329.972	225.19
330.201	211.19
330.43	229.19
330.658	240.19
330.887	220.19
331.115	233.19
331.344	228.19
331.572	221.19
331.801	236.19
332.03	222.19
332.258	259.19
332.486	249.19
332.715	253.19
332.943	253.19
333.172	271.19
333.4	299.19
333.629	274.19
333.857	298.19
334.085	296.19
334.314	271.19
334.542	278.19
334.771	254.19
334.999	277.19
335.227	258.19
335.455	270.19
335.684	247.19
335.912	262.19
336.14	246.19
336.369	266.19
336.597	250.19
336.825	252.19
337.053	247.19
337.281	260.19
337.51	240.19
337.738	229.19
337.966	230.19
338.194	228.19
338.422	215.19
338.65	243.19
338.878	252.19
339.106	237.19
339.334	240.19
339.562	250.19
339.79	230.19
340.018	225.19
340.246	214.19
340.474	225.19
340.702	234.19
340.93	260.19
341.158	234.19
341.386	230.19
341.614	227.19
341.842	216.19
342.07	231.19
342.298	221.19
342.526	230.19
342.754	224.19
342.981	224.19
343.209	225.19
343.437	239.19
343.665	233.19
343.893	256.19
344.12	278.19
344.348	275.19
344.576	251.19
344.804	235.19
345.031	235.19
345.259	222.19
345.487	232.19
345.714	235.19
345.942	232.19
346.17	228.19
346.397	215.19
346.625	220.19
346.853	209.19
347.08	214.19
347.308	217.19
347.535	220.19
347.763	226.19
347.99	235.19
348.218	224.19
348.445	243.19
348.673	214.19
348.9	217.19
349.128	243.19
349.355	228.19
349.583	212.19
349.81	223.19
350.037	236.19
350.265	203.19
350.492	223.19
350.72	214.19
350.947	202.19
351.174	224.19
351.402	203.19
351.629	206.19
351.856	212.19
352.083	215.19
352.311	212.19
352.538	225.19
352.765	209.19
352.992	227.19
353.22	237.19
353.447	228.19
353.674	224.19
353.901	214.19
354.128	206.19
354.355	212.19
354.583	221.19
354.81	228.19
355.037	213.19
355.264	226.19
355.491	188.19
355.718	221.19
355.945	230.19
356.172	222.19
356.399	234.19
356.626	221.19
356.853	218.19
357.08	210.19
357.307	228.19
357.534	197.19
357.761	226.19
357.988	215.19
358.215	219.19
358.441	222.19
358.668	225.19
358.895	218.19
359.122	204.19
359.349	222.19
359.576	216.19
359.802	220.19
360.029	221.19
360.256	215.19
360.483	212.19
360.709	219.19
360.936	209.19
361.163	230.19
361.39	209.19
361.616	208.19
361.843	225.19
362.07	220.19
362.296	211.19
362.523	210.19
362.749	228.19
362.976	213.19
363.203	216.19
363.429	226.19
363.656	202.19
363.882	226.19
364.109	193.19
364.335	228.19
364.562	201.19
364.788	210.19
365.015	203.19
365.241	225.19
365.468	222.19
365.694	204.19
365.92	190.19
366.147	197.19
366.373	230.19
366.599	210.19
366.826	208.19
367.052	218.19
367.278	206.19
367.505	219.19
367.731	217.19
367.957	209.19
368.184	213.19
368.41	213.19
368.636	233.19
368.862	230.19
369.089	211.19
369.315	214.19
369.541	210.19
369.767	231.19
369.993	226.19
370.219	217.19
370.445	233.19
370.672	229.19
370.898	230.19
371.124	234.19
371.35	228.19
371.576	221.19
371.802	220.19
372.028	219.19
372.254	238.19
372.48	228.19
372.706	225.19
372.932	249.19
373.158	229.19
373.384	229.19
373.61	226.19
373.835	235.19
374.061	228.19
374.287	242.19
374.513	226.19
374.739	243.19
374.965	233.19
375.191	264.19
375.416	256.19
375.642	235.19
375.868	233.19
376.094	233.19
376.319	251.19
376.545	226.19
376.771	232.19
376.997	233.19
377.222	241.19
377.448	240.19
377.674	219.19
377.899	229.19
378.125	213.19
378.35	232.19
378.576	208.19
378.802	228.19
379.027	222.19
379.253	220.19
379.478	220.19
379.704	233.19
379.929	244.19
380.155	216.19
380.38	234.19
380.606	232.19
380.831	217.19
381.057	212.19
381.282	225.19
381.507	222.19
381.733	222.19
381.958	228.19
382.184	235.19
382.409	216.19
382.634	235.19
382.86	225.19
383.085	228.19
383.31	253.19
383.535	244.19
383.761	251.19
383.986	229.19
384.211	253.19
384.436	262.19
384.662	260.19
384.887	282.19
385.112	260.19
385.337	269.19
385.562	269.19
385.787	260.19
386.013	281.19
386.238	260.19
386.463	262.19
386.688	258.19
386.913	256.19
387.138	266.19
387.363	266.19
387.588	254.19
387.813	259.19
388.038	246.19
388.263	278.19
388.488	258.19
388.713	267.19
388.938	249.19
389.163	257.19
389.387	257.19
389.612	253.19
389.837	233.19
390.062	234.19
390.287	252.19
390.512	246.19
390.736	252.19
390.961	246.19
391.186	247.19
391.411	268.19
391.636	264.19
391.86	274.19
392.085	276.19
392.31	265.19
392.534	268.19
392.759	262.19
392.984	267.19
393.208	267.19
393.433	262.19
393.658	279.19
393.882	264.19
394.107	280.19
394.331	283.19
394.556	261.19
394.78	285.19
395.005	275.19
395.229	258.19
395.454	288.19
395.678	293.19
395.903	289.19
396.127	280.19
396.352	259.19
396.576	275.19
396.801	271.19
397.025	274.19
397.249	269.19
397.474	263.19
397.698	277.19
397.922	281.19
398.147	268.19
398.371	274.19
398.595	289.19
398.82	293.19
399.044	336.19
399.268	344.19
399.492	392.19
399.717	456.19
399.941	436.19
400.165	402.19
400.389	355.19
400.613	342.19
400.837	314.19
401.062	324.19
401.286	301.19
401.51	304.19
401.734	299.19
401.958	332.19
402.182	309.19
402.406	322.19
402.63	333.19
402.854	334.19
403.078	350.19
403.302	355.19
403.526	366.19
403.75	346.19
403.974	365.19
404.198	368.19
404.422	362.19
404.645	358.19
404.869	384.19
405.093	355.19
405.317	308.19
405.541	356.19
405.765	328.19
405.988	327.19
406.212	330.19
406.436	330.19
406.66	327.19
406.883	343.19
407.107	365.19
407.331	364.19
407.555	374.19
407.778	386.19
408.002	371.19
408.226	347.19
408.449	345.19
408.673	347.19
408.896	341.19
409.12	321.19
409.344	335.19
409.567	335.19
409.791	343.19
410.014	352.19
410.238	341.19
410.461	354.19
410.685	342.19
410.908	334.19
411.132	318.19
411.355	323.19
411.578	333.19
411.802	302.19
412.025	316.19
412.249	311.19
412.472	319.19
412.695	323.19
412.919	321.19
413.142	307.19
413.365	295.19
413.589	297.19
413.812	305.19
414.035	301.19
414.258	328.19
414.482	322.19
414.705	285.19
414.928	309.19
415.151	330.19
415.374	293.19
415.597	314.19
415.821	304.19
416.044	312.19
416.267	291.19
416.49	305.19
416.713	268.19
416.936	306.19
417.159	300.19
417.382	287.19
417.605	309.19
417.828	288.19
418.051	301.19
418.274	317.19
418.497	307.19
418.72	319.19
418.943	323.19
419.166	344.19
419.389	333.19
419.611	328.19
419.834	316.19
420.057	332.19
420.28	295.19
420.503	293.19
420.726	293.19
420.948	292.19
421.171	294.19
421.394	317.19
421.617	294.19
421.839	296.19
422.062	298.19
422.285	297.19
422.507	309.19
422.73	308.19
422.953	318.19
423.175	325.19
423.398	315.19
423.621	324.19
423.843	328.19
424.066	327.19
424.288	315.19
424.511	316.19
424.733	330.19
424.956	306.19
425.178	322.19
425.401	308.19
425.623	278.19
425.846	283.19
426.068	283.19
426.291	288.19
426.513	276.19
426.735	281.19
426.958	276.19
427.18	270.19
427.402	261.19
427.625	286.19
427.847	289.19
428.069	269.19
428.292	291.19
428.514	277.19
428.736	271.19
428.958	267.19
429.181	280.19
429.403	281.19
429.625	288.19
429.847	278.19
430.069	275.19
430.292	275.19
430.514	260.19
430.736	273.19
430.958	262.19
431.18	249.19
431.402	236.19
431.624	276.19
431.846	286.19
432.068	270.19
432.29	268.19
432.512	271.19
432.734	283.19
432.956	263.19
433.178	274.19
433.4	264.19
433.622	260.19
433.844	278.19
434.066	277.19
434.287	285.19
434.509	297.19
434.731	296.19
434.953	313.19
435.175	320.19
435.397	300.19
435.618	284.19
435.84	277.19
436.062	274.19
436.284	270.19
436.505	277.19
436.727	278.19
436.949	273.19
437.17	276.19
437.392	259.19
437.614	256.19
437.835	293.19
438.057	273.19
438.278	265.19
438.5	266.19
438.721	265.19
438.943	268.19
439.165	264.19
439.386	260.19
439.608	276.19
439.829	276.19
440.05	268.19
440.272	300.19
440.493	269.19
440.715	275.19
440.936	264.19
441.158	278.19
441.379	296.19
441.6	296.19
441.822	312.19
442.043	317.19
442.264	291.19
442.486	290.19
442.707	294.19
442.928	286.19
443.149	296.19
443.371	307.19
443.592	290.19
443.813	288.19
444.034	318.19
444.255	326.19
444.476	318.19
444.698	347.19
444.919	353.19
445.14	419.19
445.361	364.19
445.582	318.19
445.803	290.19
446.024	292.19
446.245	283.19
446.466	297.19
446.687	282.19
446.908	269.19
447.129	269.19
447.35	271.19
447.571	268.19
447.792	262.19
448.013	261.19
448.234	265.19
448.455	253.19
448.675	243.19
448.896	249.19
449.117	254.19
449.338	263.19
449.559	233.19
449.779	255.19
450	258.19
450.221	257.19
450.442	270.19
450.662	276.19
450.883	268.19
451.104	276.19
451.324	248.19
451.545	259.19
451.766	274.19
451.986	263.19
452.207	233.19
452.428	247.19
452.648	264.19
452.869	265.19
453.089	264.19
453.31	268.19
453.53	249.19
453.751	240.19
453.971	248.19
454.192	237.19
454.412	244.19
454.633	258.19
454.853	256.19
455.073	237.19
455.294	260.19
455.514	227.19
455.734	232.19
455.955	241.19
456.175	249.19
456.395	262.19
456.616	229.19
456.836	234.19
457.056	252.19
457.276	235.19
457.497	234.19
457.717	251.19
457.937	245.19
458.157	239.19
458.377	252.19
458.598	238.19
458.818	256.19
459.038	258.19
459.258	249.19
459.478	264.19
459.698	299.19
459.918	299.19
460.138	303.19
460.358	310.19
460.578	308.19
460.798	320.19
461.018	312.19
461.238	310.19
461.458	326.19
461.678	307.19
461.898	326.19
462.118	325.19
462.338	327.19
462.558	334.19
462.777	354.19
462.997	385.19
463.217	417.19
463.437	406.19
463.657	393.19
463.876	368.19
464.096	386.19
464.316	358.19
464.536	373.19
464.755	352.19
464.975	348.19
465.195	329.19
465.414	320.19
465.634	285.19
465.854	303.19
466.073	268.19
466.293	266.19
466.512	277.19
466.732	284.19
466.951	274.19
467.171	275.19
467.391	276.19
467.61	266.19
467.829	268.19
468.049	243.19
468.268	243.19
468.488	244.19
468.707	254.19
468.927	260.19
469.146	260.19
469.365	267.19
469.585	256.19
469.804	269.19
470.023	286.19
470.243	285.19
470.462	288.19
470.681	292.19
470.901	295.19
471.12	268.19
471.339	273.19
471.558	267.19
471.777	254.19
471.997	262.19
472.216	266.19
472.435	244.19
472.654	253.19
472.873	240.19
473.092	258.19
473.311	255.19
473.53	250.19
473.749	251.19
473.968	265.19
474.187	262.19
474.406	257.19
474.625	242.19
474.844	268.19
475.063	257.19
475.282	267.19
475.501	263.19
475.72	273.19
475.939	260.19
476.158	263.19
476.377	242.19
476.596	264.19
476.814	277.19
477.033	254.19
477.252	280.19
477.471	285.19
477.69	305.19
477.908	304.19
478.127	294.19
478.346	311.19
478.564	315.19
478.783	292.19
479.002	306.19
479.22	307.19
479.439	308.19
479.658	310.19
479.876	326.19
480.095	305.19
480.313	321.19
480.532	349.19
480.751	349.19
480.969	318.19
481.188	327.19
481.406	314.19
481.624	306.19
481.843	277.19
482.061	301.19
482.28	300.19
482.498	282.19
482.717	288.19
482.935	280.19
483.153	287.19
483.372	288.19
483.59	288.19
483.808	310.19
484.027	326.19
484.245	297.19
484.463	285.19
484.681	297.19
484.9	298.19
485.118	302.19
485.336	315.19
485.554	311.19
485.772	298.19
485.99	294.19
486.209	331.19
486.427	339.19
486.645	316.19
486.863	332.19
487.081	327.19
487.299	310.19
487.517	329.19
487.735	317.19
487.953	328.19
488.171	317.19
488.389	320.19
488.607	300.19
488.825	327.19
489.043	294.19
489.261	304.19
489.479	308.19
489.696	304.19
489.914	286.19
490.132	299.19
490.35	306.19
490.568	304.19
490.786	302.19
491.003	337.19
491.221	317.19
491.439	310.19
491.657	314.19
491.874	334.19
492.092	314.19
492.31	332.19
492.527	317.19
492.745	333.19
492.963	311.19
493.18	340.19
493.398	316.19
493.615	316.19
493.833	311.19
494.05	307.19
494.268	329.19
494.485	315.19
494.703	325.19
494.92	325.19
495.138	318.19
495.355	319.19
495.573	326.19
495.79	309.19
496.008	327.19
496.225	333.19
496.442	321.19
496.66	318.19
496.877	320.19
497.094	342.19
497.312	325.19
497.529	338.19
497.746	344.19
497.963	377.19
498.181	383.19
498.398	403.19
498.615	390.19
498.832	422.19
499.049	462.19
499.267	486.19
499.484	533.19
499.701	588.19
499.918	627.19
500.135	750.19
500.352	852.19
500.569	894.19
500.786	883.19
501.003	827.19
501.22	724.19
501.437	626.19
501.654	566.19
501.871	513.19
502.088	488.19
502.305	456.19
502.522	431.19
502.739	409.19
502.956	412.19
