Data from 0.5MCu(NO3)2.Standard.Lamp.E10.CV._HRD10591_16-03-50-753.txt Node
Date: Mon Jul 22 16:03:50 EDT 2019
User: cochatt
Spectrometer: HR+D1059
Trigger mode: 1
Integration Time (sec): 1.000000E-1
Scans to average: 1
Electric dark correction enabled: true
Nonlinearity correction enabled: false
Boxcar width: 0
XAxis mode: Wavelengths
Number of Pixels in Spectrum: 2048
>>>>>Begin Spectral Data<<<<<
223.165	-22.06
223.4	-22.06
223.635	-22.06
223.869	-15.06
224.104	-25.06
224.338	-10.06
224.573	-7.06
224.808	-15.06
225.042	-1.06
225.277	-4.06
225.511	3.94
225.746	-12.06
225.98	5.94
226.215	22.94
226.449	9.94
226.683	19.94
226.918	24.94
227.152	23.94
227.387	23.94
227.621	21.94
227.856	47.94
228.09	49.94
228.324	38.94
228.559	59.94
228.793	53.94
229.027	66.94
229.262	70.94
229.496	71.94
229.73	67.94
229.964	77.94
230.199	71.94
230.433	86.94
230.667	83.94
230.901	81.94
231.136	83.94
231.37	75.94
231.604	83.94
231.838	93.94
232.072	86.94
232.306	90.94
232.541	87.94
232.775	84.94
233.009	98.94
233.243	95.94
233.477	82.94
233.711	93.94
233.945	82.94
234.179	100.94
234.413	89.94
234.647	77.94
234.881	97.94
235.115	81.94
235.349	94.94
235.583	87.94
235.817	87.94
236.051	87.94
236.285	87.94
236.519	85.94
236.753	96.94
236.987	87.94
237.221	103.94
237.455	87.94
237.689	82.94
237.922	98.94
238.156	84.94
238.39	93.94
238.624	101.94
238.858	86.94
239.091	86.94
239.325	85.94
239.559	84.94
239.793	88.94
240.027	86.94
240.26	89.94
240.494	99.94
240.728	91.94
240.961	89.94
241.195	101.94
241.429	77.94
241.662	91.94
241.896	105.94
242.13	98.94
242.363	96.94
242.597	99.94
242.83	96.94
243.064	88.94
243.298	91.94
243.531	90.94
243.765	95.94
243.998	86.94
244.232	102.94
244.465	85.94
244.699	93.94
244.932	97.94
245.166	89.94
245.399	97.94
245.633	104.94
245.866	101.94
246.099	103.94
246.333	88.94
246.566	91.94
246.8	90.94
247.033	100.94
247.266	82.94
247.5	98.94
247.733	83.94
247.966	109.94
248.2	110.94
248.433	99.94
248.666	99.94
248.899	119.94
249.133	100.94
249.366	95.94
249.599	96.94
249.832	109.94
250.066	102.94
250.299	90.94
250.532	95.94
250.765	113.94
250.998	109.94
251.231	99.94
251.465	109.94
251.698	89.94
251.931	99.94
252.164	116.94
252.397	109.94
252.63	103.94
252.863	109.94
253.096	106.94
253.329	109.94
253.562	108.94
253.795	95.94
254.028	101.94
254.261	106.94
254.494	100.94
254.727	114.94
254.96	109.94
255.193	106.94
255.426	89.94
255.659	104.94
255.892	123.94
256.124	104.94
256.357	101.94
256.59	128.94
256.823	105.94
257.056	104.94
257.289	102.94
257.521	104.94
257.754	91.94
257.987	118.94
258.22	116.94
258.452	114.94
258.685	124.94
258.918	99.94
259.151	109.94
259.383	117.94
259.616	112.94
259.849	102.94
260.081	121.94
260.314	124.94
260.547	104.94
260.779	104.94
261.012	120.94
261.244	112.94
261.477	121.94
261.71	107.94
261.942	112.94
262.175	123.94
262.407	112.94
262.64	119.94
262.872	112.94
263.105	112.94
263.337	123.94
263.57	120.94
263.802	114.94
264.035	122.94
264.267	98.94
264.499	110.94
264.732	127.94
264.964	126.94
265.197	117.94
265.429	121.94
265.661	129.94
265.894	121.94
266.126	107.94
266.358	119.94
266.591	124.94
266.823	133.94
267.055	103.94
267.287	107.94
267.52	118.94
267.752	139.94
267.984	122.94
268.216	119.94
268.448	143.94
268.681	129.94
268.913	130.94
269.145	135.94
269.377	121.94
269.609	119.94
269.841	138.94
270.073	136.94
270.306	122.94
270.538	121.94
270.77	128.94
271.002	109.94
271.234	118.94
271.466	135.94
271.698	128.94
271.93	136.94
272.162	127.94
272.394	124.94
272.626	138.94
272.858	116.94
273.09	139.94
273.322	131.94
273.553	122.94
273.785	129.94
274.017	125.94
274.249	129.94
274.481	134.94
274.713	126.94
274.945	134.94
275.176	121.94
275.408	132.94
275.64	131.94
275.872	123.94
276.104	129.94
276.335	139.94
276.567	126.94
276.799	133.94
277.031	150.94
277.262	122.94
277.494	137.94
277.726	153.94
277.957	150.94
278.189	127.94
278.421	125.94
278.652	138.94
278.884	136.94
279.115	147.94
279.347	125.94
279.579	130.94
279.81	143.94
280.042	139.94
280.273	144.94
280.505	129.94
280.736	143.94
280.968	141.94
281.199	134.94
281.431	153.94
281.662	153.94
281.894	145.94
282.125	123.94
282.356	141.94
282.588	144.94
282.819	163.94
283.051	145.94
283.282	150.94
283.513	146.94
283.745	155.94
283.976	153.94
284.207	147.94
284.439	135.94
284.67	153.94
284.901	136.94
285.132	162.94
285.364	151.94
285.595	162.94
285.826	150.94
286.057	149.94
286.288	166.94
286.52	147.94
286.751	161.94
286.982	158.94
287.213	151.94
287.444	139.94
287.675	151.94
287.906	134.94
288.138	134.94
288.369	155.94
288.6	152.94
288.831	145.94
289.062	164.94
289.293	166.94
289.524	152.94
289.755	150.94
289.986	140.94
290.217	146.94
290.448	155.94
290.679	173.94
290.91	168.94
291.141	168.94
291.371	153.94
291.602	161.94
291.833	172.94
292.064	158.94
292.295	154.94
292.526	157.94
292.757	146.94
292.987	142.94
293.218	158.94
293.449	151.94
293.68	165.94
293.91	160.94
294.141	165.94
294.372	169.94
294.603	148.94
294.833	165.94
295.064	155.94
295.295	174.94
295.525	158.94
295.756	169.94
295.987	167.94
296.217	147.94
296.448	160.94
296.679	159.94
296.909	157.94
297.14	152.94
297.37	169.94
297.601	167.94
297.831	164.94
298.062	166.94
298.292	154.94
298.523	179.94
298.753	164.94
298.984	178.94
299.214	166.94
299.445	179.94
299.675	173.94
299.905	161.94
300.136	167.94
300.366	170.94
300.597	177.94
300.827	168.94
301.057	180.94
301.288	159.94
301.518	168.94
301.748	187.94
301.979	173.94
302.209	162.94
302.439	159.94
302.669	167.94
302.9	182.94
303.13	156.94
303.36	160.94
303.59	167.94
303.82	165.94
304.051	170.94
304.281	158.94
304.511	158.94
304.741	157.94
304.971	171.94
305.201	157.94
305.431	163.94
305.661	181.94
305.891	167.94
306.121	175.94
306.352	166.94
306.582	161.94
306.812	170.94
307.042	177.94
307.272	161.94
307.502	165.94
307.731	173.94
307.961	162.94
308.191	158.94
308.421	166.94
308.651	185.94
308.881	165.94
309.111	173.94
309.341	154.94
309.571	173.94
309.8	184.94
310.03	163.94
310.26	159.94
310.49	153.94
310.72	166.94
310.949	168.94
311.179	168.94
311.409	157.94
311.639	166.94
311.868	177.94
312.098	177.94
312.328	178.94
312.557	182.94
312.787	185.94
313.017	188.94
313.246	168.94
313.476	169.94
313.706	200.94
313.935	185.94
314.165	183.94
314.394	182.94
314.624	178.94
314.853	179.94
315.083	185.94
315.312	169.94
315.542	173.94
315.771	173.94
316.001	181.94
316.23	179.94
316.46	157.94
316.689	177.94
316.919	176.94
317.148	166.94
317.377	187.94
317.607	170.94
317.836	167.94
318.065	170.94
318.295	168.94
318.524	154.94
318.753	165.94
318.983	189.94
319.212	181.94
319.441	156.94
319.67	181.94
319.9	173.94
320.129	180.94
320.358	178.94
320.587	171.94
320.816	181.94
321.046	161.94
321.275	184.94
321.504	186.94
321.733	185.94
321.962	177.94
322.191	167.94
322.42	182.94
322.649	181.94
322.878	183.94
323.108	179.94
323.337	182.94
323.566	177.94
323.795	174.94
324.024	191.94
324.253	167.94
324.482	166.94
324.71	174.94
324.939	187.94
325.168	190.94
325.397	177.94
325.626	165.94
325.855	189.94
326.084	170.94
326.313	186.94
326.542	192.94
326.77	189.94
326.999	187.94
327.228	201.94
327.457	191.94
327.686	169.94
327.914	186.94
328.143	203.94
328.372	176.94
328.6	163.94
328.829	186.94
329.058	181.94
329.287	183.94
329.515	173.94
329.744	175.94
329.972	188.94
330.201	185.94
330.43	200.94
330.658	172.94
330.887	192.94
331.115	197.94
331.344	196.94
331.572	185.94
331.801	202.94
332.03	197.94
332.258	192.94
332.486	214.94
332.715	209.94
332.943	215.94
333.172	218.94
333.4	214.94
333.629	243.94
333.857	225.94
334.085	219.94
334.314	229.94
334.542	216.94
334.771	221.94
334.999	231.94
335.227	212.94
335.455	207.94
335.684	209.94
335.912	209.94
336.14	214.94
336.369	223.94
336.597	210.94
336.825	217.94
337.053	211.94
337.281	210.94
337.51	192.94
337.738	195.94
337.966	195.94
338.194	203.94
338.422	204.94
338.65	202.94
338.878	217.94
339.106	191.94
339.334	208.94
339.562	186.94
339.79	180.94
340.018	194.94
340.246	200.94
340.474	207.94
340.702	167.94
340.93	212.94
341.158	197.94
341.386	188.94
341.614	185.94
341.842	177.94
342.07	184.94
342.298	189.94
342.526	178.94
342.754	188.94
342.981	181.94
343.209	198.94
343.437	197.94
343.665	204.94
343.893	213.94
344.12	231.94
344.348	202.94
344.576	210.94
344.804	208.94
345.031	201.94
345.259	181.94
345.487	208.94
345.714	195.94
345.942	203.94
346.17	197.94
346.397	185.94
346.625	190.94
346.853	179.94
347.08	186.94
347.308	188.94
347.535	193.94
347.763	181.94
347.99	185.94
348.218	196.94
348.445	182.94
348.673	194.94
348.9	181.94
349.128	183.94
349.355	190.94
349.583	192.94
349.81	176.94
350.037	181.94
350.265	196.94
350.492	191.94
350.72	189.94
350.947	181.94
351.174	175.94
351.402	172.94
351.629	181.94
351.856	183.94
352.083	180.94
352.311	173.94
352.538	173.94
352.765	181.94
352.992	185.94
353.22	186.94
353.447	169.94
353.674	196.94
353.901	182.94
354.128	186.94
354.355	174.94
354.583	177.94
354.81	178.94
355.037	176.94
355.264	183.94
355.491	166.94
355.718	162.94
355.945	201.94
356.172	178.94
356.399	191.94
356.626	193.94
356.853	193.94
357.08	194.94
357.307	192.94
357.534	180.94
357.761	169.94
357.988	193.94
358.215	166.94
358.441	180.94
358.668	166.94
358.895	186.94
359.122	162.94
359.349	188.94
359.576	190.94
359.802	187.94
360.029	186.94
360.256	181.94
360.483	192.94
360.709	171.94
360.936	197.94
361.163	186.94
361.39	181.94
361.616	175.94
361.843	165.94
362.07	185.94
362.296	177.94
362.523	192.94
362.749	175.94
362.976	160.94
363.203	177.94
363.429	183.94
363.656	180.94
363.882	167.94
364.109	186.94
364.335	178.94
364.562	179.94
364.788	175.94
365.015	185.94
365.241	191.94
365.468	177.94
365.694	190.94
365.92	175.94
366.147	191.94
366.373	185.94
366.599	189.94
366.826	184.94
367.052	181.94
367.278	193.94
367.505	174.94
367.731	192.94
367.957	170.94
368.184	188.94
368.41	189.94
368.636	166.94
368.862	190.94
369.089	179.94
369.315	182.94
369.541	188.94
369.767	201.94
369.993	200.94
370.219	181.94
370.445	186.94
370.672	192.94
370.898	184.94
371.124	187.94
371.35	201.94
371.576	185.94
371.802	194.94
372.028	199.94
372.254	184.94
372.48	198.94
372.706	183.94
372.932	177.94
373.158	207.94
373.384	200.94
373.61	192.94
373.835	198.94
374.061	186.94
374.287	200.94
374.513	191.94
374.739	182.94
374.965	216.94
375.191	211.94
375.416	208.94
375.642	221.94
375.868	213.94
376.094	202.94
376.319	194.94
376.545	193.94
376.771	203.94
376.997	190.94
377.222	211.94
377.448	194.94
377.674	183.94
377.899	192.94
378.125	202.94
378.35	176.94
378.576	191.94
378.802	202.94
379.027	192.94
379.253	190.94
379.478	186.94
379.704	192.94
379.929	190.94
380.155	192.94
380.38	194.94
380.606	184.94
380.831	175.94
381.057	168.94
381.282	186.94
381.507	209.94
381.733	187.94
381.958	188.94
382.184	189.94
382.409	193.94
382.634	177.94
382.86	187.94
383.085	185.94
383.31	204.94
383.535	191.94
383.761	224.94
383.986	212.94
384.211	206.94
384.436	210.94
384.662	219.94
384.887	215.94
385.112	207.94
385.337	232.94
385.562	207.94
385.787	221.94
386.013	237.94
386.238	230.94
386.463	202.94
386.688	219.94
386.913	208.94
387.138	209.94
387.363	221.94
387.588	222.94
387.813	209.94
388.038	222.94
388.263	211.94
388.488	221.94
388.713	214.94
388.938	207.94
389.163	203.94
389.387	207.94
389.612	211.94
389.837	222.94
390.062	221.94
390.287	191.94
390.512	198.94
390.736	204.94
390.961	210.94
391.186	231.94
391.411	222.94
391.636	235.94
391.86	226.94
392.085	241.94
392.31	231.94
392.534	229.94
392.759	238.94
392.984	215.94
393.208	226.94
393.433	230.94
393.658	227.94
393.882	227.94
394.107	220.94
394.331	232.94
394.556	212.94
394.78	226.94
395.005	214.94
395.229	239.94
395.454	226.94
395.678	222.94
395.903	224.94
396.127	230.94
396.352	212.94
396.576	224.94
396.801	228.94
397.025	215.94
397.249	226.94
397.474	219.94
397.698	227.94
397.922	219.94
398.147	229.94
398.371	241.94
398.595	242.94
398.82	262.94
399.044	248.94
399.268	301.94
399.492	343.94
399.717	371.94
399.941	355.94
400.165	311.94
400.389	291.94
400.613	285.94
400.837	261.94
401.062	260.94
401.286	254.94
401.51	259.94
401.734	256.94
401.958	247.94
402.182	263.94
402.406	256.94
402.63	241.94
402.854	260.94
403.078	263.94
403.302	286.94
403.526	274.94
403.75	287.94
403.974	285.94
404.198	290.94
404.422	291.94
404.645	290.94
404.869	283.94
405.093	285.94
405.317	257.94
405.541	274.94
405.765	282.94
405.988	275.94
406.212	275.94
406.436	264.94
406.66	277.94
406.883	267.94
407.107	279.94
407.331	304.94
407.555	299.94
407.778	327.94
408.002	295.94
408.226	298.94
408.449	280.94
408.673	286.94
408.896	289.94
409.12	286.94
409.344	287.94
409.567	276.94
409.791	274.94
410.014	283.94
410.238	282.94
410.461	295.94
410.685	271.94
410.908	268.94
411.132	271.94
411.355	274.94
411.578	263.94
411.802	258.94
412.025	242.94
412.249	270.94
412.472	258.94
412.695	264.94
412.919	253.94
413.142	229.94
413.365	242.94
413.589	239.94
413.812	245.94
414.035	242.94
414.258	258.94
414.482	258.94
414.705	263.94
414.928	272.94
415.151	257.94
415.374	233.94
415.597	243.94
415.821	240.94
416.044	250.94
416.267	237.94
416.49	253.94
416.713	257.94
416.936	254.94
417.159	244.94
417.382	256.94
417.605	243.94
417.828	250.94
418.051	246.94
418.274	247.94
418.497	248.94
418.72	248.94
418.943	251.94
419.166	279.94
419.389	273.94
419.611	271.94
419.834	261.94
420.057	253.94
420.28	245.94
420.503	241.94
420.726	235.94
420.948	247.94
421.171	253.94
421.394	226.94
421.617	239.94
421.839	241.94
422.062	259.94
422.285	253.94
422.507	264.94
422.73	262.94
422.953	251.94
423.175	264.94
423.398	266.94
423.621	239.94
423.843	266.94
424.066	262.94
424.288	266.94
424.511	269.94
424.733	257.94
424.956	265.94
425.178	256.94
425.401	258.94
425.623	245.94
425.846	237.94
426.068	258.94
426.291	237.94
426.513	248.94
426.735	243.94
426.958	214.94
427.18	221.94
427.402	251.94
427.625	247.94
427.847	226.94
428.069	233.94
428.292	231.94
428.514	230.94
428.736	226.94
428.958	216.94
429.181	238.94
429.403	214.94
429.625	224.94
429.847	208.94
430.069	219.94
430.292	233.94
430.514	217.94
430.736	234.94
430.958	235.94
431.18	226.94
431.402	217.94
431.624	230.94
431.846	222.94
432.068	239.94
432.29	231.94
432.512	231.94
432.734	233.94
432.956	237.94
433.178	229.94
433.4	231.94
433.622	241.94
433.844	242.94
434.066	245.94
434.287	240.94
434.509	226.94
434.731	234.94
434.953	257.94
435.175	258.94
435.397	256.94
435.618	242.94
435.84	241.94
436.062	232.94
436.284	226.94
436.505	237.94
436.727	221.94
436.949	226.94
437.17	224.94
437.392	228.94
437.614	212.94
437.835	233.94
438.057	212.94
438.278	212.94
438.5	225.94
438.721	226.94
438.943	214.94
439.165	233.94
439.386	225.94
439.608	239.94
439.829	231.94
440.05	243.94
440.272	239.94
440.493	232.94
440.715	234.94
440.936	231.94
441.158	256.94
441.379	239.94
441.6	248.94
441.822	261.94
442.043	258.94
442.264	265.94
442.486	243.94
442.707	244.94
442.928	253.94
443.149	248.94
443.371	229.94
443.592	231.94
443.813	245.94
444.034	253.94
444.255	260.94
444.476	273.94
444.698	276.94
444.919	285.94
445.14	400.94
445.361	344.94
445.582	251.94
445.803	239.94
446.024	231.94
446.245	214.94
446.466	225.94
446.687	238.94
446.908	242.94
447.129	229.94
447.35	225.94
447.571	222.94
447.792	223.94
448.013	221.94
448.234	220.94
448.455	209.94
448.675	213.94
448.896	220.94
449.117	219.94
449.338	205.94
449.559	229.94
449.779	221.94
450	224.94
450.221	214.94
450.442	214.94
450.662	227.94
450.883	212.94
451.104	229.94
451.324	206.94
451.545	225.94
451.766	208.94
451.986	220.94
452.207	218.94
452.428	211.94
452.648	215.94
452.869	226.94
453.089	222.94
453.31	216.94
453.53	218.94
453.751	194.94
453.971	209.94
454.192	203.94
454.412	218.94
454.633	199.94
454.853	191.94
455.073	200.94
455.294	206.94
455.514	202.94
455.734	202.94
455.955	196.94
456.175	229.94
456.395	203.94
456.616	205.94
456.836	203.94
457.056	193.94
457.276	193.94
457.497	189.94
457.717	197.94
457.937	203.94
458.157	213.94
458.377	209.94
458.598	225.94
458.818	192.94
459.038	213.94
459.258	210.94
459.478	237.94
459.698	210.94
459.918	243.94
460.138	246.94
460.358	265.94
460.578	267.94
460.798	255.94
461.018	270.94
461.238	263.94
461.458	247.94
461.678	262.94
461.898	257.94
462.118	260.94
462.338	289.94
462.558	285.94
462.777	283.94
462.997	323.94
463.217	352.94
463.437	344.94
463.657	309.94
463.876	310.94
464.096	296.94
464.316	294.94
464.536	294.94
464.755	286.94
464.975	282.94
465.195	276.94
465.414	272.94
465.634	247.94
465.854	246.94
466.073	239.94
466.293	226.94
466.512	224.94
466.732	220.94
466.951	225.94
467.171	218.94
467.391	231.94
467.61	225.94
467.829	228.94
468.049	245.94
468.268	228.94
468.488	202.94
468.707	207.94
468.927	210.94
469.146	206.94
469.365	223.94
469.585	230.94
469.804	238.94
470.023	242.94
470.243	230.94
470.462	219.94
470.681	232.94
470.901	224.94
471.12	221.94
471.339	238.94
471.558	229.94
471.777	233.94
471.997	232.94
472.216	226.94
472.435	230.94
472.654	210.94
472.873	221.94
473.092	222.94
473.311	224.94
473.53	218.94
473.749	227.94
473.968	209.94
474.187	215.94
474.406	215.94
474.625	213.94
474.844	217.94
475.063	224.94
475.282	230.94
475.501	216.94
475.72	220.94
475.939	224.94
476.158	217.94
476.377	228.94
476.596	230.94
476.814	223.94
477.033	214.94
477.252	235.94
477.471	239.94
477.69	235.94
477.908	263.94
478.127	231.94
478.346	255.94
478.564	264.94
478.783	244.94
479.002	263.94
479.22	266.94
479.439	256.94
479.658	260.94
479.876	247.94
480.095	259.94
480.313	261.94
480.532	284.94
480.751	282.94
480.969	258.94
481.188	257.94
481.406	237.94
481.624	251.94
481.843	266.94
482.061	245.94
482.28	239.94
482.498	239.94
482.717	233.94
482.935	232.94
483.153	238.94
483.372	234.94
483.59	241.94
483.808	230.94
484.027	254.94
484.245	254.94
484.463	240.94
484.681	243.94
484.9	273.94
485.118	254.94
485.336	235.94
485.554	254.94
485.772	262.94
485.99	267.94
486.209	276.94
486.427	264.94
486.645	252.94
486.863	265.94
487.081	258.94
487.299	259.94
487.517	248.94
487.735	263.94
487.953	268.94
488.171	259.94
488.389	248.94
488.607	254.94
488.825	252.94
489.043	241.94
489.261	243.94
489.479	256.94
489.696	268.94
489.914	255.94
490.132	247.94
490.35	266.94
490.568	253.94
490.786	241.94
491.003	272.94
491.221	264.94
491.439	247.94
491.657	267.94
491.874	259.94
492.092	262.94
492.31	266.94
492.527	271.94
492.745	271.94
492.963	268.94
493.18	279.94
493.398	270.94
493.615	271.94
493.833	280.94
494.05	262.94
494.268	280.94
494.485	273.94
494.703	266.94
494.92	273.94
495.138	255.94
495.355	287.94
495.573	277.94
495.79	258.94
496.008	268.94
496.225	285.94
496.442	264.94
496.66	291.94
496.877	303.94
497.094	280.94
497.312	267.94
497.529	270.94
497.746	297.94
497.963	300.94
498.181	307.94
498.398	339.94
498.615	334.94
498.832	301.94
499.049	373.94
499.267	395.94
499.484	443.94
499.701	466.94
499.918	526.94
500.135	587.94
500.352	670.94
500.569	694.94
500.786	685.94
501.003	647.94
501.22	589.94
501.437	520.94
501.654	457.94
501.871	431.94
502.088	401.94
502.305	360.94
502.522	350.94
502.739	350.94
502.956	340.94
503.172	295.94
503.389	314.94
