Data from 0.5MCu(NO3)2.Standard.Lamp.E10.CV._HRD10591_16-06-40-753.txt Node
Date: Mon Jul 22 16:06:40 EDT 2019
User: cochatt
Spectrometer: HR+D1059
Trigger mode: 1
Integration Time (sec): 1.000000E-1
Scans to average: 1
Electric dark correction enabled: true
Nonlinearity correction enabled: false
Boxcar width: 0
XAxis mode: Wavelengths
Number of Pixels in Spectrum: 2048
>>>>>Begin Spectral Data<<<<<
223.165	-6.88
223.4	-6.88
223.635	-6.88
223.869	-26.88
224.104	-18.88
224.338	1.12
224.573	-12.88
224.808	-20.88
225.042	-14.88
225.277	-1.88
225.511	-5.88
225.746	2.12
225.98	10.12
226.215	19.12
226.449	20.12
226.683	-1.88
226.918	31.12
227.152	27.12
227.387	38.12
227.621	43.12
227.856	38.12
228.09	36.12
228.324	56.12
228.559	60.12
228.793	66.12
229.027	60.12
229.262	81.12
229.496	64.12
229.73	76.12
229.964	74.12
230.199	76.12
230.433	78.12
230.667	82.12
230.901	89.12
231.136	85.12
231.37	84.12
231.604	89.12
231.838	95.12
232.072	94.12
232.306	97.12
232.541	87.12
232.775	92.12
233.009	88.12
233.243	81.12
233.477	88.12
233.711	87.12
233.945	73.12
234.179	91.12
234.413	77.12
234.647	88.12
234.881	87.12
235.115	97.12
235.349	86.12
235.583	91.12
235.817	97.12
236.051	75.12
236.285	100.12
236.519	89.12
236.753	82.12
236.987	95.12
237.221	98.12
237.455	87.12
237.689	84.12
237.922	81.12
238.156	88.12
238.39	103.12
238.624	84.12
238.858	73.12
239.091	101.12
239.325	100.12
239.559	90.12
239.793	91.12
240.027	96.12
240.26	88.12
240.494	90.12
240.728	94.12
240.961	100.12
241.195	90.12
241.429	106.12
241.662	97.12
241.896	87.12
242.13	98.12
242.363	100.12
242.597	102.12
242.83	102.12
243.064	114.12
243.298	108.12
243.531	93.12
243.765	81.12
243.998	102.12
244.232	105.12
244.465	101.12
244.699	92.12
244.932	81.12
245.166	100.12
245.399	89.12
245.633	99.12
245.866	111.12
246.099	98.12
246.333	98.12
246.566	102.12
246.8	104.12
247.033	100.12
247.266	116.12
247.5	107.12
247.733	98.12
247.966	91.12
248.2	109.12
248.433	98.12
248.666	97.12
248.899	103.12
249.133	112.12
249.366	100.12
249.599	103.12
249.832	109.12
250.066	107.12
250.299	85.12
250.532	102.12
250.765	105.12
250.998	124.12
251.231	109.12
251.465	103.12
251.698	117.12
251.931	105.12
252.164	105.12
252.397	107.12
252.63	100.12
252.863	112.12
253.096	114.12
253.329	110.12
253.562	115.12
253.795	102.12
254.028	115.12
254.261	102.12
254.494	102.12
254.727	122.12
254.96	114.12
255.193	101.12
255.426	107.12
255.659	113.12
255.892	116.12
256.124	104.12
256.357	107.12
256.59	103.12
256.823	104.12
257.056	104.12
257.289	127.12
257.521	124.12
257.754	125.12
257.987	109.12
258.22	112.12
258.452	102.12
258.685	124.12
258.918	108.12
259.151	116.12
259.383	120.12
259.616	128.12
259.849	117.12
260.081	115.12
260.314	124.12
260.547	125.12
260.779	108.12
261.012	118.12
261.244	136.12
261.477	125.12
261.71	134.12
261.942	115.12
262.175	124.12
262.407	126.12
262.64	115.12
262.872	126.12
263.105	125.12
263.337	131.12
263.57	136.12
263.802	122.12
264.035	128.12
264.267	122.12
264.499	126.12
264.732	132.12
264.964	113.12
265.197	122.12
265.429	134.12
265.661	118.12
265.894	134.12
266.126	128.12
266.358	115.12
266.591	143.12
266.823	138.12
267.055	127.12
267.287	125.12
267.52	110.12
267.752	126.12
267.984	130.12
268.216	130.12
268.448	137.12
268.681	122.12
268.913	129.12
269.145	140.12
269.377	135.12
269.609	140.12
269.841	133.12
270.073	128.12
270.306	126.12
270.538	125.12
270.77	129.12
271.002	136.12
271.234	138.12
271.466	135.12
271.698	142.12
271.93	145.12
272.162	131.12
272.394	132.12
272.626	138.12
272.858	140.12
273.09	130.12
273.322	149.12
273.553	139.12
273.785	141.12
274.017	132.12
274.249	146.12
274.481	138.12
274.713	129.12
274.945	148.12
275.176	135.12
275.408	146.12
275.64	143.12
275.872	143.12
276.104	139.12
276.335	130.12
276.567	148.12
276.799	148.12
277.031	132.12
277.262	148.12
277.494	141.12
277.726	164.12
277.957	146.12
278.189	136.12
278.421	142.12
278.652	141.12
278.884	147.12
279.115	143.12
279.347	132.12
279.579	138.12
279.81	152.12
280.042	154.12
280.273	149.12
280.505	157.12
280.736	144.12
280.968	152.12
281.199	133.12
281.431	139.12
281.662	139.12
281.894	142.12
282.125	160.12
282.356	148.12
282.588	158.12
282.819	132.12
283.051	124.12
283.282	157.12
283.513	137.12
283.745	146.12
283.976	165.12
284.207	160.12
284.439	148.12
284.67	146.12
284.901	152.12
285.132	157.12
285.364	156.12
285.595	172.12
285.826	154.12
286.057	162.12
286.288	148.12
286.52	148.12
286.751	149.12
286.982	178.12
287.213	169.12
287.444	156.12
287.675	163.12
287.906	155.12
288.138	169.12
288.369	162.12
288.6	169.12
288.831	167.12
289.062	160.12
289.293	168.12
289.524	167.12
289.755	153.12
289.986	172.12
290.217	166.12
290.448	149.12
290.679	188.12
290.91	163.12
291.141	157.12
291.371	148.12
291.602	165.12
291.833	158.12
292.064	149.12
292.295	170.12
292.526	181.12
292.757	170.12
292.987	147.12
293.218	156.12
293.449	158.12
293.68	150.12
293.91	166.12
294.141	156.12
294.372	171.12
294.603	169.12
294.833	165.12
295.064	162.12
295.295	166.12
295.525	157.12
295.756	169.12
295.987	170.12
296.217	159.12
296.448	183.12
296.679	176.12
296.909	174.12
297.14	167.12
297.37	168.12
297.601	159.12
297.831	173.12
298.062	183.12
298.292	172.12
298.523	170.12
298.753	181.12
298.984	195.12
299.214	172.12
299.445	197.12
299.675	169.12
299.905	178.12
300.136	177.12
300.366	186.12
300.597	189.12
300.827	198.12
301.057	176.12
301.288	176.12
301.518	172.12
301.748	188.12
301.979	173.12
302.209	197.12
302.439	172.12
302.669	168.12
302.9	182.12
303.13	182.12
303.36	197.12
303.59	190.12
303.82	185.12
304.051	190.12
304.281	179.12
304.511	179.12
304.741	191.12
304.971	184.12
305.201	181.12
305.431	188.12
305.661	168.12
305.891	176.12
306.121	180.12
306.352	186.12
306.582	198.12
306.812	183.12
307.042	181.12
307.272	174.12
307.502	172.12
307.731	178.12
307.961	177.12
308.191	189.12
308.421	179.12
308.651	174.12
308.881	170.12
309.111	177.12
309.341	158.12
309.571	180.12
309.8	175.12
310.03	177.12
310.26	169.12
310.49	176.12
310.72	176.12
310.949	171.12
311.179	177.12
311.409	174.12
311.639	167.12
311.868	177.12
312.098	196.12
312.328	176.12
312.557	172.12
312.787	184.12
313.017	180.12
313.246	173.12
313.476	182.12
313.706	189.12
313.935	176.12
314.165	196.12
314.394	185.12
314.624	182.12
314.853	178.12
315.083	176.12
315.312	174.12
315.542	187.12
315.771	179.12
316.001	190.12
316.23	194.12
316.46	197.12
316.689	182.12
316.919	183.12
317.148	177.12
317.377	182.12
317.607	184.12
317.836	173.12
318.065	171.12
318.295	188.12
318.524	180.12
318.753	188.12
318.983	192.12
319.212	195.12
319.441	186.12
319.67	178.12
319.9	172.12
320.129	194.12
320.358	180.12
320.587	189.12
320.816	172.12
321.046	184.12
321.275	183.12
321.504	181.12
321.733	176.12
321.962	172.12
322.191	176.12
322.42	185.12
322.649	193.12
322.878	177.12
323.108	182.12
323.337	190.12
323.566	188.12
323.795	195.12
324.024	193.12
324.253	204.12
324.482	180.12
324.71	199.12
324.939	187.12
325.168	192.12
325.397	201.12
325.626	207.12
325.855	194.12
326.084	207.12
326.313	206.12
326.542	198.12
326.77	209.12
326.999	202.12
327.228	190.12
327.457	193.12
327.686	186.12
327.914	182.12
328.143	191.12
328.372	206.12
328.6	210.12
328.829	203.12
329.058	214.12
329.287	205.12
329.515	197.12
329.744	201.12
329.972	205.12
330.201	197.12
330.43	209.12
330.658	192.12
330.887	216.12
331.115	198.12
331.344	212.12
331.572	207.12
331.801	211.12
332.03	225.12
332.258	221.12
332.486	214.12
332.715	229.12
332.943	225.12
333.172	252.12
333.4	276.12
333.629	238.12
333.857	262.12
334.085	236.12
334.314	235.12
334.542	257.12
334.771	241.12
334.999	217.12
335.227	224.12
335.455	233.12
335.684	230.12
335.912	235.12
336.14	219.12
336.369	210.12
336.597	224.12
336.825	210.12
337.053	219.12
337.281	225.12
337.51	200.12
337.738	205.12
337.966	213.12
338.194	206.12
338.422	186.12
338.65	201.12
338.878	214.12
339.106	193.12
339.334	216.12
339.562	202.12
339.79	205.12
340.018	203.12
340.246	200.12
340.474	199.12
340.702	195.12
340.93	196.12
341.158	187.12
341.386	203.12
341.614	211.12
341.842	213.12
342.07	205.12
342.298	196.12
342.526	217.12
342.754	193.12
342.981	197.12
343.209	216.12
343.437	223.12
343.665	229.12
343.893	236.12
344.12	261.12
344.348	234.12
344.576	216.12
344.804	204.12
345.031	215.12
345.259	201.12
345.487	195.12
345.714	202.12
345.942	188.12
346.17	185.12
346.397	188.12
346.625	193.12
346.853	211.12
347.08	202.12
347.308	212.12
347.535	204.12
347.763	201.12
347.99	188.12
348.218	208.12
348.445	192.12
348.673	197.12
348.9	192.12
349.128	204.12
349.355	223.12
349.583	210.12
349.81	193.12
350.037	177.12
350.265	198.12
350.492	201.12
350.72	191.12
350.947	193.12
351.174	200.12
351.402	187.12
351.629	197.12
351.856	197.12
352.083	192.12
352.311	180.12
352.538	186.12
352.765	187.12
352.992	188.12
353.22	211.12
353.447	184.12
353.674	196.12
353.901	210.12
354.128	193.12
354.355	196.12
354.583	195.12
354.81	212.12
355.037	192.12
355.264	209.12
355.491	204.12
355.718	188.12
355.945	199.12
356.172	203.12
356.399	195.12
356.626	196.12
356.853	189.12
357.08	184.12
357.307	197.12
357.534	184.12
357.761	194.12
357.988	200.12
358.215	190.12
358.441	192.12
358.668	180.12
358.895	186.12
359.122	193.12
359.349	195.12
359.576	190.12
359.802	196.12
360.029	189.12
360.256	201.12
360.483	197.12
360.709	190.12
360.936	196.12
361.163	199.12
361.39	213.12
361.616	192.12
361.843	193.12
362.07	192.12
362.296	172.12
362.523	176.12
362.749	202.12
362.976	190.12
363.203	201.12
363.429	166.12
363.656	194.12
363.882	181.12
364.109	178.12
364.335	194.12
364.562	179.12
364.788	178.12
365.015	201.12
365.241	187.12
365.468	177.12
365.694	187.12
365.92	189.12
366.147	189.12
366.373	196.12
366.599	183.12
366.826	190.12
367.052	201.12
367.278	186.12
367.505	182.12
367.731	202.12
367.957	196.12
368.184	199.12
368.41	198.12
368.636	194.12
368.862	178.12
369.089	194.12
369.315	189.12
369.541	198.12
369.767	201.12
369.993	193.12
370.219	197.12
370.445	194.12
370.672	205.12
370.898	180.12
371.124	200.12
371.35	205.12
371.576	203.12
371.802	190.12
372.028	194.12
372.254	214.12
372.48	193.12
372.706	210.12
372.932	209.12
373.158	204.12
373.384	202.12
373.61	205.12
373.835	202.12
374.061	209.12
374.287	205.12
374.513	208.12
374.739	209.12
374.965	212.12
375.191	217.12
375.416	237.12
375.642	228.12
375.868	188.12
376.094	201.12
376.319	202.12
376.545	214.12
376.771	219.12
376.997	211.12
377.222	201.12
377.448	200.12
377.674	210.12
377.899	196.12
378.125	176.12
378.35	195.12
378.576	196.12
378.802	213.12
379.027	201.12
379.253	209.12
379.478	201.12
379.704	227.12
379.929	199.12
380.155	204.12
380.38	201.12
380.606	189.12
380.831	191.12
381.057	192.12
381.282	208.12
381.507	206.12
381.733	206.12
381.958	190.12
382.184	213.12
382.409	184.12
382.634	200.12
382.86	207.12
383.085	205.12
383.31	212.12
383.535	202.12
383.761	219.12
383.986	211.12
384.211	204.12
384.436	222.12
384.662	224.12
384.887	233.12
385.112	235.12
385.337	248.12
385.562	215.12
385.787	233.12
386.013	221.12
386.238	224.12
386.463	212.12
386.688	231.12
386.913	232.12
387.138	225.12
387.363	224.12
387.588	223.12
387.813	231.12
388.038	222.12
388.263	227.12
388.488	224.12
388.713	227.12
388.938	208.12
389.163	235.12
389.387	229.12
389.612	206.12
389.837	206.12
390.062	197.12
390.287	231.12
390.512	225.12
390.736	217.12
390.961	210.12
391.186	228.12
391.411	236.12
391.636	244.12
391.86	251.12
392.085	234.12
392.31	242.12
392.534	236.12
392.759	242.12
392.984	235.12
393.208	236.12
393.433	234.12
393.658	228.12
393.882	238.12
394.107	261.12
394.331	242.12
394.556	255.12
394.78	229.12
395.005	222.12
395.229	233.12
395.454	236.12
395.678	236.12
395.903	268.12
396.127	253.12
396.352	243.12
396.576	224.12
396.801	250.12
397.025	232.12
397.249	239.12
397.474	240.12
397.698	253.12
397.922	230.12
398.147	235.12
398.371	235.12
398.595	249.12
398.82	264.12
399.044	262.12
399.268	309.12
399.492	335.12
399.717	403.12
399.941	398.12
400.165	350.12
400.389	312.12
400.613	289.12
400.837	270.12
401.062	252.12
401.286	265.12
401.51	264.12
401.734	269.12
401.958	270.12
402.182	245.12
402.406	269.12
402.63	276.12
402.854	287.12
403.078	301.12
403.302	310.12
403.526	287.12
403.75	313.12
403.974	300.12
404.198	308.12
404.422	307.12
404.645	301.12
404.869	296.12
405.093	313.12
405.317	288.12
405.541	286.12
405.765	285.12
405.988	284.12
406.212	283.12
406.436	299.12
406.66	305.12
406.883	292.12
407.107	308.12
407.331	319.12
407.555	347.12
407.778	333.12
408.002	317.12
408.226	320.12
408.449	296.12
408.673	285.12
408.896	296.12
409.12	292.12
409.344	293.12
409.567	291.12
409.791	300.12
410.014	291.12
410.238	302.12
410.461	292.12
410.685	295.12
410.908	300.12
411.132	266.12
411.355	290.12
411.578	272.12
411.802	271.12
412.025	275.12
412.249	282.12
412.472	285.12
412.695	267.12
412.919	253.12
413.142	264.12
413.365	262.12
413.589	274.12
413.812	263.12
414.035	270.12
414.258	268.12
414.482	259.12
414.705	256.12
414.928	273.12
415.151	242.12
415.374	271.12
415.597	248.12
415.821	267.12
416.044	250.12
416.267	261.12
416.49	272.12
416.713	278.12
416.936	271.12
417.159	269.12
417.382	270.12
417.605	268.12
417.828	265.12
418.051	264.12
418.274	254.12
418.497	253.12
418.72	261.12
418.943	269.12
419.166	286.12
419.389	303.12
419.611	308.12
419.834	282.12
420.057	284.12
420.28	267.12
420.503	268.12
420.726	271.12
420.948	243.12
421.171	260.12
421.394	247.12
421.617	263.12
421.839	260.12
422.062	249.12
422.285	258.12
422.507	270.12
422.73	280.12
422.953	256.12
423.175	252.12
423.398	284.12
423.621	298.12
423.843	272.12
424.066	280.12
424.288	280.12
424.511	282.12
424.733	275.12
424.956	265.12
425.178	264.12
425.401	250.12
425.623	254.12
425.846	248.12
426.068	268.12
426.291	255.12
426.513	250.12
426.735	263.12
426.958	254.12
427.18	240.12
427.402	242.12
427.625	240.12
427.847	240.12
428.069	252.12
428.292	254.12
428.514	240.12
428.736	237.12
428.958	240.12
429.181	241.12
429.403	222.12
429.625	230.12
429.847	241.12
430.069	242.12
430.292	236.12
430.514	209.12
430.736	225.12
430.958	232.12
431.18	217.12
431.402	236.12
431.624	254.12
431.846	237.12
432.068	246.12
432.29	234.12
432.512	228.12
432.734	237.12
432.956	244.12
433.178	242.12
433.4	233.12
433.622	251.12
433.844	224.12
434.066	242.12
434.287	231.12
434.509	246.12
434.731	267.12
434.953	264.12
435.175	270.12
435.397	284.12
435.618	247.12
435.84	244.12
436.062	255.12
436.284	233.12
436.505	236.12
436.727	237.12
436.949	240.12
437.17	256.12
437.392	233.12
437.614	236.12
437.835	238.12
438.057	243.12
438.278	217.12
438.5	230.12
438.721	235.12
438.943	218.12
439.165	228.12
439.386	236.12
439.608	242.12
439.829	243.12
440.05	254.12
440.272	236.12
440.493	237.12
440.715	243.12
440.936	253.12
441.158	241.12
441.379	242.12
441.6	268.12
441.822	261.12
442.043	267.12
442.264	286.12
442.486	276.12
442.707	249.12
442.928	253.12
443.149	246.12
443.371	262.12
443.592	254.12
443.813	269.12
444.034	278.12
444.255	280.12
444.476	272.12
444.698	292.12
444.919	333.12
445.14	386.12
445.361	310.12
445.582	258.12
445.803	245.12
446.024	248.12
446.245	245.12
446.466	233.12
446.687	256.12
446.908	249.12
447.129	233.12
447.35	230.12
447.571	235.12
447.792	234.12
448.013	227.12
448.234	242.12
448.455	218.12
448.675	232.12
448.896	236.12
449.117	222.12
449.338	238.12
449.559	222.12
449.779	199.12
450	204.12
450.221	217.12
450.442	246.12
450.662	235.12
450.883	237.12
451.104	234.12
451.324	228.12
451.545	207.12
451.766	218.12
451.986	221.12
452.207	220.12
452.428	218.12
452.648	216.12
452.869	211.12
453.089	229.12
453.31	233.12
453.53	218.12
453.751	207.12
453.971	224.12
454.192	209.12
454.412	199.12
454.633	225.12
454.853	214.12
455.073	223.12
455.294	216.12
455.514	220.12
455.734	197.12
455.955	214.12
456.175	205.12
456.395	207.12
456.616	204.12
456.836	212.12
457.056	217.12
457.276	211.12
457.497	209.12
457.717	208.12
457.937	206.12
458.157	219.12
458.377	223.12
458.598	218.12
458.818	209.12
459.038	223.12
459.258	223.12
459.478	232.12
459.698	242.12
459.918	246.12
460.138	258.12
460.358	273.12
460.578	268.12
460.798	269.12
461.018	274.12
461.238	282.12
461.458	289.12
461.678	269.12
461.898	269.12
462.118	292.12
462.338	293.12
462.558	299.12
462.777	300.12
462.997	320.12
463.217	352.12
463.437	383.12
463.657	309.12
463.876	304.12
464.096	308.12
464.316	318.12
464.536	329.12
464.755	316.12
464.975	296.12
465.195	303.12
465.414	266.12
465.634	261.12
465.854	249.12
466.073	249.12
466.293	235.12
466.512	235.12
466.732	236.12
466.951	225.12
467.171	245.12
467.391	241.12
467.61	234.12
467.829	227.12
468.049	245.12
468.268	226.12
468.488	233.12
468.707	236.12
468.927	228.12
469.146	200.12
469.365	231.12
469.585	217.12
469.804	230.12
470.023	256.12
470.243	248.12
470.462	247.12
470.681	251.12
470.901	249.12
471.12	258.12
471.339	236.12
471.558	241.12
471.777	240.12
471.997	234.12
472.216	228.12
472.435	227.12
472.654	230.12
472.873	230.12
473.092	244.12
473.311	233.12
473.53	224.12
473.749	235.12
473.968	234.12
474.187	233.12
474.406	238.12
474.625	211.12
474.844	231.12
475.063	208.12
475.282	218.12
475.501	238.12
475.72	233.12
475.939	218.12
476.158	224.12
476.377	223.12
476.596	217.12
476.814	226.12
477.033	237.12
477.252	245.12
477.471	241.12
477.69	238.12
477.908	249.12
478.127	268.12
478.346	263.12
478.564	260.12
478.783	270.12
479.002	272.12
479.22	280.12
479.439	265.12
479.658	262.12
479.876	263.12
480.095	280.12
480.313	268.12
480.532	290.12
480.751	281.12
480.969	268.12
481.188	270.12
481.406	274.12
481.624	252.12
481.843	247.12
482.061	263.12
482.28	262.12
482.498	251.12
482.717	255.12
482.935	244.12
483.153	237.12
483.372	241.12
483.59	264.12
483.808	262.12
484.027	257.12
484.245	260.12
484.463	259.12
484.681	264.12
484.9	284.12
485.118	265.12
485.336	263.12
485.554	260.12
485.772	285.12
485.99	292.12
486.209	294.12
486.427	260.12
486.645	261.12
486.863	285.12
487.081	270.12
487.299	270.12
487.517	271.12
487.735	263.12
487.953	266.12
488.171	268.12
488.389	261.12
488.607	264.12
488.825	251.12
489.043	261.12
489.261	268.12
489.479	252.12
489.696	269.12
489.914	260.12
490.132	261.12
490.35	280.12
490.568	275.12
490.786	270.12
491.003	272.12
491.221	276.12
491.439	284.12
491.657	263.12
491.874	274.12
492.092	274.12
492.31	268.12
492.527	289.12
492.745	264.12
492.963	276.12
493.18	278.12
493.398	275.12
493.615	281.12
493.833	265.12
494.05	299.12
494.268	274.12
494.485	280.12
494.703	278.12
494.92	292.12
495.138	269.12
495.355	268.12
495.573	270.12
495.79	270.12
496.008	274.12
496.225	285.12
496.442	286.12
496.66	276.12
496.877	286.12
497.094	293.12
497.312	296.12
497.529	290.12
497.746	331.12
497.963	308.12
498.181	322.12
498.398	323.12
498.615	352.12
498.832	368.12
499.049	400.12
499.267	426.12
499.484	473.12
499.701	511.12
499.918	560.12
500.135	629.12
500.352	740.12
500.569	780.12
500.786	757.12
501.003	695.12
501.22	648.12
501.437	545.12
501.654	475.12
501.871	443.12
502.088	432.12
502.305	382.12
502.522	383.12
502.739	382.12
502.956	330.12
503.172	321.12
