Data from 0.5MCu(NO3)2.Standard.Lamp.E10.CV._HRD10591_16-04-50-753.txt Node
Date: Mon Jul 22 16:04:50 EDT 2019
User: cochatt
Spectrometer: HR+D1059
Trigger mode: 1
Integration Time (sec): 1.000000E-1
Scans to average: 1
Electric dark correction enabled: true
Nonlinearity correction enabled: false
Boxcar width: 0
XAxis mode: Wavelengths
Number of Pixels in Spectrum: 2048
>>>>>Begin Spectral Data<<<<<
223.165	-20.56
223.4	-20.56
223.635	-20.56
223.869	-16.56
224.104	-20.56
224.338	-21.56
224.573	-10.56
224.808	-10.56
225.042	-21.56
225.277	-3.56
225.511	-10.56
225.746	6.44
225.98	16.44
226.215	6.44
226.449	20.44
226.683	33.44
226.918	18.44
227.152	34.44
227.387	19.44
227.621	34.44
227.856	39.44
228.09	55.44
228.324	64.44
228.559	63.44
228.793	59.44
229.027	73.44
229.262	69.44
229.496	86.44
229.73	82.44
229.964	75.44
230.199	79.44
230.433	77.44
230.667	81.44
230.901	89.44
231.136	96.44
231.37	103.44
231.604	94.44
231.838	80.44
232.072	82.44
232.306	100.44
232.541	101.44
232.775	100.44
233.009	97.44
233.243	98.44
233.477	105.44
233.711	83.44
233.945	84.44
234.179	82.44
234.413	106.44
234.647	100.44
234.881	97.44
235.115	108.44
235.349	102.44
235.583	94.44
235.817	97.44
236.051	87.44
236.285	96.44
236.519	99.44
236.753	97.44
236.987	104.44
237.221	115.44
237.455	100.44
237.689	100.44
237.922	92.44
238.156	92.44
238.39	108.44
238.624	88.44
238.858	97.44
239.091	69.44
239.325	91.44
239.559	98.44
239.793	105.44
240.027	116.44
240.26	94.44
240.494	72.44
240.728	114.44
240.961	104.44
241.195	104.44
241.429	110.44
241.662	94.44
241.896	87.44
242.13	89.44
242.363	116.44
242.597	91.44
242.83	114.44
243.064	115.44
243.298	121.44
243.531	92.44
243.765	111.44
243.998	103.44
244.232	105.44
244.465	116.44
244.699	102.44
244.932	107.44
245.166	107.44
245.399	106.44
245.633	106.44
245.866	105.44
246.099	97.44
246.333	108.44
246.566	108.44
246.8	108.44
247.033	116.44
247.266	117.44
247.5	93.44
247.733	110.44
247.966	117.44
248.2	118.44
248.433	118.44
248.666	112.44
248.899	128.44
249.133	103.44
249.366	116.44
249.599	114.44
249.832	130.44
250.066	125.44
250.299	115.44
250.532	116.44
250.765	123.44
250.998	107.44
251.231	118.44
251.465	126.44
251.698	123.44
251.931	109.44
252.164	130.44
252.397	126.44
252.63	104.44
252.863	133.44
253.096	110.44
253.329	127.44
253.562	126.44
253.795	124.44
254.028	135.44
254.261	125.44
254.494	119.44
254.727	139.44
254.96	122.44
255.193	124.44
255.426	112.44
255.659	136.44
255.892	127.44
256.124	125.44
256.357	117.44
256.59	120.44
256.823	125.44
257.056	127.44
257.289	123.44
257.521	130.44
257.754	132.44
257.987	119.44
258.22	130.44
258.452	121.44
258.685	134.44
258.918	132.44
259.151	124.44
259.383	130.44
259.616	132.44
259.849	131.44
260.081	132.44
260.314	130.44
260.547	140.44
260.779	131.44
261.012	123.44
261.244	117.44
261.477	134.44
261.71	120.44
261.942	132.44
262.175	123.44
262.407	145.44
262.64	130.44
262.872	140.44
263.105	129.44
263.337	143.44
263.57	128.44
263.802	155.44
264.035	142.44
264.267	125.44
264.499	159.44
264.732	150.44
264.964	148.44
265.197	132.44
265.429	144.44
265.661	126.44
265.894	139.44
266.126	143.44
266.358	154.44
266.591	150.44
266.823	155.44
267.055	152.44
267.287	153.44
267.52	158.44
267.752	155.44
267.984	156.44
268.216	159.44
268.448	156.44
268.681	150.44
268.913	150.44
269.145	153.44
269.377	146.44
269.609	152.44
269.841	156.44
270.073	146.44
270.306	163.44
270.538	161.44
270.77	164.44
271.002	138.44
271.234	142.44
271.466	169.44
271.698	156.44
271.93	143.44
272.162	150.44
272.394	163.44
272.626	164.44
272.858	154.44
273.09	161.44
273.322	162.44
273.553	143.44
273.785	153.44
274.017	173.44
274.249	139.44
274.481	172.44
274.713	151.44
274.945	155.44
275.176	157.44
275.408	156.44
275.64	162.44
275.872	154.44
276.104	159.44
276.335	168.44
276.567	156.44
276.799	164.44
277.031	160.44
277.262	161.44
277.494	176.44
277.726	161.44
277.957	155.44
278.189	175.44
278.421	168.44
278.652	172.44
278.884	157.44
279.115	183.44
279.347	170.44
279.579	176.44
279.81	176.44
280.042	167.44
280.273	169.44
280.505	182.44
280.736	175.44
280.968	171.44
281.199	176.44
281.431	186.44
281.662	198.44
281.894	178.44
282.125	165.44
282.356	182.44
282.588	162.44
282.819	183.44
283.051	180.44
283.282	184.44
283.513	200.44
283.745	188.44
283.976	184.44
284.207	186.44
284.439	171.44
284.67	179.44
284.901	167.44
285.132	187.44
285.364	166.44
285.595	176.44
285.826	185.44
286.057	195.44
286.288	182.44
286.52	215.44
286.751	188.44
286.982	193.44
287.213	186.44
287.444	181.44
287.675	202.44
287.906	184.44
288.138	178.44
288.369	200.44
288.6	191.44
288.831	185.44
289.062	200.44
289.293	194.44
289.524	188.44
289.755	189.44
289.986	196.44
290.217	197.44
290.448	193.44
290.679	208.44
290.91	186.44
291.141	201.44
291.371	192.44
291.602	185.44
291.833	180.44
292.064	193.44
292.295	206.44
292.526	197.44
292.757	211.44
292.987	188.44
293.218	196.44
293.449	213.44
293.68	213.44
293.91	189.44
294.141	206.44
294.372	197.44
294.603	204.44
294.833	206.44
295.064	213.44
295.295	209.44
295.525	214.44
295.756	209.44
295.987	218.44
296.217	225.44
296.448	219.44
296.679	216.44
296.909	208.44
297.14	220.44
297.37	202.44
297.601	224.44
297.831	211.44
298.062	209.44
298.292	196.44
298.523	233.44
298.753	224.44
298.984	212.44
299.214	208.44
299.445	224.44
299.675	215.44
299.905	199.44
300.136	209.44
300.366	207.44
300.597	217.44
300.827	231.44
301.057	234.44
301.288	228.44
301.518	203.44
301.748	230.44
301.979	231.44
302.209	213.44
302.439	228.44
302.669	223.44
302.9	212.44
303.13	227.44
303.36	206.44
303.59	221.44
303.82	207.44
304.051	216.44
304.281	229.44
304.511	221.44
304.741	206.44
304.971	209.44
305.201	226.44
305.431	216.44
305.661	214.44
305.891	219.44
306.121	214.44
306.352	234.44
306.582	220.44
306.812	216.44
307.042	226.44
307.272	218.44
307.502	205.44
307.731	230.44
307.961	226.44
308.191	210.44
308.421	213.44
308.651	217.44
308.881	229.44
309.111	211.44
309.341	203.44
309.571	213.44
309.8	212.44
310.03	212.44
310.26	215.44
310.49	210.44
310.72	206.44
310.949	225.44
311.179	235.44
311.409	241.44
311.639	224.44
311.868	232.44
312.098	203.44
312.328	234.44
312.557	243.44
312.787	232.44
313.017	234.44
313.246	213.44
313.476	225.44
313.706	241.44
313.935	226.44
314.165	216.44
314.394	229.44
314.624	225.44
314.853	233.44
315.083	221.44
315.312	231.44
315.542	228.44
315.771	230.44
316.001	222.44
316.23	225.44
316.46	235.44
316.689	221.44
316.919	224.44
317.148	227.44
317.377	216.44
317.607	232.44
317.836	206.44
318.065	225.44
318.295	213.44
318.524	218.44
318.753	232.44
318.983	237.44
319.212	242.44
319.441	225.44
319.67	211.44
319.9	215.44
320.129	203.44
320.358	228.44
320.587	235.44
320.816	232.44
321.046	239.44
321.275	202.44
321.504	220.44
321.733	231.44
321.962	231.44
322.191	226.44
322.42	228.44
322.649	249.44
322.878	228.44
323.108	227.44
323.337	213.44
323.566	229.44
323.795	236.44
324.024	245.44
324.253	231.44
324.482	226.44
324.71	221.44
324.939	219.44
325.168	246.44
325.397	242.44
325.626	228.44
325.855	248.44
326.084	232.44
326.313	257.44
326.542	239.44
326.77	258.44
326.999	258.44
327.228	242.44
327.457	249.44
327.686	258.44
327.914	242.44
328.143	240.44
328.372	244.44
328.6	247.44
328.829	237.44
329.058	236.44
329.287	255.44
329.515	257.44
329.744	236.44
329.972	241.44
330.201	251.44
330.43	264.44
330.658	245.44
330.887	262.44
331.115	241.44
331.344	256.44
331.572	266.44
331.801	251.44
332.03	251.44
332.258	277.44
332.486	263.44
332.715	287.44
332.943	305.44
333.172	321.44
333.4	322.44
333.629	318.44
333.857	308.44
334.085	304.44
334.314	314.44
334.542	298.44
334.771	299.44
334.999	301.44
335.227	289.44
335.455	275.44
335.684	297.44
335.912	284.44
336.14	274.44
336.369	288.44
336.597	292.44
336.825	285.44
337.053	270.44
337.281	280.44
337.51	264.44
337.738	268.44
337.966	268.44
338.194	263.44
338.422	260.44
338.65	252.44
338.878	275.44
339.106	257.44
339.334	280.44
339.562	266.44
339.79	260.44
340.018	258.44
340.246	260.44
340.474	233.44
340.702	260.44
340.93	245.44
341.158	259.44
341.386	265.44
341.614	261.44
341.842	244.44
342.07	233.44
342.298	240.44
342.526	244.44
342.754	262.44
342.981	245.44
343.209	245.44
343.437	278.44
343.665	270.44
343.893	287.44
344.12	289.44
344.348	272.44
344.576	290.44
344.804	273.44
345.031	262.44
345.259	247.44
345.487	266.44
345.714	241.44
345.942	245.44
346.17	261.44
346.397	248.44
346.625	235.44
346.853	249.44
347.08	244.44
347.308	233.44
347.535	233.44
347.763	246.44
347.99	254.44
348.218	270.44
348.445	236.44
348.673	244.44
348.9	243.44
349.128	237.44
349.355	247.44
349.583	244.44
349.81	249.44
350.037	248.44
350.265	249.44
350.492	222.44
350.72	222.44
350.947	224.44
351.174	235.44
351.402	245.44
351.629	246.44
351.856	241.44
352.083	234.44
352.311	240.44
352.538	235.44
352.765	228.44
352.992	222.44
353.22	221.44
353.447	224.44
353.674	246.44
353.901	236.44
354.128	229.44
354.355	236.44
354.583	229.44
354.81	257.44
355.037	265.44
355.264	250.44
355.491	242.44
355.718	236.44
355.945	240.44
356.172	248.44
356.399	235.44
356.626	237.44
356.853	242.44
357.08	243.44
357.307	228.44
357.534	227.44
357.761	219.44
357.988	227.44
358.215	244.44
358.441	244.44
358.668	252.44
358.895	241.44
359.122	244.44
359.349	230.44
359.576	242.44
359.802	231.44
360.029	242.44
360.256	261.44
360.483	245.44
360.709	235.44
360.936	248.44
361.163	235.44
361.39	243.44
361.616	242.44
361.843	248.44
362.07	224.44
362.296	233.44
362.523	221.44
362.749	226.44
362.976	240.44
363.203	206.44
363.429	237.44
363.656	255.44
363.882	243.44
364.109	269.44
364.335	229.44
364.562	235.44
364.788	233.44
365.015	246.44
365.241	235.44
365.468	231.44
365.694	241.44
365.92	214.44
366.147	235.44
366.373	229.44
366.599	243.44
366.826	226.44
367.052	232.44
367.278	235.44
367.505	240.44
367.731	227.44
367.957	235.44
368.184	241.44
368.41	232.44
368.636	245.44
368.862	245.44
369.089	229.44
369.315	236.44
369.541	227.44
369.767	251.44
369.993	261.44
370.219	250.44
370.445	250.44
370.672	234.44
370.898	258.44
371.124	270.44
371.35	252.44
371.576	253.44
371.802	256.44
372.028	252.44
372.254	236.44
372.48	250.44
372.706	251.44
372.932	258.44
373.158	272.44
373.384	255.44
373.61	239.44
373.835	263.44
374.061	263.44
374.287	229.44
374.513	260.44
374.739	262.44
374.965	269.44
375.191	267.44
375.416	271.44
375.642	263.44
375.868	267.44
376.094	244.44
376.319	243.44
376.545	238.44
376.771	250.44
376.997	242.44
377.222	245.44
377.448	254.44
377.674	249.44
377.899	245.44
378.125	269.44
378.35	256.44
378.576	253.44
378.802	239.44
379.027	256.44
379.253	232.44
379.478	251.44
379.704	245.44
379.929	250.44
380.155	234.44
380.38	235.44
380.606	232.44
380.831	227.44
381.057	237.44
381.282	247.44
381.507	232.44
381.733	245.44
381.958	259.44
382.184	256.44
382.409	240.44
382.634	258.44
382.86	263.44
383.085	265.44
383.31	267.44
383.535	271.44
383.761	279.44
383.986	273.44
384.211	280.44
384.436	284.44
384.662	277.44
384.887	294.44
385.112	298.44
385.337	289.44
385.562	296.44
385.787	300.44
386.013	296.44
386.238	304.44
386.463	282.44
386.688	285.44
386.913	289.44
387.138	278.44
387.363	280.44
387.588	297.44
387.813	268.44
388.038	274.44
388.263	300.44
388.488	280.44
388.713	270.44
388.938	274.44
389.163	292.44
389.387	284.44
389.612	295.44
389.837	290.44
390.062	268.44
390.287	274.44
390.512	278.44
390.736	292.44
390.961	289.44
391.186	274.44
391.411	288.44
391.636	293.44
391.86	308.44
392.085	304.44
392.31	313.44
392.534	298.44
392.759	301.44
392.984	309.44
393.208	284.44
393.433	306.44
393.658	287.44
393.882	294.44
394.107	300.44
394.331	300.44
394.556	300.44
394.78	307.44
395.005	304.44
395.229	285.44
395.454	313.44
395.678	300.44
395.903	310.44
396.127	299.44
396.352	282.44
396.576	300.44
396.801	307.44
397.025	289.44
397.249	308.44
397.474	308.44
397.698	304.44
397.922	295.44
398.147	283.44
398.371	286.44
398.595	306.44
398.82	320.44
399.044	339.44
399.268	389.44
399.492	421.44
399.717	501.44
399.941	484.44
400.165	407.44
400.389	402.44
400.613	353.44
400.837	331.44
401.062	329.44
401.286	347.44
401.51	328.44
401.734	334.44
401.958	339.44
402.182	327.44
402.406	344.44
402.63	337.44
402.854	376.44
403.078	359.44
403.302	375.44
403.526	389.44
403.75	404.44
403.974	402.44
404.198	408.44
404.422	403.44
404.645	371.44
404.869	375.44
405.093	393.44
405.317	374.44
405.541	378.44
405.765	370.44
405.988	361.44
406.212	354.44
406.436	354.44
406.66	389.44
406.883	385.44
407.107	389.44
407.331	409.44
407.555	437.44
407.778	431.44
408.002	414.44
408.226	428.44
408.449	415.44
408.673	373.44
408.896	370.44
409.12	361.44
409.344	394.44
409.567	370.44
409.791	381.44
410.014	388.44
410.238	372.44
410.461	363.44
410.685	374.44
410.908	354.44
411.132	374.44
411.355	361.44
411.578	342.44
411.802	332.44
412.025	346.44
412.249	347.44
412.472	346.44
412.695	329.44
412.919	338.44
413.142	338.44
413.365	330.44
413.589	348.44
413.812	325.44
414.035	331.44
414.258	347.44
414.482	321.44
414.705	334.44
414.928	339.44
415.151	329.44
415.374	348.44
415.597	324.44
415.821	345.44
416.044	335.44
416.267	340.44
416.49	316.44
416.713	335.44
416.936	321.44
417.159	349.44
417.382	342.44
417.605	331.44
417.828	322.44
418.051	337.44
418.274	346.44
418.497	338.44
418.72	345.44
418.943	339.44
419.166	365.44
419.389	390.44
419.611	363.44
419.834	353.44
420.057	348.44
420.28	335.44
420.503	325.44
420.726	342.44
420.948	327.44
421.171	330.44
421.394	337.44
421.617	328.44
421.839	339.44
422.062	337.44
422.285	338.44
422.507	342.44
422.73	346.44
422.953	357.44
423.175	364.44
423.398	356.44
423.621	361.44
423.843	365.44
424.066	352.44
424.288	370.44
424.511	356.44
424.733	344.44
424.956	355.44
425.178	342.44
425.401	349.44
425.623	341.44
425.846	326.44
426.068	316.44
426.291	320.44
426.513	322.44
426.735	307.44
426.958	307.44
427.18	297.44
427.402	300.44
427.625	303.44
427.847	299.44
428.069	307.44
428.292	299.44
428.514	298.44
428.736	308.44
428.958	309.44
429.181	297.44
429.403	286.44
429.625	297.44
429.847	294.44
430.069	284.44
430.292	283.44
430.514	280.44
430.736	273.44
430.958	282.44
431.18	290.44
431.402	288.44
431.624	307.44
431.846	316.44
432.068	318.44
432.29	317.44
432.512	320.44
432.734	322.44
432.956	288.44
433.178	306.44
433.4	310.44
433.622	309.44
433.844	294.44
434.066	317.44
434.287	293.44
434.509	301.44
434.731	341.44
434.953	343.44
435.175	346.44
435.397	335.44
435.618	323.44
435.84	306.44
436.062	308.44
436.284	303.44
436.505	304.44
436.727	309.44
436.949	305.44
437.17	311.44
437.392	305.44
437.614	304.44
437.835	289.44
438.057	296.44
438.278	289.44
438.5	282.44
438.721	288.44
438.943	296.44
439.165	290.44
439.386	294.44
439.608	305.44
439.829	303.44
440.05	299.44
440.272	297.44
440.493	288.44
440.715	303.44
440.936	295.44
441.158	324.44
441.379	306.44
441.6	338.44
441.822	368.44
442.043	330.44
442.264	330.44
442.486	319.44
442.707	320.44
442.928	322.44
443.149	339.44
443.371	338.44
443.592	337.44
443.813	333.44
444.034	332.44
444.255	345.44
444.476	358.44
444.698	372.44
444.919	401.44
445.14	530.44
445.361	405.44
445.582	337.44
445.803	325.44
446.024	325.44
446.245	310.44
446.466	304.44
446.687	306.44
446.908	310.44
447.129	308.44
447.35	278.44
447.571	276.44
447.792	287.44
448.013	278.44
448.234	283.44
448.455	254.44
448.675	271.44
448.896	269.44
449.117	281.44
449.338	264.44
449.559	272.44
449.779	271.44
450	292.44
450.221	284.44
450.442	294.44
450.662	295.44
450.883	274.44
451.104	311.44
451.324	297.44
451.545	292.44
451.766	299.44
451.986	271.44
452.207	278.44
452.428	282.44
452.648	284.44
452.869	265.44
453.089	279.44
453.31	279.44
453.53	255.44
453.751	285.44
453.971	284.44
454.192	313.44
454.412	268.44
454.633	264.44
454.853	261.44
455.073	258.44
455.294	247.44
455.514	274.44
455.734	281.44
455.955	266.44
456.175	264.44
456.395	253.44
456.616	255.44
456.836	271.44
457.056	277.44
457.276	264.44
457.497	262.44
457.717	269.44
457.937	257.44
458.157	268.44
458.377	264.44
458.598	288.44
458.818	286.44
459.038	283.44
459.258	292.44
459.478	298.44
459.698	296.44
459.918	320.44
460.138	342.44
460.358	338.44
460.578	350.44
460.798	343.44
461.018	361.44
461.238	358.44
461.458	343.44
461.678	354.44
461.898	364.44
462.118	348.44
462.338	385.44
462.558	368.44
462.777	398.44
462.997	432.44
463.217	466.44
463.437	451.44
463.657	444.44
463.876	402.44
464.096	424.44
464.316	416.44
464.536	386.44
464.755	392.44
464.975	378.44
465.195	360.44
465.414	349.44
465.634	337.44
465.854	325.44
466.073	314.44
466.293	309.44
466.512	297.44
466.732	293.44
466.951	290.44
467.171	305.44
467.391	299.44
467.61	280.44
467.829	280.44
468.049	294.44
468.268	284.44
468.488	300.44
468.707	300.44
468.927	291.44
469.146	279.44
469.365	286.44
469.585	286.44
469.804	289.44
470.023	289.44
470.243	311.44
470.462	320.44
470.681	304.44
470.901	313.44
471.12	316.44
471.339	305.44
471.558	306.44
471.777	297.44
471.997	300.44
472.216	294.44
472.435	298.44
472.654	290.44
472.873	285.44
473.092	284.44
473.311	268.44
473.53	278.44
473.749	274.44
473.968	300.44
474.187	278.44
474.406	268.44
474.625	285.44
474.844	267.44
475.063	278.44
475.282	291.44
475.501	285.44
475.72	298.44
475.939	310.44
476.158	296.44
476.377	292.44
476.596	285.44
476.814	282.44
477.033	290.44
477.252	305.44
477.471	291.44
477.69	305.44
477.908	341.44
478.127	340.44
478.346	332.44
478.564	319.44
478.783	329.44
479.002	355.44
479.22	349.44
479.439	341.44
479.658	339.44
479.876	339.44
480.095	322.44
480.313	380.44
480.532	382.44
480.751	362.44
480.969	357.44
481.188	335.44
481.406	331.44
481.624	310.44
481.843	318.44
482.061	325.44
482.28	325.44
482.498	304.44
482.717	320.44
482.935	315.44
483.153	333.44
483.372	330.44
483.59	341.44
483.808	321.44
484.027	326.44
484.245	317.44
484.463	338.44
484.681	354.44
484.9	330.44
485.118	322.44
485.336	324.44
485.554	341.44
485.772	354.44
485.99	343.44
486.209	328.44
486.427	343.44
486.645	345.44
486.863	349.44
487.081	348.44
487.299	337.44
487.517	372.44
487.735	344.44
487.953	334.44
488.171	340.44
488.389	355.44
488.607	326.44
488.825	328.44
489.043	322.44
489.261	354.44
489.479	348.44
489.696	346.44
489.914	339.44
490.132	325.44
490.35	317.44
490.568	334.44
490.786	326.44
491.003	368.44
491.221	343.44
491.439	350.44
491.657	320.44
491.874	357.44
492.092	342.44
492.31	339.44
492.527	344.44
492.745	340.44
492.963	370.44
493.18	345.44
493.398	339.44
493.615	358.44
493.833	360.44
494.05	350.44
494.268	346.44
494.485	366.44
494.703	376.44
494.92	348.44
495.138	343.44
495.355	339.44
495.573	363.44
495.79	362.44
496.008	370.44
496.225	376.44
496.442	374.44
496.66	366.44
496.877	372.44
497.094	365.44
497.312	365.44
497.529	364.44
497.746	391.44
497.963	410.44
498.181	402.44
498.398	409.44
498.615	447.44
498.832	476.44
499.049	520.44
499.267	552.44
499.484	607.44
499.701	653.44
499.918	726.44
500.135	843.44
500.352	955.44
500.569	1029.44
500.786	1024.44
501.003	947.44
501.22	809.44
501.437	710.44
501.654	654.44
501.871	599.44
502.088	536.44
502.305	507.44
502.522	482.44
502.739	465.44
