Data from 0.5MCu(NO3)2.Standard.Lamp.E10.CV._HRD10591_16-04-26-752.txt Node
Date: Mon Jul 22 16:04:26 EDT 2019
User: cochatt
Spectrometer: HR+D1059
Trigger mode: 1
Integration Time (sec): 1.000000E-1
Scans to average: 1
Electric dark correction enabled: true
Nonlinearity correction enabled: false
Boxcar width: 0
XAxis mode: Wavelengths
Number of Pixels in Spectrum: 2048
>>>>>Begin Spectral Data<<<<<
223.165	-21.12
223.4	-21.12
223.635	-21.12
223.869	-11.12
224.104	-13.12
224.338	-21.12
224.573	-12.12
224.808	6.88
225.042	-19.12
225.277	-11.12
225.511	0.88
225.746	10.88
225.98	7.88
226.215	14.88
226.449	1.88
226.683	11.88
226.918	20.88
227.152	32.88
227.387	32.88
227.621	44.88
227.856	64.88
228.09	45.88
228.324	44.88
228.559	53.88
228.793	70.88
229.027	56.88
229.262	69.88
229.496	81.88
229.73	67.88
229.964	85.88
230.199	73.88
230.433	84.88
230.667	99.88
230.901	83.88
231.136	90.88
231.37	82.88
231.604	82.88
231.838	98.88
232.072	94.88
232.306	95.88
232.541	96.88
232.775	84.88
233.009	85.88
233.243	83.88
233.477	84.88
233.711	88.88
233.945	96.88
234.179	99.88
234.413	92.88
234.647	99.88
234.881	84.88
235.115	86.88
235.349	91.88
235.583	97.88
235.817	98.88
236.051	76.88
236.285	81.88
236.519	86.88
236.753	90.88
236.987	92.88
237.221	91.88
237.455	88.88
237.689	106.88
237.922	86.88
238.156	86.88
238.39	85.88
238.624	66.88
238.858	94.88
239.091	88.88
239.325	92.88
239.559	93.88
239.793	91.88
240.027	90.88
240.26	88.88
240.494	84.88
240.728	97.88
240.961	95.88
241.195	99.88
241.429	99.88
241.662	87.88
241.896	99.88
242.13	85.88
242.363	96.88
242.597	80.88
242.83	103.88
243.064	104.88
243.298	117.88
243.531	94.88
243.765	91.88
243.998	108.88
244.232	100.88
244.465	96.88
244.699	96.88
244.932	107.88
245.166	105.88
245.399	92.88
245.633	101.88
245.866	97.88
246.099	97.88
246.333	88.88
246.566	98.88
246.8	105.88
247.033	106.88
247.266	98.88
247.5	95.88
247.733	105.88
247.966	101.88
248.2	120.88
248.433	94.88
248.666	109.88
248.899	112.88
249.133	97.88
249.366	108.88
249.599	101.88
249.832	117.88
250.066	101.88
250.299	106.88
250.532	126.88
250.765	104.88
250.998	112.88
251.231	103.88
251.465	122.88
251.698	122.88
251.931	125.88
252.164	113.88
252.397	115.88
252.63	128.88
252.863	114.88
253.096	119.88
253.329	104.88
253.562	132.88
253.795	103.88
254.028	124.88
254.261	109.88
254.494	116.88
254.727	114.88
254.96	122.88
255.193	114.88
255.426	115.88
255.659	109.88
255.892	124.88
256.124	121.88
256.357	125.88
256.59	130.88
256.823	114.88
257.056	123.88
257.289	119.88
257.521	106.88
257.754	113.88
257.987	114.88
258.22	119.88
258.452	134.88
258.685	120.88
258.918	114.88
259.151	125.88
259.383	127.88
259.616	109.88
259.849	128.88
260.081	120.88
260.314	129.88
260.547	130.88
260.779	133.88
261.012	116.88
261.244	125.88
261.477	114.88
261.71	116.88
261.942	126.88
262.175	125.88
262.407	132.88
262.64	140.88
262.872	118.88
263.105	134.88
263.337	147.88
263.57	141.88
263.802	128.88
264.035	132.88
264.267	120.88
264.499	129.88
264.732	134.88
264.964	120.88
265.197	140.88
265.429	154.88
265.661	134.88
265.894	108.88
266.126	126.88
266.358	134.88
266.591	128.88
266.823	126.88
267.055	126.88
267.287	125.88
267.52	135.88
267.752	129.88
267.984	136.88
268.216	141.88
268.448	136.88
268.681	133.88
268.913	127.88
269.145	130.88
269.377	139.88
269.609	151.88
269.841	139.88
270.073	120.88
270.306	153.88
270.538	134.88
270.77	128.88
271.002	144.88
271.234	135.88
271.466	130.88
271.698	134.88
271.93	137.88
272.162	137.88
272.394	151.88
272.626	140.88
272.858	146.88
273.09	136.88
273.322	142.88
273.553	151.88
273.785	145.88
274.017	159.88
274.249	142.88
274.481	138.88
274.713	161.88
274.945	150.88
275.176	150.88
275.408	141.88
275.64	150.88
275.872	136.88
276.104	164.88
276.335	135.88
276.567	144.88
276.799	151.88
277.031	152.88
277.262	143.88
277.494	150.88
277.726	149.88
277.957	148.88
278.189	158.88
278.421	150.88
278.652	153.88
278.884	173.88
279.115	162.88
279.347	164.88
279.579	153.88
279.81	145.88
280.042	166.88
280.273	160.88
280.505	158.88
280.736	168.88
280.968	172.88
281.199	151.88
281.431	141.88
281.662	155.88
281.894	164.88
282.125	149.88
282.356	154.88
282.588	162.88
282.819	176.88
283.051	161.88
283.282	163.88
283.513	169.88
283.745	186.88
283.976	164.88
284.207	168.88
284.439	170.88
284.67	167.88
284.901	183.88
285.132	180.88
285.364	165.88
285.595	174.88
285.826	180.88
286.057	157.88
286.288	165.88
286.52	169.88
286.751	160.88
286.982	161.88
287.213	165.88
287.444	160.88
287.675	155.88
287.906	162.88
288.138	171.88
288.369	167.88
288.6	176.88
288.831	172.88
289.062	161.88
289.293	180.88
289.524	172.88
289.755	192.88
289.986	182.88
290.217	165.88
290.448	162.88
290.679	170.88
290.91	192.88
291.141	173.88
291.371	159.88
291.602	186.88
291.833	172.88
292.064	183.88
292.295	164.88
292.526	169.88
292.757	161.88
292.987	157.88
293.218	187.88
293.449	176.88
293.68	168.88
293.91	178.88
294.141	176.88
294.372	184.88
294.603	177.88
294.833	167.88
295.064	190.88
295.295	173.88
295.525	180.88
295.756	182.88
295.987	169.88
296.217	180.88
296.448	178.88
296.679	182.88
296.909	184.88
297.14	187.88
297.37	173.88
297.601	192.88
297.831	180.88
298.062	188.88
298.292	202.88
298.523	196.88
298.753	193.88
298.984	183.88
299.214	185.88
299.445	187.88
299.675	179.88
299.905	197.88
300.136	198.88
300.366	190.88
300.597	205.88
300.827	195.88
301.057	205.88
301.288	200.88
301.518	192.88
301.748	199.88
301.979	184.88
302.209	199.88
302.439	192.88
302.669	187.88
302.9	188.88
303.13	197.88
303.36	195.88
303.59	216.88
303.82	202.88
304.051	201.88
304.281	193.88
304.511	191.88
304.741	198.88
304.971	162.88
305.201	202.88
305.431	202.88
305.661	195.88
305.891	200.88
306.121	194.88
306.352	199.88
306.582	197.88
306.812	193.88
307.042	193.88
307.272	195.88
307.502	195.88
307.731	189.88
307.961	213.88
308.191	189.88
308.421	196.88
308.651	195.88
308.881	188.88
309.111	173.88
309.341	197.88
309.571	208.88
309.8	193.88
310.03	191.88
310.26	200.88
310.49	189.88
310.72	192.88
310.949	214.88
311.179	197.88
311.409	188.88
311.639	183.88
311.868	204.88
312.098	204.88
312.328	192.88
312.557	221.88
312.787	214.88
313.017	204.88
313.246	211.88
313.476	191.88
313.706	198.88
313.935	210.88
314.165	219.88
314.394	217.88
314.624	197.88
314.853	208.88
315.083	220.88
315.312	202.88
315.542	198.88
315.771	200.88
316.001	192.88
316.23	202.88
316.46	198.88
316.689	188.88
316.919	190.88
317.148	204.88
317.377	196.88
317.607	180.88
317.836	197.88
318.065	205.88
318.295	194.88
318.524	202.88
318.753	191.88
318.983	201.88
319.212	194.88
319.441	192.88
319.67	188.88
319.9	203.88
320.129	206.88
320.358	213.88
320.587	198.88
320.816	217.88
321.046	199.88
321.275	203.88
321.504	185.88
321.733	206.88
321.962	210.88
322.191	202.88
322.42	201.88
322.649	192.88
322.878	206.88
323.108	204.88
323.337	196.88
323.566	205.88
323.795	213.88
324.024	201.88
324.253	208.88
324.482	198.88
324.71	219.88
324.939	204.88
325.168	196.88
325.397	202.88
325.626	209.88
325.855	210.88
326.084	215.88
326.313	218.88
326.542	213.88
326.77	220.88
326.999	211.88
327.228	216.88
327.457	219.88
327.686	213.88
327.914	210.88
328.143	221.88
328.372	212.88
328.6	212.88
328.829	224.88
329.058	200.88
329.287	218.88
329.515	223.88
329.744	213.88
329.972	218.88
330.201	197.88
330.43	222.88
330.658	230.88
330.887	203.88
331.115	199.88
331.344	213.88
331.572	211.88
331.801	221.88
332.03	218.88
332.258	231.88
332.486	228.88
332.715	228.88
332.943	258.88
333.172	255.88
333.4	269.88
333.629	264.88
333.857	280.88
334.085	270.88
334.314	284.88
334.542	267.88
334.771	251.88
334.999	236.88
335.227	259.88
335.455	252.88
335.684	251.88
335.912	256.88
336.14	237.88
336.369	243.88
336.597	242.88
336.825	230.88
337.053	241.88
337.281	237.88
337.51	240.88
337.738	240.88
337.966	226.88
338.194	236.88
338.422	204.88
338.65	217.88
338.878	212.88
339.106	215.88
339.334	234.88
339.562	198.88
339.79	235.88
340.018	231.88
340.246	208.88
340.474	199.88
340.702	209.88
340.93	231.88
341.158	223.88
341.386	222.88
341.614	214.88
341.842	218.88
342.07	217.88
342.298	231.88
342.526	207.88
342.754	213.88
342.981	210.88
343.209	232.88
343.437	228.88
343.665	242.88
343.893	269.88
344.12	268.88
344.348	247.88
344.576	228.88
344.804	227.88
345.031	218.88
345.259	227.88
345.487	226.88
345.714	208.88
345.942	223.88
346.17	232.88
346.397	211.88
346.625	218.88
346.853	229.88
347.08	219.88
347.308	225.88
347.535	220.88
347.763	221.88
347.99	228.88
348.218	239.88
348.445	212.88
348.673	208.88
348.9	207.88
349.128	199.88
349.355	220.88
349.583	225.88
349.81	211.88
350.037	202.88
350.265	219.88
350.492	212.88
350.72	225.88
350.947	220.88
351.174	195.88
351.402	220.88
351.629	209.88
351.856	206.88
352.083	216.88
352.311	195.88
352.538	214.88
352.765	220.88
352.992	203.88
353.22	205.88
353.447	209.88
353.674	212.88
353.901	196.88
354.128	230.88
354.355	190.88
354.583	201.88
354.81	209.88
355.037	211.88
355.264	226.88
355.491	209.88
355.718	208.88
355.945	204.88
356.172	216.88
356.399	219.88
356.626	200.88
356.853	204.88
357.08	215.88
357.307	210.88
357.534	204.88
357.761	193.88
357.988	200.88
358.215	202.88
358.441	236.88
358.668	205.88
358.895	204.88
359.122	206.88
359.349	209.88
359.576	202.88
359.802	202.88
360.029	214.88
360.256	210.88
360.483	192.88
360.709	210.88
360.936	218.88
361.163	209.88
361.39	204.88
361.616	192.88
361.843	209.88
362.07	202.88
362.296	198.88
362.523	194.88
362.749	198.88
362.976	194.88
363.203	199.88
363.429	233.88
363.656	215.88
363.882	198.88
364.109	194.88
364.335	203.88
364.562	216.88
364.788	204.88
365.015	205.88
365.241	201.88
365.468	214.88
365.694	187.88
365.92	217.88
366.147	209.88
366.373	208.88
366.599	207.88
366.826	201.88
367.052	190.88
367.278	213.88
367.505	198.88
367.731	201.88
367.957	197.88
368.184	203.88
368.41	212.88
368.636	211.88
368.862	215.88
369.089	200.88
369.315	221.88
369.541	202.88
369.767	216.88
369.993	212.88
370.219	215.88
370.445	200.88
370.672	202.88
370.898	198.88
371.124	211.88
371.35	218.88
371.576	204.88
371.802	211.88
372.028	230.88
372.254	220.88
372.48	221.88
372.706	212.88
372.932	208.88
373.158	249.88
373.384	219.88
373.61	219.88
373.835	224.88
374.061	213.88
374.287	224.88
374.513	213.88
374.739	222.88
374.965	245.88
375.191	220.88
375.416	234.88
375.642	208.88
375.868	216.88
376.094	238.88
376.319	217.88
376.545	214.88
376.771	229.88
376.997	227.88
377.222	216.88
377.448	239.88
377.674	224.88
377.899	215.88
378.125	218.88
378.35	226.88
378.576	227.88
378.802	214.88
379.027	224.88
379.253	212.88
379.478	210.88
379.704	232.88
379.929	213.88
380.155	220.88
380.38	203.88
380.606	230.88
380.831	206.88
381.057	222.88
381.282	205.88
381.507	213.88
381.733	204.88
381.958	210.88
382.184	210.88
382.409	224.88
382.634	219.88
382.86	225.88
383.085	242.88
383.31	236.88
383.535	233.88
383.761	226.88
383.986	216.88
384.211	243.88
384.436	244.88
384.662	252.88
384.887	237.88
385.112	262.88
385.337	251.88
385.562	244.88
385.787	245.88
386.013	238.88
386.238	260.88
386.463	244.88
386.688	251.88
386.913	232.88
387.138	248.88
387.363	229.88
387.588	226.88
387.813	257.88
388.038	247.88
388.263	230.88
388.488	256.88
388.713	246.88
388.938	237.88
389.163	241.88
389.387	240.88
389.612	245.88
389.837	247.88
390.062	238.88
390.287	258.88
390.512	237.88
390.736	229.88
390.961	256.88
391.186	246.88
391.411	267.88
391.636	268.88
391.86	269.88
392.085	278.88
392.31	272.88
392.534	272.88
392.759	269.88
392.984	270.88
393.208	271.88
393.433	280.88
393.658	280.88
393.882	259.88
394.107	253.88
394.331	258.88
394.556	261.88
394.78	258.88
395.005	252.88
395.229	265.88
395.454	256.88
395.678	276.88
395.903	286.88
396.127	268.88
396.352	262.88
396.576	240.88
396.801	242.88
397.025	273.88
397.249	271.88
397.474	264.88
397.698	282.88
397.922	262.88
398.147	275.88
398.371	281.88
398.595	288.88
398.82	278.88
399.044	292.88
399.268	314.88
399.492	358.88
399.717	396.88
399.941	416.88
400.165	350.88
400.389	325.88
400.613	312.88
400.837	297.88
401.062	284.88
401.286	286.88
401.51	272.88
401.734	292.88
401.958	293.88
402.182	291.88
402.406	292.88
402.63	308.88
402.854	319.88
403.078	311.88
403.302	320.88
403.526	322.88
403.75	322.88
403.974	322.88
404.198	330.88
404.422	346.88
404.645	325.88
404.869	347.88
405.093	333.88
405.317	309.88
405.541	321.88
405.765	313.88
405.988	313.88
406.212	322.88
406.436	291.88
406.66	326.88
406.883	318.88
407.107	349.88
407.331	348.88
407.555	361.88
407.778	373.88
408.002	343.88
408.226	342.88
408.449	357.88
408.673	298.88
408.896	344.88
409.12	323.88
409.344	322.88
409.567	309.88
409.791	341.88
410.014	327.88
410.238	323.88
410.461	308.88
410.685	315.88
410.908	325.88
411.132	298.88
411.355	298.88
411.578	289.88
411.802	301.88
412.025	283.88
412.249	307.88
412.472	293.88
412.695	286.88
412.919	291.88
413.142	284.88
413.365	284.88
413.589	296.88
413.812	291.88
414.035	288.88
414.258	279.88
414.482	273.88
414.705	298.88
414.928	296.88
415.151	317.88
415.374	284.88
415.597	280.88
415.821	280.88
416.044	284.88
416.267	282.88
416.49	270.88
416.713	283.88
416.936	291.88
417.159	292.88
417.382	270.88
417.605	300.88
417.828	293.88
418.051	297.88
418.274	292.88
418.497	304.88
418.72	293.88
418.943	293.88
419.166	317.88
419.389	339.88
419.611	316.88
419.834	296.88
420.057	285.88
420.28	276.88
420.503	279.88
420.726	290.88
420.948	288.88
421.171	268.88
421.394	261.88
421.617	285.88
421.839	294.88
422.062	286.88
422.285	278.88
422.507	271.88
422.73	300.88
422.953	301.88
423.175	295.88
423.398	323.88
423.621	302.88
423.843	311.88
424.066	294.88
424.288	307.88
424.511	288.88
424.733	284.88
424.956	270.88
425.178	292.88
425.401	276.88
425.623	291.88
425.846	278.88
426.068	267.88
426.291	270.88
426.513	260.88
426.735	263.88
426.958	270.88
427.18	274.88
427.402	255.88
427.625	267.88
427.847	266.88
428.069	274.88
428.292	266.88
428.514	265.88
428.736	256.88
428.958	260.88
429.181	261.88
429.403	231.88
429.625	249.88
429.847	240.88
430.069	264.88
430.292	259.88
430.514	258.88
430.736	268.88
430.958	246.88
431.18	256.88
431.402	259.88
431.624	266.88
431.846	249.88
432.068	284.88
432.29	278.88
432.512	265.88
432.734	254.88
432.956	251.88
433.178	254.88
433.4	246.88
433.622	268.88
433.844	260.88
434.066	264.88
434.287	265.88
434.509	257.88
434.731	297.88
434.953	293.88
435.175	283.88
435.397	302.88
435.618	280.88
435.84	265.88
436.062	270.88
436.284	255.88
436.505	266.88
436.727	266.88
436.949	277.88
437.17	284.88
437.392	245.88
437.614	240.88
437.835	242.88
438.057	237.88
438.278	240.88
438.5	248.88
438.721	256.88
438.943	238.88
439.165	265.88
439.386	258.88
439.608	251.88
439.829	258.88
440.05	264.88
440.272	248.88
440.493	271.88
440.715	257.88
440.936	270.88
441.158	266.88
441.379	304.88
441.6	285.88
441.822	293.88
442.043	308.88
442.264	267.88
442.486	277.88
442.707	280.88
442.928	264.88
443.149	266.88
443.371	283.88
443.592	269.88
443.813	285.88
444.034	295.88
444.255	297.88
444.476	315.88
444.698	322.88
444.919	329.88
445.14	442.88
445.361	370.88
445.582	304.88
445.803	289.88
446.024	295.88
446.245	269.88
446.466	269.88
446.687	242.88
446.908	252.88
447.129	256.88
447.35	254.88
447.571	268.88
447.792	231.88
448.013	261.88
448.234	266.88
448.455	248.88
448.675	245.88
448.896	233.88
449.117	270.88
449.338	258.88
449.559	247.88
449.779	244.88
450	237.88
450.221	242.88
450.442	260.88
450.662	250.88
450.883	232.88
451.104	269.88
451.324	247.88
451.545	230.88
451.766	266.88
451.986	245.88
452.207	247.88
452.428	245.88
452.648	234.88
452.869	231.88
453.089	250.88
453.31	227.88
453.53	246.88
453.751	256.88
453.971	232.88
454.192	249.88
454.412	241.88
454.633	225.88
454.853	252.88
455.073	217.88
455.294	214.88
455.514	246.88
455.734	229.88
455.955	222.88
456.175	214.88
456.395	221.88
456.616	209.88
456.836	224.88
457.056	224.88
457.276	222.88
457.497	241.88
457.717	235.88
457.937	244.88
458.157	230.88
458.377	252.88
458.598	234.88
458.818	237.88
459.038	251.88
459.258	249.88
459.478	271.88
459.698	274.88
459.918	271.88
460.138	286.88
460.358	292.88
460.578	317.88
460.798	318.88
461.018	312.88
461.238	301.88
461.458	296.88
461.678	299.88
461.898	318.88
462.118	320.88
462.338	334.88
462.558	326.88
462.777	337.88
462.997	361.88
463.217	398.88
463.437	396.88
463.657	373.88
463.876	357.88
464.096	348.88
464.316	338.88
464.536	353.88
464.755	333.88
464.975	317.88
465.195	289.88
465.414	292.88
465.634	269.88
465.854	268.88
466.073	263.88
466.293	261.88
466.512	270.88
466.732	256.88
466.951	243.88
467.171	259.88
467.391	251.88
467.61	249.88
467.829	253.88
468.049	254.88
468.268	244.88
468.488	257.88
468.707	239.88
468.927	267.88
469.146	257.88
469.365	244.88
469.585	243.88
469.804	268.88
470.023	250.88
470.243	250.88
470.462	268.88
470.681	261.88
470.901	256.88
471.12	251.88
471.339	258.88
471.558	246.88
471.777	252.88
471.997	246.88
472.216	269.88
472.435	250.88
472.654	228.88
472.873	234.88
473.092	229.88
473.311	237.88
473.53	247.88
473.749	264.88
473.968	237.88
474.187	242.88
474.406	250.88
474.625	248.88
474.844	254.88
475.063	233.88
475.282	247.88
475.501	253.88
475.72	257.88
475.939	230.88
476.158	244.88
476.377	267.88
476.596	266.88
476.814	262.88
477.033	252.88
477.252	237.88
477.471	254.88
477.69	280.88
477.908	279.88
478.127	282.88
478.346	289.88
478.564	293.88
478.783	277.88
479.002	289.88
479.22	292.88
479.439	301.88
479.658	282.88
479.876	283.88
480.095	301.88
480.313	314.88
480.532	294.88
480.751	318.88
480.969	303.88
481.188	293.88
481.406	297.88
481.624	284.88
481.843	286.88
482.061	266.88
482.28	268.88
482.498	272.88
482.717	278.88
482.935	278.88
483.153	267.88
483.372	289.88
483.59	286.88
483.808	298.88
484.027	264.88
484.245	286.88
484.463	269.88
484.681	299.88
484.9	282.88
485.118	296.88
485.336	293.88
485.554	296.88
485.772	297.88
485.99	284.88
486.209	293.88
486.427	304.88
486.645	308.88
486.863	301.88
487.081	292.88
487.299	306.88
487.517	312.88
487.735	316.88
487.953	297.88
488.171	292.88
488.389	283.88
488.607	294.88
488.825	284.88
489.043	285.88
489.261	276.88
489.479	300.88
489.696	296.88
489.914	297.88
490.132	300.88
490.35	310.88
490.568	284.88
490.786	291.88
491.003	304.88
491.221	304.88
491.439	291.88
491.657	304.88
491.874	283.88
492.092	297.88
492.31	306.88
492.527	311.88
492.745	307.88
492.963	308.88
493.18	316.88
493.398	308.88
493.615	284.88
493.833	279.88
494.05	294.88
494.268	299.88
494.485	299.88
494.703	309.88
494.92	309.88
495.138	318.88
495.355	313.88
495.573	321.88
495.79	319.88
496.008	315.88
496.225	297.88
496.442	308.88
496.66	317.88
496.877	313.88
497.094	312.88
497.312	320.88
497.529	332.88
497.746	344.88
497.963	334.88
498.181	347.88
498.398	361.88
498.615	390.88
498.832	392.88
499.049	442.88
499.267	462.88
499.484	524.88
499.701	534.88
499.918	596.88
500.135	665.88
500.352	788.88
500.569	834.88
500.786	817.88
501.003	747.88
501.22	695.88
501.437	608.88
501.654	528.88
501.871	487.88
502.088	447.88
502.305	437.88
502.522	411.88
502.739	406.88
502.956	374.88
503.172	359.88
