Data from 0.5MCu(NO3)2.Standard.Lamp.E10.CV._HRD10591_16-06-53-753.txt Node
Date: Mon Jul 22 16:06:53 EDT 2019
User: cochatt
Spectrometer: HR+D1059
Trigger mode: 1
Integration Time (sec): 1.000000E-1
Scans to average: 1
Electric dark correction enabled: true
Nonlinearity correction enabled: false
Boxcar width: 0
XAxis mode: Wavelengths
Number of Pixels in Spectrum: 2048
>>>>>Begin Spectral Data<<<<<
223.165	-8.12
223.4	-8.12
223.635	-8.12
223.869	-18.12
224.104	-4.12
224.338	-27.12
224.573	-11.12
224.808	-18.12
225.042	-16.12
225.277	1.88
225.511	-11.12
225.746	11.88
225.98	22.88
226.215	3.88
226.449	-0.12
226.683	18.88
226.918	21.88
227.152	32.88
227.387	33.88
227.621	42.88
227.856	43.88
228.09	49.88
228.324	41.88
228.559	58.88
228.793	64.88
229.027	67.88
229.262	90.88
229.496	83.88
229.73	72.88
229.964	81.88
230.199	69.88
230.433	80.88
230.667	73.88
230.901	76.88
231.136	93.88
231.37	81.88
231.604	88.88
231.838	89.88
232.072	103.88
232.306	95.88
232.541	93.88
232.775	89.88
233.009	86.88
233.243	81.88
233.477	100.88
233.711	103.88
233.945	80.88
234.179	80.88
234.413	96.88
234.647	88.88
234.881	88.88
235.115	99.88
235.349	84.88
235.583	92.88
235.817	103.88
236.051	87.88
236.285	71.88
236.519	90.88
236.753	103.88
236.987	85.88
237.221	94.88
237.455	99.88
237.689	106.88
237.922	87.88
238.156	91.88
238.39	83.88
238.624	79.88
238.858	93.88
239.091	85.88
239.325	78.88
239.559	75.88
239.793	92.88
240.027	94.88
240.26	92.88
240.494	80.88
240.728	77.88
240.961	88.88
241.195	83.88
241.429	93.88
241.662	82.88
241.896	78.88
242.13	100.88
242.363	93.88
242.597	91.88
242.83	92.88
243.064	108.88
243.298	76.88
243.531	92.88
243.765	96.88
243.998	98.88
244.232	106.88
244.465	111.88
244.699	94.88
244.932	82.88
245.166	95.88
245.399	96.88
245.633	91.88
245.866	90.88
246.099	91.88
246.333	95.88
246.566	103.88
246.8	97.88
247.033	92.88
247.266	100.88
247.5	91.88
247.733	104.88
247.966	101.88
248.2	94.88
248.433	96.88
248.666	95.88
248.899	80.88
249.133	96.88
249.366	101.88
249.599	93.88
249.832	96.88
250.066	105.88
250.299	91.88
250.532	89.88
250.765	88.88
250.998	104.88
251.231	99.88
251.465	102.88
251.698	99.88
251.931	99.88
252.164	109.88
252.397	108.88
252.63	101.88
252.863	111.88
253.096	102.88
253.329	90.88
253.562	111.88
253.795	113.88
254.028	117.88
254.261	107.88
254.494	86.88
254.727	111.88
254.96	106.88
255.193	95.88
255.426	111.88
255.659	103.88
255.892	103.88
256.124	99.88
256.357	86.88
256.59	103.88
256.823	120.88
257.056	111.88
257.289	112.88
257.521	90.88
257.754	97.88
257.987	106.88
258.22	113.88
258.452	99.88
258.685	111.88
258.918	95.88
259.151	105.88
259.383	123.88
259.616	113.88
259.849	104.88
260.081	101.88
260.314	119.88
260.547	117.88
260.779	104.88
261.012	113.88
261.244	107.88
261.477	137.88
261.71	115.88
261.942	115.88
262.175	104.88
262.407	125.88
262.64	99.88
262.872	107.88
263.105	120.88
263.337	113.88
263.57	115.88
263.802	124.88
264.035	109.88
264.267	112.88
264.499	114.88
264.732	111.88
264.964	124.88
265.197	130.88
265.429	122.88
265.661	123.88
265.894	107.88
266.126	129.88
266.358	124.88
266.591	116.88
266.823	115.88
267.055	137.88
267.287	124.88
267.52	120.88
267.752	115.88
267.984	129.88
268.216	126.88
268.448	133.88
268.681	121.88
268.913	123.88
269.145	124.88
269.377	127.88
269.609	109.88
269.841	104.88
270.073	109.88
270.306	121.88
270.538	121.88
270.77	121.88
271.002	126.88
271.234	112.88
271.466	113.88
271.698	123.88
271.93	122.88
272.162	115.88
272.394	124.88
272.626	101.88
272.858	107.88
273.09	116.88
273.322	123.88
273.553	117.88
273.785	115.88
274.017	127.88
274.249	135.88
274.481	133.88
274.713	124.88
274.945	117.88
275.176	121.88
275.408	137.88
275.64	120.88
275.872	120.88
276.104	115.88
276.335	136.88
276.567	135.88
276.799	130.88
277.031	120.88
277.262	121.88
277.494	132.88
277.726	139.88
277.957	138.88
278.189	138.88
278.421	129.88
278.652	125.88
278.884	124.88
279.115	121.88
279.347	133.88
279.579	137.88
279.81	131.88
280.042	131.88
280.273	132.88
280.505	136.88
280.736	133.88
280.968	134.88
281.199	127.88
281.431	123.88
281.662	146.88
281.894	142.88
282.125	155.88
282.356	137.88
282.588	153.88
282.819	126.88
283.051	137.88
283.282	134.88
283.513	142.88
283.745	143.88
283.976	128.88
284.207	125.88
284.439	128.88
284.67	141.88
284.901	149.88
285.132	135.88
285.364	147.88
285.595	142.88
285.826	137.88
286.057	133.88
286.288	152.88
286.52	157.88
286.751	163.88
286.982	152.88
287.213	137.88
287.444	162.88
287.675	156.88
287.906	160.88
288.138	153.88
288.369	133.88
288.6	152.88
288.831	138.88
289.062	145.88
289.293	147.88
289.524	138.88
289.755	155.88
289.986	161.88
290.217	168.88
290.448	146.88
290.679	160.88
290.91	148.88
291.141	133.88
291.371	179.88
291.602	143.88
291.833	153.88
292.064	156.88
292.295	146.88
292.526	137.88
292.757	146.88
292.987	155.88
293.218	153.88
293.449	163.88
293.68	143.88
293.91	151.88
294.141	141.88
294.372	136.88
294.603	138.88
294.833	157.88
295.064	137.88
295.295	156.88
295.525	139.88
295.756	148.88
295.987	153.88
296.217	163.88
296.448	141.88
296.679	140.88
296.909	147.88
297.14	169.88
297.37	157.88
297.601	153.88
297.831	165.88
298.062	161.88
298.292	151.88
298.523	154.88
298.753	159.88
298.984	156.88
299.214	159.88
299.445	164.88
299.675	165.88
299.905	170.88
300.136	158.88
300.366	170.88
300.597	149.88
300.827	168.88
301.057	160.88
301.288	158.88
301.518	161.88
301.748	154.88
301.979	163.88
302.209	162.88
302.439	165.88
302.669	161.88
302.9	162.88
303.13	171.88
303.36	164.88
303.59	173.88
303.82	163.88
304.051	142.88
304.281	150.88
304.511	163.88
304.741	170.88
304.971	179.88
305.201	174.88
305.431	166.88
305.661	177.88
305.891	165.88
306.121	155.88
306.352	159.88
306.582	151.88
306.812	165.88
307.042	165.88
307.272	155.88
307.502	153.88
307.731	164.88
307.961	164.88
308.191	170.88
308.421	158.88
308.651	163.88
308.881	150.88
309.111	146.88
309.341	157.88
309.571	152.88
309.8	152.88
310.03	150.88
310.26	155.88
310.49	151.88
310.72	157.88
310.949	149.88
311.179	161.88
311.409	157.88
311.639	166.88
311.868	177.88
312.098	159.88
312.328	161.88
312.557	183.88
312.787	149.88
313.017	161.88
313.246	159.88
313.476	156.88
313.706	163.88
313.935	167.88
314.165	167.88
314.394	179.88
314.624	161.88
314.853	165.88
315.083	157.88
315.312	169.88
315.542	159.88
315.771	166.88
316.001	173.88
316.23	171.88
316.46	179.88
316.689	156.88
316.919	153.88
317.148	155.88
317.377	156.88
317.607	157.88
317.836	178.88
318.065	154.88
318.295	165.88
318.524	175.88
318.753	171.88
318.983	153.88
319.212	165.88
319.441	172.88
319.67	168.88
319.9	174.88
320.129	174.88
320.358	168.88
320.587	169.88
320.816	161.88
321.046	161.88
321.275	164.88
321.504	160.88
321.733	155.88
321.962	174.88
322.191	167.88
322.42	163.88
322.649	166.88
322.878	163.88
323.108	148.88
323.337	163.88
323.566	156.88
323.795	164.88
324.024	181.88
324.253	169.88
324.482	173.88
324.71	154.88
324.939	190.88
325.168	181.88
325.397	167.88
325.626	171.88
325.855	167.88
326.084	187.88
326.313	196.88
326.542	179.88
326.77	181.88
326.999	169.88
327.228	164.88
327.457	187.88
327.686	183.88
327.914	182.88
328.143	187.88
328.372	171.88
328.6	177.88
328.829	179.88
329.058	163.88
329.287	181.88
329.515	179.88
329.744	168.88
329.972	177.88
330.201	181.88
330.43	189.88
330.658	176.88
330.887	162.88
331.115	179.88
331.344	173.88
331.572	192.88
331.801	188.88
332.03	180.88
332.258	189.88
332.486	181.88
332.715	199.88
332.943	203.88
333.172	201.88
333.4	206.88
333.629	223.88
333.857	221.88
334.085	231.88
334.314	219.88
334.542	217.88
334.771	205.88
334.999	203.88
335.227	202.88
335.455	199.88
335.684	205.88
335.912	198.88
336.14	201.88
336.369	200.88
336.597	194.88
336.825	192.88
337.053	196.88
337.281	201.88
337.51	182.88
337.738	198.88
337.966	185.88
338.194	194.88
338.422	177.88
338.65	189.88
338.878	187.88
339.106	173.88
339.334	185.88
339.562	178.88
339.79	188.88
340.018	176.88
340.246	165.88
340.474	181.88
340.702	171.88
340.93	187.88
341.158	190.88
341.386	185.88
341.614	164.88
341.842	185.88
342.07	168.88
342.298	181.88
342.526	192.88
342.754	175.88
342.981	179.88
343.209	182.88
343.437	197.88
343.665	199.88
343.893	200.88
344.12	215.88
344.348	208.88
344.576	198.88
344.804	176.88
345.031	193.88
345.259	194.88
345.487	185.88
345.714	182.88
345.942	189.88
346.17	174.88
346.397	187.88
346.625	175.88
346.853	178.88
347.08	182.88
347.308	183.88
347.535	182.88
347.763	164.88
347.99	173.88
348.218	194.88
348.445	182.88
348.673	178.88
348.9	184.88
349.128	195.88
349.355	156.88
349.583	147.88
349.81	170.88
350.037	156.88
350.265	168.88
350.492	164.88
350.72	156.88
350.947	165.88
351.174	167.88
351.402	183.88
351.629	182.88
351.856	152.88
352.083	171.88
352.311	175.88
352.538	161.88
352.765	164.88
352.992	177.88
353.22	170.88
353.447	170.88
353.674	172.88
353.901	158.88
354.128	159.88
354.355	177.88
354.583	186.88
354.81	159.88
355.037	187.88
355.264	172.88
355.491	179.88
355.718	170.88
355.945	163.88
356.172	173.88
356.399	171.88
356.626	161.88
356.853	165.88
357.08	180.88
357.307	163.88
357.534	161.88
357.761	168.88
357.988	172.88
358.215	173.88
358.441	168.88
358.668	176.88
358.895	168.88
359.122	186.88
359.349	165.88
359.576	184.88
359.802	172.88
360.029	180.88
360.256	180.88
360.483	172.88
360.709	171.88
360.936	179.88
361.163	176.88
361.39	161.88
361.616	157.88
361.843	170.88
362.07	170.88
362.296	170.88
362.523	168.88
362.749	171.88
362.976	184.88
363.203	160.88
363.429	165.88
363.656	178.88
363.882	169.88
364.109	181.88
364.335	162.88
364.562	180.88
364.788	173.88
365.015	183.88
365.241	163.88
365.468	178.88
365.694	173.88
365.92	175.88
366.147	168.88
366.373	168.88
366.599	168.88
366.826	171.88
367.052	178.88
367.278	165.88
367.505	173.88
367.731	165.88
367.957	161.88
368.184	181.88
368.41	156.88
368.636	175.88
368.862	196.88
369.089	171.88
369.315	167.88
369.541	177.88
369.767	165.88
369.993	178.88
370.219	166.88
370.445	192.88
370.672	191.88
370.898	172.88
371.124	170.88
371.35	175.88
371.576	182.88
371.802	181.88
372.028	171.88
372.254	183.88
372.48	185.88
372.706	188.88
372.932	192.88
373.158	189.88
373.384	192.88
373.61	183.88
373.835	179.88
374.061	184.88
374.287	186.88
374.513	193.88
374.739	187.88
374.965	193.88
375.191	183.88
375.416	194.88
375.642	205.88
375.868	169.88
376.094	175.88
376.319	190.88
376.545	181.88
376.771	183.88
376.997	175.88
377.222	188.88
377.448	183.88
377.674	188.88
377.899	173.88
378.125	183.88
378.35	175.88
378.576	168.88
378.802	180.88
379.027	164.88
379.253	180.88
379.478	178.88
379.704	183.88
379.929	185.88
380.155	180.88
380.38	187.88
380.606	182.88
380.831	185.88
381.057	178.88
381.282	175.88
381.507	179.88
381.733	184.88
381.958	185.88
382.184	168.88
382.409	183.88
382.634	182.88
382.86	193.88
383.085	192.88
383.31	184.88
383.535	179.88
383.761	183.88
383.986	204.88
384.211	192.88
384.436	198.88
384.662	201.88
384.887	219.88
385.112	212.88
385.337	210.88
385.562	196.88
385.787	211.88
386.013	199.88
386.238	201.88
386.463	216.88
386.688	198.88
386.913	211.88
387.138	191.88
387.363	189.88
387.588	210.88
387.813	193.88
388.038	198.88
388.263	199.88
388.488	209.88
388.713	187.88
388.938	201.88
389.163	187.88
389.387	174.88
389.612	186.88
389.837	198.88
390.062	202.88
390.287	202.88
390.512	195.88
390.736	189.88
390.961	201.88
391.186	194.88
391.411	210.88
391.636	212.88
391.86	207.88
392.085	228.88
392.31	226.88
392.534	222.88
392.759	210.88
392.984	196.88
393.208	211.88
393.433	192.88
393.658	190.88
393.882	199.88
394.107	205.88
394.331	196.88
394.556	227.88
394.78	211.88
395.005	198.88
395.229	209.88
395.454	226.88
395.678	201.88
395.903	218.88
396.127	205.88
396.352	203.88
396.576	208.88
396.801	203.88
397.025	192.88
397.249	206.88
397.474	214.88
397.698	198.88
397.922	219.88
398.147	218.88
398.371	214.88
398.595	210.88
398.82	230.88
399.044	237.88
399.268	270.88
399.492	299.88
399.717	333.88
399.941	317.88
400.165	296.88
400.389	264.88
400.613	227.88
400.837	235.88
401.062	227.88
401.286	226.88
401.51	223.88
401.734	220.88
401.958	222.88
402.182	231.88
402.406	231.88
402.63	235.88
402.854	248.88
403.078	239.88
403.302	248.88
403.526	245.88
403.75	273.88
403.974	275.88
404.198	282.88
404.422	266.88
404.645	257.88
404.869	272.88
405.093	269.88
405.317	242.88
405.541	243.88
405.765	243.88
405.988	259.88
406.212	257.88
406.436	252.88
406.66	249.88
406.883	243.88
407.107	283.88
407.331	289.88
407.555	291.88
407.778	288.88
408.002	281.88
408.226	287.88
408.449	261.88
408.673	255.88
408.896	257.88
409.12	248.88
409.344	249.88
409.567	264.88
409.791	259.88
410.014	267.88
410.238	267.88
410.461	245.88
410.685	252.88
410.908	259.88
411.132	247.88
411.355	244.88
411.578	241.88
411.802	227.88
412.025	227.88
412.249	257.88
412.472	233.88
412.695	229.88
412.919	242.88
413.142	243.88
413.365	232.88
413.589	230.88
413.812	228.88
414.035	235.88
414.258	231.88
414.482	215.88
414.705	231.88
414.928	233.88
415.151	227.88
415.374	244.88
415.597	243.88
415.821	226.88
416.044	229.88
416.267	225.88
416.49	231.88
416.713	231.88
416.936	217.88
417.159	231.88
417.382	230.88
417.605	225.88
417.828	247.88
418.051	235.88
418.274	243.88
418.497	219.88
418.72	220.88
418.943	230.88
419.166	244.88
419.389	267.88
419.611	268.88
419.834	241.88
420.057	233.88
420.28	239.88
420.503	231.88
420.726	235.88
420.948	221.88
421.171	248.88
421.394	214.88
421.617	215.88
421.839	223.88
422.062	238.88
422.285	225.88
422.507	243.88
422.73	235.88
422.953	248.88
423.175	229.88
423.398	249.88
423.621	250.88
423.843	264.88
424.066	252.88
424.288	248.88
424.511	258.88
424.733	249.88
424.956	243.88
425.178	227.88
425.401	215.88
425.623	231.88
425.846	214.88
426.068	219.88
426.291	231.88
426.513	233.88
426.735	211.88
426.958	233.88
427.18	224.88
427.402	215.88
427.625	201.88
427.847	202.88
428.069	222.88
428.292	227.88
428.514	209.88
428.736	222.88
428.958	212.88
429.181	214.88
429.403	207.88
429.625	224.88
429.847	204.88
430.069	204.88
430.292	205.88
430.514	192.88
430.736	200.88
430.958	221.88
431.18	202.88
431.402	218.88
431.624	219.88
431.846	214.88
432.068	202.88
432.29	199.88
432.512	202.88
432.734	205.88
432.956	220.88
433.178	212.88
433.4	203.88
433.622	197.88
433.844	204.88
434.066	202.88
434.287	203.88
434.509	202.88
434.731	236.88
434.953	244.88
435.175	239.88
435.397	214.88
435.618	228.88
435.84	218.88
436.062	221.88
436.284	232.88
436.505	200.88
436.727	212.88
436.949	203.88
437.17	204.88
437.392	201.88
437.614	211.88
437.835	212.88
438.057	209.88
438.278	192.88
438.5	212.88
438.721	224.88
438.943	217.88
439.165	189.88
439.386	202.88
439.608	215.88
439.829	215.88
440.05	224.88
440.272	209.88
440.493	214.88
440.715	209.88
440.936	215.88
441.158	223.88
441.379	224.88
441.6	235.88
441.822	221.88
442.043	241.88
442.264	223.88
442.486	224.88
442.707	221.88
442.928	227.88
443.149	220.88
443.371	215.88
443.592	235.88
443.813	235.88
444.034	231.88
444.255	234.88
444.476	226.88
444.698	265.88
444.919	275.88
445.14	337.88
445.361	290.88
445.582	226.88
445.803	237.88
446.024	210.88
446.245	224.88
446.466	206.88
446.687	204.88
446.908	213.88
447.129	191.88
447.35	220.88
447.571	213.88
447.792	200.88
448.013	214.88
448.234	207.88
448.455	207.88
448.675	212.88
448.896	186.88
449.117	197.88
449.338	220.88
449.559	214.88
449.779	208.88
450	212.88
450.221	196.88
450.442	193.88
450.662	212.88
450.883	197.88
451.104	204.88
451.324	227.88
451.545	191.88
451.766	207.88
451.986	202.88
452.207	195.88
452.428	209.88
452.648	209.88
452.869	189.88
453.089	194.88
453.31	195.88
453.53	206.88
453.751	193.88
453.971	212.88
454.192	199.88
454.412	182.88
454.633	208.88
454.853	184.88
455.073	180.88
455.294	187.88
455.514	194.88
455.734	172.88
455.955	198.88
456.175	189.88
456.395	192.88
456.616	187.88
456.836	202.88
457.056	207.88
457.276	190.88
457.497	192.88
457.717	181.88
457.937	181.88
458.157	211.88
458.377	189.88
458.598	203.88
458.818	182.88
459.038	187.88
459.258	197.88
459.478	194.88
459.698	223.88
459.918	220.88
460.138	221.88
460.358	237.88
460.578	234.88
460.798	240.88
461.018	237.88
461.238	246.88
461.458	230.88
461.678	255.88
461.898	244.88
462.118	227.88
462.338	257.88
462.558	250.88
462.777	253.88
462.997	289.88
463.217	305.88
463.437	305.88
463.657	301.88
463.876	269.88
464.096	290.88
464.316	283.88
464.536	276.88
464.755	279.88
464.975	263.88
465.195	251.88
465.414	233.88
465.634	220.88
465.854	226.88
466.073	221.88
466.293	212.88
466.512	213.88
466.732	203.88
466.951	209.88
467.171	203.88
467.391	211.88
467.61	209.88
467.829	215.88
468.049	216.88
468.268	201.88
468.488	221.88
468.707	200.88
468.927	200.88
469.146	204.88
469.365	204.88
469.585	204.88
469.804	209.88
470.023	203.88
470.243	216.88
470.462	211.88
470.681	217.88
470.901	216.88
471.12	213.88
471.339	211.88
471.558	217.88
471.777	215.88
471.997	204.88
472.216	188.88
472.435	198.88
472.654	195.88
472.873	197.88
473.092	213.88
473.311	207.88
473.53	184.88
473.749	196.88
473.968	217.88
474.187	203.88
474.406	197.88
474.625	203.88
474.844	197.88
475.063	215.88
475.282	216.88
475.501	205.88
475.72	211.88
475.939	205.88
476.158	210.88
476.377	196.88
476.596	185.88
476.814	210.88
477.033	214.88
477.252	210.88
477.471	216.88
477.69	218.88
477.908	245.88
478.127	246.88
478.346	222.88
478.564	231.88
478.783	241.88
479.002	242.88
479.22	235.88
479.439	235.88
479.658	237.88
479.876	217.88
480.095	235.88
480.313	265.88
480.532	249.88
480.751	261.88
480.969	249.88
481.188	251.88
481.406	237.88
481.624	225.88
481.843	230.88
482.061	229.88
482.28	216.88
482.498	239.88
482.717	247.88
482.935	235.88
483.153	223.88
483.372	218.88
483.59	233.88
483.808	208.88
484.027	226.88
484.245	251.88
484.463	225.88
484.681	246.88
484.9	239.88
485.118	245.88
485.336	246.88
485.554	234.88
485.772	241.88
485.99	244.88
486.209	249.88
486.427	243.88
486.645	230.88
486.863	239.88
487.081	255.88
487.299	246.88
487.517	234.88
487.735	245.88
487.953	213.88
488.171	239.88
488.389	239.88
488.607	228.88
488.825	235.88
489.043	241.88
489.261	239.88
489.479	220.88
489.696	227.88
489.914	221.88
490.132	234.88
490.35	252.88
490.568	244.88
490.786	246.88
491.003	239.88
491.221	224.88
491.439	259.88
491.657	227.88
491.874	244.88
492.092	261.88
492.31	245.88
492.527	244.88
492.745	250.88
492.963	239.88
493.18	246.88
493.398	241.88
493.615	232.88
493.833	258.88
494.05	243.88
494.268	253.88
494.485	252.88
494.703	266.88
494.92	257.88
495.138	265.88
495.355	239.88
495.573	251.88
495.79	235.88
496.008	241.88
496.225	252.88
496.442	259.88
496.66	252.88
496.877	268.88
497.094	266.88
497.312	270.88
497.529	266.88
497.746	258.88
497.963	293.88
498.181	274.88
498.398	289.88
498.615	315.88
498.832	315.88
499.049	353.88
499.267	365.88
499.484	397.88
499.701	440.88
499.918	487.88
500.135	515.88
500.352	633.88
500.569	657.88
500.786	648.88
501.003	589.88
501.22	519.88
501.437	485.88
501.654	419.88
501.871	385.88
502.088	371.88
502.305	327.88
502.522	321.88
502.739	298.88
502.956	307.88
503.172	286.88
503.389	283.88
