Data from 0.5MCu(NO3)2.Standard.Lamp.E10.CV._HRD10591_16-05-17-753.txt Node
Date: Mon Jul 22 16:05:17 EDT 2019
User: cochatt
Spectrometer: HR+D1059
Trigger mode: 1
Integration Time (sec): 1.000000E-1
Scans to average: 1
Electric dark correction enabled: true
Nonlinearity correction enabled: false
Boxcar width: 0
XAxis mode: Wavelengths
Number of Pixels in Spectrum: 2048
>>>>>Begin Spectral Data<<<<<
223.165	-22.25
223.4	-22.25
223.635	-22.25
223.869	-4.25
224.104	-26.25
224.338	-11.25
224.573	-17.25
224.808	-15.25
225.042	-14.25
225.277	-5.25
225.511	-9.25
225.746	3.75
225.98	20.75
226.215	13.75
226.449	16.75
226.683	22.75
226.918	16.75
227.152	30.75
227.387	32.75
227.621	40.75
227.856	36.75
228.09	52.75
228.324	69.75
228.559	54.75
228.793	41.75
229.027	68.75
229.262	70.75
229.496	72.75
229.73	74.75
229.964	87.75
230.199	67.75
230.433	87.75
230.667	85.75
230.901	82.75
231.136	73.75
231.37	88.75
231.604	88.75
231.838	88.75
232.072	88.75
232.306	92.75
232.541	91.75
232.775	92.75
233.009	84.75
233.243	96.75
233.477	101.75
233.711	107.75
233.945	90.75
234.179	91.75
234.413	99.75
234.647	104.75
234.881	90.75
235.115	85.75
235.349	100.75
235.583	98.75
235.817	99.75
236.051	87.75
236.285	95.75
236.519	97.75
236.753	92.75
236.987	88.75
237.221	96.75
237.455	98.75
237.689	87.75
237.922	85.75
238.156	91.75
238.39	113.75
238.624	86.75
238.858	96.75
239.091	103.75
239.325	91.75
239.559	94.75
239.793	89.75
240.027	101.75
240.26	87.75
240.494	94.75
240.728	103.75
240.961	99.75
241.195	87.75
241.429	105.75
241.662	78.75
241.896	87.75
242.13	104.75
242.363	104.75
242.597	104.75
242.83	94.75
243.064	87.75
243.298	100.75
243.531	99.75
243.765	100.75
243.998	98.75
244.232	102.75
244.465	102.75
244.699	100.75
244.932	99.75
245.166	106.75
245.399	90.75
245.633	106.75
245.866	111.75
246.099	103.75
246.333	94.75
246.566	102.75
246.8	116.75
247.033	101.75
247.266	115.75
247.5	106.75
247.733	115.75
247.966	99.75
248.2	99.75
248.433	109.75
248.666	108.75
248.899	108.75
249.133	106.75
249.366	98.75
249.599	103.75
249.832	118.75
250.066	99.75
250.299	115.75
250.532	106.75
250.765	103.75
250.998	115.75
251.231	120.75
251.465	105.75
251.698	122.75
251.931	119.75
252.164	115.75
252.397	102.75
252.63	126.75
252.863	115.75
253.096	121.75
253.329	128.75
253.562	102.75
253.795	120.75
254.028	119.75
254.261	113.75
254.494	120.75
254.727	114.75
254.96	117.75
255.193	120.75
255.426	117.75
255.659	117.75
255.892	127.75
256.124	128.75
256.357	122.75
256.59	129.75
256.823	132.75
257.056	122.75
257.289	125.75
257.521	141.75
257.754	128.75
257.987	124.75
258.22	121.75
258.452	120.75
258.685	137.75
258.918	126.75
259.151	112.75
259.383	130.75
259.616	130.75
259.849	127.75
260.081	124.75
260.314	126.75
260.547	126.75
260.779	135.75
261.012	122.75
261.244	134.75
261.477	133.75
261.71	123.75
261.942	127.75
262.175	122.75
262.407	123.75
262.64	133.75
262.872	128.75
263.105	129.75
263.337	135.75
263.57	132.75
263.802	129.75
264.035	154.75
264.267	140.75
264.499	140.75
264.732	136.75
264.964	120.75
265.197	133.75
265.429	126.75
265.661	128.75
265.894	142.75
266.126	130.75
266.358	145.75
266.591	128.75
266.823	137.75
267.055	144.75
267.287	141.75
267.52	147.75
267.752	149.75
267.984	144.75
268.216	145.75
268.448	140.75
268.681	135.75
268.913	144.75
269.145	134.75
269.377	132.75
269.609	150.75
269.841	147.75
270.073	139.75
270.306	145.75
270.538	152.75
270.77	138.75
271.002	146.75
271.234	128.75
271.466	146.75
271.698	154.75
271.93	140.75
272.162	161.75
272.394	157.75
272.626	147.75
272.858	159.75
273.09	159.75
273.322	140.75
273.553	132.75
273.785	156.75
274.017	154.75
274.249	152.75
274.481	153.75
274.713	144.75
274.945	147.75
275.176	152.75
275.408	158.75
275.64	148.75
275.872	161.75
276.104	157.75
276.335	161.75
276.567	149.75
276.799	147.75
277.031	171.75
277.262	174.75
277.494	158.75
277.726	158.75
277.957	174.75
278.189	163.75
278.421	148.75
278.652	170.75
278.884	156.75
279.115	158.75
279.347	154.75
279.579	166.75
279.81	164.75
280.042	169.75
280.273	155.75
280.505	176.75
280.736	182.75
280.968	159.75
281.199	160.75
281.431	173.75
281.662	165.75
281.894	170.75
282.125	165.75
282.356	161.75
282.588	158.75
282.819	175.75
283.051	167.75
283.282	184.75
283.513	170.75
283.745	164.75
283.976	178.75
284.207	177.75
284.439	181.75
284.67	168.75
284.901	192.75
285.132	177.75
285.364	165.75
285.595	182.75
285.826	174.75
286.057	168.75
286.288	182.75
286.52	171.75
286.751	173.75
286.982	180.75
287.213	172.75
287.444	182.75
287.675	188.75
287.906	186.75
288.138	190.75
288.369	190.75
288.6	185.75
288.831	182.75
289.062	177.75
289.293	175.75
289.524	187.75
289.755	180.75
289.986	189.75
290.217	196.75
290.448	196.75
290.679	185.75
290.91	190.75
291.141	174.75
291.371	174.75
291.602	192.75
291.833	174.75
292.064	175.75
292.295	183.75
292.526	195.75
292.757	192.75
292.987	177.75
293.218	187.75
293.449	190.75
293.68	182.75
293.91	182.75
294.141	190.75
294.372	187.75
294.603	192.75
294.833	193.75
295.064	206.75
295.295	182.75
295.525	187.75
295.756	194.75
295.987	182.75
296.217	200.75
296.448	201.75
296.679	200.75
296.909	192.75
297.14	194.75
297.37	206.75
297.601	194.75
297.831	200.75
298.062	208.75
298.292	202.75
298.523	209.75
298.753	214.75
298.984	209.75
299.214	198.75
299.445	212.75
299.675	206.75
299.905	208.75
300.136	219.75
300.366	196.75
300.597	211.75
300.827	216.75
301.057	227.75
301.288	203.75
301.518	216.75
301.748	210.75
301.979	208.75
302.209	200.75
302.439	210.75
302.669	198.75
302.9	219.75
303.13	212.75
303.36	230.75
303.59	214.75
303.82	214.75
304.051	210.75
304.281	196.75
304.511	203.75
304.741	208.75
304.971	194.75
305.201	210.75
305.431	192.75
305.661	216.75
305.891	211.75
306.121	204.75
306.352	214.75
306.582	208.75
306.812	203.75
307.042	212.75
307.272	206.75
307.502	211.75
307.731	209.75
307.961	199.75
308.191	187.75
308.421	188.75
308.651	198.75
308.881	198.75
309.111	198.75
309.341	205.75
309.571	203.75
309.8	212.75
310.03	212.75
310.26	187.75
310.49	192.75
310.72	217.75
310.949	203.75
311.179	197.75
311.409	209.75
311.639	209.75
311.868	228.75
312.098	220.75
312.328	222.75
312.557	230.75
312.787	203.75
313.017	224.75
313.246	224.75
313.476	231.75
313.706	216.75
313.935	234.75
314.165	232.75
314.394	218.75
314.624	219.75
314.853	214.75
315.083	228.75
315.312	224.75
315.542	205.75
315.771	202.75
316.001	215.75
316.23	210.75
316.46	193.75
316.689	211.75
316.919	215.75
317.148	214.75
317.377	236.75
317.607	212.75
317.836	231.75
318.065	210.75
318.295	212.75
318.524	207.75
318.753	221.75
318.983	210.75
319.212	210.75
319.441	208.75
319.67	210.75
319.9	210.75
320.129	214.75
320.358	197.75
320.587	228.75
320.816	194.75
321.046	205.75
321.275	219.75
321.504	215.75
321.733	200.75
321.962	220.75
322.191	193.75
322.42	219.75
322.649	207.75
322.878	212.75
323.108	219.75
323.337	213.75
323.566	220.75
323.795	210.75
324.024	218.75
324.253	239.75
324.482	226.75
324.71	218.75
324.939	209.75
325.168	235.75
325.397	219.75
325.626	245.75
325.855	222.75
326.084	246.75
326.313	224.75
326.542	219.75
326.77	235.75
326.999	244.75
327.228	230.75
327.457	222.75
327.686	223.75
327.914	224.75
328.143	240.75
328.372	226.75
328.6	228.75
328.829	230.75
329.058	239.75
329.287	238.75
329.515	224.75
329.744	239.75
329.972	214.75
330.201	231.75
330.43	238.75
330.658	225.75
330.887	245.75
331.115	219.75
331.344	246.75
331.572	268.75
331.801	239.75
332.03	242.75
332.258	236.75
332.486	260.75
332.715	264.75
332.943	282.75
333.172	282.75
333.4	298.75
333.629	290.75
333.857	291.75
334.085	304.75
334.314	291.75
334.542	294.75
334.771	267.75
334.999	268.75
335.227	274.75
335.455	268.75
335.684	279.75
335.912	265.75
336.14	264.75
336.369	282.75
336.597	246.75
336.825	270.75
337.053	254.75
337.281	269.75
337.51	262.75
337.738	238.75
337.966	246.75
338.194	248.75
338.422	230.75
338.65	249.75
338.878	241.75
339.106	251.75
339.334	250.75
339.562	229.75
339.79	239.75
340.018	235.75
340.246	254.75
340.474	238.75
340.702	239.75
340.93	227.75
341.158	264.75
341.386	241.75
341.614	236.75
341.842	230.75
342.07	227.75
342.298	222.75
342.526	218.75
342.754	219.75
342.981	226.75
343.209	254.75
343.437	240.75
343.665	256.75
343.893	278.75
344.12	267.75
344.348	244.75
344.576	259.75
344.804	256.75
345.031	244.75
345.259	235.75
345.487	244.75
345.714	233.75
345.942	215.75
346.17	224.75
346.397	237.75
346.625	242.75
346.853	229.75
347.08	231.75
347.308	231.75
347.535	233.75
347.763	252.75
347.99	227.75
348.218	249.75
348.445	226.75
348.673	233.75
348.9	230.75
349.128	233.75
349.355	214.75
349.583	239.75
349.81	231.75
350.037	235.75
350.265	210.75
350.492	229.75
350.72	214.75
350.947	208.75
351.174	223.75
351.402	220.75
351.629	214.75
351.856	224.75
352.083	212.75
352.311	222.75
352.538	203.75
352.765	200.75
352.992	214.75
353.22	231.75
353.447	208.75
353.674	215.75
353.901	213.75
354.128	207.75
354.355	216.75
354.583	230.75
354.81	217.75
355.037	236.75
355.264	234.75
355.491	231.75
355.718	226.75
355.945	208.75
356.172	217.75
356.399	223.75
356.626	214.75
356.853	229.75
357.08	223.75
357.307	233.75
357.534	226.75
357.761	224.75
357.988	221.75
358.215	208.75
358.441	196.75
358.668	210.75
358.895	223.75
359.122	225.75
359.349	204.75
359.576	222.75
359.802	222.75
360.029	222.75
360.256	246.75
360.483	209.75
360.709	210.75
360.936	210.75
361.163	223.75
361.39	213.75
361.616	219.75
361.843	222.75
362.07	226.75
362.296	223.75
362.523	222.75
362.749	222.75
362.976	208.75
363.203	236.75
363.429	211.75
363.656	224.75
363.882	204.75
364.109	207.75
364.335	209.75
364.562	222.75
364.788	226.75
365.015	209.75
365.241	198.75
365.468	219.75
365.694	206.75
365.92	213.75
366.147	207.75
366.373	225.75
366.599	232.75
366.826	230.75
367.052	202.75
367.278	233.75
367.505	221.75
367.731	214.75
367.957	221.75
368.184	214.75
368.41	214.75
368.636	228.75
368.862	224.75
369.089	212.75
369.315	224.75
369.541	232.75
369.767	230.75
369.993	219.75
370.219	214.75
370.445	220.75
370.672	222.75
370.898	214.75
371.124	227.75
371.35	228.75
371.576	243.75
371.802	251.75
372.028	229.75
372.254	223.75
372.48	242.75
372.706	244.75
372.932	236.75
373.158	226.75
373.384	251.75
373.61	224.75
373.835	229.75
374.061	212.75
374.287	228.75
374.513	242.75
374.739	253.75
374.965	262.75
375.191	280.75
375.416	260.75
375.642	255.75
375.868	235.75
376.094	240.75
376.319	231.75
376.545	234.75
376.771	251.75
376.997	242.75
377.222	229.75
377.448	224.75
377.674	216.75
377.899	225.75
378.125	238.75
378.35	215.75
378.576	233.75
378.802	250.75
379.027	223.75
379.253	247.75
379.478	210.75
379.704	224.75
379.929	218.75
380.155	231.75
380.38	238.75
380.606	223.75
380.831	223.75
381.057	232.75
381.282	225.75
381.507	226.75
381.733	246.75
381.958	242.75
382.184	235.75
382.409	258.75
382.634	230.75
382.86	238.75
383.085	247.75
383.31	250.75
383.535	258.75
383.761	270.75
383.986	262.75
384.211	279.75
384.436	261.75
384.662	259.75
384.887	293.75
385.112	275.75
385.337	262.75
385.562	275.75
385.787	270.75
386.013	264.75
386.238	267.75
386.463	271.75
386.688	262.75
386.913	262.75
387.138	241.75
387.363	246.75
387.588	253.75
387.813	266.75
388.038	281.75
388.263	277.75
388.488	268.75
388.713	264.75
388.938	255.75
389.163	268.75
389.387	258.75
389.612	269.75
389.837	258.75
390.062	262.75
390.287	253.75
390.512	259.75
390.736	246.75
390.961	264.75
391.186	256.75
391.411	265.75
391.636	284.75
391.86	293.75
392.085	295.75
392.31	284.75
392.534	279.75
392.759	289.75
392.984	289.75
393.208	272.75
393.433	287.75
393.658	265.75
393.882	286.75
394.107	278.75
394.331	285.75
394.556	275.75
394.78	290.75
395.005	286.75
395.229	261.75
395.454	273.75
395.678	286.75
395.903	294.75
396.127	299.75
396.352	270.75
396.576	276.75
396.801	274.75
397.025	265.75
397.249	287.75
397.474	290.75
397.698	286.75
397.922	307.75
398.147	287.75
398.371	283.75
398.595	288.75
398.82	305.75
399.044	318.75
399.268	368.75
399.492	378.75
399.717	488.75
399.941	456.75
400.165	396.75
400.389	351.75
400.613	328.75
400.837	328.75
401.062	311.75
401.286	317.75
401.51	300.75
401.734	305.75
401.958	298.75
402.182	305.75
402.406	308.75
402.63	355.75
402.854	348.75
403.078	338.75
403.302	364.75
403.526	366.75
403.75	363.75
403.974	355.75
404.198	340.75
404.422	356.75
404.645	368.75
404.869	351.75
405.093	330.75
405.317	340.75
405.541	343.75
405.765	334.75
405.988	330.75
406.212	332.75
406.436	337.75
406.66	331.75
406.883	354.75
407.107	376.75
407.331	377.75
407.555	405.75
407.778	388.75
408.002	391.75
408.226	387.75
408.449	360.75
408.673	350.75
408.896	368.75
409.12	336.75
409.344	355.75
409.567	349.75
409.791	375.75
410.014	346.75
410.238	350.75
410.461	350.75
410.685	339.75
410.908	346.75
411.132	330.75
411.355	338.75
411.578	318.75
411.802	315.75
412.025	308.75
412.249	343.75
412.472	320.75
412.695	322.75
412.919	324.75
413.142	314.75
413.365	315.75
413.589	316.75
413.812	298.75
414.035	307.75
414.258	318.75
414.482	344.75
414.705	315.75
414.928	318.75
415.151	317.75
415.374	317.75
415.597	319.75
415.821	295.75
416.044	304.75
416.267	302.75
416.49	281.75
416.713	305.75
416.936	323.75
417.159	317.75
417.382	304.75
417.605	299.75
417.828	315.75
418.051	304.75
418.274	320.75
418.497	319.75
418.72	319.75
418.943	315.75
419.166	330.75
419.389	358.75
419.611	327.75
419.834	328.75
420.057	343.75
420.28	316.75
420.503	306.75
420.726	299.75
420.948	316.75
421.171	322.75
421.394	313.75
421.617	302.75
421.839	302.75
422.062	310.75
422.285	313.75
422.507	319.75
422.73	309.75
422.953	315.75
423.175	341.75
423.398	327.75
423.621	327.75
423.843	329.75
424.066	338.75
424.288	342.75
424.511	325.75
424.733	312.75
424.956	331.75
425.178	321.75
425.401	315.75
425.623	306.75
425.846	308.75
426.068	304.75
426.291	307.75
426.513	284.75
426.735	297.75
426.958	310.75
427.18	287.75
427.402	287.75
427.625	298.75
427.847	309.75
428.069	290.75
428.292	294.75
428.514	283.75
428.736	283.75
428.958	292.75
429.181	277.75
429.403	288.75
429.625	276.75
429.847	274.75
430.069	267.75
430.292	268.75
430.514	269.75
430.736	262.75
430.958	269.75
431.18	272.75
431.402	256.75
431.624	285.75
431.846	299.75
432.068	294.75
432.29	276.75
432.512	278.75
432.734	278.75
432.956	271.75
433.178	304.75
433.4	281.75
433.622	292.75
433.844	290.75
434.066	286.75
434.287	268.75
434.509	289.75
434.731	313.75
434.953	312.75
435.175	328.75
435.397	316.75
435.618	291.75
435.84	288.75
436.062	284.75
436.284	279.75
436.505	275.75
436.727	290.75
436.949	294.75
437.17	267.75
437.392	268.75
437.614	287.75
437.835	268.75
438.057	270.75
438.278	264.75
438.5	277.75
438.721	276.75
438.943	274.75
439.165	262.75
439.386	286.75
439.608	283.75
439.829	287.75
440.05	272.75
440.272	284.75
440.493	267.75
440.715	288.75
440.936	289.75
441.158	299.75
441.379	297.75
441.6	311.75
441.822	312.75
442.043	311.75
442.264	314.75
442.486	283.75
442.707	312.75
442.928	304.75
443.149	304.75
443.371	322.75
443.592	311.75
443.813	302.75
444.034	307.75
444.255	314.75
444.476	328.75
444.698	360.75
444.919	370.75
445.14	490.75
445.361	385.75
445.582	304.75
445.803	302.75
446.024	294.75
446.245	306.75
446.466	273.75
446.687	294.75
446.908	280.75
447.129	293.75
447.35	280.75
447.571	279.75
447.792	267.75
448.013	277.75
448.234	268.75
448.455	254.75
448.675	243.75
448.896	264.75
449.117	251.75
449.338	252.75
449.559	272.75
449.779	276.75
450	254.75
450.221	265.75
450.442	274.75
450.662	261.75
450.883	274.75
451.104	266.75
451.324	266.75
451.545	269.75
451.766	265.75
451.986	258.75
452.207	263.75
452.428	266.75
452.648	262.75
452.869	268.75
453.089	238.75
453.31	290.75
453.53	258.75
453.751	258.75
453.971	257.75
454.192	247.75
454.412	241.75
454.633	260.75
454.853	266.75
455.073	265.75
455.294	258.75
455.514	268.75
455.734	246.75
455.955	232.75
456.175	239.75
456.395	260.75
456.616	246.75
456.836	225.75
457.056	253.75
457.276	224.75
457.497	254.75
457.717	257.75
457.937	238.75
458.157	260.75
458.377	255.75
458.598	261.75
458.818	259.75
459.038	281.75
459.258	264.75
459.478	275.75
459.698	294.75
459.918	296.75
460.138	308.75
460.358	326.75
460.578	302.75
460.798	323.75
461.018	315.75
461.238	320.75
461.458	311.75
461.678	314.75
461.898	333.75
462.118	322.75
462.338	345.75
462.558	357.75
462.777	346.75
462.997	412.75
463.217	427.75
463.437	441.75
463.657	424.75
463.876	380.75
464.096	383.75
464.316	394.75
464.536	392.75
464.755	350.75
464.975	357.75
465.195	358.75
465.414	304.75
465.634	304.75
465.854	299.75
466.073	299.75
466.293	290.75
466.512	271.75
466.732	286.75
466.951	277.75
467.171	279.75
467.391	272.75
467.61	276.75
467.829	273.75
468.049	283.75
468.268	263.75
468.488	278.75
468.707	262.75
468.927	277.75
469.146	267.75
469.365	272.75
469.585	265.75
469.804	276.75
470.023	266.75
470.243	272.75
470.462	298.75
470.681	292.75
470.901	282.75
471.12	276.75
471.339	283.75
471.558	278.75
471.777	263.75
471.997	278.75
472.216	268.75
472.435	266.75
472.654	270.75
472.873	264.75
473.092	250.75
473.311	276.75
473.53	264.75
473.749	247.75
473.968	260.75
474.187	248.75
474.406	255.75
474.625	268.75
474.844	268.75
475.063	263.75
475.282	265.75
475.501	267.75
475.72	272.75
475.939	267.75
476.158	278.75
476.377	303.75
476.596	267.75
476.814	280.75
477.033	276.75
477.252	280.75
477.471	285.75
477.69	277.75
477.908	290.75
478.127	321.75
478.346	318.75
478.564	309.75
478.783	328.75
479.002	319.75
479.22	316.75
479.439	311.75
479.658	304.75
479.876	325.75
480.095	314.75
480.313	328.75
480.532	336.75
480.751	326.75
480.969	340.75
481.188	322.75
481.406	331.75
481.624	333.75
481.843	296.75
482.061	301.75
482.28	296.75
482.498	298.75
482.717	306.75
482.935	283.75
483.153	293.75
483.372	307.75
483.59	308.75
483.808	291.75
484.027	299.75
484.245	306.75
484.463	302.75
484.681	306.75
484.9	308.75
485.118	322.75
485.336	306.75
485.554	307.75
485.772	335.75
485.99	311.75
486.209	317.75
486.427	329.75
486.645	327.75
486.863	315.75
487.081	319.75
487.299	327.75
487.517	307.75
487.735	324.75
487.953	343.75
488.171	330.75
488.389	306.75
488.607	308.75
488.825	326.75
489.043	316.75
489.261	311.75
489.479	302.75
489.696	302.75
489.914	315.75
490.132	319.75
490.35	292.75
490.568	310.75
490.786	315.75
491.003	325.75
491.221	305.75
491.439	302.75
491.657	310.75
491.874	315.75
492.092	317.75
492.31	329.75
492.527	325.75
492.745	318.75
492.963	320.75
493.18	327.75
493.398	338.75
493.615	325.75
493.833	334.75
494.05	311.75
494.268	334.75
494.485	317.75
494.703	341.75
494.92	335.75
495.138	340.75
495.355	339.75
495.573	333.75
495.79	331.75
496.008	355.75
496.225	336.75
496.442	347.75
496.66	350.75
496.877	355.75
497.094	360.75
497.312	350.75
497.529	343.75
497.746	367.75
497.963	378.75
498.181	393.75
498.398	389.75
498.615	417.75
498.832	434.75
499.049	474.75
499.267	515.75
499.484	546.75
499.701	622.75
499.918	695.75
500.135	739.75
500.352	865.75
500.569	921.75
500.786	928.75
501.003	873.75
501.22	774.75
501.437	675.75
501.654	610.75
501.871	551.75
502.088	506.75
502.305	469.75
502.522	451.75
502.739	431.75
502.956	400.75
