Data from 0.5MCu(NO3)2.Standard.Lamp.E10.CV._HRD10591_16-03-48-752.txt Node
Date: Mon Jul 22 16:03:48 EDT 2019
User: cochatt
Spectrometer: HR+D1059
Trigger mode: 1
Integration Time (sec): 1.000000E-1
Scans to average: 1
Electric dark correction enabled: true
Nonlinearity correction enabled: false
Boxcar width: 0
XAxis mode: Wavelengths
Number of Pixels in Spectrum: 2048
>>>>>Begin Spectral Data<<<<<
223.165	-19.88
223.4	-19.88
223.635	-19.88
223.869	-3.88
224.104	-16.88
224.338	-11.88
224.573	-14.88
224.808	-10.88
225.042	-5.88
225.277	-8.88
225.511	6.12
225.746	-16.88
225.98	8.12
226.215	-12.88
226.449	23.12
226.683	34.12
226.918	21.12
227.152	30.12
227.387	41.12
227.621	25.12
227.856	35.12
228.09	46.12
228.324	53.12
228.559	54.12
228.793	50.12
229.027	66.12
229.262	63.12
229.496	86.12
229.73	78.12
229.964	78.12
230.199	94.12
230.433	76.12
230.667	88.12
230.901	79.12
231.136	86.12
231.37	103.12
231.604	86.12
231.838	89.12
232.072	79.12
232.306	91.12
232.541	79.12
232.775	90.12
233.009	96.12
233.243	77.12
233.477	106.12
233.711	94.12
233.945	94.12
234.179	98.12
234.413	99.12
234.647	94.12
234.881	101.12
235.115	95.12
235.349	92.12
235.583	103.12
235.817	104.12
236.051	93.12
236.285	82.12
236.519	84.12
236.753	86.12
236.987	99.12
237.221	83.12
237.455	95.12
237.689	108.12
237.922	86.12
238.156	96.12
238.39	92.12
238.624	78.12
238.858	104.12
239.091	84.12
239.325	89.12
239.559	99.12
239.793	87.12
240.027	91.12
240.26	90.12
240.494	79.12
240.728	94.12
240.961	94.12
241.195	83.12
241.429	92.12
241.662	99.12
241.896	91.12
242.13	101.12
242.363	95.12
242.597	93.12
242.83	76.12
243.064	100.12
243.298	90.12
243.531	93.12
243.765	97.12
243.998	88.12
244.232	102.12
244.465	99.12
244.699	83.12
244.932	106.12
245.166	95.12
245.399	95.12
245.633	111.12
245.866	93.12
246.099	95.12
246.333	94.12
246.566	96.12
246.8	107.12
247.033	106.12
247.266	92.12
247.5	95.12
247.733	101.12
247.966	110.12
248.2	113.12
248.433	99.12
248.666	102.12
248.899	87.12
249.133	93.12
249.366	106.12
249.599	111.12
249.832	94.12
250.066	101.12
250.299	97.12
250.532	110.12
250.765	105.12
250.998	111.12
251.231	101.12
251.465	99.12
251.698	98.12
251.931	102.12
252.164	115.12
252.397	93.12
252.63	111.12
252.863	112.12
253.096	122.12
253.329	109.12
253.562	99.12
253.795	105.12
254.028	124.12
254.261	107.12
254.494	97.12
254.727	119.12
254.96	125.12
255.193	103.12
255.426	112.12
255.659	111.12
255.892	114.12
256.124	100.12
256.357	124.12
256.59	112.12
256.823	98.12
257.056	109.12
257.289	123.12
257.521	99.12
257.754	108.12
257.987	121.12
258.22	123.12
258.452	112.12
258.685	101.12
258.918	130.12
259.151	114.12
259.383	110.12
259.616	120.12
259.849	134.12
260.081	123.12
260.314	120.12
260.547	113.12
260.779	107.12
261.012	120.12
261.244	121.12
261.477	125.12
261.71	131.12
261.942	131.12
262.175	123.12
262.407	112.12
262.64	121.12
262.872	128.12
263.105	110.12
263.337	120.12
263.57	119.12
263.802	130.12
264.035	125.12
264.267	121.12
264.499	111.12
264.732	136.12
264.964	126.12
265.197	125.12
265.429	126.12
265.661	122.12
265.894	124.12
266.126	132.12
266.358	111.12
266.591	130.12
266.823	134.12
267.055	128.12
267.287	134.12
267.52	125.12
267.752	127.12
267.984	129.12
268.216	140.12
268.448	122.12
268.681	131.12
268.913	127.12
269.145	116.12
269.377	127.12
269.609	117.12
269.841	118.12
270.073	123.12
270.306	142.12
270.538	122.12
270.77	140.12
271.002	147.12
271.234	133.12
271.466	147.12
271.698	133.12
271.93	126.12
272.162	138.12
272.394	148.12
272.626	124.12
272.858	135.12
273.09	129.12
273.322	142.12
273.553	128.12
273.785	150.12
274.017	133.12
274.249	127.12
274.481	126.12
274.713	130.12
274.945	149.12
275.176	122.12
275.408	143.12
275.64	138.12
275.872	137.12
276.104	134.12
276.335	134.12
276.567	137.12
276.799	145.12
277.031	127.12
277.262	158.12
277.494	143.12
277.726	132.12
277.957	125.12
278.189	135.12
278.421	132.12
278.652	140.12
278.884	150.12
279.115	135.12
279.347	137.12
279.579	142.12
279.81	137.12
280.042	130.12
280.273	128.12
280.505	125.12
280.736	139.12
280.968	153.12
281.199	136.12
281.431	152.12
281.662	135.12
281.894	158.12
282.125	146.12
282.356	141.12
282.588	148.12
282.819	158.12
283.051	147.12
283.282	148.12
283.513	139.12
283.745	146.12
283.976	144.12
284.207	151.12
284.439	168.12
284.67	155.12
284.901	154.12
285.132	147.12
285.364	162.12
285.595	155.12
285.826	131.12
286.057	148.12
286.288	134.12
286.52	162.12
286.751	144.12
286.982	159.12
287.213	145.12
287.444	159.12
287.675	157.12
287.906	179.12
288.138	170.12
288.369	162.12
288.6	161.12
288.831	150.12
289.062	157.12
289.293	156.12
289.524	165.12
289.755	148.12
289.986	166.12
290.217	152.12
290.448	159.12
290.679	164.12
290.91	162.12
291.141	150.12
291.371	165.12
291.602	155.12
291.833	162.12
292.064	163.12
292.295	152.12
292.526	155.12
292.757	180.12
292.987	176.12
293.218	170.12
293.449	164.12
293.68	156.12
293.91	156.12
294.141	172.12
294.372	165.12
294.603	162.12
294.833	165.12
295.064	158.12
295.295	168.12
295.525	159.12
295.756	163.12
295.987	179.12
296.217	164.12
296.448	171.12
296.679	165.12
296.909	183.12
297.14	182.12
297.37	164.12
297.601	179.12
297.831	173.12
298.062	169.12
298.292	180.12
298.523	182.12
298.753	168.12
298.984	178.12
299.214	159.12
299.445	192.12
299.675	172.12
299.905	173.12
300.136	167.12
300.366	168.12
300.597	169.12
300.827	179.12
301.057	180.12
301.288	181.12
301.518	172.12
301.748	174.12
301.979	180.12
302.209	187.12
302.439	155.12
302.669	155.12
302.9	167.12
303.13	169.12
303.36	180.12
303.59	166.12
303.82	178.12
304.051	180.12
304.281	171.12
304.511	170.12
304.741	181.12
304.971	180.12
305.201	170.12
305.431	182.12
305.661	176.12
305.891	197.12
306.121	175.12
306.352	167.12
306.582	193.12
306.812	183.12
307.042	172.12
307.272	178.12
307.502	164.12
307.731	182.12
307.961	184.12
308.191	184.12
308.421	183.12
308.651	186.12
308.881	166.12
309.111	184.12
309.341	166.12
309.571	170.12
309.8	161.12
310.03	164.12
310.26	182.12
310.49	171.12
310.72	178.12
310.949	182.12
311.179	176.12
311.409	194.12
311.639	165.12
311.868	194.12
312.098	180.12
312.328	197.12
312.557	162.12
312.787	170.12
313.017	178.12
313.246	178.12
313.476	196.12
313.706	197.12
313.935	186.12
314.165	186.12
314.394	193.12
314.624	178.12
314.853	188.12
315.083	189.12
315.312	186.12
315.542	175.12
315.771	172.12
316.001	162.12
316.23	193.12
316.46	182.12
316.689	184.12
316.919	186.12
317.148	175.12
317.377	181.12
317.607	186.12
317.836	175.12
318.065	187.12
318.295	190.12
318.524	182.12
318.753	167.12
318.983	165.12
319.212	185.12
319.441	174.12
319.67	165.12
319.9	170.12
320.129	182.12
320.358	172.12
320.587	170.12
320.816	171.12
321.046	186.12
321.275	190.12
321.504	170.12
321.733	183.12
321.962	176.12
322.191	179.12
322.42	182.12
322.649	178.12
322.878	159.12
323.108	187.12
323.337	178.12
323.566	162.12
323.795	193.12
324.024	186.12
324.253	180.12
324.482	182.12
324.71	175.12
324.939	176.12
325.168	182.12
325.397	163.12
325.626	186.12
325.855	186.12
326.084	200.12
326.313	197.12
326.542	195.12
326.77	207.12
326.999	188.12
327.228	190.12
327.457	187.12
327.686	181.12
327.914	189.12
328.143	185.12
328.372	189.12
328.6	186.12
328.829	188.12
329.058	185.12
329.287	189.12
329.515	202.12
329.744	191.12
329.972	190.12
330.201	192.12
330.43	190.12
330.658	175.12
330.887	198.12
331.115	206.12
331.344	196.12
331.572	182.12
331.801	205.12
332.03	219.12
332.258	197.12
332.486	200.12
332.715	198.12
332.943	213.12
333.172	231.12
333.4	235.12
333.629	247.12
333.857	235.12
334.085	225.12
334.314	231.12
334.542	237.12
334.771	231.12
334.999	215.12
335.227	220.12
335.455	221.12
335.684	221.12
335.912	202.12
336.14	227.12
336.369	217.12
336.597	222.12
336.825	233.12
337.053	211.12
337.281	208.12
337.51	210.12
337.738	200.12
337.966	212.12
338.194	191.12
338.422	204.12
338.65	202.12
338.878	213.12
339.106	211.12
339.334	202.12
339.562	188.12
339.79	193.12
340.018	192.12
340.246	200.12
340.474	196.12
340.702	208.12
340.93	216.12
341.158	208.12
341.386	200.12
341.614	183.12
341.842	191.12
342.07	195.12
342.298	192.12
342.526	188.12
342.754	174.12
342.981	202.12
343.209	198.12
343.437	205.12
343.665	221.12
343.893	219.12
344.12	214.12
344.348	212.12
344.576	211.12
344.804	198.12
345.031	206.12
345.259	196.12
345.487	204.12
345.714	187.12
345.942	203.12
346.17	170.12
346.397	187.12
346.625	198.12
346.853	198.12
347.08	191.12
347.308	196.12
347.535	185.12
347.763	195.12
347.99	216.12
348.218	201.12
348.445	194.12
348.673	189.12
348.9	192.12
349.128	190.12
349.355	191.12
349.583	176.12
349.81	183.12
350.037	188.12
350.265	193.12
350.492	188.12
350.72	197.12
350.947	196.12
351.174	187.12
351.402	192.12
351.629	190.12
351.856	182.12
352.083	181.12
352.311	176.12
352.538	186.12
352.765	184.12
352.992	183.12
353.22	180.12
353.447	185.12
353.674	201.12
353.901	187.12
354.128	185.12
354.355	177.12
354.583	179.12
354.81	196.12
355.037	189.12
355.264	199.12
355.491	186.12
355.718	178.12
355.945	186.12
356.172	181.12
356.399	201.12
356.626	182.12
356.853	169.12
357.08	191.12
357.307	190.12
357.534	175.12
357.761	203.12
357.988	188.12
358.215	203.12
358.441	190.12
358.668	185.12
358.895	186.12
359.122	198.12
359.349	181.12
359.576	195.12
359.802	179.12
360.029	184.12
360.256	203.12
360.483	169.12
360.709	186.12
360.936	183.12
361.163	187.12
361.39	184.12
361.616	184.12
361.843	182.12
362.07	190.12
362.296	185.12
362.523	206.12
362.749	183.12
362.976	188.12
363.203	190.12
363.429	186.12
363.656	188.12
363.882	175.12
364.109	168.12
364.335	178.12
364.562	174.12
364.788	188.12
365.015	191.12
365.241	187.12
365.468	187.12
365.694	179.12
365.92	194.12
366.147	184.12
366.373	173.12
366.599	204.12
366.826	178.12
367.052	180.12
367.278	189.12
367.505	180.12
367.731	165.12
367.957	163.12
368.184	168.12
368.41	189.12
368.636	200.12
368.862	197.12
369.089	188.12
369.315	182.12
369.541	217.12
369.767	178.12
369.993	185.12
370.219	172.12
370.445	194.12
370.672	194.12
370.898	195.12
371.124	191.12
371.35	188.12
371.576	200.12
371.802	195.12
372.028	174.12
372.254	190.12
372.48	203.12
372.706	204.12
372.932	200.12
373.158	202.12
373.384	208.12
373.61	213.12
373.835	200.12
374.061	182.12
374.287	199.12
374.513	224.12
374.739	203.12
374.965	212.12
375.191	235.12
375.416	203.12
375.642	195.12
375.868	195.12
376.094	203.12
376.319	187.12
376.545	193.12
376.771	211.12
376.997	198.12
377.222	192.12
377.448	203.12
377.674	188.12
377.899	197.12
378.125	209.12
378.35	184.12
378.576	198.12
378.802	200.12
379.027	195.12
379.253	199.12
379.478	184.12
379.704	195.12
379.929	207.12
380.155	183.12
380.38	199.12
380.606	203.12
380.831	208.12
381.057	206.12
381.282	187.12
381.507	188.12
381.733	214.12
381.958	188.12
382.184	195.12
382.409	188.12
382.634	223.12
382.86	216.12
383.085	212.12
383.31	194.12
383.535	192.12
383.761	216.12
383.986	205.12
384.211	213.12
384.436	202.12
384.662	205.12
384.887	213.12
385.112	224.12
385.337	213.12
385.562	218.12
385.787	219.12
386.013	233.12
386.238	247.12
386.463	234.12
386.688	231.12
386.913	218.12
387.138	240.12
387.363	212.12
387.588	224.12
387.813	214.12
388.038	208.12
388.263	231.12
388.488	229.12
388.713	226.12
388.938	207.12
389.163	217.12
389.387	212.12
389.612	214.12
389.837	232.12
390.062	203.12
390.287	200.12
390.512	224.12
390.736	226.12
390.961	212.12
391.186	231.12
391.411	226.12
391.636	246.12
391.86	227.12
392.085	239.12
392.31	251.12
392.534	234.12
392.759	246.12
392.984	238.12
393.208	229.12
393.433	236.12
393.658	222.12
393.882	226.12
394.107	230.12
394.331	230.12
394.556	234.12
394.78	239.12
395.005	221.12
395.229	233.12
395.454	229.12
395.678	208.12
395.903	253.12
396.127	240.12
396.352	217.12
396.576	227.12
396.801	216.12
397.025	211.12
397.249	241.12
397.474	234.12
397.698	216.12
397.922	246.12
398.147	220.12
398.371	219.12
398.595	237.12
398.82	259.12
399.044	276.12
399.268	282.12
399.492	325.12
399.717	365.12
399.941	363.12
400.165	317.12
400.389	297.12
400.613	276.12
400.837	276.12
401.062	279.12
401.286	259.12
401.51	264.12
401.734	255.12
401.958	269.12
402.182	263.12
402.406	251.12
402.63	267.12
402.854	263.12
403.078	261.12
403.302	292.12
403.526	297.12
403.75	302.12
403.974	298.12
404.198	285.12
404.422	292.12
404.645	292.12
404.869	298.12
405.093	276.12
405.317	268.12
405.541	269.12
405.765	263.12
405.988	270.12
406.212	272.12
406.436	262.12
406.66	278.12
406.883	272.12
407.107	314.12
407.331	313.12
407.555	308.12
407.778	307.12
408.002	309.12
408.226	302.12
408.449	292.12
408.673	280.12
408.896	292.12
409.12	286.12
409.344	298.12
409.567	294.12
409.791	292.12
410.014	296.12
410.238	278.12
410.461	277.12
410.685	281.12
410.908	259.12
411.132	294.12
411.355	263.12
411.578	259.12
411.802	250.12
412.025	260.12
412.249	261.12
412.472	258.12
412.695	263.12
412.919	258.12
413.142	251.12
413.365	246.12
413.589	228.12
413.812	268.12
414.035	251.12
414.258	245.12
414.482	236.12
414.705	258.12
414.928	261.12
415.151	262.12
415.374	266.12
415.597	252.12
415.821	239.12
416.044	250.12
416.267	259.12
416.49	250.12
416.713	232.12
416.936	245.12
417.159	232.12
417.382	258.12
417.605	253.12
417.828	248.12
418.051	244.12
418.274	264.12
418.497	261.12
418.72	265.12
418.943	268.12
419.166	287.12
419.389	288.12
419.611	279.12
419.834	258.12
420.057	240.12
420.28	264.12
420.503	250.12
420.726	248.12
420.948	238.12
421.171	242.12
421.394	237.12
421.617	250.12
421.839	262.12
422.062	255.12
422.285	251.12
422.507	248.12
422.73	260.12
422.953	262.12
423.175	268.12
423.398	273.12
423.621	253.12
423.843	278.12
424.066	267.12
424.288	253.12
424.511	275.12
424.733	254.12
424.956	255.12
425.178	247.12
425.401	239.12
425.623	251.12
425.846	246.12
426.068	240.12
426.291	245.12
426.513	263.12
426.735	240.12
426.958	253.12
427.18	219.12
427.402	243.12
427.625	224.12
427.847	228.12
428.069	235.12
428.292	245.12
428.514	229.12
428.736	236.12
428.958	246.12
429.181	226.12
429.403	250.12
429.625	220.12
429.847	217.12
430.069	237.12
430.292	239.12
430.514	229.12
430.736	214.12
430.958	218.12
431.18	231.12
431.402	242.12
431.624	237.12
431.846	227.12
432.068	209.12
432.29	243.12
432.512	213.12
432.734	226.12
432.956	225.12
433.178	238.12
433.4	234.12
433.622	248.12
433.844	243.12
434.066	245.12
434.287	256.12
434.509	236.12
434.731	254.12
434.953	255.12
435.175	231.12
435.397	262.12
435.618	232.12
435.84	223.12
436.062	234.12
436.284	227.12
436.505	238.12
436.727	238.12
436.949	229.12
437.17	246.12
437.392	222.12
437.614	232.12
437.835	216.12
438.057	231.12
438.278	227.12
438.5	202.12
438.721	219.12
438.943	236.12
439.165	234.12
439.386	236.12
439.608	206.12
439.829	228.12
440.05	237.12
440.272	235.12
440.493	246.12
440.715	239.12
440.936	242.12
441.158	219.12
441.379	230.12
441.6	252.12
441.822	262.12
442.043	258.12
442.264	237.12
442.486	236.12
442.707	248.12
442.928	247.12
443.149	258.12
443.371	249.12
443.592	236.12
443.813	265.12
444.034	232.12
444.255	262.12
444.476	255.12
444.698	286.12
444.919	298.12
445.14	410.12
445.361	331.12
445.582	266.12
445.803	255.12
446.024	243.12
446.245	242.12
446.466	230.12
446.687	237.12
446.908	232.12
447.129	216.12
447.35	224.12
447.571	228.12
447.792	236.12
448.013	214.12
448.234	222.12
448.455	229.12
448.675	215.12
448.896	206.12
449.117	238.12
449.338	231.12
449.559	208.12
449.779	202.12
450	216.12
450.221	224.12
450.442	208.12
450.662	221.12
450.883	228.12
451.104	223.12
451.324	233.12
451.545	231.12
451.766	228.12
451.986	227.12
452.207	219.12
452.428	215.12
452.648	201.12
452.869	219.12
453.089	236.12
453.31	215.12
453.53	214.12
453.751	211.12
453.971	226.12
454.192	221.12
454.412	215.12
454.633	216.12
454.853	215.12
455.073	196.12
455.294	229.12
455.514	226.12
455.734	213.12
455.955	218.12
456.175	203.12
456.395	202.12
456.616	219.12
456.836	203.12
457.056	214.12
457.276	202.12
457.497	200.12
457.717	212.12
457.937	223.12
458.157	215.12
458.377	221.12
458.598	219.12
458.818	213.12
459.038	234.12
459.258	239.12
459.478	228.12
459.698	228.12
459.918	254.12
460.138	260.12
460.358	262.12
460.578	267.12
460.798	276.12
461.018	270.12
461.238	274.12
461.458	268.12
461.678	261.12
461.898	254.12
462.118	254.12
462.338	261.12
462.558	300.12
462.777	296.12
462.997	303.12
463.217	339.12
463.437	348.12
463.657	310.12
463.876	319.12
464.096	307.12
464.316	306.12
464.536	300.12
464.755	291.12
464.975	292.12
465.195	282.12
465.414	268.12
465.634	262.12
465.854	232.12
466.073	236.12
466.293	234.12
466.512	226.12
466.732	238.12
466.951	224.12
467.171	236.12
467.391	224.12
467.61	241.12
467.829	250.12
468.049	212.12
468.268	218.12
468.488	212.12
468.707	222.12
468.927	222.12
469.146	202.12
469.365	227.12
469.585	229.12
469.804	246.12
470.023	244.12
470.243	240.12
470.462	230.12
470.681	226.12
470.901	233.12
471.12	234.12
471.339	230.12
471.558	228.12
471.777	203.12
471.997	224.12
472.216	230.12
472.435	226.12
472.654	218.12
472.873	207.12
473.092	212.12
473.311	205.12
473.53	241.12
473.749	237.12
473.968	234.12
474.187	212.12
474.406	216.12
474.625	223.12
474.844	226.12
475.063	224.12
475.282	220.12
475.501	231.12
475.72	231.12
475.939	233.12
476.158	224.12
476.377	229.12
476.596	243.12
476.814	232.12
477.033	237.12
477.252	226.12
477.471	224.12
477.69	246.12
477.908	242.12
478.127	252.12
478.346	251.12
478.564	259.12
478.783	267.12
479.002	267.12
479.22	272.12
479.439	266.12
479.658	253.12
479.876	258.12
480.095	245.12
480.313	273.12
480.532	266.12
480.751	258.12
480.969	263.12
481.188	279.12
481.406	262.12
481.624	254.12
481.843	243.12
482.061	243.12
482.28	247.12
482.498	247.12
482.717	247.12
482.935	246.12
483.153	238.12
483.372	268.12
483.59	242.12
483.808	223.12
484.027	238.12
484.245	235.12
484.463	255.12
484.681	256.12
484.9	277.12
485.118	268.12
485.336	260.12
485.554	264.12
485.772	250.12
485.99	272.12
486.209	284.12
486.427	278.12
486.645	262.12
486.863	275.12
487.081	260.12
487.299	246.12
487.517	262.12
487.735	245.12
487.953	249.12
488.171	261.12
488.389	247.12
488.607	262.12
488.825	254.12
489.043	236.12
489.261	248.12
489.479	259.12
489.696	234.12
489.914	256.12
490.132	267.12
490.35	269.12
490.568	263.12
490.786	258.12
491.003	251.12
491.221	266.12
491.439	273.12
491.657	262.12
491.874	273.12
492.092	268.12
492.31	280.12
492.527	268.12
492.745	283.12
492.963	256.12
493.18	272.12
493.398	270.12
493.615	271.12
493.833	273.12
494.05	276.12
494.268	279.12
494.485	277.12
494.703	283.12
494.92	264.12
495.138	265.12
495.355	270.12
495.573	269.12
495.79	267.12
496.008	255.12
496.225	269.12
496.442	282.12
496.66	274.12
496.877	266.12
497.094	278.12
497.312	286.12
497.529	296.12
497.746	308.12
497.963	316.12
498.181	303.12
498.398	311.12
498.615	360.12
498.832	356.12
499.049	382.12
499.267	397.12
499.484	447.12
499.701	476.12
499.918	534.12
500.135	608.12
500.352	687.12
500.569	715.12
500.786	703.12
501.003	661.12
501.22	576.12
501.437	510.12
501.654	479.12
501.871	430.12
502.088	383.12
502.305	382.12
502.522	350.12
502.739	343.12
502.956	349.12
503.172	308.12
