Data from copper.mounting.energy7_HRD10591_16-51-01-544.txt Node
Date: Thu Jul 11 16:51:01 EDT 2019
User: cochatt
Spectrometer: HR+D1059
Trigger mode: 1
Integration Time (sec): 1.000000E-1
Scans to average: 1
Electric dark correction enabled: true
Nonlinearity correction enabled: false
Boxcar width: 0
XAxis mode: Wavelengths
Number of Pixels in Spectrum: 2048
>>>>>Begin Spectral Data<<<<<
223.165	-13.44
223.4	-13.44
223.635	-13.44
223.869	-9.44
224.104	-15.44
224.338	0.56
224.573	-23.44
224.808	-3.44
225.042	-18.44
225.277	0.56
225.511	-12.44
225.746	-10.44
225.98	4.56
226.215	12.56
226.449	17.56
226.683	21.56
226.918	22.56
227.152	26.56
227.387	27.56
227.621	40.56
227.856	46.56
228.09	51.56
228.324	38.56
228.559	59.56
228.793	77.56
229.027	177.56
229.262	200.56
229.496	214.56
229.73	266.56
229.964	274.56
230.199	251.56
230.433	203.56
230.667	174.56
230.901	187.56
231.136	188.56
231.37	183.56
231.604	201.56
231.838	181.56
232.072	196.56
232.306	204.56
232.541	189.56
232.775	202.56
233.009	195.56
233.243	198.56
233.477	216.56
233.711	218.56
233.945	215.56
234.179	217.56
234.413	210.56
234.647	210.56
234.881	208.56
235.115	233.56
235.349	208.56
235.583	232.56
235.817	235.56
236.051	253.56
236.285	256.56
236.519	242.56
236.753	264.56
236.987	305.56
237.221	392.56
237.455	467.56
237.689	358.56
237.922	291.56
238.156	274.56
238.39	254.56
238.624	265.56
238.858	254.56
239.091	245.56
239.325	248.56
239.559	259.56
239.793	267.56
240.027	288.56
240.26	318.56
240.494	323.56
240.728	335.56
240.961	342.56
241.195	314.56
241.429	294.56
241.662	278.56
241.896	293.56
242.13	284.56
242.363	286.56
242.597	284.56
242.83	272.56
243.064	286.56
243.298	305.56
243.531	289.56
243.765	298.56
243.998	302.56
244.232	296.56
244.465	315.56
244.699	308.56
244.932	305.56
245.166	319.56
245.399	326.56
245.633	322.56
245.866	326.56
246.099	314.56
246.333	314.56
246.566	344.56
246.8	344.56
247.033	356.56
247.266	351.56
247.5	364.56
247.733	374.56
247.966	395.56
248.2	385.56
248.433	368.56
248.666	393.56
248.899	442.56
249.133	472.56
249.366	471.56
249.599	433.56
249.832	420.56
250.066	417.56
250.299	421.56
250.532	420.56
250.765	474.56
250.998	512.56
251.231	539.56
251.465	498.56
251.698	490.56
251.931	473.56
252.164	478.56
252.397	460.56
252.63	472.56
252.863	494.56
253.096	530.56
253.329	544.56
253.562	521.56
253.795	527.56
254.028	519.56
254.261	556.56
254.494	557.56
254.727	632.56
254.96	698.56
255.193	618.56
255.426	588.56
255.659	542.56
255.892	516.56
256.124	530.56
256.357	519.56
256.59	509.56
256.823	508.56
257.056	499.56
257.289	494.56
257.521	490.56
257.754	509.56
257.987	484.56
258.22	510.56
258.452	507.56
258.685	496.56
258.918	510.56
259.151	520.56
259.383	550.56
259.616	548.56
259.849	540.56
260.081	588.56
260.314	616.56
260.547	656.56
260.779	591.56
261.012	564.56
261.244	563.56
261.477	537.56
261.71	537.56
261.942	536.56
262.175	550.56
262.407	541.56
262.64	534.56
262.872	525.56
263.105	524.56
263.337	521.56
263.57	521.56
263.802	534.56
264.035	528.56
264.267	534.56
264.499	561.56
264.732	560.56
264.964	531.56
265.197	532.56
265.429	539.56
265.661	547.56
265.894	529.56
266.126	547.56
266.358	552.56
266.591	553.56
266.823	580.56
267.055	572.56
267.287	571.56
267.52	568.56
267.752	584.56
267.984	585.56
268.216	595.56
268.448	623.56
268.681	619.56
268.913	644.56
269.145	684.56
269.377	738.56
269.609	705.56
269.841	691.56
270.073	728.56
270.306	776.56
270.538	834.56
270.77	796.56
271.002	774.56
271.234	744.56
271.466	773.56
271.698	809.56
271.93	824.56
272.162	815.56
272.394	811.56
272.626	772.56
272.858	722.56
273.09	724.56
273.322	683.56
273.553	668.56
273.785	671.56
274.017	664.56
274.249	666.56
274.481	688.56
274.713	705.56
274.945	693.56
275.176	673.56
275.408	666.56
275.64	682.56
275.872	666.56
276.104	684.56
276.335	686.56
276.567	715.56
276.799	735.56
277.031	790.56
277.262	826.56
277.494	822.56
277.726	783.56
277.957	764.56
278.189	731.56
278.421	729.56
278.652	699.56
278.884	704.56
279.115	699.56
279.347	688.56
279.579	701.56
279.81	727.56
280.042	690.56
280.273	668.56
280.505	714.56
280.736	711.56
280.968	716.56
281.199	697.56
281.431	696.56
281.662	687.56
281.894	714.56
282.125	707.56
282.356	749.56
282.588	750.56
282.819	775.56
283.051	738.56
283.282	723.56
283.513	756.56
283.745	760.56
283.976	765.56
284.207	771.56
284.439	772.56
284.67	777.56
284.901	758.56
285.132	768.56
285.364	734.56
285.595	786.56
285.826	750.56
286.057	756.56
286.288	765.56
286.52	784.56
286.751	771.56
286.982	757.56
287.213	757.56
287.444	779.56
287.675	784.56
287.906	803.56
288.138	810.56
288.369	817.56
288.6	817.56
288.831	812.56
289.062	822.56
289.293	801.56
289.524	822.56
289.755	790.56
289.986	789.56
290.217	781.56
290.448	768.56
290.679	786.56
290.91	798.56
291.141	798.56
291.371	780.56
291.602	779.56
291.833	787.56
292.064	770.56
292.295	792.56
292.526	808.56
292.757	805.56
292.987	794.56
293.218	802.56
293.449	786.56
293.68	802.56
293.91	844.56
294.141	779.56
294.372	769.56
294.603	805.56
294.833	805.56
295.064	816.56
295.295	821.56
295.525	820.56
295.756	820.56
295.987	825.56
296.217	860.56
296.448	837.56
296.679	828.56
296.909	813.56
297.14	811.56
297.37	838.56
297.601	810.56
297.831	841.56
298.062	812.56
298.292	834.56
298.523	836.56
298.753	838.56
298.984	850.56
299.214	851.56
299.445	858.56
299.675	856.56
299.905	864.56
300.136	860.56
300.366	873.56
300.597	867.56
300.827	887.56
301.057	892.56
301.288	912.56
301.518	905.56
301.748	876.56
301.979	920.56
302.209	923.56
302.439	879.56
302.669	910.56
302.9	893.56
303.13	892.56
303.36	907.56
303.59	887.56
303.82	914.56
304.051	927.56
304.281	899.56
304.511	894.56
304.741	894.56
304.971	896.56
305.201	920.56
305.431	902.56
305.661	867.56
305.891	878.56
306.121	913.56
306.352	927.56
306.582	950.56
306.812	890.56
307.042	891.56
307.272	880.56
307.502	915.56
307.731	880.56
307.961	896.56
308.191	882.56
308.421	888.56
308.651	886.56
308.881	898.56
309.111	913.56
309.341	918.56
309.571	922.56
309.8	943.56
310.03	933.56
310.26	958.56
310.49	926.56
310.72	1007.56
310.949	1021.56
311.179	996.56
311.409	996.56
311.639	981.56
311.868	952.56
312.098	982.56
312.328	1004.56
312.557	1043.56
312.787	1037.56
313.017	1029.56
313.246	1006.56
313.476	990.56
313.706	1002.56
313.935	992.56
314.165	1035.56
314.394	1050.56
314.624	1056.56
314.853	1036.56
315.083	999.56
315.312	1046.56
315.542	1010.56
315.771	996.56
316.001	1003.56
316.23	968.56
316.46	1012.56
316.689	988.56
316.919	1002.56
317.148	1031.56
317.377	993.56
317.607	1044.56
317.836	1008.56
318.065	993.56
318.295	1012.56
318.524	1004.56
318.753	984.56
318.983	983.56
319.212	970.56
319.441	1008.56
319.67	1011.56
319.9	1036.56
320.129	1017.56
320.358	1017.56
320.587	1034.56
320.816	1016.56
321.046	1029.56
321.275	1039.56
321.504	1015.56
321.733	1042.56
321.962	1054.56
322.191	1052.56
322.42	1086.56
322.649	1101.56
322.878	1133.56
323.108	1117.56
323.337	1158.56
323.566	1160.56
323.795	1218.56
324.024	1317.56
324.253	1534.56
324.482	2030.56
324.71	2900.56
324.939	3726.56
325.168	2976.56
325.397	1721.56
325.626	1352.56
325.855	1208.56
326.084	1200.56
326.313	1183.56
326.542	1203.56
326.77	1306.56
326.999	1484.56
327.228	1912.56
327.457	2612.56
327.686	2763.56
327.914	1955.56
328.143	1440.56
328.372	1370.56
328.6	1312.56
328.829	1339.56
329.058	1326.56
329.287	1342.56
329.515	1293.56
329.744	1231.56
329.972	1242.56
330.201	1232.56
330.43	1254.56
330.658	1352.56
330.887	1399.56
331.115	1358.56
331.344	1309.56
331.572	1231.56
331.801	1253.56
332.03	1223.56
332.258	1241.56
332.486	1226.56
332.715	1248.56
332.943	1274.56
333.172	1295.56
333.4	1312.56
333.629	1314.56
333.857	1351.56
334.085	1325.56
334.314	1310.56
334.542	1317.56
334.771	1282.56
334.999	1285.56
335.227	1327.56
335.455	1296.56
335.684	1260.56
335.912	1233.56
336.14	1235.56
336.369	1228.56
336.597	1259.56
336.825	1231.56
337.053	1198.56
337.281	1209.56
337.51	1181.56
337.738	1227.56
337.966	1200.56
338.194	1158.56
338.422	1167.56
338.65	1166.56
338.878	1176.56
339.106	1150.56
339.334	1155.56
339.562	1134.56
339.79	1139.56
340.018	1155.56
340.246	1132.56
340.474	1130.56
340.702	1138.56
340.93	1129.56
341.158	1111.56
341.386	1124.56
341.614	1131.56
341.842	1137.56
342.07	1110.56
342.298	1124.56
342.526	1103.56
342.754	1105.56
342.981	1120.56
343.209	1116.56
343.437	1152.56
343.665	1194.56
343.893	1246.56
344.12	1232.56
344.348	1237.56
344.576	1204.56
344.804	1191.56
345.031	1164.56
345.259	1183.56
345.487	1122.56
345.714	1130.56
345.942	1096.56
346.17	1059.56
346.397	1071.56
346.625	1071.56
346.853	1073.56
347.08	1070.56
347.308	1072.56
347.535	1066.56
347.763	1089.56
347.99	1069.56
348.218	1090.56
348.445	1076.56
348.673	1081.56
348.9	1070.56
349.128	1048.56
349.355	1009.56
349.583	1028.56
349.81	1041.56
350.037	1042.56
350.265	1061.56
350.492	1041.56
350.72	1008.56
350.947	1040.56
351.174	1048.56
351.402	1028.56
351.629	1058.56
351.856	1059.56
352.083	1084.56
352.311	1057.56
352.538	1059.56
352.765	1068.56
352.992	1065.56
353.22	1040.56
353.447	1056.56
353.674	1020.56
353.901	1001.56
354.128	1014.56
354.355	1011.56
354.583	1030.56
354.81	1005.56
355.037	977.56
355.264	1001.56
355.491	1017.56
355.718	1005.56
355.945	1014.56
356.172	1012.56
356.399	1020.56
356.626	992.56
356.853	988.56
357.08	955.56
357.307	987.56
357.534	996.56
357.761	1010.56
357.988	1012.56
358.215	985.56
358.441	993.56
358.668	1021.56
358.895	1002.56
359.122	990.56
359.349	1031.56
359.576	1071.56
359.802	1085.56
360.029	1117.56
360.256	1118.56
360.483	1113.56
360.709	1065.56
360.936	1040.56
361.163	1035.56
361.39	1038.56
361.616	1059.56
361.843	1054.56
362.07	1032.56
362.296	1053.56
362.523	1016.56
362.749	1040.56
362.976	1026.56
363.203	1002.56
363.429	1037.56
363.656	1010.56
363.882	1012.56
364.109	983.56
364.335	998.56
364.562	975.56
364.788	987.56
365.015	972.56
365.241	1006.56
365.468	1001.56
365.694	1006.56
365.92	1035.56
366.147	1006.56
366.373	1000.56
366.599	1020.56
366.826	993.56
367.052	969.56
367.278	998.56
367.505	980.56
367.731	1007.56
367.957	1006.56
368.184	1007.56
368.41	1010.56
368.636	1026.56
368.862	1027.56
369.089	1017.56
369.315	1019.56
369.541	982.56
369.767	990.56
369.993	1010.56
370.219	1032.56
370.445	1031.56
370.672	1034.56
370.898	1027.56
371.124	1016.56
371.35	1012.56
371.576	1007.56
371.802	1031.56
372.028	1027.56
372.254	1050.56
372.48	1028.56
372.706	1058.56
372.932	1044.56
373.158	1064.56
373.384	1050.56
373.61	1039.56
373.835	1026.56
374.061	1031.56
374.287	1045.56
374.513	1058.56
374.739	1080.56
374.965	1077.56
375.191	1102.56
375.416	1103.56
375.642	1073.56
375.868	1032.56
376.094	1041.56
376.319	1053.56
376.545	1037.56
376.771	1036.56
376.997	1010.56
377.222	989.56
377.448	976.56
377.674	1002.56
377.899	1026.56
378.125	1001.56
378.35	1020.56
378.576	1011.56
378.802	1007.56
379.027	988.56
379.253	1018.56
379.478	1015.56
379.704	1035.56
379.929	1011.56
380.155	1020.56
380.38	1057.56
380.606	1027.56
380.831	1007.56
381.057	1032.56
381.282	1021.56
381.507	1007.56
381.733	1030.56
381.958	1039.56
382.184	1034.56
382.409	1063.56
382.634	1063.56
382.86	1055.56
383.085	1050.56
383.31	1109.56
383.535	1092.56
383.761	1094.56
383.986	1135.56
384.211	1109.56
384.436	1147.56
384.662	1131.56
384.887	1151.56
385.112	1144.56
385.337	1161.56
385.562	1143.56
385.787	1136.56
386.013	1185.56
386.238	1196.56
386.463	1208.56
386.688	1211.56
386.913	1187.56
387.138	1170.56
387.363	1157.56
387.588	1162.56
387.813	1182.56
388.038	1161.56
388.263	1181.56
388.488	1170.56
388.713	1197.56
388.938	1178.56
389.163	1142.56
389.387	1133.56
389.612	1172.56
389.837	1171.56
390.062	1162.56
390.287	1176.56
390.512	1177.56
390.736	1192.56
390.961	1229.56
391.186	1189.56
391.411	1240.56
391.636	1223.56
391.86	1258.56
392.085	1241.56
392.31	1290.56
392.534	1268.56
392.759	1225.56
392.984	1203.56
393.208	1190.56
393.433	1208.56
393.658	1196.56
393.882	1179.56
394.107	1223.56
394.331	1200.56
394.556	1244.56
394.78	1234.56
395.005	1220.56
395.229	1236.56
395.454	1251.56
395.678	1295.56
395.903	1307.56
396.127	1302.56
396.352	1297.56
396.576	1251.56
396.801	1210.56
397.025	1262.56
397.249	1229.56
397.474	1274.56
397.698	1312.56
397.922	1311.56
398.147	1332.56
398.371	1365.56
398.595	1355.56
398.82	1427.56
399.044	1461.56
399.268	1615.56
399.492	1767.56
399.717	1853.56
399.941	1914.56
400.165	1858.56
400.389	1785.56
400.613	1636.56
400.837	1538.56
401.062	1451.56
401.286	1425.56
401.51	1408.56
401.734	1400.56
401.958	1394.56
402.182	1414.56
402.406	1455.56
402.63	1459.56
402.854	1471.56
403.078	1459.56
403.302	1520.56
403.526	1549.56
403.75	1508.56
403.974	1505.56
404.198	1520.56
404.422	1555.56
404.645	1553.56
404.869	1542.56
405.093	1534.56
405.317	1600.56
405.541	1569.56
405.765	1544.56
405.988	1518.56
406.212	1566.56
406.436	1551.56
406.66	1637.56
406.883	1615.56
407.107	1707.56
407.331	1848.56
407.555	1993.56
407.778	1973.56
408.002	1806.56
408.226	1714.56
408.449	1640.56
408.673	1670.56
408.896	1675.56
409.12	1766.56
409.344	1686.56
409.567	1505.56
409.791	1558.56
410.014	1486.56
410.238	1458.56
410.461	1498.56
410.685	1512.56
410.908	1539.56
411.132	1610.56
411.355	1649.56
411.578	1554.56
411.802	1497.56
412.025	1442.56
412.249	1432.56
412.472	1476.56
412.695	1432.56
412.919	1406.56
413.142	1410.56
413.365	1411.56
413.589	1402.56
413.812	1439.56
414.035	1395.56
414.258	1373.56
414.482	1347.56
414.705	1396.56
414.928	1395.56
415.151	1404.56
415.374	1398.56
415.597	1370.56
415.821	1376.56
416.044	1371.56
416.267	1381.56
416.49	1418.56
416.713	1384.56
416.936	1395.56
417.159	1401.56
417.382	1437.56
417.605	1414.56
417.828	1415.56
418.051	1471.56
418.274	1410.56
418.497	1392.56
418.72	1382.56
418.943	1389.56
419.166	1476.56
419.389	1561.56
419.611	1520.56
419.834	1519.56
420.057	1468.56
420.28	1433.56
420.503	1403.56
420.726	1433.56
420.948	1417.56
421.171	1591.56
421.394	1619.56
421.617	1488.56
421.839	1465.56
422.062	1465.56
422.285	1482.56
422.507	1646.56
422.73	1794.56
422.953	1678.56
423.175	1552.56
423.398	1552.56
423.621	1563.56
423.843	1566.56
424.066	1628.56
424.288	1583.56
424.511	1641.56
424.733	1750.56
424.956	1858.56
425.178	1802.56
425.401	1795.56
425.623	1800.56
425.846	1576.56
426.068	1503.56
426.291	1503.56
426.513	1493.56
426.735	1528.56
426.958	1646.56
427.18	1814.56
427.402	2123.56
427.625	2176.56
427.847	1822.56
428.069	1578.56
428.292	1507.56
428.514	1398.56
428.736	1396.56
428.958	1404.56
429.181	1335.56
429.403	1323.56
429.625	1352.56
429.847	1491.56
430.069	1634.56
430.292	1564.56
430.514	1404.56
430.736	1391.56
430.958	1352.56
431.18	1312.56
431.402	1312.56
431.624	1294.56
431.846	1259.56
432.068	1291.56
432.29	1339.56
432.512	1309.56
432.734	1310.56
432.956	1338.56
433.178	1286.56
433.4	1325.56
433.622	1341.56
433.844	1367.56
434.066	1338.56
434.287	1352.56
434.509	1362.56
434.731	1368.56
434.953	1398.56
435.175	1464.56
435.397	1516.56
435.618	1516.56
435.84	1610.56
436.062	1817.56
436.284	1878.56
436.505	1574.56
436.727	1466.56
436.949	1396.56
437.17	1323.56
437.392	1349.56
437.614	1360.56
437.835	1453.56
438.057	1675.56
438.278	1868.56
438.5	1844.56
438.721	2095.56
438.943	1939.56
439.165	1581.56
439.386	1477.56
439.608	1484.56
439.829	1494.56
440.05	1528.56
440.272	1616.56
440.493	1522.56
440.715	1423.56
440.936	1444.56
441.158	1419.56
441.379	1367.56
441.6	1428.56
441.822	1513.56
442.043	1622.56
442.264	1824.56
442.486	1874.56
442.707	1600.56
442.928	1529.56
443.149	1564.56
443.371	1578.56
443.592	1758.56
443.813	1937.56
444.034	2004.56
444.255	1745.56
444.476	1634.56
444.698	1617.56
444.919	1663.56
445.14	1709.56
445.361	1665.56
445.582	1639.56
445.803	1781.56
446.024	1984.56
446.245	1951.56
446.466	1792.56
446.687	1530.56
446.908	1439.56
447.129	1358.56
447.35	1392.56
447.571	1357.56
447.792	1325.56
448.013	1332.56
448.234	1388.56
448.455	1510.56
448.675	1826.56
448.896	1963.56
449.117	1672.56
449.338	1646.56
449.559	1919.56
449.779	2054.56
450	1624.56
450.221	1400.56
450.442	1332.56
450.662	1281.56
450.883	1296.56
451.104	1293.56
451.324	1290.56
451.545	1223.56
451.766	1215.56
451.986	1178.56
452.207	1168.56
452.428	1146.56
452.648	1206.56
452.869	1189.56
453.089	1217.56
453.31	1218.56
453.53	1158.56
453.751	1171.56
453.971	1187.56
454.192	1210.56
454.412	1163.56
454.633	1147.56
454.853	1133.56
455.073	1149.56
455.294	1269.56
455.514	1415.56
455.734	1278.56
455.955	1124.56
456.175	1118.56
456.395	1088.56
456.616	1093.56
456.836	1106.56
457.056	1088.56
457.276	1078.56
457.497	1123.56
457.717	1126.56
457.937	1154.56
458.157	1154.56
458.377	1170.56
458.598	1204.56
458.818	1308.56
459.038	1508.56
459.258	1510.56
459.478	1341.56
459.698	1321.56
459.918	1281.56
460.138	1313.56
460.358	1335.56
460.578	1384.56
460.798	1386.56
461.018	1395.56
461.238	1373.56
461.458	1346.56
461.678	1366.56
461.898	1382.56
462.118	1353.56
462.338	1446.56
462.558	1458.56
462.777	1476.56
462.997	1568.56
463.217	1616.56
463.437	1628.56
463.657	1534.56
463.876	1509.56
464.096	1516.56
464.316	1535.56
464.536	1519.56
464.755	1466.56
464.975	1473.56
465.195	1478.56
465.414	1514.56
465.634	1386.56
465.854	1308.56
466.073	1294.56
466.293	1234.56
466.512	1242.56
466.732	1198.56
466.951	1218.56
467.171	1207.56
467.391	1189.56
467.61	1231.56
467.829	1235.56
468.049	1228.56
468.268	1166.56
468.488	1169.56
468.707	1165.56
468.927	1165.56
469.146	1196.56
469.365	1160.56
469.585	1189.56
469.804	1215.56
470.023	1223.56
470.243	1223.56
470.462	1263.56
470.681	1305.56
470.901	1258.56
471.12	1240.56
471.339	1239.56
471.558	1268.56
471.777	1199.56
471.997	1223.56
472.216	1163.56
472.435	1181.56
472.654	1183.56
472.873	1143.56
473.092	1184.56
473.311	1189.56
473.53	1178.56
473.749	1198.56
473.968	1359.56
474.187	1585.56
474.406	1510.56
474.625	1304.56
474.844	1207.56
475.063	1188.56
475.282	1178.56
475.501	1203.56
475.72	1218.56
475.939	1207.56
476.158	1215.56
476.377	1262.56
476.596	1217.56
476.814	1223.56
477.033	1252.56
477.252	1266.56
477.471	1294.56
477.69	1329.56
477.908	1329.56
478.127	1344.56
478.346	1316.56
478.564	1368.56
478.783	1369.56
479.002	1410.56
479.22	1420.56
479.439	1449.56
479.658	1475.56
479.876	1472.56
480.095	1492.56
480.313	1605.56
480.532	1561.56
480.751	1535.56
480.969	1529.56
481.188	1524.56
481.406	1494.56
481.624	1441.56
481.843	1410.56
482.061	1406.56
482.28	1394.56
482.498	1376.56
482.717	1368.56
482.935	1387.56
483.153	1383.56
483.372	1380.56
483.59	1379.56
483.808	1386.56
484.027	1380.56
484.245	1359.56
484.463	1386.56
484.681	1377.56
484.9	1413.56
485.118	1406.56
485.336	1433.56
485.554	1415.56
485.772	1442.56
485.99	1430.56
486.209	1442.56
486.427	1448.56
486.645	1475.56
486.863	1492.56
487.081	1498.56
487.299	1478.56
487.517	1466.56
487.735	1502.56
487.953	1465.56
488.171	1514.56
488.389	1457.56
488.607	1476.56
488.825	1488.56
489.043	1481.56
489.261	1502.56
489.479	1467.56
489.696	1534.56
489.914	1539.56
490.132	1515.56
490.35	1534.56
490.568	1581.56
490.786	1587.56
491.003	1616.56
491.221	1656.56
491.439	1686.56
491.657	1649.56
491.874	1700.56
