Data from copper.mounting.energy7_HRD10591_16-51-05-546.txt Node
Date: Thu Jul 11 16:51:05 EDT 2019
User: cochatt
Spectrometer: HR+D1059
Trigger mode: 1
Integration Time (sec): 1.000000E-1
Scans to average: 1
Electric dark correction enabled: true
Nonlinearity correction enabled: false
Boxcar width: 0
XAxis mode: Wavelengths
Number of Pixels in Spectrum: 2048
>>>>>Begin Spectral Data<<<<<
223.165	-5.25
223.4	-5.25
223.635	-5.25
223.869	-7.25
224.104	-24.25
224.338	-18.25
224.573	-15.25
224.808	-20.25
225.042	-4.25
225.277	-6.25
225.511	-0.25
225.746	1.75
225.98	10.75
226.215	-3.25
226.449	24.75
226.683	23.75
226.918	12.75
227.152	30.75
227.387	28.75
227.621	43.75
227.856	41.75
228.09	52.75
228.324	46.75
228.559	51.75
228.793	78.75
229.027	178.75
229.262	195.75
229.496	226.75
229.73	256.75
229.964	302.75
230.199	244.75
230.433	212.75
230.667	199.75
230.901	212.75
231.136	197.75
231.37	194.75
231.604	175.75
231.838	192.75
232.072	193.75
232.306	179.75
232.541	209.75
232.775	203.75
233.009	200.75
233.243	207.75
233.477	206.75
233.711	204.75
233.945	192.75
234.179	206.75
234.413	223.75
234.647	201.75
234.881	224.75
235.115	213.75
235.349	217.75
235.583	236.75
235.817	233.75
236.051	240.75
236.285	249.75
236.519	243.75
236.753	265.75
236.987	299.75
237.221	388.75
237.455	464.75
237.689	375.75
237.922	293.75
238.156	282.75
238.39	270.75
238.624	250.75
238.858	249.75
239.091	249.75
239.325	257.75
239.559	249.75
239.793	244.75
240.027	269.75
240.26	295.75
240.494	327.75
240.728	314.75
240.961	316.75
241.195	311.75
241.429	282.75
241.662	291.75
241.896	270.75
242.13	290.75
242.363	302.75
242.597	290.75
242.83	271.75
243.064	285.75
243.298	308.75
243.531	315.75
243.765	299.75
243.998	312.75
244.232	304.75
244.465	308.75
244.699	322.75
244.932	296.75
245.166	324.75
245.399	328.75
245.633	328.75
245.866	336.75
246.099	351.75
246.333	335.75
246.566	320.75
246.8	344.75
247.033	346.75
247.266	348.75
247.5	381.75
247.733	397.75
247.966	387.75
248.2	407.75
248.433	404.75
248.666	402.75
248.899	425.75
249.133	459.75
249.366	473.75
249.599	434.75
249.832	420.75
250.066	427.75
250.299	450.75
250.532	436.75
250.765	480.75
250.998	531.75
251.231	522.75
251.465	514.75
251.698	488.75
251.931	455.75
252.164	452.75
252.397	466.75
252.63	454.75
252.863	499.75
253.096	511.75
253.329	537.75
253.562	540.75
253.795	516.75
254.028	497.75
254.261	516.75
254.494	549.75
254.727	618.75
254.96	691.75
255.193	634.75
255.426	574.75
255.659	539.75
255.892	501.75
256.124	493.75
256.357	497.75
256.59	489.75
256.823	490.75
257.056	517.75
257.289	500.75
257.521	465.75
257.754	499.75
257.987	529.75
258.22	512.75
258.452	501.75
258.685	508.75
258.918	511.75
259.151	513.75
259.383	533.75
259.616	552.75
259.849	569.75
260.081	604.75
260.314	626.75
260.547	634.75
260.779	607.75
261.012	574.75
261.244	563.75
261.477	529.75
261.71	529.75
261.942	542.75
262.175	542.75
262.407	529.75
262.64	533.75
262.872	505.75
263.105	523.75
263.337	525.75
263.57	532.75
263.802	533.75
264.035	515.75
264.267	548.75
264.499	525.75
264.732	531.75
264.964	523.75
265.197	517.75
265.429	527.75
265.661	530.75
265.894	550.75
266.126	536.75
266.358	565.75
266.591	574.75
266.823	584.75
267.055	577.75
267.287	576.75
267.52	554.75
267.752	576.75
267.984	581.75
268.216	593.75
268.448	611.75
268.681	619.75
268.913	621.75
269.145	687.75
269.377	741.75
269.609	746.75
269.841	720.75
270.073	720.75
270.306	753.75
270.538	832.75
270.77	832.75
271.002	806.75
271.234	763.75
271.466	758.75
271.698	772.75
271.93	813.75
272.162	833.75
272.394	807.75
272.626	768.75
272.858	722.75
273.09	716.75
273.322	686.75
273.553	698.75
273.785	672.75
274.017	689.75
274.249	693.75
274.481	675.75
274.713	650.75
274.945	680.75
275.176	696.75
275.408	695.75
275.64	684.75
275.872	683.75
276.104	682.75
276.335	668.75
276.567	690.75
276.799	731.75
277.031	784.75
277.262	816.75
277.494	816.75
277.726	794.75
277.957	748.75
278.189	722.75
278.421	737.75
278.652	716.75
278.884	711.75
279.115	685.75
279.347	710.75
279.579	712.75
279.81	694.75
280.042	666.75
280.273	729.75
280.505	717.75
280.736	699.75
280.968	700.75
281.199	700.75
281.431	725.75
281.662	721.75
281.894	716.75
282.125	737.75
282.356	746.75
282.588	789.75
282.819	786.75
283.051	734.75
283.282	738.75
283.513	748.75
283.745	770.75
283.976	751.75
284.207	754.75
284.439	764.75
284.67	748.75
284.901	748.75
285.132	747.75
285.364	735.75
285.595	744.75
285.826	721.75
286.057	771.75
286.288	744.75
286.52	775.75
286.751	765.75
286.982	773.75
287.213	767.75
287.444	784.75
287.675	809.75
287.906	829.75
288.138	816.75
288.369	845.75
288.6	802.75
288.831	826.75
289.062	808.75
289.293	814.75
289.524	795.75
289.755	801.75
289.986	777.75
290.217	802.75
290.448	769.75
290.679	780.75
290.91	736.75
291.141	794.75
291.371	783.75
291.602	817.75
291.833	771.75
292.064	789.75
292.295	763.75
292.526	783.75
292.757	777.75
292.987	806.75
293.218	800.75
293.449	788.75
293.68	814.75
293.91	792.75
294.141	774.75
294.372	781.75
294.603	779.75
294.833	792.75
295.064	818.75
295.295	792.75
295.525	808.75
295.756	818.75
295.987	786.75
296.217	853.75
296.448	832.75
296.679	810.75
296.909	796.75
297.14	826.75
297.37	817.75
297.601	817.75
297.831	830.75
298.062	826.75
298.292	853.75
298.523	833.75
298.753	851.75
298.984	831.75
299.214	866.75
299.445	804.75
299.675	843.75
299.905	826.75
300.136	850.75
300.366	892.75
300.597	835.75
300.827	851.75
301.057	873.75
301.288	904.75
301.518	901.75
301.748	883.75
301.979	878.75
302.209	895.75
302.439	903.75
302.669	917.75
302.9	896.75
303.13	913.75
303.36	924.75
303.59	907.75
303.82	910.75
304.051	922.75
304.281	899.75
304.511	855.75
304.741	897.75
304.971	885.75
305.201	901.75
305.431	877.75
305.661	908.75
305.891	867.75
306.121	897.75
306.352	896.75
306.582	894.75
306.812	891.75
307.042	909.75
307.272	886.75
307.502	900.75
307.731	888.75
307.961	880.75
308.191	885.75
308.421	911.75
308.651	900.75
308.881	909.75
309.111	942.75
309.341	901.75
309.571	949.75
309.8	942.75
310.03	978.75
310.26	958.75
310.49	944.75
310.72	960.75
310.949	1006.75
311.179	1000.75
311.409	983.75
311.639	978.75
311.868	987.75
312.098	1002.75
312.328	1021.75
312.557	1018.75
312.787	1035.75
313.017	1060.75
313.246	1021.75
313.476	1003.75
313.706	1018.75
313.935	1054.75
314.165	1053.75
314.394	1032.75
314.624	1058.75
314.853	1032.75
315.083	1032.75
315.312	977.75
315.542	991.75
315.771	980.75
316.001	994.75
316.23	1004.75
316.46	984.75
316.689	989.75
316.919	1020.75
317.148	1049.75
317.377	1010.75
317.607	1022.75
317.836	1017.75
318.065	981.75
318.295	1002.75
318.524	989.75
318.753	979.75
318.983	978.75
319.212	1014.75
319.441	993.75
319.67	1025.75
319.9	990.75
320.129	985.75
320.358	988.75
320.587	987.75
320.816	1012.75
321.046	1044.75
321.275	1049.75
321.504	1010.75
321.733	1028.75
321.962	1021.75
322.191	1065.75
322.42	1066.75
322.649	1089.75
322.878	1125.75
323.108	1118.75
323.337	1183.75
323.566	1202.75
323.795	1241.75
324.024	1349.75
324.253	1616.75
324.482	2080.75
324.71	2975.75
324.939	3808.75
325.168	3063.75
325.397	1769.75
325.626	1368.75
325.855	1258.75
326.084	1203.75
326.313	1211.75
326.542	1219.75
326.77	1320.75
326.999	1520.75
327.228	1952.75
327.457	2639.75
327.686	2854.75
327.914	1936.75
328.143	1518.75
328.372	1365.75
328.6	1338.75
328.829	1292.75
329.058	1356.75
329.287	1328.75
329.515	1280.75
329.744	1197.75
329.972	1218.75
330.201	1209.75
330.43	1292.75
330.658	1331.75
330.887	1403.75
331.115	1332.75
331.344	1298.75
331.572	1233.75
331.801	1242.75
332.03	1260.75
332.258	1219.75
332.486	1205.75
332.715	1227.75
332.943	1243.75
333.172	1267.75
333.4	1322.75
333.629	1328.75
333.857	1353.75
334.085	1297.75
334.314	1291.75
334.542	1292.75
334.771	1291.75
334.999	1275.75
335.227	1258.75
335.455	1264.75
335.684	1276.75
335.912	1256.75
336.14	1219.75
336.369	1236.75
336.597	1258.75
336.825	1192.75
337.053	1246.75
337.281	1212.75
337.51	1185.75
337.738	1206.75
337.966	1178.75
338.194	1177.75
338.422	1187.75
338.65	1162.75
338.878	1162.75
339.106	1142.75
339.334	1165.75
339.562	1132.75
339.79	1164.75
340.018	1134.75
340.246	1128.75
340.474	1107.75
340.702	1110.75
340.93	1132.75
341.158	1169.75
341.386	1125.75
341.614	1150.75
341.842	1120.75
342.07	1122.75
342.298	1129.75
342.526	1112.75
342.754	1101.75
342.981	1097.75
343.209	1125.75
343.437	1152.75
343.665	1190.75
343.893	1228.75
344.12	1239.75
344.348	1178.75
344.576	1214.75
344.804	1183.75
345.031	1148.75
345.259	1160.75
345.487	1173.75
345.714	1117.75
345.942	1107.75
346.17	1088.75
346.397	1059.75
346.625	1060.75
346.853	1053.75
347.08	1034.75
347.308	1059.75
347.535	1080.75
347.763	1095.75
347.99	1078.75
348.218	1079.75
348.445	1044.75
348.673	1037.75
348.9	1080.75
349.128	1049.75
349.355	1052.75
349.583	1028.75
349.81	1028.75
350.037	1002.75
350.265	1050.75
350.492	1050.75
350.72	1039.75
350.947	1042.75
351.174	1037.75
351.402	1059.75
351.629	1056.75
351.856	1073.75
352.083	1091.75
352.311	1070.75
352.538	1093.75
352.765	1077.75
352.992	1061.75
353.22	1053.75
353.447	1039.75
353.674	1018.75
353.901	1012.75
354.128	1006.75
354.355	996.75
354.583	977.75
354.81	996.75
355.037	976.75
355.264	1013.75
355.491	1001.75
355.718	978.75
355.945	1001.75
356.172	1006.75
356.399	984.75
356.626	990.75
356.853	1001.75
357.08	1006.75
357.307	973.75
357.534	981.75
357.761	986.75
357.988	1006.75
358.215	973.75
358.441	979.75
358.668	998.75
358.895	1014.75
359.122	1012.75
359.349	1012.75
359.576	1065.75
359.802	1095.75
360.029	1121.75
360.256	1114.75
360.483	1069.75
360.709	1032.75
360.936	1042.75
361.163	1062.75
361.39	1040.75
361.616	1044.75
361.843	1005.75
362.07	1026.75
362.296	1033.75
362.523	1037.75
362.749	1018.75
362.976	1052.75
363.203	1023.75
363.429	993.75
363.656	1021.75
363.882	1003.75
364.109	1011.75
364.335	1009.75
364.562	975.75
364.788	977.75
365.015	1000.75
365.241	978.75
365.468	1017.75
365.694	1018.75
365.92	986.75
366.147	989.75
366.373	1000.75
366.599	974.75
366.826	1016.75
367.052	1004.75
367.278	1006.75
367.505	996.75
367.731	1021.75
367.957	1008.75
368.184	1008.75
368.41	1004.75
368.636	1005.75
368.862	1051.75
369.089	998.75
369.315	1010.75
369.541	1031.75
369.767	1010.75
369.993	1007.75
370.219	1036.75
370.445	1017.75
370.672	1008.75
370.898	1007.75
371.124	1019.75
371.35	1022.75
371.576	1016.75
371.802	1028.75
372.028	1052.75
372.254	1028.75
372.48	1012.75
372.706	1031.75
372.932	1039.75
373.158	1051.75
373.384	1094.75
373.61	1060.75
373.835	1029.75
374.061	1038.75
374.287	1040.75
374.513	1092.75
374.739	1074.75
374.965	1080.75
375.191	1041.75
375.416	1073.75
375.642	1057.75
375.868	1050.75
376.094	1055.75
376.319	1048.75
376.545	1028.75
376.771	1010.75
376.997	1024.75
377.222	1032.75
377.448	1036.75
377.674	1035.75
377.899	1013.75
378.125	1011.75
378.35	1026.75
378.576	998.75
378.802	996.75
379.027	1023.75
379.253	1019.75
379.478	1013.75
379.704	1023.75
379.929	1024.75
380.155	1043.75
380.38	1026.75
380.606	1018.75
380.831	1016.75
381.057	1021.75
381.282	1030.75
381.507	1006.75
381.733	996.75
381.958	1013.75
382.184	1011.75
382.409	1038.75
382.634	1042.75
382.86	1076.75
383.085	1065.75
383.31	1084.75
383.535	1092.75
383.761	1085.75
383.986	1095.75
384.211	1115.75
384.436	1110.75
384.662	1122.75
384.887	1128.75
385.112	1155.75
385.337	1159.75
385.562	1153.75
385.787	1166.75
386.013	1184.75
386.238	1179.75
386.463	1164.75
386.688	1194.75
386.913	1192.75
387.138	1182.75
387.363	1182.75
387.588	1128.75
387.813	1174.75
388.038	1126.75
388.263	1161.75
388.488	1178.75
388.713	1168.75
388.938	1155.75
389.163	1154.75
389.387	1146.75
389.612	1117.75
389.837	1188.75
390.062	1157.75
390.287	1166.75
390.512	1152.75
390.736	1168.75
390.961	1170.75
391.186	1198.75
391.411	1195.75
391.636	1196.75
391.86	1256.75
392.085	1269.75
392.31	1223.75
392.534	1223.75
392.759	1207.75
392.984	1188.75
393.208	1196.75
393.433	1218.75
393.658	1209.75
393.882	1190.75
394.107	1213.75
394.331	1221.75
394.556	1241.75
394.78	1221.75
395.005	1200.75
395.229	1228.75
395.454	1214.75
395.678	1297.75
395.903	1266.75
396.127	1330.75
396.352	1316.75
396.576	1247.75
396.801	1230.75
397.025	1217.75
397.249	1264.75
397.474	1276.75
397.698	1288.75
397.922	1375.75
398.147	1348.75
398.371	1360.75
398.595	1368.75
398.82	1390.75
399.044	1474.75
399.268	1568.75
399.492	1766.75
399.717	1886.75
399.941	1835.75
400.165	1824.75
400.389	1778.75
400.613	1587.75
400.837	1513.75
401.062	1455.75
401.286	1410.75
401.51	1427.75
401.734	1402.75
401.958	1443.75
402.182	1402.75
402.406	1449.75
402.63	1460.75
402.854	1449.75
403.078	1478.75
403.302	1519.75
403.526	1580.75
403.75	1515.75
403.974	1544.75
404.198	1486.75
404.422	1550.75
404.645	1496.75
404.869	1520.75
405.093	1538.75
405.317	1568.75
405.541	1574.75
405.765	1537.75
405.988	1503.75
406.212	1530.75
406.436	1539.75
406.66	1628.75
406.883	1611.75
407.107	1723.75
407.331	1817.75
407.555	1989.75
407.778	1942.75
408.002	1793.75
408.226	1688.75
408.449	1648.75
408.673	1657.75
408.896	1684.75
409.12	1738.75
409.344	1637.75
409.567	1506.75
409.791	1480.75
410.014	1468.75
410.238	1462.75
410.461	1463.75
410.685	1487.75
410.908	1539.75
411.132	1592.75
411.355	1621.75
411.578	1601.75
411.802	1486.75
412.025	1458.75
412.249	1442.75
412.472	1438.75
412.695	1433.75
412.919	1412.75
413.142	1410.75
413.365	1385.75
413.589	1406.75
413.812	1386.75
414.035	1354.75
414.258	1355.75
414.482	1325.75
414.705	1383.75
414.928	1372.75
415.151	1336.75
415.374	1390.75
415.597	1386.75
415.821	1348.75
416.044	1407.75
416.267	1386.75
416.49	1362.75
416.713	1346.75
416.936	1352.75
417.159	1370.75
417.382	1384.75
417.605	1394.75
417.828	1410.75
418.051	1462.75
418.274	1441.75
418.497	1396.75
418.72	1424.75
418.943	1428.75
419.166	1486.75
419.389	1522.75
419.611	1498.75
419.834	1462.75
420.057	1459.75
420.28	1421.75
420.503	1428.75
420.726	1399.75
420.948	1450.75
421.171	1548.75
421.394	1590.75
421.617	1445.75
421.839	1449.75
422.062	1452.75
422.285	1452.75
422.507	1627.75
422.73	1788.75
422.953	1670.75
423.175	1552.75
423.398	1537.75
423.621	1520.75
423.843	1571.75
424.066	1596.75
424.288	1572.75
424.511	1603.75
424.733	1740.75
424.956	1880.75
425.178	1756.75
425.401	1821.75
425.623	1795.75
425.846	1568.75
426.068	1491.75
426.291	1477.75
426.513	1453.75
426.735	1509.75
426.958	1589.75
427.18	1812.75
427.402	2126.75
427.625	2190.75
427.847	1796.75
428.069	1571.75
428.292	1516.75
428.514	1423.75
428.736	1380.75
428.958	1417.75
429.181	1308.75
429.403	1340.75
429.625	1381.75
429.847	1423.75
430.069	1621.75
430.292	1564.75
430.514	1405.75
430.736	1392.75
430.958	1340.75
431.18	1286.75
431.402	1298.75
431.624	1294.75
431.846	1322.75
432.068	1298.75
432.29	1329.75
432.512	1308.75
432.734	1353.75
432.956	1312.75
433.178	1347.75
433.4	1341.75
433.622	1326.75
433.844	1285.75
434.066	1321.75
434.287	1301.75
434.509	1340.75
434.731	1362.75
434.953	1393.75
435.175	1442.75
435.397	1506.75
435.618	1540.75
435.84	1598.75
436.062	1803.75
436.284	1880.75
436.505	1578.75
436.727	1442.75
436.949	1410.75
437.17	1361.75
437.392	1385.75
437.614	1406.75
437.835	1454.75
438.057	1679.75
438.278	1901.75
438.5	1868.75
438.721	2049.75
438.943	1888.75
439.165	1582.75
439.386	1481.75
439.608	1472.75
439.829	1480.75
440.05	1482.75
440.272	1613.75
440.493	1507.75
440.715	1438.75
440.936	1421.75
441.158	1411.75
441.379	1429.75
441.6	1416.75
441.822	1509.75
442.043	1613.75
442.264	1821.75
442.486	1827.75
442.707	1624.75
442.928	1520.75
443.149	1532.75
443.371	1578.75
443.592	1702.75
443.813	1956.75
444.034	2024.75
444.255	1723.75
444.476	1619.75
444.698	1578.75
444.919	1649.75
445.14	1705.75
445.361	1646.75
445.582	1688.75
445.803	1816.75
446.024	1932.75
446.245	1858.75
446.466	1763.75
446.687	1520.75
446.908	1465.75
447.129	1380.75
447.35	1380.75
447.571	1348.75
447.792	1310.75
448.013	1320.75
448.234	1342.75
448.455	1491.75
448.675	1786.75
448.896	1964.75
449.117	1664.75
449.338	1652.75
449.559	1910.75
449.779	2064.75
450	1644.75
450.221	1404.75
450.442	1351.75
450.662	1301.75
450.883	1296.75
451.104	1292.75
451.324	1297.75
451.545	1225.75
451.766	1220.75
451.986	1180.75
452.207	1156.75
452.428	1208.75
452.648	1178.75
452.869	1176.75
453.089	1194.75
453.31	1216.75
453.53	1199.75
453.751	1181.75
453.971	1185.75
454.192	1209.75
454.412	1186.75
454.633	1131.75
454.853	1149.75
455.073	1171.75
455.294	1260.75
455.514	1386.75
455.734	1309.75
455.955	1166.75
456.175	1097.75
456.395	1108.75
456.616	1049.75
456.836	1088.75
457.056	1087.75
457.276	1087.75
457.497	1089.75
457.717	1084.75
457.937	1124.75
458.157	1137.75
458.377	1157.75
458.598	1206.75
458.818	1355.75
459.038	1505.75
459.258	1510.75
459.478	1337.75
459.698	1306.75
459.918	1273.75
460.138	1320.75
460.358	1344.75
460.578	1371.75
460.798	1373.75
461.018	1370.75
461.238	1363.75
461.458	1347.75
461.678	1354.75
461.898	1341.75
462.118	1375.75
462.338	1420.75
462.558	1436.75
462.777	1478.75
462.997	1564.75
463.217	1616.75
463.437	1655.75
463.657	1537.75
463.876	1504.75
464.096	1529.75
464.316	1524.75
464.536	1498.75
464.755	1492.75
464.975	1467.75
465.195	1455.75
465.414	1524.75
465.634	1364.75
465.854	1324.75
466.073	1268.75
466.293	1222.75
466.512	1240.75
466.732	1216.75
466.951	1211.75
467.171	1186.75
467.391	1222.75
467.61	1219.75
467.829	1215.75
468.049	1182.75
468.268	1198.75
468.488	1179.75
468.707	1147.75
468.927	1163.75
469.146	1159.75
469.365	1174.75
469.585	1179.75
469.804	1194.75
470.023	1209.75
470.243	1223.75
470.462	1233.75
470.681	1270.75
470.901	1273.75
471.12	1214.75
471.339	1238.75
471.558	1246.75
471.777	1178.75
471.997	1184.75
472.216	1180.75
472.435	1136.75
472.654	1168.75
472.873	1149.75
473.092	1145.75
473.311	1142.75
473.53	1171.75
473.749	1208.75
473.968	1326.75
474.187	1532.75
474.406	1493.75
474.625	1283.75
474.844	1206.75
475.063	1210.75
475.282	1175.75
475.501	1198.75
475.72	1203.75
475.939	1165.75
476.158	1200.75
476.377	1213.75
476.596	1201.75
476.814	1234.75
477.033	1244.75
477.252	1288.75
477.471	1277.75
477.69	1308.75
477.908	1308.75
478.127	1345.75
478.346	1354.75
478.564	1372.75
478.783	1378.75
479.002	1389.75
479.22	1418.75
479.439	1439.75
479.658	1459.75
479.876	1466.75
480.095	1504.75
480.313	1600.75
480.532	1580.75
480.751	1558.75
480.969	1499.75
481.188	1517.75
481.406	1464.75
481.624	1435.75
481.843	1390.75
482.061	1384.75
482.28	1406.75
482.498	1362.75
482.717	1388.75
482.935	1378.75
483.153	1344.75
483.372	1380.75
483.59	1360.75
483.808	1392.75
484.027	1410.75
484.245	1392.75
484.463	1409.75
484.681	1420.75
484.9	1398.75
485.118	1433.75
485.336	1424.75
485.554	1422.75
485.772	1411.75
485.99	1425.75
486.209	1440.75
486.427	1462.75
486.645	1450.75
486.863	1518.75
487.081	1472.75
487.299	1449.75
487.517	1444.75
487.735	1474.75
487.953	1452.75
488.171	1485.75
488.389	1469.75
488.607	1513.75
488.825	1473.75
489.043	1487.75
489.261	1496.75
489.479	1500.75
489.696	1468.75
489.914	1517.75
490.132	1566.75
490.35	1531.75
490.568	1532.75
490.786	1593.75
491.003	1586.75
491.221	1614.75
491.439	1646.75
491.657	1648.75
491.874	1668.75
