Data from copper.mounting.energy7_HRD10591_16-51-03-544.txt Node
Date: Thu Jul 11 16:51:03 EDT 2019
User: cochatt
Spectrometer: HR+D1059
Trigger mode: 1
Integration Time (sec): 1.000000E-1
Scans to average: 1
Electric dark correction enabled: true
Nonlinearity correction enabled: false
Boxcar width: 0
XAxis mode: Wavelengths
Number of Pixels in Spectrum: 2048
>>>>>Begin Spectral Data<<<<<
223.165	1.06
223.4	1.06
223.635	1.06
223.869	-13.94
224.104	-15.94
224.338	-11.94
224.573	-17.94
224.808	-1.94
225.042	-13.94
225.277	-0.94
225.511	-4.94
225.746	5.06
225.98	5.06
226.215	6.06
226.449	14.06
226.683	10.06
226.918	21.06
227.152	19.06
227.387	34.06
227.621	34.06
227.856	39.06
228.09	40.06
228.324	59.06
228.559	63.06
228.793	84.06
229.027	179.06
229.262	198.06
229.496	217.06
229.73	244.06
229.964	299.06
230.199	232.06
230.433	195.06
230.667	192.06
230.901	193.06
231.136	181.06
231.37	205.06
231.604	189.06
231.838	196.06
232.072	176.06
232.306	196.06
232.541	189.06
232.775	196.06
233.009	216.06
233.243	199.06
233.477	199.06
233.711	195.06
233.945	208.06
234.179	197.06
234.413	198.06
234.647	208.06
234.881	205.06
235.115	221.06
235.349	226.06
235.583	230.06
235.817	233.06
236.051	239.06
236.285	263.06
236.519	216.06
236.753	261.06
236.987	311.06
237.221	377.06
237.455	480.06
237.689	367.06
237.922	276.06
238.156	268.06
238.39	256.06
238.624	274.06
238.858	256.06
239.091	246.06
239.325	262.06
239.559	255.06
239.793	254.06
240.027	260.06
240.26	283.06
240.494	332.06
240.728	337.06
240.961	306.06
241.195	304.06
241.429	298.06
241.662	298.06
241.896	283.06
242.13	283.06
242.363	284.06
242.597	299.06
242.83	289.06
243.064	304.06
243.298	300.06
243.531	298.06
243.765	300.06
243.998	308.06
244.232	303.06
244.465	308.06
244.699	299.06
244.932	324.06
245.166	297.06
245.399	303.06
245.633	335.06
245.866	314.06
246.099	317.06
246.333	333.06
246.566	336.06
246.8	346.06
247.033	342.06
247.266	363.06
247.5	369.06
247.733	392.06
247.966	393.06
248.2	390.06
248.433	378.06
248.666	404.06
248.899	410.06
249.133	454.06
249.366	455.06
249.599	451.06
249.832	398.06
250.066	420.06
250.299	417.06
250.532	414.06
250.765	467.06
250.998	529.06
251.231	539.06
251.465	520.06
251.698	470.06
251.931	462.06
252.164	457.06
252.397	464.06
252.63	470.06
252.863	484.06
253.096	505.06
253.329	518.06
253.562	547.06
253.795	525.06
254.028	513.06
254.261	497.06
254.494	593.06
254.727	625.06
254.96	668.06
255.193	650.06
255.426	580.06
255.659	545.06
255.892	523.06
256.124	489.06
256.357	483.06
256.59	498.06
256.823	488.06
257.056	484.06
257.289	490.06
257.521	503.06
257.754	506.06
257.987	518.06
258.22	492.06
258.452	498.06
258.685	492.06
258.918	508.06
259.151	518.06
259.383	536.06
259.616	538.06
259.849	550.06
260.081	587.06
260.314	634.06
260.547	656.06
260.779	611.06
261.012	586.06
261.244	556.06
261.477	557.06
261.71	534.06
261.942	553.06
262.175	538.06
262.407	549.06
262.64	528.06
262.872	507.06
263.105	531.06
263.337	523.06
263.57	516.06
263.802	522.06
264.035	511.06
264.267	534.06
264.499	508.06
264.732	537.06
264.964	542.06
265.197	525.06
265.429	531.06
265.661	547.06
265.894	554.06
266.126	559.06
266.358	535.06
266.591	575.06
266.823	562.06
267.055	570.06
267.287	578.06
267.52	586.06
267.752	589.06
267.984	576.06
268.216	591.06
268.448	575.06
268.681	609.06
268.913	603.06
269.145	695.06
269.377	711.06
269.609	704.06
269.841	688.06
270.073	730.06
270.306	754.06
270.538	813.06
270.77	820.06
271.002	776.06
271.234	749.06
271.466	775.06
271.698	801.06
271.93	817.06
272.162	811.06
272.394	796.06
272.626	738.06
272.858	746.06
273.09	713.06
273.322	695.06
273.553	691.06
273.785	678.06
274.017	689.06
274.249	698.06
274.481	681.06
274.713	675.06
274.945	680.06
275.176	694.06
275.408	680.06
275.64	687.06
275.872	679.06
276.104	690.06
276.335	677.06
276.567	704.06
276.799	750.06
277.031	781.06
277.262	797.06
277.494	806.06
277.726	784.06
277.957	744.06
278.189	712.06
278.421	698.06
278.652	719.06
278.884	732.06
279.115	715.06
279.347	708.06
279.579	697.06
279.81	689.06
280.042	679.06
280.273	693.06
280.505	716.06
280.736	692.06
280.968	689.06
281.199	698.06
281.431	715.06
281.662	709.06
281.894	728.06
282.125	706.06
282.356	758.06
282.588	767.06
282.819	753.06
283.051	749.06
283.282	730.06
283.513	728.06
283.745	744.06
283.976	776.06
284.207	783.06
284.439	730.06
284.67	760.06
284.901	740.06
285.132	763.06
285.364	752.06
285.595	752.06
285.826	759.06
286.057	768.06
286.288	748.06
286.52	766.06
286.751	751.06
286.982	752.06
287.213	771.06
287.444	790.06
287.675	822.06
287.906	833.06
288.138	836.06
288.369	787.06
288.6	770.06
288.831	796.06
289.062	816.06
289.293	810.06
289.524	794.06
289.755	811.06
289.986	779.06
290.217	780.06
290.448	780.06
290.679	777.06
290.91	785.06
291.141	776.06
291.371	782.06
291.602	792.06
291.833	762.06
292.064	779.06
292.295	782.06
292.526	783.06
292.757	787.06
292.987	790.06
293.218	778.06
293.449	808.06
293.68	783.06
293.91	781.06
294.141	790.06
294.372	778.06
294.603	809.06
294.833	820.06
295.064	806.06
295.295	777.06
295.525	787.06
295.756	808.06
295.987	820.06
296.217	849.06
296.448	862.06
296.679	815.06
296.909	817.06
297.14	818.06
297.37	839.06
297.601	817.06
297.831	826.06
298.062	817.06
298.292	846.06
298.523	862.06
298.753	844.06
298.984	821.06
299.214	868.06
299.445	886.06
299.675	860.06
299.905	843.06
300.136	848.06
300.366	855.06
300.597	865.06
300.827	861.06
301.057	894.06
301.288	903.06
301.518	879.06
301.748	910.06
301.979	902.06
302.209	898.06
302.439	890.06
302.669	905.06
302.9	891.06
303.13	879.06
303.36	914.06
303.59	892.06
303.82	896.06
304.051	915.06
304.281	933.06
304.511	918.06
304.741	895.06
304.971	916.06
305.201	898.06
305.431	893.06
305.661	913.06
305.891	908.06
306.121	870.06
306.352	894.06
306.582	895.06
306.812	867.06
307.042	894.06
307.272	897.06
307.502	875.06
307.731	892.06
307.961	903.06
308.191	878.06
308.421	896.06
308.651	871.06
308.881	906.06
309.111	906.06
309.341	891.06
309.571	915.06
309.8	938.06
310.03	952.06
310.26	935.06
310.49	967.06
310.72	1004.06
310.949	1018.06
311.179	1025.06
311.409	980.06
311.639	976.06
311.868	962.06
312.098	968.06
312.328	993.06
312.557	1022.06
312.787	1032.06
313.017	1034.06
313.246	1035.06
313.476	1021.06
313.706	1026.06
313.935	1019.06
314.165	1037.06
314.394	1019.06
314.624	1048.06
314.853	1057.06
315.083	1020.06
315.312	989.06
315.542	998.06
315.771	974.06
316.001	972.06
316.23	1003.06
316.46	998.06
316.689	1023.06
316.919	1008.06
317.148	1016.06
317.377	1024.06
317.607	1011.06
317.836	1015.06
318.065	994.06
318.295	982.06
318.524	997.06
318.753	970.06
318.983	979.06
319.212	990.06
319.441	1006.06
319.67	984.06
319.9	998.06
320.129	980.06
320.358	995.06
320.587	1018.06
320.816	1009.06
321.046	1034.06
321.275	1023.06
321.504	1020.06
321.733	1034.06
321.962	1027.06
322.191	1097.06
322.42	1076.06
322.649	1103.06
322.878	1122.06
323.108	1124.06
323.337	1153.06
323.566	1181.06
323.795	1248.06
324.024	1340.06
324.253	1539.06
324.482	2028.06
324.71	2874.06
324.939	3661.06
325.168	2918.06
325.397	1711.06
325.626	1347.06
325.855	1288.06
326.084	1240.06
326.313	1236.06
326.542	1208.06
326.77	1304.06
326.999	1477.06
327.228	1896.06
327.457	2561.06
327.686	2696.06
327.914	1928.06
328.143	1446.06
328.372	1333.06
328.6	1300.06
328.829	1306.06
329.058	1321.06
329.287	1320.06
329.515	1275.06
329.744	1216.06
329.972	1238.06
330.201	1250.06
330.43	1278.06
330.658	1317.06
330.887	1396.06
331.115	1345.06
331.344	1258.06
331.572	1242.06
331.801	1244.06
332.03	1257.06
332.258	1217.06
332.486	1221.06
332.715	1247.06
332.943	1214.06
333.172	1274.06
333.4	1268.06
333.629	1323.06
333.857	1350.06
334.085	1289.06
334.314	1311.06
334.542	1283.06
334.771	1286.06
334.999	1258.06
335.227	1298.06
335.455	1248.06
335.684	1234.06
335.912	1239.06
336.14	1195.06
336.369	1211.06
336.597	1244.06
336.825	1235.06
337.053	1210.06
337.281	1207.06
337.51	1170.06
337.738	1194.06
337.966	1211.06
338.194	1191.06
338.422	1173.06
338.65	1155.06
338.878	1144.06
339.106	1141.06
339.334	1151.06
339.562	1140.06
339.79	1127.06
340.018	1130.06
340.246	1163.06
340.474	1116.06
340.702	1148.06
340.93	1135.06
341.158	1126.06
341.386	1114.06
341.614	1116.06
341.842	1104.06
342.07	1115.06
342.298	1115.06
342.526	1099.06
342.754	1101.06
342.981	1097.06
343.209	1108.06
343.437	1132.06
343.665	1185.06
343.893	1205.06
344.12	1253.06
344.348	1215.06
344.576	1217.06
344.804	1177.06
345.031	1191.06
345.259	1182.06
345.487	1161.06
345.714	1118.06
345.942	1097.06
346.17	1083.06
346.397	1090.06
346.625	1088.06
346.853	1055.06
347.08	1065.06
347.308	1079.06
347.535	1101.06
347.763	1079.06
347.99	1073.06
348.218	1070.06
348.445	1092.06
348.673	1079.06
348.9	1031.06
349.128	1058.06
349.355	1009.06
349.583	1036.06
349.81	1040.06
350.037	1034.06
350.265	1021.06
350.492	1028.06
350.72	1026.06
350.947	1044.06
351.174	1053.06
351.402	1071.06
351.629	1057.06
351.856	1053.06
352.083	1060.06
352.311	1060.06
352.538	1064.06
352.765	1035.06
352.992	1041.06
353.22	1025.06
353.447	1031.06
353.674	1005.06
353.901	1025.06
354.128	1047.06
354.355	984.06
354.583	993.06
354.81	1010.06
355.037	1004.06
355.264	1016.06
355.491	995.06
355.718	994.06
355.945	967.06
356.172	994.06
356.399	982.06
356.626	985.06
356.853	1002.06
357.08	968.06
357.307	967.06
357.534	984.06
357.761	970.06
357.988	982.06
358.215	1026.06
358.441	1006.06
358.668	962.06
358.895	1004.06
359.122	978.06
359.349	1026.06
359.576	1048.06
359.802	1089.06
360.029	1109.06
360.256	1139.06
360.483	1101.06
360.709	1036.06
360.936	1034.06
361.163	1037.06
361.39	1044.06
361.616	1023.06
361.843	1058.06
362.07	1030.06
362.296	1050.06
362.523	1030.06
362.749	1049.06
362.976	1012.06
363.203	989.06
363.429	971.06
363.656	1006.06
363.882	1018.06
364.109	986.06
364.335	975.06
364.562	1002.06
364.788	979.06
365.015	989.06
365.241	1006.06
365.468	1004.06
365.694	973.06
365.92	981.06
366.147	985.06
366.373	1005.06
366.599	990.06
366.826	994.06
367.052	980.06
367.278	1000.06
367.505	1012.06
367.731	998.06
367.957	1004.06
368.184	1019.06
368.41	987.06
368.636	1050.06
368.862	1019.06
369.089	1026.06
369.315	1006.06
369.541	1011.06
369.767	1012.06
369.993	1031.06
370.219	1007.06
370.445	1002.06
370.672	1039.06
370.898	1047.06
371.124	998.06
371.35	1030.06
371.576	1042.06
371.802	993.06
372.028	1025.06
372.254	1007.06
372.48	1018.06
372.706	1057.06
372.932	1034.06
373.158	1028.06
373.384	1022.06
373.61	1026.06
373.835	1038.06
374.061	1039.06
374.287	1028.06
374.513	1060.06
374.739	1088.06
374.965	1098.06
375.191	1099.06
375.416	1075.06
375.642	1076.06
375.868	1044.06
376.094	1048.06
376.319	1025.06
376.545	1037.06
376.771	1033.06
376.997	1015.06
377.222	1018.06
377.448	973.06
377.674	984.06
377.899	1010.06
378.125	1012.06
378.35	1021.06
378.576	983.06
378.802	1026.06
379.027	1062.06
379.253	1015.06
379.478	1020.06
379.704	979.06
379.929	1014.06
380.155	1014.06
380.38	1028.06
380.606	1035.06
380.831	1011.06
381.057	1010.06
381.282	1007.06
381.507	997.06
381.733	1026.06
381.958	1017.06
382.184	1015.06
382.409	1050.06
382.634	1068.06
382.86	1063.06
383.085	1082.06
383.31	1056.06
383.535	1075.06
383.761	1083.06
383.986	1077.06
384.211	1111.06
384.436	1124.06
384.662	1139.06
384.887	1159.06
385.112	1174.06
385.337	1161.06
385.562	1137.06
385.787	1150.06
386.013	1174.06
386.238	1188.06
386.463	1174.06
386.688	1166.06
386.913	1158.06
387.138	1123.06
387.363	1172.06
387.588	1159.06
387.813	1153.06
388.038	1174.06
388.263	1183.06
388.488	1159.06
388.713	1140.06
388.938	1147.06
389.163	1160.06
389.387	1169.06
389.612	1179.06
389.837	1128.06
390.062	1152.06
390.287	1161.06
390.512	1143.06
390.736	1191.06
390.961	1174.06
391.186	1190.06
391.411	1193.06
391.636	1245.06
391.86	1272.06
392.085	1246.06
392.31	1240.06
392.534	1248.06
392.759	1233.06
392.984	1227.06
393.208	1181.06
393.433	1195.06
393.658	1181.06
393.882	1188.06
394.107	1204.06
394.331	1221.06
394.556	1218.06
394.78	1222.06
395.005	1239.06
395.229	1238.06
395.454	1254.06
395.678	1265.06
395.903	1242.06
396.127	1308.06
396.352	1325.06
396.576	1256.06
396.801	1221.06
397.025	1252.06
397.249	1236.06
397.474	1286.06
397.698	1291.06
397.922	1338.06
398.147	1322.06
398.371	1363.06
398.595	1384.06
398.82	1427.06
399.044	1455.06
399.268	1553.06
399.492	1736.06
399.717	1888.06
399.941	1865.06
400.165	1832.06
400.389	1764.06
400.613	1637.06
400.837	1514.06
401.062	1445.06
401.286	1425.06
401.51	1422.06
401.734	1374.06
401.958	1417.06
402.182	1412.06
402.406	1471.06
402.63	1446.06
402.854	1476.06
403.078	1464.06
403.302	1491.06
403.526	1510.06
403.75	1508.06
403.974	1536.06
404.198	1495.06
404.422	1518.06
404.645	1501.06
404.869	1529.06
405.093	1580.06
405.317	1551.06
405.541	1618.06
405.765	1524.06
405.988	1494.06
406.212	1551.06
406.436	1583.06
406.66	1621.06
406.883	1614.06
407.107	1680.06
407.331	1807.06
407.555	1986.06
407.778	1968.06
408.002	1784.06
408.226	1676.06
408.449	1659.06
408.673	1671.06
408.896	1689.06
409.12	1763.06
409.344	1674.06
409.567	1545.06
409.791	1499.06
410.014	1491.06
410.238	1424.06
410.461	1473.06
410.685	1500.06
410.908	1522.06
411.132	1574.06
411.355	1607.06
411.578	1547.06
411.802	1436.06
412.025	1436.06
412.249	1433.06
412.472	1437.06
412.695	1383.06
412.919	1402.06
413.142	1407.06
413.365	1375.06
413.589	1394.06
413.812	1399.06
414.035	1368.06
414.258	1351.06
414.482	1382.06
414.705	1433.06
414.928	1385.06
415.151	1393.06
415.374	1378.06
415.597	1367.06
415.821	1340.06
416.044	1386.06
416.267	1442.06
416.49	1388.06
416.713	1357.06
416.936	1374.06
417.159	1355.06
417.382	1384.06
417.605	1344.06
417.828	1409.06
418.051	1420.06
418.274	1439.06
418.497	1411.06
418.72	1408.06
418.943	1427.06
419.166	1450.06
419.389	1509.06
419.611	1519.06
419.834	1498.06
420.057	1470.06
420.28	1426.06
420.503	1422.06
420.726	1426.06
420.948	1485.06
421.171	1544.06
421.394	1607.06
421.617	1472.06
421.839	1423.06
422.062	1402.06
422.285	1502.06
422.507	1651.06
422.73	1781.06
422.953	1678.06
423.175	1551.06
423.398	1490.06
423.621	1536.06
423.843	1588.06
424.066	1587.06
424.288	1581.06
424.511	1622.06
424.733	1768.06
424.956	1854.06
425.178	1746.06
425.401	1794.06
425.623	1789.06
425.846	1562.06
426.068	1518.06
426.291	1474.06
426.513	1489.06
426.735	1507.06
426.958	1607.06
427.18	1818.06
427.402	2042.06
427.625	2115.06
427.847	1833.06
428.069	1590.06
428.292	1491.06
428.514	1428.06
428.736	1365.06
428.958	1364.06
429.181	1344.06
429.403	1323.06
429.625	1372.06
429.847	1494.06
430.069	1605.06
430.292	1555.06
430.514	1392.06
430.736	1321.06
430.958	1297.06
431.18	1328.06
431.402	1300.06
431.624	1301.06
431.846	1278.06
432.068	1300.06
432.29	1315.06
432.512	1282.06
432.734	1327.06
432.956	1299.06
433.178	1327.06
433.4	1337.06
433.622	1324.06
433.844	1313.06
434.066	1326.06
434.287	1312.06
434.509	1311.06
434.731	1388.06
434.953	1395.06
435.175	1446.06
435.397	1530.06
435.618	1497.06
435.84	1622.06
436.062	1765.06
436.284	1874.06
436.505	1548.06
436.727	1459.06
436.949	1388.06
437.17	1365.06
437.392	1366.06
437.614	1372.06
437.835	1466.06
438.057	1672.06
438.278	1874.06
438.5	1890.06
438.721	2045.06
438.943	1880.06
439.165	1571.06
439.386	1482.06
439.608	1466.06
439.829	1450.06
440.05	1532.06
440.272	1585.06
440.493	1498.06
440.715	1456.06
440.936	1428.06
441.158	1399.06
441.379	1409.06
441.6	1419.06
441.822	1519.06
442.043	1672.06
442.264	1826.06
442.486	1842.06
442.707	1611.06
442.928	1513.06
443.149	1577.06
443.371	1594.06
443.592	1734.06
443.813	1961.06
444.034	1995.06
444.255	1713.06
444.476	1611.06
444.698	1623.06
444.919	1610.06
445.14	1658.06
445.361	1608.06
445.582	1631.06
445.803	1762.06
446.024	1914.06
446.245	1928.06
446.466	1742.06
446.687	1562.06
446.908	1457.06
447.129	1379.06
447.35	1350.06
447.571	1319.06
447.792	1300.06
448.013	1331.06
448.234	1351.06
448.455	1538.06
448.675	1766.06
448.896	1969.06
449.117	1650.06
449.338	1617.06
449.559	1914.06
449.779	2053.06
450	1619.06
450.221	1386.06
450.442	1319.06
450.662	1281.06
450.883	1290.06
451.104	1292.06
451.324	1258.06
451.545	1248.06
451.766	1211.06
451.986	1198.06
452.207	1207.06
452.428	1164.06
452.648	1195.06
452.869	1162.06
453.089	1178.06
453.31	1191.06
453.53	1196.06
453.751	1152.06
453.971	1176.06
454.192	1164.06
454.412	1143.06
454.633	1151.06
454.853	1175.06
455.073	1161.06
455.294	1227.06
455.514	1374.06
455.734	1284.06
455.955	1137.06
456.175	1072.06
456.395	1094.06
456.616	1087.06
456.836	1072.06
457.056	1092.06
457.276	1063.06
457.497	1093.06
457.717	1115.06
457.937	1132.06
458.157	1124.06
458.377	1134.06
458.598	1191.06
458.818	1280.06
459.038	1464.06
459.258	1487.06
459.478	1328.06
459.698	1311.06
459.918	1295.06
460.138	1332.06
460.358	1342.06
460.578	1363.06
460.798	1397.06
461.018	1380.06
461.238	1336.06
461.458	1359.06
461.678	1339.06
461.898	1371.06
462.118	1359.06
462.338	1422.06
462.558	1426.06
462.777	1451.06
462.997	1558.06
463.217	1648.06
463.437	1607.06
463.657	1512.06
463.876	1475.06
464.096	1490.06
464.316	1492.06
464.536	1539.06
464.755	1449.06
464.975	1479.06
465.195	1479.06
465.414	1512.06
465.634	1401.06
465.854	1326.06
466.073	1262.06
466.293	1203.06
466.512	1238.06
466.732	1201.06
466.951	1183.06
467.171	1172.06
467.391	1212.06
467.61	1220.06
467.829	1211.06
468.049	1212.06
468.268	1164.06
468.488	1177.06
468.707	1148.06
468.927	1155.06
469.146	1174.06
469.365	1204.06
469.585	1168.06
469.804	1168.06
470.023	1246.06
470.243	1230.06
470.462	1240.06
470.681	1284.06
470.901	1275.06
471.12	1208.06
471.339	1234.06
471.558	1231.06
471.777	1204.06
471.997	1211.06
472.216	1165.06
472.435	1171.06
472.654	1166.06
472.873	1167.06
473.092	1167.06
473.311	1157.06
473.53	1191.06
473.749	1206.06
473.968	1340.06
474.187	1553.06
474.406	1491.06
474.625	1342.06
474.844	1240.06
475.063	1195.06
475.282	1187.06
475.501	1191.06
475.72	1199.06
475.939	1203.06
476.158	1260.06
476.377	1230.06
476.596	1218.06
476.814	1223.06
477.033	1217.06
477.252	1250.06
477.471	1278.06
477.69	1265.06
477.908	1299.06
478.127	1342.06
478.346	1327.06
478.564	1354.06
478.783	1386.06
479.002	1390.06
479.22	1406.06
479.439	1421.06
479.658	1439.06
479.876	1466.06
480.095	1531.06
480.313	1592.06
480.532	1528.06
480.751	1497.06
480.969	1506.06
481.188	1480.06
481.406	1440.06
481.624	1410.06
481.843	1416.06
482.061	1387.06
482.28	1385.06
482.498	1382.06
482.717	1387.06
482.935	1385.06
483.153	1351.06
483.372	1370.06
483.59	1346.06
483.808	1350.06
484.027	1388.06
484.245	1373.06
484.463	1378.06
484.681	1417.06
484.9	1404.06
485.118	1415.06
485.336	1410.06
485.554	1434.06
485.772	1424.06
485.99	1395.06
486.209	1452.06
486.427	1424.06
486.645	1437.06
486.863	1489.06
487.081	1450.06
487.299	1475.06
487.517	1458.06
487.735	1464.06
487.953	1473.06
488.171	1458.06
488.389	1513.06
488.607	1470.06
488.825	1482.06
489.043	1500.06
489.261	1484.06
489.479	1465.06
489.696	1505.06
489.914	1499.06
490.132	1517.06
490.35	1518.06
490.568	1529.06
490.786	1603.06
491.003	1627.06
491.221	1608.06
491.439	1641.06
491.657	1655.06
491.874	1689.06
492.092	1678.06
