Data from copper.mounting.energy7_HRD10591_16-51-02-544.txt Node
Date: Thu Jul 11 16:51:02 EDT 2019
User: cochatt
Spectrometer: HR+D1059
Trigger mode: 1
Integration Time (sec): 1.000000E-1
Scans to average: 1
Electric dark correction enabled: true
Nonlinearity correction enabled: false
Boxcar width: 0
XAxis mode: Wavelengths
Number of Pixels in Spectrum: 2048
>>>>>Begin Spectral Data<<<<<
223.165	-16.31
223.4	-16.31
223.635	-16.31
223.869	-12.31
224.104	-19.31
224.338	-11.31
224.573	-19.31
224.808	2.69
225.042	-7.31
225.277	11.69
225.511	-14.31
225.746	-1.31
225.98	8.69
226.215	4.69
226.449	9.69
226.683	22.69
226.918	17.69
227.152	23.69
227.387	31.69
227.621	25.69
227.856	46.69
228.09	33.69
228.324	41.69
228.559	58.69
228.793	80.69
229.027	155.69
229.262	202.69
229.496	216.69
229.73	254.69
229.964	297.69
230.199	227.69
230.433	180.69
230.667	198.69
230.901	187.69
231.136	183.69
231.37	207.69
231.604	183.69
231.838	187.69
232.072	200.69
232.306	197.69
232.541	196.69
232.775	210.69
233.009	188.69
233.243	205.69
233.477	196.69
233.711	208.69
233.945	208.69
234.179	215.69
234.413	211.69
234.647	220.69
234.881	259.69
235.115	231.69
235.349	235.69
235.583	223.69
235.817	235.69
236.051	249.69
236.285	250.69
236.519	245.69
236.753	255.69
236.987	309.69
237.221	368.69
237.455	446.69
237.689	369.69
237.922	287.69
238.156	292.69
238.39	277.69
238.624	268.69
238.858	259.69
239.091	266.69
239.325	249.69
239.559	244.69
239.793	279.69
240.027	264.69
240.26	313.69
240.494	347.69
240.728	332.69
240.961	325.69
241.195	302.69
241.429	288.69
241.662	259.69
241.896	299.69
242.13	271.69
242.363	295.69
242.597	281.69
242.83	308.69
243.064	287.69
243.298	319.69
243.531	322.69
243.765	291.69
243.998	316.69
244.232	303.69
244.465	318.69
244.699	316.69
244.932	320.69
245.166	315.69
245.399	318.69
245.633	312.69
245.866	328.69
246.099	316.69
246.333	343.69
246.566	348.69
246.8	330.69
247.033	355.69
247.266	341.69
247.5	367.69
247.733	375.69
247.966	396.69
248.2	389.69
248.433	384.69
248.666	408.69
248.899	451.69
249.133	461.69
249.366	463.69
249.599	451.69
249.832	431.69
250.066	385.69
250.299	404.69
250.532	422.69
250.765	478.69
250.998	503.69
251.231	530.69
251.465	499.69
251.698	468.69
251.931	462.69
252.164	473.69
252.397	467.69
252.63	469.69
252.863	483.69
253.096	532.69
253.329	530.69
253.562	543.69
253.795	524.69
254.028	509.69
254.261	525.69
254.494	536.69
254.727	594.69
254.96	672.69
255.193	647.69
255.426	605.69
255.659	555.69
255.892	537.69
256.124	516.69
256.357	507.69
256.59	463.69
256.823	485.69
257.056	505.69
257.289	482.69
257.521	481.69
257.754	497.69
257.987	511.69
258.22	495.69
258.452	483.69
258.685	491.69
258.918	503.69
259.151	511.69
259.383	538.69
259.616	537.69
259.849	541.69
260.081	574.69
260.314	628.69
260.547	618.69
260.779	599.69
261.012	582.69
261.244	565.69
261.477	538.69
261.71	545.69
261.942	527.69
262.175	533.69
262.407	533.69
262.64	524.69
262.872	515.69
263.105	519.69
263.337	513.69
263.57	520.69
263.802	543.69
264.035	529.69
264.267	524.69
264.499	528.69
264.732	528.69
264.964	548.69
265.197	541.69
265.429	513.69
265.661	517.69
265.894	536.69
266.126	544.69
266.358	568.69
266.591	555.69
266.823	545.69
267.055	564.69
267.287	586.69
267.52	578.69
267.752	571.69
267.984	576.69
268.216	579.69
268.448	606.69
268.681	612.69
268.913	635.69
269.145	688.69
269.377	695.69
269.609	693.69
269.841	689.69
270.073	708.69
270.306	742.69
270.538	788.69
270.77	789.69
271.002	813.69
271.234	755.69
271.466	776.69
271.698	811.69
271.93	807.69
272.162	789.69
272.394	787.69
272.626	771.69
272.858	707.69
273.09	719.69
273.322	684.69
273.553	675.69
273.785	656.69
274.017	663.69
274.249	680.69
274.481	673.69
274.713	671.69
274.945	688.69
275.176	670.69
275.408	665.69
275.64	675.69
275.872	684.69
276.104	683.69
276.335	684.69
276.567	691.69
276.799	733.69
277.031	763.69
277.262	784.69
277.494	784.69
277.726	770.69
277.957	741.69
278.189	727.69
278.421	698.69
278.652	709.69
278.884	681.69
279.115	698.69
279.347	704.69
279.579	683.69
279.81	698.69
280.042	689.69
280.273	714.69
280.505	709.69
280.736	679.69
280.968	689.69
281.199	705.69
281.431	741.69
281.662	713.69
281.894	708.69
282.125	701.69
282.356	740.69
282.588	786.69
282.819	796.69
283.051	724.69
283.282	722.69
283.513	738.69
283.745	745.69
283.976	771.69
284.207	747.69
284.439	739.69
284.67	757.69
284.901	743.69
285.132	737.69
285.364	765.69
285.595	741.69
285.826	764.69
286.057	787.69
286.288	750.69
286.52	751.69
286.751	741.69
286.982	745.69
287.213	769.69
287.444	768.69
287.675	776.69
287.906	801.69
288.138	813.69
288.369	787.69
288.6	830.69
288.831	818.69
289.062	807.69
289.293	761.69
289.524	795.69
289.755	783.69
289.986	813.69
290.217	785.69
290.448	788.69
290.679	819.69
290.91	816.69
291.141	785.69
291.371	813.69
291.602	813.69
291.833	779.69
292.064	797.69
292.295	778.69
292.526	794.69
292.757	794.69
292.987	786.69
293.218	798.69
293.449	795.69
293.68	771.69
293.91	777.69
294.141	777.69
294.372	798.69
294.603	777.69
294.833	783.69
295.064	799.69
295.295	823.69
295.525	787.69
295.756	797.69
295.987	812.69
296.217	848.69
296.448	847.69
296.679	828.69
296.909	814.69
297.14	818.69
297.37	822.69
297.601	819.69
297.831	832.69
298.062	814.69
298.292	830.69
298.523	836.69
298.753	837.69
298.984	848.69
299.214	866.69
299.445	850.69
299.675	859.69
299.905	847.69
300.136	859.69
300.366	855.69
300.597	850.69
300.827	878.69
301.057	909.69
301.288	894.69
301.518	891.69
301.748	859.69
301.979	914.69
302.209	906.69
302.439	884.69
302.669	909.69
302.9	896.69
303.13	897.69
303.36	914.69
303.59	893.69
303.82	926.69
304.051	916.69
304.281	906.69
304.511	907.69
304.741	867.69
304.971	868.69
305.201	875.69
305.431	894.69
305.661	891.69
305.891	889.69
306.121	919.69
306.352	908.69
306.582	927.69
306.812	868.69
307.042	888.69
307.272	908.69
307.502	900.69
307.731	878.69
307.961	893.69
308.191	896.69
308.421	888.69
308.651	886.69
308.881	898.69
309.111	935.69
309.341	915.69
309.571	920.69
309.8	923.69
310.03	946.69
310.26	979.69
310.49	977.69
310.72	970.69
310.949	995.69
311.179	984.69
311.409	1004.69
311.639	963.69
311.868	980.69
312.098	986.69
312.328	1012.69
312.557	1030.69
312.787	1036.69
313.017	1041.69
313.246	1000.69
313.476	990.69
313.706	998.69
313.935	1017.69
314.165	1036.69
314.394	1055.69
314.624	1051.69
314.853	1011.69
315.083	1010.69
315.312	1008.69
315.542	1001.69
315.771	1004.69
316.001	984.69
316.23	986.69
316.46	971.69
316.689	976.69
316.919	1012.69
317.148	1027.69
317.377	1026.69
317.607	999.69
317.836	991.69
318.065	1000.69
318.295	998.69
318.524	993.69
318.753	967.69
318.983	966.69
319.212	1013.69
319.441	984.69
319.67	976.69
319.9	983.69
320.129	999.69
320.358	995.69
320.587	984.69
320.816	1033.69
321.046	1045.69
321.275	1051.69
321.504	1005.69
321.733	1020.69
321.962	1024.69
322.191	1049.69
322.42	1063.69
322.649	1079.69
322.878	1106.69
323.108	1116.69
323.337	1140.69
323.566	1182.69
323.795	1199.69
324.024	1359.69
324.253	1531.69
324.482	2000.69
324.71	2864.69
324.939	3642.69
325.168	2884.69
325.397	1684.69
325.626	1331.69
325.855	1228.69
326.084	1188.69
326.313	1197.69
326.542	1201.69
326.77	1295.69
326.999	1443.69
327.228	1858.69
327.457	2491.69
327.686	2692.69
327.914	1905.69
328.143	1443.69
328.372	1320.69
328.6	1284.69
328.829	1286.69
329.058	1323.69
329.287	1331.69
329.515	1236.69
329.744	1212.69
329.972	1213.69
330.201	1207.69
330.43	1265.69
330.658	1311.69
330.887	1372.69
331.115	1364.69
331.344	1245.69
331.572	1259.69
331.801	1242.69
332.03	1226.69
332.258	1261.69
332.486	1217.69
332.715	1226.69
332.943	1255.69
333.172	1296.69
333.4	1289.69
333.629	1327.69
333.857	1308.69
334.085	1305.69
334.314	1301.69
334.542	1325.69
334.771	1274.69
334.999	1286.69
335.227	1281.69
335.455	1280.69
335.684	1237.69
335.912	1254.69
336.14	1204.69
336.369	1218.69
336.597	1249.69
336.825	1220.69
337.053	1217.69
337.281	1208.69
337.51	1208.69
337.738	1193.69
337.966	1181.69
338.194	1180.69
338.422	1198.69
338.65	1162.69
338.878	1156.69
339.106	1147.69
339.334	1172.69
339.562	1141.69
339.79	1128.69
340.018	1135.69
340.246	1155.69
340.474	1147.69
340.702	1136.69
340.93	1094.69
341.158	1130.69
341.386	1109.69
341.614	1155.69
341.842	1122.69
342.07	1105.69
342.298	1096.69
342.526	1083.69
342.754	1129.69
342.981	1095.69
343.209	1104.69
343.437	1188.69
343.665	1199.69
343.893	1212.69
344.12	1259.69
344.348	1188.69
344.576	1190.69
344.804	1183.69
345.031	1168.69
345.259	1158.69
345.487	1122.69
345.714	1133.69
345.942	1097.69
346.17	1081.69
346.397	1101.69
346.625	1031.69
346.853	1051.69
347.08	1061.69
347.308	1053.69
347.535	1039.69
347.763	1068.69
347.99	1080.69
348.218	1093.69
348.445	1060.69
348.673	1082.69
348.9	1039.69
349.128	1044.69
349.355	1018.69
349.583	1031.69
349.81	1031.69
350.037	986.69
350.265	1022.69
350.492	1048.69
350.72	992.69
350.947	1044.69
351.174	1044.69
351.402	1061.69
351.629	1060.69
351.856	1039.69
352.083	1049.69
352.311	1029.69
352.538	1068.69
352.765	1034.69
352.992	1030.69
353.22	1042.69
353.447	1043.69
353.674	997.69
353.901	1023.69
354.128	1002.69
354.355	1013.69
354.583	987.69
354.81	1019.69
355.037	993.69
355.264	970.69
355.491	983.69
355.718	993.69
355.945	978.69
356.172	999.69
356.399	957.69
356.626	978.69
356.853	1001.69
357.08	962.69
357.307	1005.69
357.534	1009.69
357.761	1005.69
357.988	1011.69
358.215	1011.69
358.441	998.69
358.668	1005.69
358.895	1029.69
359.122	1029.69
359.349	1025.69
359.576	1028.69
359.802	1091.69
360.029	1109.69
360.256	1116.69
360.483	1048.69
360.709	1023.69
360.936	1028.69
361.163	1052.69
361.39	1049.69
361.616	1021.69
361.843	1026.69
362.07	1034.69
362.296	1012.69
362.523	1029.69
362.749	1023.69
362.976	991.69
363.203	987.69
363.429	1019.69
363.656	962.69
363.882	983.69
364.109	973.69
364.335	1011.69
364.562	1000.69
364.788	979.69
365.015	991.69
365.241	985.69
365.468	998.69
365.694	987.69
365.92	1007.69
366.147	999.69
366.373	994.69
366.599	976.69
366.826	991.69
367.052	988.69
367.278	995.69
367.505	986.69
367.731	1007.69
367.957	995.69
368.184	989.69
368.41	1038.69
368.636	1014.69
368.862	1023.69
369.089	1007.69
369.315	993.69
369.541	1021.69
369.767	1041.69
369.993	1017.69
370.219	1012.69
370.445	1030.69
370.672	1017.69
370.898	1036.69
371.124	1000.69
371.35	1017.69
371.576	1037.69
371.802	1045.69
372.028	988.69
372.254	1016.69
372.48	1029.69
372.706	1046.69
372.932	1061.69
373.158	1090.69
373.384	1027.69
373.61	1029.69
373.835	1042.69
374.061	1018.69
374.287	1031.69
374.513	1044.69
374.739	1057.69
374.965	1082.69
375.191	1090.69
375.416	1095.69
375.642	1073.69
375.868	1070.69
376.094	1032.69
376.319	1009.69
376.545	992.69
376.771	1019.69
376.997	1022.69
377.222	1039.69
377.448	1039.69
377.674	1005.69
377.899	1045.69
378.125	1030.69
378.35	999.69
378.576	991.69
378.802	996.69
379.027	1008.69
379.253	1019.69
379.478	996.69
379.704	1013.69
379.929	1001.69
380.155	1026.69
380.38	1023.69
380.606	1025.69
380.831	1032.69
381.057	1007.69
381.282	1000.69
381.507	1020.69
381.733	993.69
381.958	1034.69
382.184	1027.69
382.409	1056.69
382.634	1039.69
382.86	1041.69
383.085	1074.69
383.31	1051.69
383.535	1096.69
383.761	1089.69
383.986	1141.69
384.211	1077.69
384.436	1131.69
384.662	1133.69
384.887	1142.69
385.112	1139.69
385.337	1151.69
385.562	1147.69
385.787	1167.69
386.013	1176.69
386.238	1181.69
386.463	1221.69
386.688	1147.69
386.913	1170.69
387.138	1129.69
387.363	1183.69
387.588	1178.69
387.813	1139.69
388.038	1108.69
388.263	1172.69
388.488	1136.69
388.713	1171.69
388.938	1155.69
389.163	1139.69
389.387	1167.69
389.612	1159.69
389.837	1136.69
390.062	1171.69
390.287	1162.69
390.512	1137.69
390.736	1170.69
390.961	1172.69
391.186	1165.69
391.411	1235.69
391.636	1243.69
391.86	1247.69
392.085	1245.69
392.31	1252.69
392.534	1246.69
392.759	1225.69
392.984	1205.69
393.208	1216.69
393.433	1200.69
393.658	1175.69
393.882	1187.69
394.107	1155.69
394.331	1193.69
394.556	1205.69
394.78	1237.69
395.005	1222.69
395.229	1182.69
395.454	1251.69
395.678	1260.69
395.903	1303.69
396.127	1355.69
396.352	1301.69
396.576	1262.69
396.801	1237.69
397.025	1232.69
397.249	1275.69
397.474	1257.69
397.698	1291.69
397.922	1299.69
398.147	1369.69
398.371	1358.69
398.595	1369.69
398.82	1415.69
399.044	1507.69
399.268	1562.69
399.492	1746.69
399.717	1901.69
399.941	1890.69
400.165	1825.69
400.389	1785.69
400.613	1601.69
400.837	1484.69
401.062	1428.69
401.286	1416.69
401.51	1407.69
401.734	1424.69
401.958	1432.69
402.182	1431.69
402.406	1412.69
402.63	1441.69
402.854	1452.69
403.078	1497.69
403.302	1552.69
403.526	1525.69
403.75	1527.69
403.974	1537.69
404.198	1517.69
404.422	1533.69
404.645	1525.69
404.869	1487.69
405.093	1519.69
405.317	1552.69
405.541	1609.69
405.765	1517.69
405.988	1524.69
406.212	1532.69
406.436	1579.69
406.66	1604.69
406.883	1626.69
407.107	1718.69
407.331	1829.69
407.555	1973.69
407.778	1908.69
408.002	1819.69
408.226	1681.69
408.449	1633.69
408.673	1601.69
408.896	1652.69
409.12	1793.69
409.344	1691.69
409.567	1544.69
409.791	1485.69
410.014	1488.69
410.238	1468.69
410.461	1464.69
410.685	1517.69
410.908	1515.69
411.132	1599.69
411.355	1636.69
411.578	1578.69
411.802	1460.69
412.025	1454.69
412.249	1455.69
412.472	1468.69
412.695	1412.69
412.919	1416.69
413.142	1411.69
413.365	1400.69
413.589	1415.69
413.812	1379.69
414.035	1378.69
414.258	1350.69
414.482	1372.69
414.705	1381.69
414.928	1395.69
415.151	1406.69
415.374	1388.69
415.597	1364.69
415.821	1370.69
416.044	1357.69
416.267	1388.69
416.49	1367.69
416.713	1353.69
416.936	1382.69
417.159	1376.69
417.382	1381.69
417.605	1395.69
417.828	1413.69
418.051	1450.69
418.274	1407.69
418.497	1414.69
418.72	1445.69
418.943	1413.69
419.166	1479.69
419.389	1560.69
419.611	1528.69
419.834	1491.69
420.057	1458.69
420.28	1432.69
420.503	1408.69
420.726	1430.69
420.948	1472.69
421.171	1550.69
421.394	1595.69
421.617	1432.69
421.839	1450.69
422.062	1435.69
422.285	1505.69
422.507	1589.69
422.73	1767.69
422.953	1640.69
423.175	1564.69
423.398	1503.69
423.621	1474.69
423.843	1581.69
424.066	1567.69
424.288	1551.69
424.511	1600.69
424.733	1747.69
424.956	1876.69
425.178	1803.69
425.401	1837.69
425.623	1801.69
425.846	1532.69
426.068	1540.69
426.291	1510.69
426.513	1453.69
426.735	1517.69
426.958	1614.69
427.18	1799.69
427.402	2068.69
427.625	2130.69
427.847	1816.69
428.069	1561.69
428.292	1454.69
428.514	1387.69
428.736	1403.69
428.958	1401.69
429.181	1316.69
429.403	1333.69
429.625	1358.69
429.847	1469.69
430.069	1569.69
430.292	1528.69
430.514	1374.69
430.736	1359.69
430.958	1351.69
431.18	1334.69
431.402	1300.69
431.624	1279.69
431.846	1300.69
432.068	1318.69
432.29	1338.69
432.512	1320.69
432.734	1339.69
432.956	1285.69
433.178	1323.69
433.4	1318.69
433.622	1308.69
433.844	1292.69
434.066	1340.69
434.287	1314.69
434.509	1304.69
434.731	1334.69
434.953	1414.69
435.175	1470.69
435.397	1517.69
435.618	1507.69
435.84	1543.69
436.062	1770.69
436.284	1861.69
436.505	1546.69
436.727	1451.69
436.949	1386.69
437.17	1343.69
437.392	1315.69
437.614	1386.69
437.835	1451.69
438.057	1636.69
438.278	1845.69
438.5	1845.69
438.721	2003.69
438.943	1859.69
439.165	1566.69
439.386	1486.69
439.608	1423.69
439.829	1464.69
440.05	1529.69
440.272	1542.69
440.493	1512.69
440.715	1433.69
440.936	1405.69
441.158	1380.69
441.379	1423.69
441.6	1467.69
441.822	1526.69
442.043	1622.69
442.264	1845.69
442.486	1806.69
442.707	1598.69
442.928	1509.69
443.149	1548.69
443.371	1582.69
443.592	1729.69
443.813	1943.69
444.034	1973.69
444.255	1727.69
444.476	1657.69
444.698	1610.69
444.919	1596.69
445.14	1700.69
445.361	1618.69
445.582	1603.69
445.803	1818.69
446.024	1918.69
446.245	1870.69
446.466	1716.69
446.687	1529.69
446.908	1457.69
447.129	1361.69
447.35	1319.69
447.571	1347.69
447.792	1336.69
448.013	1340.69
448.234	1355.69
448.455	1463.69
448.675	1791.69
448.896	1947.69
449.117	1635.69
449.338	1617.69
449.559	1877.69
449.779	1983.69
450	1602.69
450.221	1374.69
450.442	1330.69
450.662	1289.69
450.883	1297.69
451.104	1267.69
451.324	1284.69
451.545	1231.69
451.766	1216.69
451.986	1154.69
452.207	1191.69
452.428	1186.69
452.648	1200.69
452.869	1205.69
453.089	1203.69
453.31	1226.69
453.53	1172.69
453.751	1181.69
453.971	1174.69
454.192	1161.69
454.412	1129.69
454.633	1119.69
454.853	1171.69
455.073	1177.69
455.294	1237.69
455.514	1398.69
455.734	1307.69
455.955	1139.69
456.175	1115.69
456.395	1093.69
456.616	1089.69
456.836	1085.69
457.056	1092.69
457.276	1085.69
457.497	1100.69
457.717	1114.69
457.937	1147.69
458.157	1136.69
458.377	1149.69
458.598	1202.69
458.818	1297.69
459.038	1456.69
459.258	1514.69
459.478	1331.69
459.698	1284.69
459.918	1277.69
460.138	1288.69
460.358	1321.69
460.578	1381.69
460.798	1395.69
461.018	1391.69
461.238	1356.69
461.458	1340.69
461.678	1347.69
461.898	1385.69
462.118	1363.69
462.338	1396.69
462.558	1435.69
462.777	1481.69
462.997	1552.69
463.217	1628.69
463.437	1649.69
463.657	1580.69
463.876	1507.69
464.096	1516.69
464.316	1505.69
464.536	1501.69
464.755	1476.69
464.975	1476.69
465.195	1467.69
465.414	1524.69
465.634	1348.69
465.854	1308.69
466.073	1275.69
466.293	1263.69
466.512	1180.69
466.732	1177.69
466.951	1213.69
467.171	1217.69
467.391	1207.69
467.61	1231.69
467.829	1185.69
468.049	1214.69
468.268	1180.69
468.488	1183.69
468.707	1172.69
468.927	1131.69
469.146	1145.69
469.365	1182.69
469.585	1183.69
469.804	1224.69
470.023	1236.69
470.243	1221.69
470.462	1261.69
470.681	1259.69
470.901	1262.69
471.12	1267.69
471.339	1211.69
471.558	1225.69
471.777	1221.69
471.997	1204.69
472.216	1172.69
472.435	1178.69
472.654	1153.69
472.873	1136.69
473.092	1172.69
473.311	1158.69
473.53	1160.69
473.749	1201.69
473.968	1321.69
474.187	1546.69
474.406	1525.69
474.625	1301.69
474.844	1204.69
475.063	1177.69
475.282	1188.69
475.501	1178.69
475.72	1215.69
475.939	1216.69
476.158	1259.69
476.377	1209.69
476.596	1233.69
476.814	1274.69
477.033	1256.69
477.252	1267.69
477.471	1282.69
477.69	1303.69
477.908	1320.69
478.127	1330.69
478.346	1350.69
478.564	1383.69
478.783	1374.69
479.002	1427.69
479.22	1401.69
479.439	1390.69
479.658	1443.69
479.876	1432.69
480.095	1496.69
480.313	1597.69
480.532	1560.69
480.751	1547.69
480.969	1535.69
481.188	1490.69
481.406	1469.69
481.624	1444.69
481.843	1406.69
482.061	1391.69
482.28	1379.69
482.498	1348.69
482.717	1355.69
482.935	1340.69
483.153	1363.69
483.372	1383.69
483.59	1384.69
483.808	1393.69
484.027	1395.69
484.245	1378.69
484.463	1378.69
484.681	1417.69
484.9	1396.69
485.118	1404.69
485.336	1389.69
485.554	1428.69
485.772	1439.69
485.99	1399.69
486.209	1429.69
486.427	1432.69
486.645	1438.69
486.863	1504.69
487.081	1449.69
487.299	1463.69
487.517	1469.69
487.735	1465.69
487.953	1490.69
488.171	1479.69
488.389	1450.69
488.607	1469.69
488.825	1440.69
489.043	1464.69
489.261	1479.69
489.479	1496.69
489.696	1480.69
489.914	1488.69
490.132	1523.69
490.35	1560.69
490.568	1507.69
490.786	1556.69
491.003	1543.69
491.221	1624.69
491.439	1652.69
491.657	1668.69
491.874	1717.69
492.092	1679.69
