Data from copper_HRD10591_16-49-16-819.txt Node
Date: Thu Jul 11 16:49:16 EDT 2019
User: cochatt
Spectrometer: HR+D1059
Trigger mode: 1
Integration Time (sec): 1.000000E-1
Scans to average: 1
Electric dark correction enabled: true
Nonlinearity correction enabled: false
Boxcar width: 0
XAxis mode: Wavelengths
Number of Pixels in Spectrum: 2048
>>>>>Begin Spectral Data<<<<<
223.165	-10.31
223.4	-10.31
223.635	-10.31
223.869	-11.31
224.104	-20.31
224.338	-19.31
224.573	-4.31
224.808	-9.31
225.042	0.69
225.277	-12.31
225.511	-12.31
225.746	-3.31
225.98	4.69
226.215	5.69
226.449	16.69
226.683	23.69
226.918	27.69
227.152	23.69
227.387	31.69
227.621	28.69
227.856	35.69
228.09	48.69
228.324	40.69
228.559	59.69
228.793	117.69
229.027	288.69
229.262	359.69
229.496	400.69
229.73	464.69
229.964	564.69
230.199	421.69
230.433	324.69
230.667	329.69
230.901	321.69
231.136	292.69
231.37	279.69
231.604	292.69
231.838	299.69
232.072	266.69
232.306	289.69
232.541	281.69
232.775	298.69
233.009	303.69
233.243	289.69
233.477	304.69
233.711	301.69
233.945	328.69
234.179	319.69
234.413	319.69
234.647	305.69
234.881	320.69
235.115	337.69
235.349	343.69
235.583	347.69
235.817	352.69
236.051	394.69
236.285	403.69
236.519	387.69
236.753	406.69
236.987	475.69
237.221	656.69
237.455	871.69
237.689	654.69
237.922	477.69
238.156	467.69
238.39	431.69
238.624	415.69
238.858	396.69
239.091	389.69
239.325	392.69
239.559	397.69
239.793	426.69
240.027	448.69
240.26	531.69
240.494	605.69
240.728	589.69
240.961	588.69
241.195	496.69
241.429	469.69
241.662	442.69
241.896	447.69
242.13	467.69
242.363	434.69
242.597	468.69
242.83	478.69
243.064	477.69
243.298	476.69
243.531	491.69
243.765	476.69
243.998	478.69
244.232	489.69
244.465	511.69
244.699	495.69
244.932	498.69
245.166	515.69
245.399	494.69
245.633	492.69
245.866	480.69
246.099	523.69
246.333	540.69
246.566	545.69
246.8	546.69
247.033	582.69
247.266	597.69
247.5	622.69
247.733	665.69
247.966	674.69
248.2	631.69
248.433	670.69
248.666	673.69
248.899	748.69
249.133	834.69
249.366	866.69
249.599	799.69
249.832	712.69
250.066	699.69
250.299	689.69
250.532	727.69
250.765	813.69
250.998	959.69
251.231	980.69
251.465	870.69
251.698	826.69
251.931	788.69
252.164	802.69
252.397	766.69
252.63	806.69
252.863	842.69
253.096	932.69
253.329	1015.69
253.562	976.69
253.795	891.69
254.028	891.69
254.261	908.69
254.494	1005.69
254.727	1167.69
254.96	1329.69
255.193	1196.69
255.426	1057.69
255.659	943.69
255.892	874.69
256.124	863.69
256.357	805.69
256.59	801.69
256.823	832.69
257.056	810.69
257.289	827.69
257.521	830.69
257.754	815.69
257.987	809.69
258.22	821.69
258.452	830.69
258.685	832.69
258.918	851.69
259.151	879.69
259.383	893.69
259.616	949.69
259.849	962.69
260.081	1056.69
260.314	1165.69
260.547	1165.69
260.779	1055.69
261.012	985.69
261.244	933.69
261.477	917.69
261.71	907.69
261.942	952.69
262.175	991.69
262.407	948.69
262.64	905.69
262.872	852.69
263.105	881.69
263.337	875.69
263.57	847.69
263.802	886.69
264.035	865.69
264.267	857.69
264.499	887.69
264.732	889.69
264.964	862.69
265.197	890.69
265.429	881.69
265.661	887.69
265.894	893.69
266.126	894.69
266.358	894.69
266.591	930.69
266.823	961.69
267.055	991.69
267.287	974.69
267.52	973.69
267.752	965.69
267.984	972.69
268.216	961.69
268.448	1018.69
268.681	1039.69
268.913	1102.69
269.145	1205.69
269.377	1283.69
269.609	1277.69
269.841	1236.69
270.073	1268.69
270.306	1425.69
270.538	1567.69
270.77	1522.69
271.002	1407.69
271.234	1355.69
271.466	1410.69
271.698	1499.69
271.93	1521.69
272.162	1515.69
272.394	1487.69
272.626	1403.69
272.858	1293.69
273.09	1203.69
273.322	1170.69
273.553	1155.69
273.785	1159.69
274.017	1149.69
274.249	1136.69
274.481	1173.69
274.713	1131.69
274.945	1177.69
275.176	1160.69
275.408	1136.69
275.64	1165.69
275.872	1152.69
276.104	1152.69
276.335	1163.69
276.567	1229.69
276.799	1347.69
277.031	1482.69
277.262	1553.69
277.494	1509.69
277.726	1377.69
277.957	1290.69
278.189	1249.69
278.421	1195.69
278.652	1165.69
278.884	1196.69
279.115	1194.69
279.347	1175.69
279.579	1193.69
279.81	1214.69
280.042	1195.69
280.273	1202.69
280.505	1200.69
280.736	1178.69
280.968	1186.69
281.199	1165.69
281.431	1189.69
281.662	1207.69
281.894	1213.69
282.125	1212.69
282.356	1317.69
282.588	1364.69
282.819	1363.69
283.051	1233.69
283.282	1191.69
283.513	1260.69
283.745	1267.69
283.976	1299.69
284.207	1256.69
284.439	1251.69
284.67	1198.69
284.901	1260.69
285.132	1230.69
285.364	1257.69
285.595	1244.69
285.826	1241.69
286.057	1231.69
286.288	1239.69
286.52	1296.69
286.751	1239.69
286.982	1264.69
287.213	1282.69
287.444	1285.69
287.675	1318.69
287.906	1371.69
288.138	1393.69
288.369	1369.69
288.6	1362.69
288.831	1333.69
289.062	1325.69
289.293	1312.69
289.524	1337.69
289.755	1303.69
289.986	1280.69
290.217	1291.69
290.448	1271.69
290.679	1281.69
290.91	1295.69
291.141	1283.69
291.371	1267.69
291.602	1246.69
291.833	1262.69
292.064	1290.69
292.295	1271.69
292.526	1291.69
292.757	1303.69
292.987	1292.69
293.218	1292.69
293.449	1289.69
293.68	1303.69
293.91	1307.69
294.141	1288.69
294.372	1311.69
294.603	1300.69
294.833	1285.69
295.064	1300.69
295.295	1308.69
295.525	1332.69
295.756	1321.69
295.987	1362.69
296.217	1465.69
296.448	1529.69
296.679	1379.69
296.909	1334.69
297.14	1333.69
297.37	1362.69
297.601	1360.69
297.831	1348.69
298.062	1378.69
298.292	1404.69
298.523	1431.69
298.753	1432.69
298.984	1361.69
299.214	1425.69
299.445	1388.69
299.675	1431.69
299.905	1415.69
300.136	1407.69
300.366	1365.69
300.597	1426.69
300.827	1415.69
301.057	1489.69
301.288	1518.69
301.518	1488.69
301.748	1479.69
301.979	1525.69
302.209	1502.69
302.439	1555.69
302.669	1524.69
302.9	1509.69
303.13	1476.69
303.36	1486.69
303.59	1532.69
303.82	1544.69
304.051	1529.69
304.281	1467.69
304.511	1452.69
304.741	1435.69
304.971	1478.69
305.201	1451.69
305.431	1471.69
305.661	1467.69
305.891	1445.69
306.121	1483.69
306.352	1502.69
306.582	1491.69
306.812	1475.69
307.042	1452.69
307.272	1467.69
307.502	1475.69
307.731	1472.69
307.961	1458.69
308.191	1408.69
308.421	1455.69
308.651	1462.69
308.881	1552.69
309.111	1496.69
309.341	1499.69
309.571	1573.69
309.8	1614.69
310.03	1710.69
310.26	1742.69
310.49	1722.69
310.72	1825.69
310.949	1898.69
311.179	1875.69
311.409	1747.69
311.639	1728.69
311.868	1714.69
312.098	1673.69
312.328	1760.69
312.557	1858.69
312.787	2003.69
313.017	1906.69
313.246	1787.69
313.476	1715.69
313.706	1699.69
313.935	1788.69
314.165	1891.69
314.394	1931.69
314.624	1856.69
314.853	1759.69
315.083	1781.69
315.312	1705.69
315.542	1696.69
315.771	1640.69
316.001	1648.69
316.23	1665.69
316.46	1682.69
316.689	1697.69
316.919	1737.69
317.148	1751.69
317.377	1771.69
317.607	1784.69
317.836	1748.69
318.065	1687.69
318.295	1671.69
318.524	1647.69
318.753	1644.69
318.983	1635.69
319.212	1665.69
319.441	1676.69
319.67	1721.69
319.9	1675.69
320.129	1642.69
320.358	1655.69
320.587	1664.69
320.816	1728.69
321.046	1756.69
321.275	1756.69
321.504	1764.69
321.733	1751.69
321.962	1739.69
322.191	1869.69
322.42	1912.69
322.649	1979.69
322.878	2034.69
323.108	2063.69
323.337	2239.69
323.566	2279.69
323.795	2425.69
324.024	2652.69
324.253	3262.69
324.482	4887.69
324.71	7303.69
324.939	9602.69
325.168	7397.69
325.397	3661.69
325.626	2527.69
325.855	2251.69
326.084	2205.69
326.313	2158.69
326.542	2270.69
326.77	2498.69
326.999	3012.69
327.228	4211.69
327.457	6250.69
327.686	6914.69
327.914	4300.69
328.143	3019.69
328.372	2765.69
328.6	2685.69
328.829	2614.69
329.058	2791.69
329.287	2862.69
329.515	2551.69
329.744	2245.69
329.972	2173.69
330.201	2207.69
330.43	2456.69
330.658	2787.69
330.887	3143.69
331.115	3017.69
331.344	2419.69
331.572	2315.69
331.801	2323.69
332.03	2287.69
332.258	2209.69
332.486	2105.69
332.715	2105.69
332.943	2146.69
333.172	2151.69
333.4	2182.69
333.629	2262.69
333.857	2248.69
334.085	2230.69
334.314	2141.69
334.542	2154.69
334.771	2172.69
334.999	2189.69
335.227	2188.69
335.455	2179.69
335.684	2091.69
335.912	2093.69
336.14	2060.69
336.369	2105.69
336.597	2148.69
336.825	2180.69
337.053	2061.69
337.281	2033.69
337.51	2030.69
337.738	2036.69
337.966	2057.69
338.194	2113.69
338.422	2061.69
338.65	2019.69
338.878	1969.69
339.106	1905.69
339.334	1924.69
339.562	1919.69
339.79	1898.69
340.018	1907.69
340.246	1963.69
340.474	2003.69
340.702	1949.69
340.93	1938.69
341.158	1873.69
341.386	1938.69
341.614	1984.69
341.842	1919.69
342.07	1915.69
342.298	1889.69
342.526	1893.69
342.754	1841.69
342.981	1780.69
343.209	1802.69
343.437	1846.69
343.665	1935.69
343.893	2000.69
344.12	2060.69
344.348	1983.69
344.576	1992.69
344.804	2019.69
345.031	2064.69
345.259	2073.69
345.487	1978.69
345.714	1905.69
345.942	1835.69
346.17	1813.69
346.397	1824.69
346.625	1828.69
346.853	1729.69
347.08	1811.69
347.308	1805.69
347.535	1860.69
347.763	1938.69
347.99	1879.69
348.218	1913.69
348.445	1911.69
348.673	1935.69
348.9	1816.69
349.128	1742.69
349.355	1729.69
349.583	1736.69
349.81	1695.69
350.037	1696.69
350.265	1711.69
350.492	1700.69
350.72	1708.69
350.947	1732.69
351.174	1832.69
351.402	1877.69
351.629	1849.69
351.856	1841.69
352.083	1868.69
352.311	1915.69
352.538	1951.69
352.765	1955.69
352.992	1831.69
353.22	1793.69
353.447	1785.69
353.674	1725.69
353.901	1673.69
354.128	1647.69
354.355	1650.69
354.583	1642.69
354.81	1632.69
355.037	1630.69
355.264	1619.69
355.491	1585.69
355.718	1589.69
355.945	1616.69
356.172	1625.69
356.399	1577.69
356.626	1581.69
356.853	1630.69
357.08	1568.69
357.307	1575.69
357.534	1601.69
357.761	1611.69
357.988	1592.69
358.215	1616.69
358.441	1637.69
358.668	1620.69
358.895	1607.69
359.122	1652.69
359.349	1742.69
359.576	1809.69
359.802	1962.69
360.029	2143.69
360.256	2176.69
360.483	2037.69
360.709	1816.69
360.936	1775.69
361.163	1810.69
361.39	1798.69
361.616	1824.69
361.843	1761.69
362.07	1732.69
362.296	1814.69
362.523	1767.69
362.749	1744.69
362.976	1727.69
363.203	1707.69
363.429	1670.69
363.656	1689.69
363.882	1649.69
364.109	1603.69
364.335	1593.69
364.562	1628.69
364.788	1655.69
365.015	1630.69
365.241	1671.69
365.468	1682.69
365.694	1712.69
365.92	1739.69
366.147	1645.69
366.373	1670.69
366.599	1617.69
366.826	1608.69
367.052	1604.69
367.278	1597.69
367.505	1646.69
367.731	1631.69
367.957	1618.69
368.184	1652.69
368.41	1720.69
368.636	1757.69
368.862	1758.69
369.089	1667.69
369.315	1649.69
369.541	1643.69
369.767	1612.69
369.993	1620.69
370.219	1668.69
370.445	1637.69
370.672	1660.69
370.898	1595.69
371.124	1623.69
371.35	1657.69
371.576	1638.69
371.802	1609.69
372.028	1591.69
372.254	1587.69
372.48	1631.69
372.706	1666.69
372.932	1660.69
373.158	1693.69
373.384	1643.69
373.61	1641.69
373.835	1646.69
374.061	1659.69
374.287	1710.69
374.513	1695.69
374.739	1714.69
374.965	1723.69
375.191	1729.69
375.416	1718.69
375.642	1695.69
375.868	1684.69
376.094	1665.69
376.319	1673.69
376.545	1658.69
376.771	1653.69
376.997	1633.69
377.222	1642.69
377.448	1643.69
377.674	1612.69
377.899	1627.69
378.125	1610.69
378.35	1591.69
378.576	1647.69
378.802	1578.69
379.027	1645.69
379.253	1632.69
379.478	1618.69
379.704	1614.69
379.929	1630.69
380.155	1637.69
380.38	1663.69
380.606	1634.69
380.831	1628.69
381.057	1630.69
381.282	1626.69
381.507	1626.69
381.733	1647.69
381.958	1661.69
382.184	1671.69
382.409	1663.69
382.634	1660.69
382.86	1701.69
383.085	1682.69
383.31	1724.69
383.535	1746.69
383.761	1741.69
383.986	1779.69
384.211	1765.69
384.436	1806.69
384.662	1763.69
384.887	1833.69
385.112	1804.69
385.337	1852.69
385.562	1838.69
385.787	1848.69
386.013	1869.69
386.238	1945.69
386.463	1914.69
386.688	1854.69
386.913	1802.69
387.138	1867.69
387.363	1817.69
387.588	1855.69
387.813	1828.69
388.038	1821.69
388.263	1836.69
388.488	1858.69
388.713	1834.69
388.938	1848.69
389.163	1845.69
389.387	1857.69
389.612	1780.69
389.837	1771.69
390.062	1784.69
390.287	1825.69
390.512	1803.69
390.736	1815.69
390.961	1834.69
391.186	1861.69
391.411	1879.69
391.636	1923.69
391.86	1999.69
392.085	1988.69
392.31	1954.69
392.534	1951.69
392.759	1914.69
392.984	1935.69
393.208	1955.69
393.433	1990.69
393.658	2007.69
393.882	1897.69
394.107	1870.69
394.331	1881.69
394.556	1880.69
394.78	1856.69
395.005	1888.69
395.229	1931.69
395.454	1959.69
395.678	1950.69
395.903	2008.69
396.127	2063.69
396.352	2032.69
396.576	1976.69
396.801	1994.69
397.025	2050.69
397.249	2011.69
397.474	2024.69
397.698	2031.69
397.922	2065.69
398.147	2146.69
398.371	2139.69
398.595	2138.69
398.82	2176.69
399.044	2296.69
399.268	2434.69
399.492	2703.69
399.717	2862.69
399.941	2963.69
400.165	2911.69
400.389	2804.69
400.613	2522.69
400.837	2322.69
401.062	2323.69
401.286	2222.69
401.51	2216.69
401.734	2219.69
401.958	2249.69
402.182	2274.69
402.406	2354.69
402.63	2380.69
402.854	2387.69
403.078	2415.69
403.302	2405.69
403.526	2474.69
403.75	2383.69
403.974	2417.69
404.198	2414.69
404.422	2472.69
404.645	2436.69
404.869	2447.69
405.093	2464.69
405.317	2562.69
405.541	2623.69
405.765	2489.69
405.988	2485.69
406.212	2583.69
406.436	2700.69
406.66	2773.69
406.883	2659.69
407.107	2743.69
407.331	2973.69
407.555	3259.69
407.778	3223.69
408.002	2941.69
408.226	2708.69
408.449	2611.69
408.673	2599.69
408.896	2676.69
409.12	2807.69
409.344	2644.69
409.567	2471.69
409.791	2386.69
410.014	2341.69
410.238	2311.69
410.461	2361.69
410.685	2404.69
410.908	2399.69
411.132	2550.69
411.355	2607.69
411.578	2476.69
411.802	2356.69
412.025	2267.69
412.249	2330.69
412.472	2285.69
412.695	2264.69
412.919	2212.69
413.142	2196.69
413.365	2192.69
413.589	2189.69
413.812	2176.69
414.035	2151.69
414.258	2132.69
414.482	2127.69
414.705	2176.69
414.928	2147.69
415.151	2155.69
415.374	2143.69
415.597	2166.69
415.821	2171.69
416.044	2172.69
416.267	2176.69
416.49	2183.69
416.713	2129.69
416.936	2145.69
417.159	2177.69
417.382	2245.69
417.605	2238.69
417.828	2284.69
418.051	2400.69
418.274	2270.69
418.497	2205.69
418.72	2244.69
418.943	2225.69
419.166	2314.69
419.389	2391.69
419.611	2411.69
419.834	2372.69
420.057	2389.69
420.28	2286.69
420.503	2260.69
420.726	2218.69
420.948	2377.69
421.171	2547.69
421.394	2614.69
421.617	2342.69
421.839	2241.69
422.062	2309.69
422.285	2366.69
422.507	2631.69
422.73	2920.69
422.953	2781.69
423.175	2491.69
423.398	2459.69
423.621	2479.69
423.843	2620.69
424.066	2591.69
424.288	2501.69
424.511	2615.69
424.733	2834.69
424.956	3173.69
425.178	2992.69
425.401	3020.69
425.623	3024.69
425.846	2600.69
426.068	2473.69
426.291	2437.69
426.513	2463.69
426.735	2504.69
426.958	2673.69
427.18	3117.69
427.402	3587.69
427.625	3939.69
427.847	3425.69
428.069	2762.69
428.292	2471.69
428.514	2288.69
428.736	2252.69
428.958	2257.69
429.181	2163.69
429.403	2175.69
429.625	2240.69
429.847	2429.69
430.069	2698.69
430.292	2593.69
430.514	2306.69
430.736	2199.69
430.958	2175.69
431.18	2122.69
431.402	2081.69
431.624	2052.69
431.846	2095.69
432.068	2098.69
432.29	2093.69
432.512	2118.69
432.734	2155.69
432.956	2119.69
433.178	2145.69
433.4	2174.69
433.622	2095.69
433.844	2121.69
434.066	2133.69
434.287	2075.69
434.509	2113.69
434.731	2239.69
434.953	2289.69
435.175	2391.69
435.397	2521.69
435.618	2500.69
435.84	2624.69
436.062	3007.69
436.284	3216.69
436.505	2623.69
436.727	2459.69
436.949	2275.69
437.17	2228.69
437.392	2197.69
437.614	2285.69
437.835	2505.69
438.057	2954.69
438.278	3296.69
438.5	3237.69
438.721	3524.69
438.943	3213.69
439.165	2640.69
439.386	2532.69
439.608	2493.69
439.829	2551.69
440.05	2689.69
440.272	2884.69
440.493	2660.69
440.715	2415.69
440.936	2355.69
441.158	2266.69
441.379	2312.69
441.6	2421.69
441.822	2566.69
442.043	2811.69
442.264	3154.69
442.486	3133.69
442.707	2667.69
442.928	2569.69
443.149	2692.69
443.371	2856.69
443.592	2979.69
443.813	3355.69
444.034	3380.69
444.255	2886.69
444.476	2638.69
444.698	2609.69
444.919	2652.69
445.14	2799.69
445.361	2740.69
445.582	2872.69
445.803	3235.69
446.024	3607.69
446.245	3421.69
446.466	3061.69
446.687	2613.69
446.908	2401.69
447.129	2305.69
447.35	2223.69
447.571	2203.69
447.792	2184.69
448.013	2181.69
448.234	2292.69
448.455	2572.69
448.675	3053.69
448.896	3300.69
449.117	2804.69
449.338	2736.69
449.559	3302.69
449.779	3561.69
450	2706.69
450.221	2361.69
450.442	2216.69
450.662	2173.69
450.883	2279.69
451.104	2367.69
451.324	2291.69
451.545	2083.69
451.766	2033.69
451.986	1934.69
452.207	1948.69
452.428	1935.69
452.648	1974.69
452.869	2012.69
453.089	2083.69
453.31	2107.69
453.53	2039.69
453.751	1914.69
453.971	1985.69
454.192	2119.69
454.412	2011.69
454.633	1907.69
454.853	1887.69
455.073	1885.69
455.294	2075.69
455.514	2392.69
455.734	2260.69
455.955	1862.69
456.175	1784.69
456.395	1775.69
456.616	1751.69
456.836	1749.69
457.056	1685.69
457.276	1701.69
457.497	1808.69
457.717	1789.69
457.937	1819.69
458.157	1862.69
458.377	1937.69
458.598	2063.69
458.818	2482.69
459.038	2959.69
459.258	2873.69
459.478	2359.69
459.698	2137.69
459.918	2051.69
460.138	2113.69
460.358	2105.69
460.578	2103.69
460.798	2136.69
461.018	2204.69
461.238	2114.69
461.458	2097.69
461.678	2085.69
461.898	2124.69
462.118	2159.69
462.338	2232.69
462.558	2250.69
462.777	2320.69
462.997	2445.69
463.217	2487.69
463.437	2555.69
463.657	2387.69
463.876	2380.69
464.096	2380.69
464.316	2335.69
464.536	2433.69
464.755	2403.69
464.975	2421.69
465.195	2735.69
465.414	3135.69
465.634	2478.69
465.854	2247.69
466.073	2105.69
466.293	2006.69
466.512	1973.69
466.732	1892.69
466.951	1936.69
467.171	1919.69
467.391	1938.69
467.61	2065.69
467.829	2039.69
468.049	1961.69
468.268	1888.69
468.488	1843.69
468.707	1847.69
468.927	1862.69
469.146	1836.69
469.365	1875.69
469.585	1870.69
469.804	1986.69
470.023	2081.69
470.243	2017.69
470.462	2109.69
470.681	2184.69
470.901	2121.69
471.12	2059.69
471.339	2013.69
471.558	2029.69
471.777	2021.69
471.997	1863.69
472.216	1876.69
472.435	1832.69
472.654	1808.69
472.873	1847.69
473.092	1845.69
473.311	1855.69
473.53	1888.69
473.749	1939.69
473.968	2202.69
474.187	2686.69
474.406	2606.69
474.625	2145.69
474.844	1948.69
475.063	1890.69
475.282	1895.69
475.501	1919.69
475.72	1973.69
475.939	1973.69
476.158	1988.69
476.377	1982.69
476.596	1947.69
476.814	2023.69
477.033	2038.69
477.252	2074.69
477.471	1997.69
477.69	2126.69
477.908	2134.69
478.127	2148.69
478.346	2151.69
478.564	2182.69
478.783	2201.69
479.002	2256.69
479.22	2309.69
479.439	2401.69
479.658	2529.69
479.876	2502.69
480.095	2539.69
480.313	2673.69
480.532	2581.69
480.751	2494.69
480.969	2559.69
481.188	2489.69
481.406	2409.69
481.624	2305.69
481.843	2266.69
482.061	2226.69
482.28	2231.69
482.498	2242.69
482.717	2206.69
482.935	2204.69
483.153	2220.69
483.372	2228.69
483.59	2210.69
483.808	2196.69
484.027	2240.69
484.245	2239.69
484.463	2292.69
484.681	2312.69
484.9	2266.69
485.118	2295.69
485.336	2304.69
485.554	2324.69
485.772	2364.69
485.99	2326.69
486.209	2357.69
486.427	2415.69
486.645	2477.69
486.863	2612.69
487.081	2503.69
487.299	2487.69
487.517	2410.69
487.735	2441.69
487.953	2393.69
488.171	2421.69
488.389	2397.69
488.607	2435.69
488.825	2452.69
489.043	2405.69
