Data from Fe(NO3)3@0.05M.TitratingCurve.Agarose3%dH2O.NegLispCup.LampEnergy10.LIBS07252019_HRD10591_16-46-31-334.txt Node
Date: Thu Jul 25 16:46:31 EDT 2019
User: cochatt
Spectrometer: HR+D1059
Trigger mode: 1
Integration Time (sec): 1.000000E-1
Scans to average: 1
Electric dark correction enabled: true
Nonlinearity correction enabled: false
Boxcar width: 0
XAxis mode: Wavelengths
Number of Pixels in Spectrum: 2048
>>>>>Begin Spectral Data<<<<<
223.165	-3.69
223.4	-3.69
223.635	-3.69
223.869	-13.69
224.104	-18.69
224.338	-11.69
224.573	-14.69
224.808	-14.69
225.042	-22.69
225.277	-9.69
225.511	-1.69
225.746	7.31
225.98	4.31
226.215	10.31
226.449	13.31
226.683	19.31
226.918	33.31
227.152	23.31
227.387	43.31
227.621	33.31
227.856	51.31
228.09	59.31
228.324	42.31
228.559	50.31
228.793	79.31
229.027	128.31
229.262	125.31
229.496	111.31
229.73	134.31
229.964	149.31
230.199	159.31
230.433	153.31
230.667	151.31
230.901	161.31
231.136	145.31
231.37	171.31
231.604	181.31
231.838	160.31
232.072	163.31
232.306	165.31
232.541	170.31
232.775	153.31
233.009	162.31
233.243	165.31
233.477	181.31
233.711	189.31
233.945	198.31
234.179	180.31
234.413	181.31
234.647	190.31
234.881	221.31
235.115	206.31
235.349	201.31
235.583	186.31
235.817	183.31
236.051	195.31
236.285	200.31
236.519	203.31
236.753	204.31
236.987	192.31
237.221	185.31
237.455	213.31
237.689	209.31
237.922	214.31
238.156	211.31
238.39	229.31
238.624	264.31
238.858	235.31
239.091	224.31
239.325	227.31
239.559	231.31
239.793	247.31
240.027	265.31
240.26	249.31
240.494	234.31
240.728	233.31
240.961	265.31
241.195	270.31
241.429	255.31
241.662	250.31
241.896	246.31
242.13	235.31
242.363	249.31
242.597	237.31
242.83	249.31
243.064	257.31
243.298	273.31
243.531	265.31
243.765	261.31
243.998	270.31
244.232	275.31
244.465	261.31
244.699	277.31
244.932	267.31
245.166	271.31
245.399	297.31
245.633	282.31
245.866	289.31
246.099	285.31
246.333	284.31
246.566	293.31
246.8	290.31
247.033	290.31
247.266	295.31
247.5	298.31
247.733	313.31
247.966	293.31
248.2	301.31
248.433	323.31
248.666	305.31
248.899	311.31
249.133	322.31
249.366	351.31
249.599	355.31
249.832	354.31
250.066	338.31
250.299	341.31
250.532	339.31
250.765	307.31
250.998	345.31
251.231	314.31
251.465	323.31
251.698	341.31
251.931	350.31
252.164	339.31
252.397	354.31
252.63	362.31
252.863	376.31
253.096	380.31
253.329	377.31
253.562	378.31
253.795	395.31
254.028	400.31
254.261	411.31
254.494	377.31
254.727	386.31
254.96	386.31
255.193	383.31
255.426	366.31
255.659	365.31
255.892	376.31
256.124	374.31
256.357	398.31
256.59	396.31
256.823	401.31
257.056	373.31
257.289	398.31
257.521	391.31
257.754	372.31
257.987	410.31
258.22	402.31
258.452	402.31
258.685	418.31
258.918	427.31
259.151	434.31
259.383	427.31
259.616	429.31
259.849	449.31
260.081	486.31
260.314	559.31
260.547	477.31
260.779	458.31
261.012	450.31
261.244	464.31
261.477	473.31
261.71	487.31
261.942	468.31
262.175	454.31
262.407	455.31
262.64	451.31
262.872	475.31
263.105	490.31
263.337	524.31
263.57	517.31
263.802	475.31
264.035	440.31
264.267	465.31
264.499	431.31
264.732	460.31
264.964	414.31
265.197	466.31
265.429	455.31
265.661	454.31
265.894	456.31
266.126	450.31
266.358	455.31
266.591	459.31
266.823	483.31
267.055	472.31
267.287	485.31
267.52	463.31
267.752	452.31
267.984	475.31
268.216	497.31
268.448	468.31
268.681	477.31
268.913	478.31
269.145	487.31
269.377	490.31
269.609	518.31
269.841	509.31
270.073	487.31
270.306	481.31
270.538	482.31
270.77	535.31
271.002	527.31
271.234	518.31
271.466	528.31
271.698	544.31
271.93	529.31
272.162	531.31
272.394	526.31
272.626	494.31
272.858	531.31
273.09	559.31
273.322	541.31
273.553	537.31
273.785	578.31
274.017	612.31
274.249	617.31
274.481	645.31
274.713	635.31
274.945	700.31
275.176	709.31
275.408	650.31
275.64	654.31
275.872	663.31
276.104	619.31
276.335	565.31
276.567	557.31
276.799	592.31
277.031	590.31
277.262	603.31
277.494	563.31
277.726	580.31
277.957	571.31
278.189	564.31
278.421	575.31
278.652	575.31
278.884	588.31
279.115	583.31
279.347	595.31
279.579	598.31
279.81	589.31
280.042	585.31
280.273	607.31
280.505	585.31
280.736	571.31
280.968	597.31
281.199	616.31
281.431	617.31
281.662	584.31
281.894	601.31
282.125	604.31
282.356	602.31
282.588	598.31
282.819	616.31
283.051	615.31
283.282	627.31
283.513	636.31
283.745	620.31
283.976	616.31
284.207	628.31
284.439	629.31
284.67	643.31
284.901	648.31
285.132	646.31
285.364	654.31
285.595	638.31
285.826	638.31
286.057	667.31
286.288	634.31
286.52	649.31
286.751	641.31
286.982	667.31
287.213	647.31
287.444	655.31
287.675	678.31
287.906	667.31
288.138	663.31
288.369	639.31
288.6	671.31
288.831	654.31
289.062	663.31
289.293	657.31
289.524	660.31
289.755	672.31
289.986	650.31
290.217	644.31
290.448	655.31
290.679	673.31
290.91	692.31
291.141	674.31
291.371	681.31
291.602	694.31
291.833	679.31
292.064	669.31
292.295	685.31
292.526	669.31
292.757	671.31
292.987	667.31
293.218	692.31
293.449	687.31
293.68	711.31
293.91	694.31
294.141	659.31
294.372	661.31
294.603	703.31
294.833	719.31
295.064	702.31
295.295	700.31
295.525	672.31
295.756	716.31
295.987	716.31
296.217	700.31
296.448	686.31
296.679	727.31
296.909	720.31
297.14	720.31
297.37	710.31
297.601	709.31
297.831	734.31
298.062	705.31
298.292	723.31
298.523	732.31
298.753	755.31
298.984	716.31
299.214	723.31
299.445	719.31
299.675	711.31
299.905	730.31
300.136	730.31
300.366	747.31
300.597	726.31
300.827	751.31
301.057	768.31
301.288	751.31
301.518	760.31
301.748	753.31
301.979	765.31
302.209	742.31
302.439	790.31
302.669	787.31
302.9	802.31
303.13	754.31
303.36	790.31
303.59	773.31
303.82	799.31
304.051	793.31
304.281	787.31
304.511	751.31
304.741	779.31
304.971	793.31
305.201	771.31
305.431	783.31
305.661	787.31
305.891	801.31
306.121	801.31
306.352	776.31
306.582	758.31
306.812	754.31
307.042	786.31
307.272	767.31
307.502	783.31
307.731	795.31
307.961	803.31
308.191	774.31
308.421	796.31
308.651	765.31
308.881	780.31
309.111	796.31
309.341	796.31
309.571	789.31
309.8	775.31
310.03	785.31
310.26	778.31
310.49	764.31
310.72	793.31
310.949	797.31
311.179	800.31
311.409	822.31
311.639	799.31
311.868	825.31
312.098	826.31
312.328	824.31
312.557	860.31
312.787	842.31
313.017	798.31
313.246	795.31
313.476	850.31
313.706	841.31
313.935	843.31
314.165	834.31
314.394	834.31
314.624	836.31
314.853	827.31
315.083	851.31
315.312	823.31
315.542	860.31
315.771	840.31
316.001	841.31
316.23	849.31
316.46	855.31
316.689	851.31
316.919	876.31
317.148	861.31
317.377	834.31
317.607	844.31
317.836	856.31
318.065	847.31
318.295	855.31
318.524	879.31
318.753	860.31
318.983	867.31
319.212	845.31
319.441	883.31
319.67	866.31
319.9	868.31
320.129	858.31
320.358	892.31
320.587	867.31
320.816	873.31
321.046	898.31
321.275	876.31
321.504	897.31
321.733	867.31
321.962	875.31
322.191	882.31
322.42	896.31
322.649	873.31
322.878	876.31
323.108	859.31
323.337	888.31
323.566	903.31
323.795	899.31
324.024	927.31
324.253	888.31
324.482	873.31
324.71	917.31
324.939	905.31
325.168	917.31
325.397	925.31
325.626	901.31
325.855	924.31
326.084	929.31
326.313	907.31
326.542	933.31
326.77	923.31
326.999	891.31
327.228	942.31
327.457	925.31
327.686	924.31
327.914	927.31
328.143	920.31
328.372	903.31
328.6	926.31
328.829	936.31
329.058	955.31
329.287	947.31
329.515	929.31
329.744	959.31
329.972	952.31
330.201	949.31
330.43	955.31
330.658	974.31
330.887	972.31
331.115	987.31
331.344	1001.31
331.572	981.31
331.801	1003.31
332.03	1009.31
332.258	1013.31
332.486	1011.31
332.715	1022.31
332.943	1049.31
333.172	1053.31
333.4	1031.31
333.629	1062.31
333.857	1073.31
334.085	1109.31
334.314	1055.31
334.542	1081.31
334.771	1115.31
334.999	1127.31
335.227	1099.31
335.455	1091.31
335.684	1083.31
335.912	1106.31
336.14	1105.31
336.369	1093.31
336.597	1065.31
336.825	1121.31
337.053	1106.31
337.281	1087.31
337.51	1069.31
337.738	1092.31
337.966	1043.31
338.194	1071.31
338.422	1023.31
338.65	1029.31
338.878	1016.31
339.106	1034.31
339.334	1032.31
339.562	1039.31
339.79	1007.31
340.018	1029.31
340.246	1038.31
340.474	1013.31
340.702	1022.31
340.93	1003.31
341.158	1002.31
341.386	1000.31
341.614	1020.31
341.842	1010.31
342.07	988.31
342.298	1020.31
342.526	1028.31
342.754	1018.31
342.981	1027.31
343.209	1007.31
343.437	1033.31
343.665	1052.31
343.893	1053.31
344.12	1117.31
344.348	1108.31
344.576	1079.31
344.804	1058.31
345.031	1070.31
345.259	1059.31
345.487	1026.31
345.714	1029.31
345.942	1002.31
346.17	1011.31
346.397	988.31
346.625	975.31
346.853	973.31
347.08	964.31
347.308	985.31
347.535	988.31
347.763	964.31
347.99	968.31
348.218	972.31
348.445	997.31
348.673	986.31
348.9	988.31
349.128	954.31
349.355	963.31
349.583	965.31
349.81	983.31
350.037	959.31
350.265	970.31
350.492	957.31
350.72	954.31
350.947	943.31
351.174	959.31
351.402	957.31
351.629	954.31
351.856	940.31
352.083	938.31
352.311	950.31
352.538	933.31
352.765	973.31
352.992	973.31
353.22	949.31
353.447	951.31
353.674	938.31
353.901	953.31
354.128	963.31
354.355	932.31
354.583	945.31
354.81	949.31
355.037	933.31
355.264	962.31
355.491	980.31
355.718	955.31
355.945	973.31
356.172	984.31
356.399	967.31
356.626	971.31
356.853	972.31
357.08	993.31
357.307	1005.31
357.534	975.31
357.761	979.31
357.988	970.31
358.215	1002.31
358.441	1040.31
358.668	966.31
358.895	998.31
359.122	953.31
359.349	968.31
359.576	957.31
359.802	977.31
360.029	961.31
360.256	963.31
360.483	994.31
360.709	982.31
360.936	984.31
361.163	961.31
361.39	979.31
361.616	970.31
361.843	977.31
362.07	979.31
362.296	999.31
362.523	965.31
362.749	970.31
362.976	986.31
363.203	989.31
363.429	988.31
363.656	981.31
363.882	975.31
364.109	966.31
364.335	986.31
364.562	966.31
364.788	995.31
365.015	1033.31
365.241	978.31
365.468	983.31
365.694	1011.31
365.92	1000.31
366.147	980.31
366.373	989.31
366.599	998.31
366.826	975.31
367.052	961.31
367.278	999.31
367.505	1019.31
367.731	987.31
367.957	1007.31
368.184	1003.31
368.41	991.31
368.636	1012.31
368.862	1008.31
369.089	1019.31
369.315	1050.31
369.541	999.31
369.767	1021.31
369.993	1037.31
370.219	1033.31
370.445	1025.31
370.672	1026.31
370.898	1082.31
371.124	1071.31
371.35	1064.31
371.576	1059.31
371.802	1066.31
372.028	1091.31
372.254	1121.31
372.48	1095.31
372.706	1081.31
372.932	1113.31
373.158	1085.31
373.384	1111.31
373.61	1147.31
373.835	1132.31
374.061	1111.31
374.287	1106.31
374.513	1100.31
374.739	1131.31
374.965	1144.31
375.191	1173.31
375.416	1145.31
375.642	1127.31
375.868	1122.31
376.094	1137.31
376.319	1094.31
376.545	1125.31
376.771	1093.31
376.997	1080.31
377.222	1059.31
377.448	1049.31
377.674	1054.31
377.899	1082.31
378.125	1077.31
378.35	1073.31
378.576	1083.31
378.802	1053.31
379.027	1033.31
379.253	1089.31
379.478	1071.31
379.704	1102.31
379.929	1087.31
380.155	1069.31
380.38	1091.31
380.606	1100.31
380.831	1084.31
381.057	1136.31
381.282	1091.31
381.507	1093.31
381.733	1113.31
381.958	1122.31
382.184	1178.31
382.409	1165.31
382.634	1150.31
382.86	1178.31
383.085	1156.31
383.31	1170.31
383.535	1171.31
383.761	1200.31
383.986	1162.31
384.211	1177.31
384.436	1177.31
384.662	1181.31
384.887	1204.31
385.112	1202.31
385.337	1218.31
385.562	1237.31
385.787	1244.31
386.013	1262.31
386.238	1263.31
386.463	1269.31
386.688	1270.31
386.913	1255.31
387.138	1248.31
387.363	1249.31
387.588	1278.31
387.813	1271.31
388.038	1283.31
388.263	1287.31
388.488	1290.31
388.713	1251.31
388.938	1300.31
389.163	1318.31
389.387	1297.31
389.612	1273.31
389.837	1296.31
390.062	1279.31
390.287	1310.31
390.512	1271.31
390.736	1306.31
390.961	1321.31
391.186	1323.31
391.411	1346.31
391.636	1348.31
391.86	1363.31
392.085	1351.31
392.31	1361.31
392.534	1346.31
392.759	1369.31
392.984	1365.31
393.208	1377.31
393.433	1359.31
393.658	1343.31
393.882	1346.31
394.107	1340.31
394.331	1331.31
394.556	1329.31
394.78	1347.31
395.005	1360.31
395.229	1396.31
395.454	1413.31
395.678	1417.31
395.903	1374.31
396.127	1406.31
396.352	1382.31
396.576	1384.31
396.801	1395.31
397.025	1437.31
397.249	1427.31
397.474	1444.31
397.698	1458.31
397.922	1478.31
398.147	1482.31
398.371	1493.31
398.595	1546.31
398.82	1561.31
399.044	1611.31
399.268	1644.31
399.492	1736.31
399.717	1768.31
399.941	1834.31
400.165	1819.31
400.389	1769.31
400.613	1726.31
400.837	1641.31
401.062	1650.31
401.286	1606.31
401.51	1568.31
401.734	1568.31
401.958	1588.31
402.182	1547.31
402.406	1573.31
402.63	1596.31
402.854	1580.31
403.078	1569.31
403.302	1612.31
403.526	1592.31
403.75	1591.31
403.974	1609.31
404.198	1544.31
404.422	1599.31
404.645	1629.31
404.869	1610.31
405.093	1623.31
405.317	1582.31
405.541	1601.31
405.765	1609.31
405.988	1619.31
406.212	1651.31
406.436	1688.31
406.66	1686.31
406.883	1685.31
407.107	1762.31
407.331	1758.31
407.555	1808.31
407.778	1805.31
408.002	1754.31
408.226	1807.31
408.449	1849.31
408.673	1781.31
408.896	1737.31
409.12	1654.31
409.344	1701.31
409.567	1675.31
409.791	1659.31
410.014	1665.31
410.238	1650.31
410.461	1656.31
410.685	1668.31
410.908	1649.31
411.132	1641.31
411.355	1617.31
411.578	1612.31
411.802	1585.31
412.025	1614.31
412.249	1591.31
412.472	1627.31
412.695	1609.31
412.919	1578.31
413.142	1584.31
413.365	1571.31
413.589	1581.31
413.812	1549.31
414.035	1564.31
414.258	1581.31
414.482	1611.31
414.705	1519.31
414.928	1567.31
415.151	1585.31
415.374	1549.31
415.597	1533.31
415.821	1544.31
416.044	1497.31
416.267	1508.31
416.49	1531.31
416.713	1495.31
416.936	1537.31
417.159	1510.31
417.382	1486.31
417.605	1462.31
417.828	1486.31
418.051	1500.31
418.274	1519.31
418.497	1468.31
418.72	1511.31
418.943	1485.31
419.166	1582.31
419.389	1700.31
419.611	1637.31
419.834	1611.31
420.057	1537.31
420.28	1513.31
420.503	1457.31
420.726	1454.31
420.948	1444.31
421.171	1486.31
421.394	1465.31
421.617	1457.31
421.839	1474.31
422.062	1483.31
422.285	1477.31
422.507	1487.31
422.73	1470.31
422.953	1498.31
423.175	1482.31
423.398	1481.31
423.621	1434.31
423.843	1491.31
424.066	1472.31
424.288	1506.31
424.511	1495.31
424.733	1487.31
424.956	1483.31
425.178	1473.31
425.401	1479.31
425.623	1480.31
425.846	1484.31
426.068	1479.31
426.291	1454.31
426.513	1473.31
426.735	1449.31
426.958	1468.31
427.18	1456.31
427.402	1479.31
427.625	1447.31
427.847	1402.31
428.069	1395.31
428.292	1445.31
428.514	1427.31
428.736	1448.31
428.958	1425.31
429.181	1400.31
429.403	1391.31
429.625	1392.31
429.847	1425.31
430.069	1422.31
430.292	1402.31
430.514	1410.31
430.736	1414.31
430.958	1407.31
431.18	1437.31
431.402	1404.31
431.624	1439.31
431.846	1409.31
432.068	1384.31
432.29	1457.31
432.512	1429.31
432.734	1447.31
432.956	1445.31
433.178	1433.31
433.4	1410.31
433.622	1438.31
433.844	1486.31
434.066	1431.31
434.287	1434.31
434.509	1449.31
434.731	1481.31
434.953	1456.31
435.175	1469.31
435.397	1525.31
435.618	1457.31
435.84	1447.31
436.062	1414.31
436.284	1412.31
436.505	1415.31
436.727	1456.31
436.949	1397.31
437.17	1406.31
437.392	1431.31
437.614	1378.31
437.835	1382.31
438.057	1412.31
438.278	1365.31
438.5	1411.31
438.721	1388.31
438.943	1390.31
439.165	1353.31
439.386	1365.31
439.608	1395.31
439.829	1374.31
440.05	1436.31
440.272	1385.31
440.493	1421.31
440.715	1474.31
440.936	1458.31
441.158	1470.31
441.379	1441.31
441.6	1471.31
441.822	1470.31
442.043	1480.31
442.264	1494.31
442.486	1459.31
442.707	1463.31
442.928	1437.31
443.149	1460.31
443.371	1467.31
443.592	1473.31
443.813	1481.31
444.034	1484.31
444.255	1533.31
444.476	1543.31
444.698	1529.31
444.919	1525.31
445.14	1676.31
445.361	1569.31
445.582	1509.31
445.803	1454.31
446.024	1436.31
446.245	1443.31
446.466	1427.31
446.687	1389.31
446.908	1403.31
447.129	1381.31
447.35	1365.31
447.571	1410.31
447.792	1333.31
448.013	1351.31
448.234	1339.31
448.455	1318.31
448.675	1323.31
448.896	1346.31
449.117	1325.31
449.338	1310.31
449.559	1291.31
449.779	1307.31
450	1269.31
450.221	1304.31
450.442	1308.31
450.662	1277.31
450.883	1257.31
451.104	1306.31
451.324	1297.31
451.545	1294.31
451.766	1279.31
451.986	1251.31
452.207	1254.31
452.428	1270.31
452.648	1284.31
452.869	1242.31
453.089	1262.31
453.31	1263.31
453.53	1255.31
453.751	1221.31
453.971	1246.31
454.192	1253.31
454.412	1215.31
454.633	1252.31
454.853	1237.31
455.073	1241.31
455.294	1236.31
455.514	1286.31
455.734	1270.31
455.955	1235.31
456.175	1219.31
456.395	1210.31
456.616	1203.31
456.836	1253.31
457.056	1265.31
457.276	1237.31
457.497	1261.31
457.717	1275.31
457.937	1279.31
458.157	1298.31
458.377	1273.31
458.598	1349.31
458.818	1335.31
459.038	1367.31
459.258	1355.31
459.478	1389.31
459.698	1403.31
459.918	1443.31
460.138	1458.31
460.358	1518.31
460.578	1531.31
460.798	1547.31
461.018	1545.31
461.238	1532.31
461.458	1573.31
461.678	1523.31
461.898	1604.31
462.118	1571.31
462.338	1633.31
462.558	1642.31
462.777	1693.31
462.997	1697.31
463.217	1735.31
463.437	1720.31
463.657	1713.31
463.876	1707.31
464.096	1705.31
464.316	1684.31
464.536	1690.31
464.755	1617.31
464.975	1669.31
465.195	1575.31
465.414	1548.31
465.634	1488.31
465.854	1503.31
466.073	1470.31
466.293	1438.31
466.512	1416.31
466.732	1398.31
466.951	1401.31
467.171	1368.31
467.391	1379.31
467.61	1374.31
467.829	1348.31
468.049	1373.31
468.268	1353.31
468.488	1382.31
468.707	1352.31
468.927	1379.31
469.146	1385.31
469.365	1354.31
469.585	1305.31
469.804	1359.31
470.023	1374.31
470.243	1397.31
470.462	1393.31
470.681	1428.31
470.901	1404.31
471.12	1411.31
471.339	1371.31
471.558	1377.31
471.777	1379.31
471.997	1365.31
472.216	1385.31
472.435	1372.31
472.654	1381.31
472.873	1349.31
473.092	1362.31
473.311	1381.31
473.53	1366.31
473.749	1331.31
473.968	1353.31
474.187	1363.31
474.406	1355.31
474.625	1402.31
474.844	1347.31
475.063	1382.31
475.282	1376.31
475.501	1366.31
475.72	1441.31
475.939	1415.31
476.158	1456.31
476.377	1446.31
476.596	1446.31
476.814	1516.31
477.033	1467.31
477.252	1446.31
477.471	1504.31
477.69	1529.31
477.908	1508.31
478.127	1577.31
478.346	1560.31
478.564	1568.31
478.783	1580.31
479.002	1626.31
479.22	1637.31
479.439	1664.31
479.658	1675.31
479.876	1635.31
480.095	1622.31
480.313	1707.31
480.532	1691.31
480.751	1678.31
480.969	1659.31
481.188	1663.31
481.406	1652.31
481.624	1657.31
481.843	1587.31
482.061	1623.31
482.28	1626.31
482.498	1633.31
482.717	1614.31
482.935	1607.31
483.153	1642.31
483.372	1637.31
483.59	1622.31
483.808	1609.31
484.027	1589.31
484.245	1629.31
484.463	1650.31
484.681	1613.31
484.9	1636.31
485.118	1671.31
485.336	1626.31
485.554	1622.31
485.772	1645.31
485.99	1642.31
486.209	1659.31
486.427	1669.31
486.645	1667.31
486.863	1631.31
487.081	1697.31
487.299	1651.31
487.517	1669.31
487.735	1677.31
487.953	1674.31
488.171	1708.31
488.389	1677.31
488.607	1686.31
488.825	1692.31
489.043	1665.31
489.261	1643.31
489.479	1669.31
489.696	1657.31
489.914	1629.31
490.132	1666.31
490.35	1673.31
490.568	1667.31
490.786	1647.31
491.003	1679.31
491.221	1713.31
491.439	1719.31
491.657	1680.31
491.874	1713.31
492.092	1687.31
492.31	1767.31
492.527	1723.31
492.745	1736.31
492.963	1740.31
