Data from Fe(NO3)3@0.025M.TitratingCurve.Agarose3%dH2O.NegLispCup.LampEnergy10.LIBS07252019_HRD10591_16-56-20-336.txt Node
Date: Thu Jul 25 16:56:20 EDT 2019
User: cochatt
Spectrometer: HR+D1059
Trigger mode: 1
Integration Time (sec): 1.000000E-1
Scans to average: 1
Electric dark correction enabled: true
Nonlinearity correction enabled: false
Boxcar width: 0
XAxis mode: Wavelengths
Number of Pixels in Spectrum: 2048
>>>>>Begin Spectral Data<<<<<
223.165	-0.88
223.4	-0.88
223.635	-0.88
223.869	-18.88
224.104	-17.88
224.338	-4.88
224.573	-24.88
224.808	-20.88
225.042	-9.88
225.277	-4.88
225.511	0.12
225.746	9.12
225.98	18.12
226.215	4.12
226.449	4.12
226.683	15.12
226.918	16.12
227.152	36.12
227.387	40.12
227.621	31.12
227.856	31.12
228.09	39.12
228.324	37.12
228.559	45.12
228.793	49.12
229.027	64.12
229.262	77.12
229.496	81.12
229.73	90.12
229.964	82.12
230.199	90.12
230.433	92.12
230.667	82.12
230.901	93.12
231.136	97.12
231.37	97.12
231.604	104.12
231.838	96.12
232.072	109.12
232.306	96.12
232.541	100.12
232.775	115.12
233.009	96.12
233.243	108.12
233.477	89.12
233.711	104.12
233.945	110.12
234.179	122.12
234.413	101.12
234.647	81.12
234.881	104.12
235.115	100.12
235.349	101.12
235.583	98.12
235.817	96.12
236.051	101.12
236.285	98.12
236.519	112.12
236.753	92.12
236.987	106.12
237.221	104.12
237.455	113.12
237.689	117.12
237.922	104.12
238.156	104.12
238.39	108.12
238.624	111.12
238.858	113.12
239.091	120.12
239.325	109.12
239.559	127.12
239.793	107.12
240.027	114.12
240.26	110.12
240.494	92.12
240.728	118.12
240.961	113.12
241.195	117.12
241.429	109.12
241.662	102.12
241.896	119.12
242.13	111.12
242.363	107.12
242.597	108.12
242.83	124.12
243.064	124.12
243.298	139.12
243.531	129.12
243.765	121.12
243.998	120.12
244.232	111.12
244.465	115.12
244.699	119.12
244.932	112.12
245.166	124.12
245.399	115.12
245.633	127.12
245.866	123.12
246.099	131.12
246.333	123.12
246.566	120.12
246.8	131.12
247.033	122.12
247.266	129.12
247.5	135.12
247.733	133.12
247.966	140.12
248.2	139.12
248.433	127.12
248.666	111.12
248.899	121.12
249.133	129.12
249.366	109.12
249.599	143.12
249.832	121.12
250.066	128.12
250.299	132.12
250.532	128.12
250.765	138.12
250.998	131.12
251.231	121.12
251.465	143.12
251.698	140.12
251.931	145.12
252.164	124.12
252.397	147.12
252.63	137.12
252.863	142.12
253.096	158.12
253.329	147.12
253.562	128.12
253.795	139.12
254.028	145.12
254.261	137.12
254.494	139.12
254.727	159.12
254.96	125.12
255.193	133.12
255.426	145.12
255.659	142.12
255.892	143.12
256.124	145.12
256.357	147.12
256.59	146.12
256.823	159.12
257.056	163.12
257.289	149.12
257.521	144.12
257.754	152.12
257.987	159.12
258.22	154.12
258.452	153.12
258.685	151.12
258.918	156.12
259.151	149.12
259.383	159.12
259.616	163.12
259.849	176.12
260.081	155.12
260.314	177.12
260.547	156.12
260.779	149.12
261.012	156.12
261.244	161.12
261.477	175.12
261.71	160.12
261.942	176.12
262.175	159.12
262.407	164.12
262.64	156.12
262.872	154.12
263.105	166.12
263.337	156.12
263.57	155.12
263.802	162.12
264.035	176.12
264.267	166.12
264.499	152.12
264.732	168.12
264.964	160.12
265.197	162.12
265.429	167.12
265.661	152.12
265.894	173.12
266.126	191.12
266.358	182.12
266.591	169.12
266.823	170.12
267.055	159.12
267.287	176.12
267.52	189.12
267.752	172.12
267.984	187.12
268.216	175.12
268.448	184.12
268.681	182.12
268.913	185.12
269.145	180.12
269.377	178.12
269.609	172.12
269.841	175.12
270.073	199.12
270.306	195.12
270.538	177.12
270.77	172.12
271.002	199.12
271.234	189.12
271.466	202.12
271.698	182.12
271.93	196.12
272.162	189.12
272.394	180.12
272.626	192.12
272.858	185.12
273.09	189.12
273.322	179.12
273.553	189.12
273.785	187.12
274.017	212.12
274.249	209.12
274.481	193.12
274.713	213.12
274.945	202.12
275.176	195.12
275.408	193.12
275.64	200.12
275.872	204.12
276.104	210.12
276.335	197.12
276.567	208.12
276.799	207.12
277.031	221.12
277.262	206.12
277.494	196.12
277.726	220.12
277.957	219.12
278.189	214.12
278.421	197.12
278.652	211.12
278.884	225.12
279.115	199.12
279.347	210.12
279.579	205.12
279.81	220.12
280.042	214.12
280.273	205.12
280.505	219.12
280.736	220.12
280.968	212.12
281.199	214.12
281.431	199.12
281.662	232.12
281.894	200.12
282.125	216.12
282.356	236.12
282.588	193.12
282.819	213.12
283.051	217.12
283.282	240.12
283.513	225.12
283.745	231.12
283.976	241.12
284.207	235.12
284.439	218.12
284.67	227.12
284.901	247.12
285.132	231.12
285.364	219.12
285.595	238.12
285.826	222.12
286.057	254.12
286.288	228.12
286.52	245.12
286.751	246.12
286.982	245.12
287.213	224.12
287.444	237.12
287.675	229.12
287.906	230.12
288.138	251.12
288.369	251.12
288.6	255.12
288.831	233.12
289.062	248.12
289.293	243.12
289.524	237.12
289.755	231.12
289.986	242.12
290.217	268.12
290.448	246.12
290.679	248.12
290.91	257.12
291.141	258.12
291.371	272.12
291.602	239.12
291.833	261.12
292.064	249.12
292.295	262.12
292.526	257.12
292.757	239.12
292.987	258.12
293.218	260.12
293.449	245.12
293.68	243.12
293.91	249.12
294.141	240.12
294.372	243.12
294.603	245.12
294.833	248.12
295.064	252.12
295.295	269.12
295.525	261.12
295.756	275.12
295.987	266.12
296.217	263.12
296.448	267.12
296.679	276.12
296.909	273.12
297.14	280.12
297.37	265.12
297.601	276.12
297.831	236.12
298.062	275.12
298.292	284.12
298.523	280.12
298.753	285.12
298.984	303.12
299.214	289.12
299.445	283.12
299.675	263.12
299.905	268.12
300.136	275.12
300.366	272.12
300.597	295.12
300.827	282.12
301.057	285.12
301.288	284.12
301.518	296.12
301.748	286.12
301.979	277.12
302.209	305.12
302.439	294.12
302.669	307.12
302.9	288.12
303.13	301.12
303.36	284.12
303.59	288.12
303.82	287.12
304.051	303.12
304.281	307.12
304.511	300.12
304.741	305.12
304.971	299.12
305.201	310.12
305.431	323.12
305.661	314.12
305.891	292.12
306.121	297.12
306.352	309.12
306.582	298.12
306.812	290.12
307.042	296.12
307.272	298.12
307.502	300.12
307.731	282.12
307.961	289.12
308.191	298.12
308.421	309.12
308.651	287.12
308.881	293.12
309.111	273.12
309.341	304.12
309.571	290.12
309.8	275.12
310.03	307.12
310.26	311.12
310.49	310.12
310.72	309.12
310.949	290.12
311.179	314.12
311.409	320.12
311.639	324.12
311.868	312.12
312.098	317.12
312.328	320.12
312.557	302.12
312.787	314.12
313.017	308.12
313.246	320.12
313.476	322.12
313.706	333.12
313.935	331.12
314.165	319.12
314.394	317.12
314.624	320.12
314.853	308.12
315.083	313.12
315.312	317.12
315.542	329.12
315.771	326.12
316.001	315.12
316.23	322.12
316.46	322.12
316.689	343.12
316.919	322.12
317.148	327.12
317.377	345.12
317.607	337.12
317.836	313.12
318.065	336.12
318.295	331.12
318.524	343.12
318.753	338.12
318.983	308.12
319.212	311.12
319.441	320.12
319.67	333.12
319.9	313.12
320.129	331.12
320.358	316.12
320.587	321.12
320.816	332.12
321.046	329.12
321.275	320.12
321.504	346.12
321.733	325.12
321.962	339.12
322.191	348.12
322.42	318.12
322.649	354.12
322.878	350.12
323.108	316.12
323.337	361.12
323.566	327.12
323.795	346.12
324.024	351.12
324.253	327.12
324.482	339.12
324.71	351.12
324.939	359.12
325.168	362.12
325.397	350.12
325.626	348.12
325.855	364.12
326.084	349.12
326.313	364.12
326.542	355.12
326.77	340.12
326.999	355.12
327.228	362.12
327.457	358.12
327.686	362.12
327.914	346.12
328.143	359.12
328.372	359.12
328.6	376.12
328.829	375.12
329.058	387.12
329.287	384.12
329.515	360.12
329.744	385.12
329.972	353.12
330.201	351.12
330.43	354.12
330.658	390.12
330.887	371.12
331.115	365.12
331.344	387.12
331.572	369.12
331.801	398.12
332.03	391.12
332.258	389.12
332.486	405.12
332.715	409.12
332.943	406.12
333.172	433.12
333.4	428.12
333.629	433.12
333.857	426.12
334.085	427.12
334.314	426.12
334.542	432.12
334.771	415.12
334.999	418.12
335.227	420.12
335.455	435.12
335.684	427.12
335.912	421.12
336.14	410.12
336.369	421.12
336.597	402.12
336.825	419.12
337.053	423.12
337.281	409.12
337.51	404.12
337.738	416.12
337.966	408.12
338.194	393.12
338.422	408.12
338.65	386.12
338.878	401.12
339.106	394.12
339.334	403.12
339.562	398.12
339.79	409.12
340.018	386.12
340.246	392.12
340.474	387.12
340.702	405.12
340.93	403.12
341.158	396.12
341.386	371.12
341.614	389.12
341.842	387.12
342.07	396.12
342.298	380.12
342.526	381.12
342.754	391.12
342.981	389.12
343.209	412.12
343.437	400.12
343.665	410.12
343.893	433.12
344.12	415.12
344.348	420.12
344.576	418.12
344.804	409.12
345.031	410.12
345.259	398.12
345.487	385.12
345.714	394.12
345.942	389.12
346.17	391.12
346.397	392.12
346.625	403.12
346.853	407.12
347.08	402.12
347.308	385.12
347.535	391.12
347.763	362.12
347.99	389.12
348.218	393.12
348.445	366.12
348.673	374.12
348.9	375.12
349.128	359.12
349.355	376.12
349.583	361.12
349.81	380.12
350.037	383.12
350.265	374.12
350.492	356.12
350.72	385.12
350.947	389.12
351.174	379.12
351.402	381.12
351.629	379.12
351.856	363.12
352.083	356.12
352.311	394.12
352.538	360.12
352.765	371.12
352.992	380.12
353.22	368.12
353.447	392.12
353.674	368.12
353.901	389.12
354.128	377.12
354.355	379.12
354.583	378.12
354.81	376.12
355.037	364.12
355.264	381.12
355.491	377.12
355.718	384.12
355.945	379.12
356.172	386.12
356.399	376.12
356.626	386.12
356.853	383.12
357.08	391.12
357.307	398.12
357.534	367.12
357.761	384.12
357.988	399.12
358.215	366.12
358.441	371.12
358.668	380.12
358.895	386.12
359.122	369.12
359.349	379.12
359.576	401.12
359.802	388.12
360.029	417.12
360.256	385.12
360.483	378.12
360.709	376.12
360.936	399.12
361.163	377.12
361.39	377.12
361.616	379.12
361.843	373.12
362.07	379.12
362.296	402.12
362.523	383.12
362.749	402.12
362.976	401.12
363.203	390.12
363.429	381.12
363.656	374.12
363.882	397.12
364.109	392.12
364.335	380.12
364.562	380.12
364.788	383.12
365.015	386.12
365.241	391.12
365.468	371.12
365.694	396.12
365.92	380.12
366.147	380.12
366.373	403.12
366.599	399.12
366.826	396.12
367.052	385.12
367.278	396.12
367.505	397.12
367.731	387.12
367.957	404.12
368.184	398.12
368.41	388.12
368.636	399.12
368.862	398.12
369.089	400.12
369.315	411.12
369.541	398.12
369.767	393.12
369.993	391.12
370.219	395.12
370.445	406.12
370.672	409.12
370.898	398.12
371.124	415.12
371.35	409.12
371.576	410.12
371.802	414.12
372.028	408.12
372.254	416.12
372.48	421.12
372.706	435.12
372.932	419.12
373.158	409.12
373.384	430.12
373.61	427.12
373.835	423.12
374.061	415.12
374.287	396.12
374.513	429.12
374.739	432.12
374.965	429.12
375.191	437.12
375.416	445.12
375.642	435.12
375.868	432.12
376.094	437.12
376.319	423.12
376.545	417.12
376.771	410.12
376.997	407.12
377.222	415.12
377.448	420.12
377.674	441.12
377.899	407.12
378.125	404.12
378.35	396.12
378.576	390.12
378.802	405.12
379.027	416.12
379.253	424.12
379.478	420.12
379.704	409.12
379.929	419.12
380.155	421.12
380.38	442.12
380.606	415.12
380.831	411.12
381.057	428.12
381.282	434.12
381.507	415.12
381.733	401.12
381.958	449.12
382.184	435.12
382.409	450.12
382.634	418.12
382.86	419.12
383.085	428.12
383.31	443.12
383.535	461.12
383.761	452.12
383.986	455.12
384.211	423.12
384.436	457.12
384.662	449.12
384.887	465.12
385.112	467.12
385.337	462.12
385.562	471.12
385.787	472.12
386.013	486.12
386.238	488.12
386.463	488.12
386.688	475.12
386.913	481.12
387.138	472.12
387.363	475.12
387.588	473.12
387.813	492.12
388.038	463.12
388.263	479.12
388.488	474.12
388.713	469.12
388.938	492.12
389.163	470.12
389.387	497.12
389.612	486.12
389.837	478.12
390.062	479.12
390.287	483.12
390.512	493.12
390.736	469.12
390.961	470.12
391.186	499.12
391.411	487.12
391.636	525.12
391.86	519.12
392.085	537.12
392.31	515.12
392.534	501.12
392.759	516.12
392.984	514.12
393.208	497.12
393.433	497.12
393.658	507.12
393.882	508.12
394.107	513.12
394.331	498.12
394.556	511.12
394.78	496.12
395.005	503.12
395.229	497.12
395.454	517.12
395.678	519.12
395.903	537.12
396.127	526.12
396.352	517.12
396.576	538.12
396.801	518.12
397.025	534.12
397.249	542.12
397.474	547.12
397.698	562.12
397.922	550.12
398.147	565.12
398.371	555.12
398.595	575.12
398.82	576.12
399.044	604.12
399.268	645.12
399.492	668.12
399.717	697.12
399.941	697.12
400.165	673.12
400.389	661.12
400.613	632.12
400.837	629.12
401.062	599.12
401.286	593.12
401.51	579.12
401.734	575.12
401.958	595.12
402.182	592.12
402.406	577.12
402.63	612.12
402.854	602.12
403.078	588.12
403.302	579.12
403.526	591.12
403.75	582.12
403.974	625.12
404.198	600.12
404.422	611.12
404.645	593.12
404.869	589.12
405.093	588.12
405.317	600.12
405.541	607.12
405.765	599.12
405.988	608.12
406.212	627.12
406.436	607.12
406.66	631.12
406.883	633.12
407.107	651.12
407.331	702.12
407.555	693.12
407.778	649.12
408.002	671.12
408.226	656.12
408.449	653.12
408.673	653.12
408.896	643.12
409.12	622.12
409.344	628.12
409.567	638.12
409.791	629.12
410.014	604.12
410.238	597.12
410.461	629.12
410.685	618.12
410.908	624.12
411.132	599.12
411.355	589.12
411.578	597.12
411.802	579.12
412.025	596.12
412.249	585.12
412.472	591.12
412.695	592.12
412.919	579.12
413.142	578.12
413.365	580.12
413.589	607.12
413.812	581.12
414.035	579.12
414.258	583.12
414.482	554.12
414.705	568.12
414.928	559.12
415.151	581.12
415.374	578.12
415.597	555.12
415.821	560.12
416.044	580.12
416.267	571.12
416.49	547.12
416.713	579.12
416.936	560.12
417.159	559.12
417.382	552.12
417.605	533.12
417.828	544.12
418.051	562.12
418.274	551.12
418.497	562.12
418.72	568.12
418.943	546.12
419.166	578.12
419.389	592.12
419.611	575.12
419.834	563.12
420.057	579.12
420.28	572.12
420.503	567.12
420.726	533.12
420.948	549.12
421.171	568.12
421.394	567.12
421.617	522.12
421.839	549.12
422.062	564.12
422.285	545.12
422.507	577.12
422.73	560.12
422.953	569.12
423.175	540.12
423.398	551.12
423.621	544.12
423.843	578.12
424.066	553.12
424.288	515.12
424.511	547.12
424.733	545.12
424.956	552.12
425.178	517.12
425.401	527.12
425.623	548.12
425.846	521.12
426.068	530.12
426.291	565.12
426.513	541.12
426.735	538.12
426.958	538.12
427.18	500.12
427.402	537.12
427.625	506.12
427.847	516.12
428.069	496.12
428.292	523.12
428.514	516.12
428.736	495.12
428.958	489.12
429.181	508.12
429.403	519.12
429.625	499.12
429.847	507.12
430.069	500.12
430.292	525.12
430.514	507.12
430.736	502.12
430.958	506.12
431.18	496.12
431.402	505.12
431.624	501.12
431.846	529.12
432.068	531.12
432.29	522.12
432.512	513.12
432.734	508.12
432.956	515.12
433.178	517.12
433.4	510.12
433.622	516.12
433.844	529.12
434.066	536.12
434.287	527.12
434.509	527.12
434.731	513.12
434.953	537.12
435.175	545.12
435.397	530.12
435.618	532.12
435.84	500.12
436.062	535.12
436.284	473.12
436.505	504.12
436.727	515.12
436.949	535.12
437.17	517.12
437.392	488.12
437.614	499.12
437.835	491.12
438.057	504.12
438.278	490.12
438.5	499.12
438.721	488.12
438.943	495.12
439.165	496.12
439.386	488.12
439.608	506.12
439.829	507.12
440.05	497.12
440.272	496.12
440.493	515.12
440.715	511.12
440.936	505.12
441.158	504.12
441.379	513.12
441.6	522.12
441.822	523.12
442.043	529.12
442.264	550.12
442.486	516.12
442.707	529.12
442.928	547.12
443.149	528.12
443.371	523.12
443.592	515.12
443.813	563.12
444.034	540.12
444.255	570.12
444.476	547.12
444.698	543.12
444.919	576.12
445.14	639.12
445.361	559.12
445.582	543.12
445.803	545.12
446.024	537.12
446.245	515.12
446.466	513.12
446.687	496.12
446.908	511.12
447.129	479.12
447.35	496.12
447.571	497.12
447.792	485.12
448.013	484.12
448.234	481.12
448.455	464.12
448.675	463.12
448.896	477.12
449.117	451.12
449.338	480.12
449.559	451.12
449.779	453.12
450	461.12
450.221	476.12
450.442	460.12
450.662	463.12
450.883	461.12
451.104	445.12
451.324	461.12
451.545	458.12
451.766	464.12
451.986	456.12
452.207	458.12
452.428	425.12
452.648	456.12
452.869	458.12
453.089	436.12
453.31	463.12
453.53	427.12
453.751	447.12
453.971	451.12
454.192	447.12
454.412	428.12
454.633	435.12
454.853	435.12
455.073	422.12
455.294	444.12
455.514	445.12
455.734	432.12
455.955	451.12
456.175	429.12
456.395	423.12
456.616	441.12
456.836	439.12
457.056	453.12
457.276	435.12
457.497	440.12
457.717	455.12
457.937	455.12
458.157	450.12
458.377	447.12
458.598	459.12
458.818	477.12
459.038	473.12
459.258	498.12
459.478	520.12
459.698	498.12
459.918	517.12
460.138	544.12
460.358	556.12
460.578	540.12
460.798	549.12
461.018	573.12
461.238	557.12
461.458	580.12
461.678	556.12
461.898	585.12
462.118	589.12
462.338	597.12
462.558	602.12
462.777	614.12
462.997	611.12
463.217	644.12
463.437	638.12
463.657	633.12
463.876	628.12
464.096	627.12
464.316	603.12
464.536	597.12
464.755	608.12
464.975	596.12
465.195	588.12
465.414	548.12
465.634	536.12
465.854	540.12
466.073	526.12
466.293	517.12
466.512	495.12
466.732	508.12
466.951	490.12
467.171	503.12
467.391	500.12
467.61	467.12
467.829	489.12
468.049	506.12
468.268	475.12
468.488	488.12
468.707	480.12
468.927	475.12
469.146	479.12
469.365	492.12
469.585	478.12
469.804	471.12
470.023	491.12
470.243	508.12
470.462	501.12
470.681	502.12
470.901	501.12
471.12	486.12
471.339	501.12
471.558	495.12
471.777	505.12
471.997	506.12
472.216	471.12
472.435	485.12
472.654	484.12
472.873	482.12
473.092	490.12
473.311	475.12
473.53	464.12
473.749	471.12
473.968	497.12
474.187	471.12
474.406	461.12
474.625	480.12
474.844	465.12
475.063	489.12
475.282	492.12
475.501	500.12
475.72	499.12
475.939	485.12
476.158	507.12
476.377	503.12
476.596	489.12
476.814	531.12
477.033	504.12
477.252	521.12
477.471	539.12
477.69	540.12
477.908	558.12
478.127	564.12
478.346	554.12
478.564	551.12
478.783	548.12
479.002	545.12
479.22	575.12
479.439	586.12
479.658	584.12
479.876	577.12
480.095	585.12
480.313	626.12
480.532	602.12
480.751	589.12
480.969	583.12
481.188	591.12
481.406	591.12
481.624	585.12
481.843	580.12
482.061	560.12
482.28	550.12
482.498	578.12
482.717	585.12
482.935	552.12
483.153	586.12
483.372	561.12
483.59	569.12
483.808	579.12
484.027	583.12
484.245	589.12
484.463	591.12
484.681	585.12
484.9	576.12
485.118	598.12
485.336	619.12
485.554	577.12
485.772	561.12
485.99	609.12
486.209	586.12
486.427	606.12
486.645	589.12
486.863	583.12
487.081	576.12
487.299	575.12
487.517	592.12
487.735	551.12
487.953	584.12
488.171	587.12
488.389	578.12
488.607	562.12
488.825	568.12
489.043	576.12
489.261	587.12
489.479	590.12
489.696	584.12
489.914	584.12
490.132	571.12
490.35	600.12
490.568	581.12
490.786	602.12
491.003	588.12
491.221	584.12
491.439	596.12
491.657	611.12
491.874	602.12
492.092	572.12
492.31	610.12
492.527	602.12
492.745	586.12
492.963	599.12
493.18	594.12
493.398	597.12
493.615	609.12
493.833	628.12
494.05	624.12
494.268	613.12
494.485	613.12
494.703	622.12
494.92	614.12
495.138	633.12
495.355	650.12
495.573	639.12
495.79	641.12
496.008	616.12
496.225	643.12
496.442	636.12
496.66	644.12
496.877	659.12
497.094	677.12
497.312	673.12
497.529	688.12
497.746	708.12
497.963	718.12
498.181	744.12
498.398	779.12
498.615	775.12
498.832	838.12
499.049	891.12
499.267	905.12
499.484	964.12
499.701	988.12
499.918	1042.12
500.135	1108.12
500.352	1131.12
500.569	1181.12
500.786	1194.12
501.003	1128.12
501.22	1106.12
501.437	1009.12
501.654	966.12
501.871	920.12
