Data from Fe(NO3)3@0.1M.TitratingCurve.Agarose3%dH2O.NegLispCup.LampEnergy10.LIBS07252019_HRD10591_16-42-00-333.txt Node
Date: Thu Jul 25 16:42:00 EDT 2019
User: cochatt
Spectrometer: HR+D1059
Trigger mode: 1
Integration Time (sec): 1.000000E-1
Scans to average: 1
Electric dark correction enabled: true
Nonlinearity correction enabled: false
Boxcar width: 0
XAxis mode: Wavelengths
Number of Pixels in Spectrum: 2048
>>>>>Begin Spectral Data<<<<<
223.165	-8.81
223.4	-8.81
223.635	-8.81
223.869	-20.81
224.104	-28.81
224.338	-8.81
224.573	-7.81
224.808	-4.81
225.042	1.19
225.277	-12.81
225.511	3.19
225.746	12.19
225.98	6.19
226.215	14.19
226.449	5.19
226.683	11.19
226.918	18.19
227.152	21.19
227.387	34.19
227.621	28.19
227.856	43.19
228.09	52.19
228.324	49.19
228.559	62.19
228.793	63.19
229.027	63.19
229.262	83.19
229.496	90.19
229.73	82.19
229.964	79.19
230.199	59.19
230.433	71.19
230.667	77.19
230.901	87.19
231.136	84.19
231.37	84.19
231.604	104.19
231.838	105.19
232.072	107.19
232.306	108.19
232.541	101.19
232.775	99.19
233.009	96.19
233.243	104.19
233.477	99.19
233.711	82.19
233.945	89.19
234.179	79.19
234.413	83.19
234.647	89.19
234.881	97.19
235.115	78.19
235.349	102.19
235.583	93.19
235.817	96.19
236.051	106.19
236.285	90.19
236.519	90.19
236.753	98.19
236.987	92.19
237.221	88.19
237.455	93.19
237.689	95.19
237.922	95.19
238.156	94.19
238.39	104.19
238.624	98.19
238.858	90.19
239.091	96.19
239.325	112.19
239.559	98.19
239.793	99.19
240.027	100.19
240.26	102.19
240.494	94.19
240.728	99.19
240.961	107.19
241.195	110.19
241.429	105.19
241.662	93.19
241.896	86.19
242.13	105.19
242.363	100.19
242.597	104.19
242.83	125.19
243.064	107.19
243.298	104.19
243.531	100.19
243.765	111.19
243.998	101.19
244.232	119.19
244.465	101.19
244.699	106.19
244.932	94.19
245.166	108.19
245.399	111.19
245.633	115.19
245.866	96.19
246.099	108.19
246.333	115.19
246.566	102.19
246.8	103.19
247.033	105.19
247.266	119.19
247.5	107.19
247.733	117.19
247.966	108.19
248.2	119.19
248.433	95.19
248.666	121.19
248.899	111.19
249.133	112.19
249.366	130.19
249.599	112.19
249.832	120.19
250.066	109.19
250.299	111.19
250.532	111.19
250.765	123.19
250.998	106.19
251.231	119.19
251.465	130.19
251.698	125.19
251.931	129.19
252.164	124.19
252.397	119.19
252.63	109.19
252.863	117.19
253.096	101.19
253.329	121.19
253.562	117.19
253.795	119.19
254.028	121.19
254.261	126.19
254.494	104.19
254.727	127.19
254.96	123.19
255.193	131.19
255.426	127.19
255.659	123.19
255.892	147.19
256.124	131.19
256.357	126.19
256.59	118.19
256.823	112.19
257.056	135.19
257.289	111.19
257.521	129.19
257.754	144.19
257.987	120.19
258.22	142.19
258.452	130.19
258.685	126.19
258.918	126.19
259.151	132.19
259.383	154.19
259.616	145.19
259.849	140.19
260.081	135.19
260.314	130.19
260.547	143.19
260.779	130.19
261.012	131.19
261.244	137.19
261.477	122.19
261.71	121.19
261.942	129.19
262.175	144.19
262.407	145.19
262.64	138.19
262.872	131.19
263.105	145.19
263.337	142.19
263.57	130.19
263.802	128.19
264.035	140.19
264.267	145.19
264.499	131.19
264.732	154.19
264.964	133.19
265.197	149.19
265.429	144.19
265.661	135.19
265.894	135.19
266.126	156.19
266.358	144.19
266.591	155.19
266.823	147.19
267.055	140.19
267.287	135.19
267.52	155.19
267.752	135.19
267.984	142.19
268.216	152.19
268.448	160.19
268.681	136.19
268.913	159.19
269.145	148.19
269.377	151.19
269.609	137.19
269.841	147.19
270.073	154.19
270.306	153.19
270.538	144.19
270.77	148.19
271.002	153.19
271.234	140.19
271.466	125.19
271.698	147.19
271.93	142.19
272.162	151.19
272.394	152.19
272.626	148.19
272.858	155.19
273.09	150.19
273.322	135.19
273.553	161.19
273.785	146.19
274.017	154.19
274.249	160.19
274.481	168.19
274.713	149.19
274.945	161.19
275.176	164.19
275.408	159.19
275.64	140.19
275.872	166.19
276.104	147.19
276.335	163.19
276.567	170.19
276.799	154.19
277.031	176.19
277.262	146.19
277.494	161.19
277.726	165.19
277.957	169.19
278.189	157.19
278.421	179.19
278.652	165.19
278.884	157.19
279.115	161.19
279.347	162.19
279.579	181.19
279.81	159.19
280.042	179.19
280.273	157.19
280.505	173.19
280.736	178.19
280.968	160.19
281.199	177.19
281.431	165.19
281.662	175.19
281.894	156.19
282.125	166.19
282.356	155.19
282.588	171.19
282.819	174.19
283.051	181.19
283.282	171.19
283.513	181.19
283.745	168.19
283.976	172.19
284.207	170.19
284.439	173.19
284.67	178.19
284.901	179.19
285.132	160.19
285.364	173.19
285.595	180.19
285.826	186.19
286.057	188.19
286.288	203.19
286.52	171.19
286.751	164.19
286.982	179.19
287.213	184.19
287.444	193.19
287.675	194.19
287.906	183.19
288.138	185.19
288.369	178.19
288.6	180.19
288.831	176.19
289.062	196.19
289.293	196.19
289.524	175.19
289.755	177.19
289.986	184.19
290.217	187.19
290.448	188.19
290.679	197.19
290.91	191.19
291.141	201.19
291.371	204.19
291.602	192.19
291.833	178.19
292.064	185.19
292.295	188.19
292.526	189.19
292.757	186.19
292.987	174.19
293.218	173.19
293.449	211.19
293.68	213.19
293.91	191.19
294.141	182.19
294.372	182.19
294.603	198.19
294.833	210.19
295.064	189.19
295.295	190.19
295.525	187.19
295.756	207.19
295.987	211.19
296.217	173.19
296.448	203.19
296.679	172.19
296.909	191.19
297.14	193.19
297.37	198.19
297.601	209.19
297.831	189.19
298.062	190.19
298.292	199.19
298.523	183.19
298.753	192.19
298.984	221.19
299.214	214.19
299.445	197.19
299.675	197.19
299.905	203.19
300.136	205.19
300.366	215.19
300.597	198.19
300.827	211.19
301.057	214.19
301.288	219.19
301.518	206.19
301.748	188.19
301.979	198.19
302.209	217.19
302.439	213.19
302.669	208.19
302.9	202.19
303.13	215.19
303.36	207.19
303.59	199.19
303.82	209.19
304.051	232.19
304.281	211.19
304.511	210.19
304.741	216.19
304.971	221.19
305.201	208.19
305.431	216.19
305.661	217.19
305.891	204.19
306.121	216.19
306.352	232.19
306.582	207.19
306.812	218.19
307.042	213.19
307.272	203.19
307.502	219.19
307.731	217.19
307.961	203.19
308.191	220.19
308.421	211.19
308.651	205.19
308.881	206.19
309.111	214.19
309.341	203.19
309.571	204.19
309.8	205.19
310.03	204.19
310.26	207.19
310.49	218.19
310.72	201.19
310.949	220.19
311.179	215.19
311.409	227.19
311.639	205.19
311.868	215.19
312.098	210.19
312.328	207.19
312.557	222.19
312.787	209.19
313.017	230.19
313.246	224.19
313.476	228.19
313.706	216.19
313.935	225.19
314.165	215.19
314.394	224.19
314.624	219.19
314.853	212.19
315.083	231.19
315.312	220.19
315.542	235.19
315.771	227.19
316.001	222.19
316.23	212.19
316.46	205.19
316.689	223.19
316.919	219.19
317.148	223.19
317.377	232.19
317.607	214.19
317.836	229.19
318.065	225.19
318.295	223.19
318.524	214.19
318.753	224.19
318.983	205.19
319.212	229.19
319.441	217.19
319.67	231.19
319.9	205.19
320.129	233.19
320.358	204.19
320.587	213.19
320.816	234.19
321.046	228.19
321.275	232.19
321.504	239.19
321.733	227.19
321.962	234.19
322.191	217.19
322.42	213.19
322.649	226.19
322.878	239.19
323.108	246.19
323.337	214.19
323.566	235.19
323.795	237.19
324.024	228.19
324.253	228.19
324.482	232.19
324.71	235.19
324.939	225.19
325.168	238.19
325.397	232.19
325.626	226.19
325.855	238.19
326.084	217.19
326.313	210.19
326.542	251.19
326.77	237.19
326.999	261.19
327.228	236.19
327.457	234.19
327.686	259.19
327.914	239.19
328.143	231.19
328.372	242.19
328.6	245.19
328.829	242.19
329.058	234.19
329.287	242.19
329.515	255.19
329.744	258.19
329.972	262.19
330.201	239.19
330.43	262.19
330.658	249.19
330.887	243.19
331.115	260.19
331.344	268.19
331.572	263.19
331.801	257.19
332.03	268.19
332.258	270.19
332.486	258.19
332.715	281.19
332.943	287.19
333.172	296.19
333.4	295.19
333.629	322.19
333.857	311.19
334.085	304.19
334.314	284.19
334.542	308.19
334.771	301.19
334.999	290.19
335.227	297.19
335.455	285.19
335.684	289.19
335.912	293.19
336.14	293.19
336.369	271.19
336.597	270.19
336.825	292.19
337.053	266.19
337.281	278.19
337.51	273.19
337.738	275.19
337.966	244.19
338.194	275.19
338.422	276.19
338.65	289.19
338.878	263.19
339.106	263.19
339.334	268.19
339.562	249.19
339.79	252.19
340.018	260.19
340.246	255.19
340.474	242.19
340.702	241.19
340.93	257.19
341.158	280.19
341.386	252.19
341.614	267.19
341.842	282.19
342.07	225.19
342.298	253.19
342.526	270.19
342.754	278.19
342.981	260.19
343.209	267.19
343.437	269.19
343.665	284.19
343.893	288.19
344.12	307.19
344.348	281.19
344.576	298.19
344.804	275.19
345.031	264.19
345.259	253.19
345.487	241.19
345.714	259.19
345.942	240.19
346.17	244.19
346.397	268.19
346.625	250.19
346.853	241.19
347.08	248.19
347.308	243.19
347.535	249.19
347.763	260.19
347.99	265.19
348.218	241.19
348.445	255.19
348.673	245.19
348.9	256.19
349.128	250.19
349.355	239.19
349.583	234.19
349.81	232.19
350.037	247.19
350.265	244.19
350.492	228.19
350.72	230.19
350.947	250.19
351.174	247.19
351.402	228.19
351.629	239.19
351.856	237.19
352.083	245.19
352.311	238.19
352.538	232.19
352.765	243.19
352.992	246.19
353.22	241.19
353.447	236.19
353.674	243.19
353.901	247.19
354.128	243.19
354.355	240.19
354.583	240.19
354.81	235.19
355.037	235.19
355.264	241.19
355.491	239.19
355.718	242.19
355.945	243.19
356.172	242.19
356.399	241.19
356.626	246.19
356.853	235.19
357.08	248.19
357.307	252.19
357.534	255.19
357.761	235.19
357.988	248.19
358.215	236.19
358.441	242.19
358.668	260.19
358.895	263.19
359.122	249.19
359.349	226.19
359.576	257.19
359.802	249.19
360.029	242.19
360.256	266.19
360.483	244.19
360.709	248.19
360.936	240.19
361.163	243.19
361.39	237.19
361.616	235.19
361.843	261.19
362.07	250.19
362.296	250.19
362.523	248.19
362.749	261.19
362.976	267.19
363.203	236.19
363.429	247.19
363.656	227.19
363.882	234.19
364.109	224.19
364.335	231.19
364.562	277.19
364.788	257.19
365.015	244.19
365.241	243.19
365.468	240.19
365.694	246.19
365.92	245.19
366.147	251.19
366.373	228.19
366.599	232.19
366.826	256.19
367.052	235.19
367.278	256.19
367.505	249.19
367.731	256.19
367.957	247.19
368.184	237.19
368.41	232.19
368.636	251.19
368.862	250.19
369.089	241.19
369.315	240.19
369.541	269.19
369.767	242.19
369.993	239.19
370.219	234.19
370.445	263.19
370.672	267.19
370.898	256.19
371.124	264.19
371.35	255.19
371.576	292.19
371.802	265.19
372.028	256.19
372.254	276.19
372.48	259.19
372.706	273.19
372.932	266.19
373.158	263.19
373.384	261.19
373.61	274.19
373.835	257.19
374.061	279.19
374.287	260.19
374.513	286.19
374.739	284.19
374.965	277.19
375.191	292.19
375.416	283.19
375.642	277.19
375.868	297.19
376.094	276.19
376.319	274.19
376.545	281.19
376.771	272.19
376.997	272.19
377.222	268.19
377.448	269.19
377.674	260.19
377.899	260.19
378.125	254.19
378.35	266.19
378.576	274.19
378.802	279.19
379.027	268.19
379.253	262.19
379.478	256.19
379.704	262.19
379.929	255.19
380.155	267.19
380.38	247.19
380.606	277.19
380.831	270.19
381.057	263.19
381.282	284.19
381.507	263.19
381.733	268.19
381.958	292.19
382.184	264.19
382.409	280.19
382.634	278.19
382.86	278.19
383.085	269.19
383.31	284.19
383.535	280.19
383.761	287.19
383.986	291.19
384.211	294.19
384.436	296.19
384.662	308.19
384.887	305.19
385.112	313.19
385.337	315.19
385.562	323.19
385.787	313.19
386.013	327.19
386.238	291.19
386.463	295.19
386.688	306.19
386.913	325.19
387.138	321.19
387.363	315.19
387.588	330.19
387.813	308.19
388.038	319.19
388.263	305.19
388.488	312.19
388.713	306.19
388.938	303.19
389.163	316.19
389.387	291.19
389.612	305.19
389.837	309.19
390.062	312.19
390.287	307.19
390.512	330.19
390.736	298.19
390.961	337.19
391.186	320.19
391.411	346.19
391.636	335.19
391.86	336.19
392.085	321.19
392.31	345.19
392.534	320.19
392.759	344.19
392.984	339.19
393.208	322.19
393.433	330.19
393.658	327.19
393.882	328.19
394.107	312.19
394.331	322.19
394.556	338.19
394.78	337.19
395.005	332.19
395.229	346.19
395.454	323.19
395.678	342.19
395.903	330.19
396.127	344.19
396.352	338.19
396.576	342.19
396.801	313.19
397.025	333.19
397.249	341.19
397.474	343.19
397.698	340.19
397.922	350.19
398.147	370.19
398.371	359.19
398.595	372.19
398.82	375.19
399.044	409.19
399.268	422.19
399.492	499.19
399.717	516.19
399.941	517.19
400.165	465.19
400.389	426.19
400.613	410.19
400.837	391.19
401.062	402.19
401.286	396.19
401.51	379.19
401.734	378.19
401.958	382.19
402.182	397.19
402.406	398.19
402.63	402.19
402.854	411.19
403.078	403.19
403.302	438.19
403.526	389.19
403.75	403.19
403.974	410.19
404.198	412.19
404.422	419.19
404.645	419.19
404.869	428.19
405.093	419.19
405.317	389.19
405.541	398.19
405.765	423.19
405.988	406.19
406.212	399.19
406.436	424.19
406.66	428.19
406.883	430.19
407.107	455.19
407.331	462.19
407.555	473.19
407.778	470.19
408.002	443.19
408.226	450.19
408.449	427.19
408.673	438.19
408.896	423.19
409.12	405.19
409.344	409.19
409.567	417.19
409.791	420.19
410.014	409.19
410.238	412.19
410.461	408.19
410.685	432.19
410.908	405.19
411.132	404.19
411.355	392.19
411.578	394.19
411.802	378.19
412.025	394.19
412.249	410.19
412.472	386.19
412.695	386.19
412.919	388.19
413.142	396.19
413.365	393.19
413.589	373.19
413.812	374.19
414.035	378.19
414.258	384.19
414.482	402.19
414.705	400.19
414.928	383.19
415.151	387.19
415.374	394.19
415.597	375.19
415.821	374.19
416.044	378.19
416.267	383.19
416.49	357.19
416.713	370.19
416.936	393.19
417.159	374.19
417.382	381.19
417.605	384.19
417.828	385.19
418.051	388.19
418.274	399.19
418.497	385.19
418.72	411.19
418.943	409.19
419.166	421.19
419.389	416.19
419.611	419.19
419.834	402.19
420.057	396.19
420.28	400.19
420.503	385.19
420.726	356.19
420.948	391.19
421.171	407.19
421.394	396.19
421.617	393.19
421.839	371.19
422.062	388.19
422.285	381.19
422.507	387.19
422.73	375.19
422.953	396.19
423.175	402.19
423.398	397.19
423.621	419.19
423.843	412.19
424.066	398.19
424.288	409.19
424.511	373.19
424.733	410.19
424.956	414.19
425.178	384.19
425.401	380.19
425.623	393.19
425.846	377.19
426.068	374.19
426.291	374.19
426.513	375.19
426.735	369.19
426.958	364.19
427.18	366.19
427.402	361.19
427.625	339.19
427.847	340.19
428.069	359.19
428.292	370.19
428.514	328.19
428.736	345.19
428.958	346.19
429.181	352.19
429.403	341.19
429.625	343.19
429.847	344.19
430.069	332.19
430.292	355.19
430.514	354.19
430.736	351.19
430.958	345.19
431.18	378.19
431.402	369.19
431.624	355.19
431.846	341.19
432.068	347.19
432.29	347.19
432.512	364.19
432.734	359.19
432.956	354.19
433.178	349.19
433.4	340.19
433.622	345.19
433.844	363.19
434.066	358.19
434.287	371.19
434.509	363.19
434.731	389.19
434.953	373.19
435.175	381.19
435.397	384.19
435.618	340.19
435.84	383.19
436.062	354.19
436.284	371.19
436.505	362.19
436.727	361.19
436.949	378.19
437.17	361.19
437.392	347.19
437.614	351.19
437.835	335.19
438.057	361.19
438.278	343.19
438.5	352.19
438.721	369.19
438.943	353.19
439.165	378.19
439.386	327.19
439.608	360.19
439.829	361.19
440.05	373.19
440.272	359.19
440.493	396.19
440.715	379.19
440.936	377.19
441.158	382.19
441.379	399.19
441.6	403.19
441.822	415.19
442.043	413.19
442.264	402.19
442.486	377.19
442.707	395.19
442.928	391.19
443.149	378.19
443.371	396.19
443.592	397.19
443.813	406.19
444.034	408.19
444.255	406.19
444.476	420.19
444.698	445.19
444.919	440.19
445.14	513.19
445.361	440.19
445.582	422.19
445.803	398.19
446.024	385.19
446.245	403.19
446.466	373.19
446.687	364.19
446.908	378.19
447.129	352.19
447.35	364.19
447.571	352.19
447.792	359.19
448.013	367.19
448.234	359.19
448.455	343.19
448.675	338.19
448.896	347.19
449.117	356.19
449.338	337.19
449.559	352.19
449.779	340.19
450	357.19
450.221	351.19
450.442	350.19
450.662	345.19
450.883	342.19
451.104	335.19
451.324	337.19
451.545	335.19
451.766	329.19
451.986	332.19
452.207	336.19
452.428	341.19
452.648	330.19
452.869	320.19
453.089	330.19
453.31	365.19
453.53	334.19
453.751	332.19
453.971	312.19
454.192	332.19
454.412	321.19
454.633	312.19
454.853	323.19
455.073	337.19
455.294	316.19
455.514	313.19
455.734	318.19
455.955	321.19
456.175	315.19
456.395	326.19
456.616	309.19
456.836	309.19
457.056	314.19
457.276	300.19
457.497	323.19
457.717	305.19
457.937	330.19
458.157	327.19
458.377	319.19
458.598	314.19
458.818	325.19
459.038	348.19
459.258	351.19
459.478	358.19
459.698	351.19
459.918	346.19
460.138	380.19
460.358	389.19
460.578	396.19
460.798	418.19
461.018	400.19
461.238	411.19
461.458	398.19
461.678	411.19
461.898	398.19
462.118	401.19
462.338	408.19
462.558	429.19
462.777	451.19
462.997	473.19
463.217	501.19
463.437	492.19
463.657	471.19
463.876	455.19
464.096	481.19
464.316	447.19
464.536	455.19
464.755	456.19
464.975	436.19
465.195	407.19
465.414	377.19
465.634	366.19
465.854	362.19
466.073	360.19
466.293	341.19
466.512	375.19
466.732	347.19
466.951	348.19
467.171	333.19
467.391	349.19
467.61	342.19
467.829	351.19
468.049	339.19
468.268	321.19
468.488	331.19
468.707	335.19
468.927	343.19
469.146	325.19
469.365	346.19
469.585	343.19
469.804	347.19
470.023	369.19
470.243	371.19
470.462	356.19
470.681	363.19
470.901	342.19
471.12	356.19
471.339	352.19
471.558	343.19
471.777	340.19
471.997	314.19
472.216	345.19
472.435	345.19
472.654	314.19
472.873	327.19
473.092	343.19
473.311	318.19
473.53	322.19
473.749	332.19
473.968	333.19
474.187	324.19
474.406	319.19
474.625	327.19
474.844	326.19
475.063	324.19
475.282	340.19
475.501	350.19
475.72	325.19
475.939	335.19
476.158	345.19
476.377	331.19
476.596	330.19
476.814	343.19
477.033	342.19
477.252	362.19
477.471	367.19
477.69	371.19
477.908	355.19
478.127	385.19
478.346	383.19
478.564	378.19
478.783	389.19
479.002	388.19
479.22	390.19
479.439	391.19
479.658	388.19
479.876	384.19
480.095	385.19
480.313	400.19
480.532	420.19
480.751	393.19
480.969	385.19
481.188	398.19
481.406	351.19
481.624	368.19
481.843	369.19
482.061	365.19
482.28	359.19
482.498	369.19
482.717	343.19
482.935	367.19
483.153	365.19
483.372	367.19
483.59	349.19
483.808	351.19
484.027	364.19
484.245	356.19
484.463	349.19
484.681	357.19
484.9	363.19
485.118	383.19
485.336	377.19
485.554	371.19
485.772	367.19
485.99	370.19
486.209	360.19
486.427	346.19
486.645	373.19
486.863	371.19
487.081	375.19
487.299	371.19
487.517	374.19
487.735	372.19
487.953	406.19
488.171	374.19
488.389	371.19
488.607	352.19
488.825	383.19
489.043	385.19
489.261	370.19
489.479	362.19
489.696	367.19
489.914	362.19
490.132	359.19
490.35	367.19
490.568	370.19
490.786	370.19
491.003	381.19
491.221	387.19
491.439	369.19
491.657	379.19
491.874	384.19
492.092	408.19
492.31	406.19
492.527	405.19
492.745	408.19
492.963	387.19
493.18	377.19
493.398	389.19
493.615	388.19
493.833	390.19
494.05	402.19
494.268	389.19
494.485	379.19
494.703	379.19
494.92	394.19
495.138	377.19
495.355	373.19
495.573	400.19
495.79	395.19
496.008	411.19
496.225	421.19
496.442	400.19
496.66	417.19
496.877	409.19
497.094	412.19
497.312	406.19
497.529	437.19
497.746	460.19
497.963	457.19
498.181	460.19
498.398	459.19
498.615	512.19
498.832	541.19
499.049	558.19
499.267	606.19
499.484	645.19
499.701	722.19
499.918	781.19
500.135	852.19
500.352	962.19
500.569	985.19
500.786	922.19
501.003	907.19
501.22	825.19
501.437	718.19
501.654	673.19
501.871	633.19
502.088	587.19
502.305	544.19
