Data from Fe(NO3)3@0.05M.TitratingCurve.Agarose3%dH2O.NegLispCup.LampEnergy10.LIBS07252019_HRD10591_16-47-50-334.txt Node
Date: Thu Jul 25 16:47:50 EDT 2019
User: cochatt
Spectrometer: HR+D1059
Trigger mode: 1
Integration Time (sec): 1.000000E-1
Scans to average: 1
Electric dark correction enabled: true
Nonlinearity correction enabled: false
Boxcar width: 0
XAxis mode: Wavelengths
Number of Pixels in Spectrum: 2048
>>>>>Begin Spectral Data<<<<<
223.165	-26.06
223.4	-26.06
223.635	-26.06
223.869	-27.06
224.104	-23.06
224.338	-17.06
224.573	-13.06
224.808	-5.06
225.042	-1.06
225.277	-3.06
225.511	-6.06
225.746	-3.06
225.98	5.94
226.215	10.94
226.449	31.94
226.683	30.94
226.918	18.94
227.152	25.94
227.387	32.94
227.621	64.94
227.856	51.94
228.09	46.94
228.324	55.94
228.559	55.94
228.793	47.94
229.027	63.94
229.262	70.94
229.496	72.94
229.73	65.94
229.964	70.94
230.199	72.94
230.433	74.94
230.667	93.94
230.901	95.94
231.136	82.94
231.37	91.94
231.604	82.94
231.838	86.94
232.072	78.94
232.306	84.94
232.541	95.94
232.775	92.94
233.009	94.94
233.243	94.94
233.477	94.94
233.711	79.94
233.945	77.94
234.179	86.94
234.413	85.94
234.647	100.94
234.881	105.94
235.115	105.94
235.349	79.94
235.583	87.94
235.817	96.94
236.051	93.94
236.285	93.94
236.519	104.94
236.753	86.94
236.987	86.94
237.221	94.94
237.455	87.94
237.689	81.94
237.922	94.94
238.156	101.94
238.39	111.94
238.624	105.94
238.858	106.94
239.091	111.94
239.325	99.94
239.559	99.94
239.793	98.94
240.027	115.94
240.26	90.94
240.494	92.94
240.728	86.94
240.961	103.94
241.195	102.94
241.429	108.94
241.662	97.94
241.896	112.94
242.13	105.94
242.363	101.94
242.597	96.94
242.83	101.94
243.064	93.94
243.298	109.94
243.531	113.94
243.765	82.94
243.998	98.94
244.232	101.94
244.465	103.94
244.699	115.94
244.932	104.94
245.166	100.94
245.399	98.94
245.633	108.94
245.866	79.94
246.099	104.94
246.333	97.94
246.566	110.94
246.8	120.94
247.033	108.94
247.266	95.94
247.5	109.94
247.733	100.94
247.966	99.94
248.2	99.94
248.433	105.94
248.666	98.94
248.899	100.94
249.133	121.94
249.366	87.94
249.599	122.94
249.832	127.94
250.066	106.94
250.299	119.94
250.532	101.94
250.765	108.94
250.998	98.94
251.231	115.94
251.465	113.94
251.698	103.94
251.931	95.94
252.164	111.94
252.397	110.94
252.63	122.94
252.863	137.94
253.096	108.94
253.329	132.94
253.562	112.94
253.795	111.94
254.028	129.94
254.261	121.94
254.494	130.94
254.727	117.94
254.96	125.94
255.193	121.94
255.426	111.94
255.659	115.94
255.892	107.94
256.124	100.94
256.357	136.94
256.59	137.94
256.823	124.94
257.056	101.94
257.289	116.94
257.521	112.94
257.754	112.94
257.987	116.94
258.22	127.94
258.452	131.94
258.685	118.94
258.918	135.94
259.151	131.94
259.383	122.94
259.616	117.94
259.849	139.94
260.081	151.94
260.314	166.94
260.547	142.94
260.779	137.94
261.012	127.94
261.244	134.94
261.477	133.94
261.71	124.94
261.942	138.94
262.175	137.94
262.407	131.94
262.64	130.94
262.872	139.94
263.105	142.94
263.337	151.94
263.57	144.94
263.802	143.94
264.035	136.94
264.267	110.94
264.499	111.94
264.732	127.94
264.964	131.94
265.197	112.94
265.429	127.94
265.661	127.94
265.894	136.94
266.126	131.94
266.358	120.94
266.591	131.94
266.823	122.94
267.055	145.94
267.287	125.94
267.52	129.94
267.752	136.94
267.984	118.94
268.216	128.94
268.448	126.94
268.681	121.94
268.913	124.94
269.145	143.94
269.377	147.94
269.609	151.94
269.841	128.94
270.073	119.94
270.306	129.94
270.538	123.94
270.77	133.94
271.002	132.94
271.234	139.94
271.466	125.94
271.698	130.94
271.93	123.94
272.162	143.94
272.394	136.94
272.626	131.94
272.858	151.94
273.09	133.94
273.322	131.94
273.553	150.94
273.785	155.94
274.017	160.94
274.249	167.94
274.481	151.94
274.713	149.94
274.945	184.94
275.176	171.94
275.408	168.94
275.64	176.94
275.872	160.94
276.104	154.94
276.335	131.94
276.567	150.94
276.799	142.94
277.031	144.94
277.262	122.94
277.494	147.94
277.726	143.94
277.957	131.94
278.189	161.94
278.421	138.94
278.652	143.94
278.884	134.94
279.115	133.94
279.347	145.94
279.579	135.94
279.81	150.94
280.042	157.94
280.273	138.94
280.505	131.94
280.736	137.94
280.968	146.94
281.199	145.94
281.431	137.94
281.662	142.94
281.894	137.94
282.125	144.94
282.356	156.94
282.588	137.94
282.819	143.94
283.051	139.94
283.282	140.94
283.513	154.94
283.745	139.94
283.976	151.94
284.207	146.94
284.439	158.94
284.67	144.94
284.901	151.94
285.132	155.94
285.364	150.94
285.595	166.94
285.826	152.94
286.057	159.94
286.288	149.94
286.52	147.94
286.751	147.94
286.982	149.94
287.213	143.94
287.444	141.94
287.675	159.94
287.906	160.94
288.138	158.94
288.369	165.94
288.6	149.94
288.831	160.94
289.062	129.94
289.293	137.94
289.524	165.94
289.755	159.94
289.986	155.94
290.217	150.94
290.448	158.94
290.679	146.94
290.91	139.94
291.141	160.94
291.371	153.94
291.602	167.94
291.833	152.94
292.064	147.94
292.295	156.94
292.526	152.94
292.757	165.94
292.987	151.94
293.218	160.94
293.449	161.94
293.68	151.94
293.91	152.94
294.141	159.94
294.372	165.94
294.603	165.94
294.833	172.94
295.064	156.94
295.295	156.94
295.525	162.94
295.756	168.94
295.987	160.94
296.217	160.94
296.448	141.94
296.679	166.94
296.909	154.94
297.14	156.94
297.37	166.94
297.601	144.94
297.831	165.94
298.062	177.94
298.292	160.94
298.523	173.94
298.753	177.94
298.984	168.94
299.214	159.94
299.445	154.94
299.675	147.94
299.905	164.94
300.136	174.94
300.366	158.94
300.597	153.94
300.827	175.94
301.057	163.94
301.288	166.94
301.518	173.94
301.748	165.94
301.979	172.94
302.209	189.94
302.439	192.94
302.669	173.94
302.9	169.94
303.13	161.94
303.36	172.94
303.59	187.94
303.82	167.94
304.051	165.94
304.281	163.94
304.511	167.94
304.741	161.94
304.971	170.94
305.201	155.94
305.431	176.94
305.661	169.94
305.891	157.94
306.121	167.94
306.352	165.94
306.582	177.94
306.812	171.94
307.042	176.94
307.272	161.94
307.502	178.94
307.731	167.94
307.961	165.94
308.191	171.94
308.421	176.94
308.651	168.94
308.881	170.94
309.111	155.94
309.341	170.94
309.571	164.94
309.8	182.94
310.03	151.94
310.26	173.94
310.49	183.94
310.72	173.94
310.949	172.94
311.179	166.94
311.409	169.94
311.639	151.94
311.868	164.94
312.098	175.94
312.328	169.94
312.557	168.94
312.787	188.94
313.017	181.94
313.246	183.94
313.476	179.94
313.706	193.94
313.935	190.94
314.165	186.94
314.394	190.94
314.624	176.94
314.853	183.94
315.083	174.94
315.312	192.94
315.542	184.94
315.771	177.94
316.001	183.94
316.23	183.94
316.46	181.94
316.689	173.94
316.919	169.94
317.148	200.94
317.377	176.94
317.607	192.94
317.836	189.94
318.065	179.94
318.295	195.94
318.524	189.94
318.753	183.94
318.983	192.94
319.212	174.94
319.441	173.94
319.67	189.94
319.9	170.94
320.129	175.94
320.358	169.94
320.587	193.94
320.816	187.94
321.046	189.94
321.275	196.94
321.504	188.94
321.733	170.94
321.962	183.94
322.191	197.94
322.42	203.94
322.649	176.94
322.878	179.94
323.108	180.94
323.337	172.94
323.566	187.94
323.795	190.94
324.024	193.94
324.253	173.94
324.482	180.94
324.71	181.94
324.939	180.94
325.168	192.94
325.397	174.94
325.626	190.94
325.855	184.94
326.084	205.94
326.313	174.94
326.542	181.94
326.77	175.94
326.999	191.94
327.228	190.94
327.457	209.94
327.686	179.94
327.914	197.94
328.143	184.94
328.372	195.94
328.6	189.94
328.829	181.94
329.058	194.94
329.287	193.94
329.515	185.94
329.744	188.94
329.972	207.94
330.201	204.94
330.43	201.94
330.658	205.94
330.887	201.94
331.115	211.94
331.344	195.94
331.572	192.94
331.801	194.94
332.03	211.94
332.258	192.94
332.486	200.94
332.715	200.94
332.943	193.94
333.172	210.94
333.4	200.94
333.629	217.94
333.857	213.94
334.085	214.94
334.314	212.94
334.542	236.94
334.771	205.94
334.999	209.94
335.227	218.94
335.455	217.94
335.684	193.94
335.912	214.94
336.14	220.94
336.369	197.94
336.597	195.94
336.825	216.94
337.053	203.94
337.281	207.94
337.51	196.94
337.738	191.94
337.966	197.94
338.194	199.94
338.422	211.94
338.65	204.94
338.878	200.94
339.106	211.94
339.334	206.94
339.562	202.94
339.79	195.94
340.018	196.94
340.246	208.94
340.474	202.94
340.702	201.94
340.93	207.94
341.158	197.94
341.386	211.94
341.614	208.94
341.842	209.94
342.07	188.94
342.298	215.94
342.526	217.94
342.754	198.94
342.981	193.94
343.209	203.94
343.437	220.94
343.665	202.94
343.893	215.94
344.12	210.94
344.348	217.94
344.576	215.94
344.804	215.94
345.031	206.94
345.259	207.94
345.487	201.94
345.714	196.94
345.942	200.94
346.17	190.94
346.397	195.94
346.625	196.94
346.853	202.94
347.08	197.94
347.308	203.94
347.535	198.94
347.763	199.94
347.99	203.94
348.218	196.94
348.445	193.94
348.673	201.94
348.9	191.94
349.128	191.94
349.355	190.94
349.583	192.94
349.81	183.94
350.037	195.94
350.265	190.94
350.492	188.94
350.72	210.94
350.947	196.94
351.174	201.94
351.402	187.94
351.629	204.94
351.856	186.94
352.083	189.94
352.311	200.94
352.538	198.94
352.765	204.94
352.992	195.94
353.22	187.94
353.447	195.94
353.674	196.94
353.901	198.94
354.128	202.94
354.355	200.94
354.583	199.94
354.81	196.94
355.037	201.94
355.264	201.94
355.491	198.94
355.718	206.94
355.945	169.94
356.172	199.94
356.399	198.94
356.626	204.94
356.853	208.94
357.08	201.94
357.307	205.94
357.534	215.94
357.761	201.94
357.988	207.94
358.215	207.94
358.441	203.94
358.668	205.94
358.895	224.94
359.122	211.94
359.349	205.94
359.576	185.94
359.802	188.94
360.029	193.94
360.256	191.94
360.483	209.94
360.709	192.94
360.936	213.94
361.163	216.94
361.39	204.94
361.616	201.94
361.843	213.94
362.07	210.94
362.296	217.94
362.523	190.94
362.749	198.94
362.976	221.94
363.203	216.94
363.429	211.94
363.656	206.94
363.882	208.94
364.109	206.94
364.335	212.94
364.562	195.94
364.788	217.94
365.015	214.94
365.241	198.94
365.468	197.94
365.694	209.94
365.92	191.94
366.147	204.94
366.373	215.94
366.599	211.94
366.826	196.94
367.052	206.94
367.278	206.94
367.505	212.94
367.731	205.94
367.957	220.94
368.184	206.94
368.41	213.94
368.636	199.94
368.862	207.94
369.089	209.94
369.315	225.94
369.541	227.94
369.767	205.94
369.993	218.94
370.219	220.94
370.445	227.94
370.672	218.94
370.898	215.94
371.124	223.94
371.35	222.94
371.576	232.94
371.802	231.94
372.028	225.94
372.254	226.94
372.48	227.94
372.706	219.94
372.932	223.94
373.158	224.94
373.384	238.94
373.61	247.94
373.835	233.94
374.061	247.94
374.287	255.94
374.513	253.94
374.739	252.94
374.965	251.94
375.191	268.94
375.416	259.94
375.642	233.94
375.868	261.94
376.094	252.94
376.319	239.94
376.545	238.94
376.771	245.94
376.997	233.94
377.222	222.94
377.448	227.94
377.674	226.94
377.899	220.94
378.125	233.94
378.35	214.94
378.576	240.94
378.802	243.94
379.027	245.94
379.253	247.94
379.478	239.94
379.704	247.94
379.929	239.94
380.155	241.94
380.38	233.94
380.606	225.94
380.831	219.94
381.057	224.94
381.282	240.94
381.507	247.94
381.733	246.94
381.958	240.94
382.184	281.94
382.409	253.94
382.634	251.94
382.86	275.94
383.085	264.94
383.31	253.94
383.535	268.94
383.761	270.94
383.986	285.94
384.211	277.94
384.436	266.94
384.662	269.94
384.887	270.94
385.112	254.94
385.337	283.94
385.562	291.94
385.787	283.94
386.013	292.94
386.238	270.94
386.463	253.94
386.688	276.94
386.913	277.94
387.138	281.94
387.363	278.94
387.588	295.94
387.813	290.94
388.038	269.94
388.263	298.94
388.488	274.94
388.713	280.94
388.938	263.94
389.163	269.94
389.387	272.94
389.612	268.94
389.837	286.94
390.062	288.94
390.287	287.94
390.512	277.94
390.736	283.94
390.961	289.94
391.186	283.94
391.411	303.94
391.636	278.94
391.86	295.94
392.085	300.94
392.31	304.94
392.534	300.94
392.759	297.94
392.984	295.94
393.208	300.94
393.433	313.94
393.658	291.94
393.882	283.94
394.107	286.94
394.331	304.94
394.556	313.94
394.78	322.94
395.005	311.94
395.229	307.94
395.454	293.94
395.678	301.94
395.903	303.94
396.127	327.94
396.352	317.94
396.576	303.94
396.801	297.94
397.025	316.94
397.249	315.94
397.474	297.94
397.698	312.94
397.922	315.94
398.147	314.94
398.371	333.94
398.595	330.94
398.82	327.94
399.044	356.94
399.268	369.94
399.492	374.94
399.717	408.94
399.941	404.94
400.165	396.94
400.389	369.94
400.613	373.94
400.837	352.94
401.062	347.94
401.286	341.94
401.51	334.94
401.734	339.94
401.958	343.94
402.182	336.94
402.406	331.94
402.63	328.94
402.854	352.94
403.078	341.94
403.302	360.94
403.526	342.94
403.75	336.94
403.974	359.94
404.198	352.94
404.422	357.94
404.645	375.94
404.869	361.94
405.093	376.94
405.317	366.94
405.541	367.94
405.765	368.94
405.988	375.94
406.212	355.94
406.436	375.94
406.66	400.94
406.883	390.94
407.107	405.94
407.331	395.94
407.555	403.94
407.778	407.94
408.002	406.94
408.226	391.94
408.449	376.94
408.673	375.94
408.896	373.94
409.12	383.94
409.344	388.94
409.567	379.94
409.791	387.94
410.014	366.94
410.238	363.94
410.461	385.94
410.685	364.94
410.908	364.94
411.132	376.94
411.355	346.94
411.578	375.94
411.802	354.94
412.025	369.94
412.249	358.94
412.472	368.94
412.695	381.94
412.919	353.94
413.142	362.94
413.365	348.94
413.589	385.94
413.812	355.94
414.035	363.94
414.258	363.94
414.482	369.94
414.705	362.94
414.928	371.94
415.151	374.94
415.374	357.94
415.597	356.94
415.821	351.94
416.044	369.94
416.267	362.94
416.49	348.94
416.713	366.94
416.936	351.94
417.159	344.94
417.382	345.94
417.605	320.94
417.828	363.94
418.051	363.94
418.274	349.94
418.497	368.94
418.72	370.94
418.943	367.94
419.166	370.94
419.389	399.94
419.611	382.94
419.834	385.94
420.057	366.94
420.28	351.94
420.503	355.94
420.726	353.94
420.948	360.94
421.171	357.94
421.394	341.94
421.617	346.94
421.839	348.94
422.062	364.94
422.285	344.94
422.507	367.94
422.73	371.94
422.953	345.94
423.175	346.94
423.398	344.94
423.621	352.94
423.843	358.94
424.066	337.94
424.288	351.94
424.511	361.94
424.733	358.94
424.956	371.94
425.178	373.94
425.401	356.94
425.623	375.94
425.846	356.94
426.068	364.94
426.291	343.94
426.513	350.94
426.735	354.94
426.958	341.94
427.18	357.94
427.402	354.94
427.625	365.94
427.847	321.94
428.069	340.94
428.292	341.94
428.514	371.94
428.736	345.94
428.958	348.94
429.181	343.94
429.403	358.94
429.625	337.94
429.847	352.94
430.069	373.94
430.292	329.94
430.514	346.94
430.736	355.94
430.958	360.94
431.18	351.94
431.402	352.94
431.624	325.94
431.846	356.94
432.068	353.94
432.29	346.94
432.512	352.94
432.734	350.94
432.956	360.94
433.178	345.94
433.4	363.94
433.622	377.94
433.844	357.94
434.066	365.94
434.287	365.94
434.509	366.94
434.731	354.94
434.953	355.94
435.175	375.94
435.397	373.94
435.618	361.94
435.84	347.94
436.062	371.94
436.284	355.94
436.505	348.94
436.727	349.94
436.949	345.94
437.17	387.94
437.392	355.94
437.614	356.94
437.835	340.94
438.057	357.94
438.278	331.94
438.5	344.94
438.721	354.94
438.943	359.94
439.165	360.94
439.386	359.94
439.608	368.94
439.829	367.94
440.05	368.94
440.272	351.94
440.493	383.94
440.715	381.94
440.936	376.94
441.158	363.94
441.379	363.94
441.6	365.94
441.822	378.94
442.043	391.94
442.264	374.94
442.486	366.94
442.707	373.94
442.928	377.94
443.149	374.94
443.371	373.94
443.592	391.94
443.813	374.94
444.034	379.94
444.255	372.94
444.476	383.94
444.698	391.94
444.919	387.94
445.14	482.94
445.361	433.94
445.582	400.94
445.803	381.94
446.024	368.94
446.245	385.94
446.466	377.94
446.687	362.94
446.908	368.94
447.129	373.94
447.35	373.94
447.571	372.94
447.792	338.94
448.013	336.94
448.234	363.94
448.455	363.94
448.675	371.94
448.896	348.94
449.117	336.94
449.338	342.94
449.559	336.94
449.779	340.94
450	332.94
450.221	337.94
450.442	341.94
450.662	321.94
450.883	346.94
451.104	360.94
451.324	347.94
451.545	344.94
451.766	336.94
451.986	329.94
452.207	333.94
452.428	334.94
452.648	336.94
452.869	346.94
453.089	340.94
453.31	316.94
453.53	341.94
453.751	325.94
453.971	314.94
454.192	335.94
454.412	310.94
454.633	320.94
454.853	332.94
455.073	321.94
455.294	325.94
455.514	351.94
455.734	343.94
455.955	323.94
456.175	333.94
456.395	332.94
456.616	326.94
456.836	324.94
457.056	324.94
457.276	323.94
457.497	332.94
457.717	302.94
457.937	340.94
458.157	339.94
458.377	341.94
458.598	356.94
458.818	339.94
459.038	352.94
459.258	352.94
459.478	361.94
459.698	363.94
459.918	362.94
460.138	373.94
460.358	378.94
460.578	385.94
460.798	404.94
461.018	385.94
461.238	391.94
461.458	385.94
461.678	400.94
461.898	394.94
462.118	424.94
462.338	417.94
462.558	444.94
462.777	427.94
462.997	428.94
463.217	447.94
463.437	455.94
463.657	439.94
463.876	440.94
464.096	439.94
464.316	425.94
464.536	417.94
464.755	437.94
464.975	413.94
465.195	402.94
465.414	389.94
465.634	391.94
465.854	374.94
466.073	377.94
466.293	376.94
466.512	360.94
466.732	379.94
466.951	371.94
467.171	363.94
467.391	365.94
467.61	365.94
467.829	377.94
468.049	355.94
468.268	371.94
468.488	362.94
468.707	366.94
468.927	369.94
469.146	343.94
469.365	350.94
469.585	349.94
469.804	357.94
470.023	364.94
470.243	365.94
470.462	383.94
470.681	365.94
470.901	362.94
471.12	360.94
471.339	366.94
471.558	362.94
471.777	375.94
471.997	376.94
472.216	347.94
472.435	358.94
472.654	356.94
472.873	357.94
473.092	347.94
473.311	358.94
473.53	357.94
473.749	368.94
473.968	359.94
474.187	359.94
474.406	336.94
474.625	350.94
474.844	375.94
475.063	364.94
475.282	365.94
475.501	360.94
475.72	363.94
475.939	385.94
476.158	371.94
476.377	376.94
476.596	387.94
476.814	396.94
477.033	364.94
477.252	364.94
477.471	385.94
477.69	417.94
477.908	414.94
478.127	410.94
478.346	407.94
478.564	423.94
478.783	426.94
479.002	409.94
479.22	427.94
479.439	449.94
479.658	435.94
479.876	416.94
480.095	425.94
480.313	445.94
480.532	469.94
480.751	428.94
480.969	435.94
481.188	439.94
481.406	429.94
481.624	407.94
481.843	428.94
482.061	424.94
482.28	414.94
482.498	405.94
482.717	402.94
482.935	421.94
483.153	439.94
483.372	445.94
483.59	424.94
483.808	417.94
484.027	408.94
484.245	404.94
484.463	450.94
484.681	438.94
484.9	435.94
485.118	441.94
485.336	441.94
485.554	432.94
485.772	418.94
485.99	448.94
486.209	432.94
486.427	432.94
486.645	429.94
486.863	417.94
487.081	420.94
487.299	445.94
487.517	431.94
487.735	442.94
487.953	434.94
488.171	419.94
488.389	431.94
488.607	431.94
488.825	427.94
489.043	441.94
489.261	444.94
489.479	436.94
489.696	429.94
489.914	407.94
490.132	424.94
490.35	434.94
490.568	458.94
490.786	444.94
491.003	446.94
491.221	452.94
491.439	449.94
491.657	451.94
491.874	454.94
492.092	444.94
492.31	466.94
492.527	460.94
492.745	454.94
492.963	462.94
493.18	467.94
493.398	457.94
493.615	445.94
493.833	455.94
494.05	449.94
494.268	438.94
494.485	449.94
494.703	451.94
494.92	453.94
495.138	454.94
495.355	463.94
495.573	442.94
495.79	448.94
496.008	468.94
496.225	465.94
496.442	460.94
496.66	465.94
496.877	463.94
497.094	497.94
497.312	479.94
497.529	489.94
497.746	485.94
497.963	491.94
498.181	515.94
498.398	521.94
498.615	533.94
498.832	567.94
499.049	578.94
499.267	585.94
499.484	617.94
499.701	677.94
499.918	697.94
500.135	716.94
500.352	769.94
500.569	760.94
500.786	765.94
501.003	741.94
501.22	721.94
501.437	655.94
501.654	627.94
501.871	602.94
502.088	578.94
502.305	551.94
