Data from Fe(NO3)3@0.0125M.TitratingCurve.Agarose3%dH2O.NegLispCup.LampEnergy10.LIBS07252019_HRD10591_17-00-09-337.txt Node
Date: Thu Jul 25 17:00:09 EDT 2019
User: cochatt
Spectrometer: HR+D1059
Trigger mode: 1
Integration Time (sec): 1.000000E-1
Scans to average: 1
Electric dark correction enabled: true
Nonlinearity correction enabled: false
Boxcar width: 0
XAxis mode: Wavelengths
Number of Pixels in Spectrum: 2048
>>>>>Begin Spectral Data<<<<<
223.165	-18.88
223.4	-18.88
223.635	-18.88
223.869	-11.88
224.104	-4.88
224.338	-18.88
224.573	-12.88
224.808	-15.88
225.042	-6.88
225.277	-1.88
225.511	-6.88
225.746	7.12
225.98	3.12
226.215	10.12
226.449	0.12
226.683	9.12
226.918	44.12
227.152	25.12
227.387	37.12
227.621	46.12
227.856	46.12
228.09	58.12
228.324	61.12
228.559	58.12
228.793	68.12
229.027	76.12
229.262	69.12
229.496	81.12
229.73	90.12
229.964	80.12
230.199	86.12
230.433	84.12
230.667	86.12
230.901	90.12
231.136	95.12
231.37	108.12
231.604	103.12
231.838	98.12
232.072	89.12
232.306	112.12
232.541	104.12
232.775	98.12
233.009	101.12
233.243	103.12
233.477	107.12
233.711	105.12
233.945	106.12
234.179	104.12
234.413	95.12
234.647	103.12
234.881	109.12
235.115	99.12
235.349	90.12
235.583	119.12
235.817	101.12
236.051	99.12
236.285	102.12
236.519	93.12
236.753	91.12
236.987	124.12
237.221	118.12
237.455	112.12
237.689	106.12
237.922	104.12
238.156	106.12
238.39	83.12
238.624	105.12
238.858	118.12
239.091	115.12
239.325	109.12
239.559	113.12
239.793	109.12
240.027	125.12
240.26	124.12
240.494	120.12
240.728	108.12
240.961	107.12
241.195	112.12
241.429	105.12
241.662	116.12
241.896	93.12
242.13	113.12
242.363	120.12
242.597	111.12
242.83	115.12
243.064	112.12
243.298	89.12
243.531	116.12
243.765	118.12
243.998	115.12
244.232	121.12
244.465	118.12
244.699	106.12
244.932	115.12
245.166	127.12
245.399	127.12
245.633	117.12
245.866	125.12
246.099	125.12
246.333	124.12
246.566	126.12
246.8	115.12
247.033	126.12
247.266	125.12
247.5	120.12
247.733	128.12
247.966	141.12
248.2	129.12
248.433	128.12
248.666	130.12
248.899	135.12
249.133	137.12
249.366	149.12
249.599	127.12
249.832	147.12
250.066	133.12
250.299	131.12
250.532	134.12
250.765	123.12
250.998	142.12
251.231	140.12
251.465	129.12
251.698	131.12
251.931	128.12
252.164	144.12
252.397	151.12
252.63	125.12
252.863	135.12
253.096	135.12
253.329	122.12
253.562	144.12
253.795	148.12
254.028	143.12
254.261	146.12
254.494	129.12
254.727	152.12
254.96	135.12
255.193	137.12
255.426	140.12
255.659	141.12
255.892	139.12
256.124	134.12
256.357	145.12
256.59	140.12
256.823	140.12
257.056	136.12
257.289	146.12
257.521	143.12
257.754	141.12
257.987	156.12
258.22	163.12
258.452	143.12
258.685	141.12
258.918	150.12
259.151	140.12
259.383	151.12
259.616	163.12
259.849	163.12
260.081	168.12
260.314	176.12
260.547	156.12
260.779	154.12
261.012	164.12
261.244	163.12
261.477	165.12
261.71	152.12
261.942	159.12
262.175	166.12
262.407	161.12
262.64	163.12
262.872	160.12
263.105	152.12
263.337	164.12
263.57	165.12
263.802	175.12
264.035	163.12
264.267	153.12
264.499	137.12
264.732	142.12
264.964	153.12
265.197	158.12
265.429	166.12
265.661	157.12
265.894	156.12
266.126	163.12
266.358	183.12
266.591	168.12
266.823	166.12
267.055	170.12
267.287	166.12
267.52	166.12
267.752	166.12
267.984	167.12
268.216	169.12
268.448	166.12
268.681	166.12
268.913	172.12
269.145	181.12
269.377	173.12
269.609	170.12
269.841	171.12
270.073	171.12
270.306	162.12
270.538	165.12
270.77	160.12
271.002	160.12
271.234	180.12
271.466	168.12
271.698	185.12
271.93	195.12
272.162	183.12
272.394	188.12
272.626	201.12
272.858	191.12
273.09	169.12
273.322	183.12
273.553	173.12
273.785	172.12
274.017	181.12
274.249	214.12
274.481	213.12
274.713	216.12
274.945	222.12
275.176	217.12
275.408	200.12
275.64	219.12
275.872	228.12
276.104	200.12
276.335	211.12
276.567	196.12
276.799	191.12
277.031	189.12
277.262	180.12
277.494	195.12
277.726	182.12
277.957	219.12
278.189	202.12
278.421	203.12
278.652	201.12
278.884	196.12
279.115	215.12
279.347	209.12
279.579	206.12
279.81	214.12
280.042	209.12
280.273	212.12
280.505	192.12
280.736	216.12
280.968	205.12
281.199	209.12
281.431	204.12
281.662	215.12
281.894	218.12
282.125	203.12
282.356	203.12
282.588	223.12
282.819	209.12
283.051	199.12
283.282	199.12
283.513	218.12
283.745	208.12
283.976	220.12
284.207	230.12
284.439	214.12
284.67	210.12
284.901	224.12
285.132	222.12
285.364	222.12
285.595	219.12
285.826	227.12
286.057	216.12
286.288	211.12
286.52	218.12
286.751	215.12
286.982	230.12
287.213	226.12
287.444	232.12
287.675	231.12
287.906	219.12
288.138	222.12
288.369	230.12
288.6	216.12
288.831	220.12
289.062	253.12
289.293	229.12
289.524	224.12
289.755	222.12
289.986	225.12
290.217	232.12
290.448	236.12
290.679	238.12
290.91	240.12
291.141	222.12
291.371	224.12
291.602	251.12
291.833	235.12
292.064	243.12
292.295	238.12
292.526	243.12
292.757	257.12
292.987	245.12
293.218	246.12
293.449	244.12
293.68	233.12
293.91	229.12
294.141	235.12
294.372	232.12
294.603	253.12
294.833	248.12
295.064	253.12
295.295	228.12
295.525	229.12
295.756	249.12
295.987	237.12
296.217	265.12
296.448	243.12
296.679	248.12
296.909	248.12
297.14	260.12
297.37	239.12
297.601	268.12
297.831	260.12
298.062	262.12
298.292	261.12
298.523	293.12
298.753	266.12
298.984	262.12
299.214	264.12
299.445	254.12
299.675	256.12
299.905	257.12
300.136	263.12
300.366	259.12
300.597	246.12
300.827	264.12
301.057	277.12
301.288	266.12
301.518	261.12
301.748	276.12
301.979	276.12
302.209	279.12
302.439	256.12
302.669	285.12
302.9	265.12
303.13	256.12
303.36	267.12
303.59	252.12
303.82	271.12
304.051	295.12
304.281	257.12
304.511	273.12
304.741	283.12
304.971	274.12
305.201	264.12
305.431	278.12
305.661	278.12
305.891	288.12
306.121	281.12
306.352	263.12
306.582	287.12
306.812	285.12
307.042	286.12
307.272	293.12
307.502	268.12
307.731	272.12
307.961	286.12
308.191	279.12
308.421	282.12
308.651	288.12
308.881	302.12
309.111	294.12
309.341	284.12
309.571	284.12
309.8	316.12
310.03	293.12
310.26	281.12
310.49	299.12
310.72	308.12
310.949	280.12
311.179	290.12
311.409	290.12
311.639	307.12
311.868	293.12
312.098	279.12
312.328	303.12
312.557	293.12
312.787	297.12
313.017	291.12
313.246	312.12
313.476	312.12
313.706	285.12
313.935	305.12
314.165	307.12
314.394	301.12
314.624	316.12
314.853	315.12
315.083	302.12
315.312	316.12
315.542	299.12
315.771	309.12
316.001	311.12
316.23	311.12
316.46	314.12
316.689	301.12
316.919	328.12
317.148	319.12
317.377	329.12
317.607	307.12
317.836	311.12
318.065	318.12
318.295	309.12
318.524	325.12
318.753	321.12
318.983	316.12
319.212	307.12
319.441	335.12
319.67	333.12
319.9	307.12
320.129	340.12
320.358	324.12
320.587	318.12
320.816	324.12
321.046	327.12
321.275	296.12
321.504	319.12
321.733	312.12
321.962	311.12
322.191	325.12
322.42	316.12
322.649	326.12
322.878	325.12
323.108	325.12
323.337	342.12
323.566	336.12
323.795	330.12
324.024	337.12
324.253	353.12
324.482	325.12
324.71	315.12
324.939	323.12
325.168	351.12
325.397	336.12
325.626	334.12
325.855	337.12
326.084	350.12
326.313	341.12
326.542	329.12
326.77	357.12
326.999	334.12
327.228	321.12
327.457	334.12
327.686	342.12
327.914	355.12
328.143	357.12
328.372	356.12
328.6	337.12
328.829	347.12
329.058	345.12
329.287	327.12
329.515	352.12
329.744	373.12
329.972	359.12
330.201	334.12
330.43	348.12
330.658	358.12
330.887	360.12
331.115	352.12
331.344	364.12
331.572	362.12
331.801	350.12
332.03	343.12
332.258	352.12
332.486	378.12
332.715	381.12
332.943	367.12
333.172	383.12
333.4	368.12
333.629	371.12
333.857	377.12
334.085	383.12
334.314	376.12
334.542	367.12
334.771	375.12
334.999	399.12
335.227	383.12
335.455	407.12
335.684	372.12
335.912	391.12
336.14	394.12
336.369	391.12
336.597	393.12
336.825	402.12
337.053	383.12
337.281	379.12
337.51	404.12
337.738	395.12
337.966	364.12
338.194	387.12
338.422	383.12
338.65	382.12
338.878	393.12
339.106	391.12
339.334	385.12
339.562	385.12
339.79	392.12
340.018	386.12
340.246	367.12
340.474	379.12
340.702	379.12
340.93	380.12
341.158	364.12
341.386	367.12
341.614	383.12
341.842	356.12
342.07	363.12
342.298	387.12
342.526	372.12
342.754	385.12
342.981	366.12
343.209	378.12
343.437	398.12
343.665	378.12
343.893	401.12
344.12	401.12
344.348	416.12
344.576	397.12
344.804	387.12
345.031	391.12
345.259	374.12
345.487	393.12
345.714	372.12
345.942	376.12
346.17	373.12
346.397	386.12
346.625	382.12
346.853	369.12
347.08	385.12
347.308	367.12
347.535	375.12
347.763	386.12
347.99	368.12
348.218	366.12
348.445	376.12
348.673	362.12
348.9	383.12
349.128	383.12
349.355	369.12
349.583	376.12
349.81	377.12
350.037	366.12
350.265	363.12
350.492	376.12
350.72	369.12
350.947	375.12
351.174	374.12
351.402	375.12
351.629	368.12
351.856	383.12
352.083	361.12
352.311	378.12
352.538	387.12
352.765	376.12
352.992	376.12
353.22	360.12
353.447	367.12
353.674	381.12
353.901	369.12
354.128	360.12
354.355	356.12
354.583	369.12
354.81	386.12
355.037	391.12
355.264	400.12
355.491	382.12
355.718	378.12
355.945	381.12
356.172	382.12
356.399	377.12
356.626	374.12
356.853	394.12
357.08	385.12
357.307	383.12
357.534	376.12
357.761	375.12
357.988	396.12
358.215	405.12
358.441	374.12
358.668	405.12
358.895	399.12
359.122	404.12
359.349	401.12
359.576	389.12
359.802	374.12
360.029	397.12
360.256	368.12
360.483	366.12
360.709	377.12
360.936	389.12
361.163	389.12
361.39	377.12
361.616	396.12
361.843	379.12
362.07	378.12
362.296	391.12
362.523	364.12
362.749	395.12
362.976	400.12
363.203	388.12
363.429	389.12
363.656	386.12
363.882	399.12
364.109	382.12
364.335	373.12
364.562	407.12
364.788	400.12
365.015	384.12
365.241	388.12
365.468	407.12
365.694	389.12
365.92	386.12
366.147	388.12
366.373	385.12
366.599	393.12
366.826	407.12
367.052	367.12
367.278	387.12
367.505	385.12
367.731	397.12
367.957	393.12
368.184	396.12
368.41	414.12
368.636	403.12
368.862	405.12
369.089	408.12
369.315	398.12
369.541	399.12
369.767	421.12
369.993	426.12
370.219	392.12
370.445	398.12
370.672	421.12
370.898	395.12
371.124	422.12
371.35	409.12
371.576	415.12
371.802	431.12
372.028	421.12
372.254	413.12
372.48	424.12
372.706	413.12
372.932	428.12
373.158	401.12
373.384	423.12
373.61	410.12
373.835	442.12
374.061	415.12
374.287	394.12
374.513	416.12
374.739	426.12
374.965	444.12
375.191	427.12
375.416	456.12
375.642	431.12
375.868	444.12
376.094	414.12
376.319	421.12
376.545	436.12
376.771	414.12
376.997	416.12
377.222	419.12
377.448	405.12
377.674	424.12
377.899	427.12
378.125	411.12
378.35	415.12
378.576	411.12
378.802	401.12
379.027	418.12
379.253	425.12
379.478	416.12
379.704	414.12
379.929	421.12
380.155	409.12
380.38	423.12
380.606	419.12
380.831	398.12
381.057	429.12
381.282	425.12
381.507	424.12
381.733	419.12
381.958	443.12
382.184	435.12
382.409	465.12
382.634	457.12
382.86	468.12
383.085	443.12
383.31	428.12
383.535	459.12
383.761	430.12
383.986	447.12
384.211	435.12
384.436	440.12
384.662	443.12
384.887	474.12
385.112	432.12
385.337	451.12
385.562	458.12
385.787	460.12
386.013	477.12
386.238	450.12
386.463	448.12
386.688	478.12
386.913	470.12
387.138	473.12
387.363	467.12
387.588	471.12
387.813	492.12
388.038	464.12
388.263	468.12
388.488	499.12
388.713	471.12
388.938	494.12
389.163	469.12
389.387	491.12
389.612	469.12
389.837	476.12
390.062	452.12
390.287	466.12
390.512	472.12
390.736	489.12
390.961	490.12
391.186	471.12
391.411	494.12
391.636	472.12
391.86	493.12
392.085	475.12
392.31	472.12
392.534	512.12
392.759	483.12
392.984	486.12
393.208	518.12
393.433	527.12
393.658	531.12
393.882	490.12
394.107	504.12
394.331	472.12
394.556	472.12
394.78	471.12
395.005	496.12
395.229	513.12
395.454	517.12
395.678	500.12
395.903	508.12
396.127	521.12
396.352	531.12
396.576	504.12
396.801	516.12
397.025	528.12
397.249	517.12
397.474	527.12
397.698	506.12
397.922	522.12
398.147	516.12
398.371	521.12
398.595	531.12
398.82	543.12
399.044	548.12
399.268	563.12
399.492	585.12
399.717	590.12
399.941	596.12
400.165	573.12
400.389	593.12
400.613	552.12
400.837	548.12
401.062	555.12
401.286	550.12
401.51	558.12
401.734	563.12
401.958	552.12
402.182	554.12
402.406	549.12
402.63	537.12
402.854	566.12
403.078	557.12
403.302	566.12
403.526	552.12
403.75	540.12
403.974	542.12
404.198	536.12
404.422	564.12
404.645	535.12
404.869	570.12
405.093	571.12
405.317	569.12
405.541	544.12
405.765	571.12
405.988	575.12
406.212	560.12
406.436	572.12
406.66	568.12
406.883	589.12
407.107	575.12
407.331	619.12
407.555	599.12
407.778	596.12
408.002	581.12
408.226	560.12
408.449	617.12
408.673	589.12
408.896	597.12
409.12	575.12
409.344	590.12
409.567	584.12
409.791	580.12
410.014	586.12
410.238	574.12
410.461	580.12
410.685	555.12
410.908	569.12
411.132	567.12
411.355	560.12
411.578	571.12
411.802	551.12
412.025	552.12
412.249	556.12
412.472	572.12
412.695	556.12
412.919	553.12
413.142	551.12
413.365	555.12
413.589	550.12
413.812	555.12
414.035	553.12
414.258	547.12
414.482	544.12
414.705	574.12
414.928	552.12
415.151	544.12
415.374	557.12
415.597	538.12
415.821	528.12
416.044	537.12
416.267	534.12
416.49	509.12
416.713	555.12
416.936	543.12
417.159	524.12
417.382	536.12
417.605	510.12
417.828	529.12
418.051	538.12
418.274	528.12
418.497	529.12
418.72	519.12
418.943	526.12
419.166	563.12
419.389	564.12
419.611	564.12
419.834	535.12
420.057	539.12
420.28	524.12
420.503	531.12
420.726	526.12
420.948	505.12
421.171	518.12
421.394	523.12
421.617	519.12
421.839	512.12
422.062	531.12
422.285	501.12
422.507	547.12
422.73	532.12
422.953	522.12
423.175	514.12
423.398	516.12
423.621	518.12
423.843	534.12
424.066	524.12
424.288	531.12
424.511	523.12
424.733	545.12
424.956	495.12
425.178	518.12
425.401	526.12
425.623	521.12
425.846	518.12
426.068	513.12
426.291	534.12
426.513	501.12
426.735	526.12
426.958	511.12
427.18	511.12
427.402	519.12
427.625	520.12
427.847	512.12
428.069	515.12
428.292	515.12
428.514	489.12
428.736	505.12
428.958	541.12
429.181	507.12
429.403	520.12
429.625	517.12
429.847	523.12
430.069	516.12
430.292	497.12
430.514	503.12
430.736	499.12
430.958	537.12
431.18	511.12
431.402	518.12
431.624	537.12
431.846	511.12
432.068	519.12
432.29	535.12
432.512	523.12
432.734	527.12
432.956	517.12
433.178	531.12
433.4	523.12
433.622	547.12
433.844	510.12
434.066	513.12
434.287	511.12
434.509	494.12
434.731	522.12
434.953	548.12
435.175	535.12
435.397	533.12
435.618	514.12
435.84	523.12
436.062	516.12
436.284	500.12
436.505	517.12
436.727	470.12
436.949	513.12
437.17	500.12
437.392	515.12
437.614	527.12
437.835	515.12
438.057	490.12
438.278	481.12
438.5	506.12
438.721	505.12
438.943	541.12
439.165	499.12
439.386	520.12
439.608	531.12
439.829	490.12
440.05	508.12
440.272	527.12
440.493	517.12
440.715	518.12
440.936	533.12
441.158	528.12
441.379	515.12
441.6	523.12
441.822	521.12
442.043	529.12
442.264	536.12
442.486	542.12
442.707	517.12
442.928	542.12
443.149	503.12
443.371	511.12
443.592	529.12
443.813	499.12
444.034	525.12
444.255	526.12
444.476	535.12
444.698	564.12
444.919	533.12
445.14	599.12
445.361	556.12
445.582	559.12
445.803	523.12
446.024	525.12
446.245	526.12
446.466	528.12
446.687	533.12
446.908	503.12
447.129	503.12
447.35	496.12
447.571	523.12
447.792	493.12
448.013	500.12
448.234	481.12
448.455	492.12
448.675	499.12
448.896	513.12
449.117	489.12
449.338	474.12
449.559	476.12
449.779	477.12
450	483.12
450.221	479.12
450.442	488.12
450.662	482.12
450.883	491.12
451.104	482.12
451.324	469.12
451.545	473.12
451.766	494.12
451.986	488.12
452.207	470.12
452.428	456.12
452.648	467.12
452.869	475.12
453.089	482.12
453.31	482.12
453.53	499.12
453.751	476.12
453.971	482.12
454.192	488.12
454.412	480.12
454.633	451.12
454.853	468.12
455.073	485.12
455.294	467.12
455.514	464.12
455.734	472.12
455.955	471.12
456.175	482.12
456.395	478.12
456.616	478.12
456.836	477.12
457.056	453.12
457.276	449.12
457.497	462.12
457.717	481.12
457.937	477.12
458.157	487.12
458.377	473.12
458.598	502.12
458.818	491.12
459.038	480.12
459.258	517.12
459.478	516.12
459.698	505.12
459.918	502.12
460.138	499.12
460.358	510.12
460.578	519.12
460.798	534.12
461.018	544.12
461.238	543.12
461.458	549.12
461.678	556.12
461.898	552.12
462.118	547.12
462.338	570.12
462.558	571.12
462.777	558.12
462.997	577.12
463.217	577.12
463.437	599.12
463.657	571.12
463.876	582.12
464.096	585.12
464.316	557.12
464.536	573.12
464.755	563.12
464.975	543.12
465.195	552.12
465.414	555.12
465.634	541.12
465.854	528.12
466.073	534.12
466.293	533.12
466.512	526.12
466.732	513.12
466.951	520.12
467.171	523.12
467.391	549.12
467.61	522.12
467.829	517.12
468.049	517.12
468.268	540.12
468.488	512.12
468.707	522.12
468.927	548.12
469.146	516.12
469.365	523.12
469.585	505.12
469.804	531.12
470.023	508.12
470.243	517.12
470.462	504.12
470.681	516.12
470.901	535.12
471.12	518.12
471.339	534.12
471.558	524.12
471.777	515.12
471.997	536.12
472.216	534.12
472.435	543.12
472.654	522.12
472.873	533.12
473.092	539.12
473.311	533.12
473.53	556.12
473.749	522.12
473.968	504.12
474.187	511.12
474.406	529.12
474.625	529.12
474.844	550.12
475.063	547.12
475.282	543.12
475.501	553.12
475.72	550.12
475.939	544.12
476.158	553.12
476.377	538.12
476.596	570.12
476.814	575.12
477.033	567.12
477.252	565.12
477.471	577.12
477.69	574.12
477.908	577.12
478.127	592.12
478.346	573.12
478.564	604.12
478.783	596.12
479.002	605.12
479.22	606.12
479.439	590.12
479.658	612.12
479.876	629.12
480.095	605.12
480.313	629.12
480.532	595.12
480.751	618.12
480.969	641.12
481.188	619.12
481.406	640.12
481.624	616.12
481.843	618.12
482.061	629.12
482.28	599.12
482.498	636.12
482.717	609.12
482.935	600.12
483.153	601.12
483.372	644.12
483.59	623.12
483.808	631.12
484.027	634.12
484.245	619.12
484.463	621.12
484.681	646.12
484.9	636.12
485.118	639.12
485.336	645.12
485.554	639.12
485.772	662.12
485.99	638.12
486.209	643.12
486.427	629.12
486.645	650.12
486.863	663.12
487.081	651.12
487.299	631.12
487.517	651.12
487.735	640.12
487.953	649.12
488.171	647.12
488.389	639.12
488.607	652.12
488.825	651.12
489.043	633.12
489.261	643.12
489.479	659.12
489.696	645.12
489.914	641.12
490.132	664.12
490.35	643.12
490.568	659.12
490.786	698.12
491.003	646.12
491.221	662.12
491.439	667.12
491.657	672.12
491.874	669.12
492.092	682.12
492.31	665.12
492.527	649.12
492.745	653.12
492.963	670.12
493.18	686.12
493.398	681.12
493.615	668.12
493.833	671.12
494.05	673.12
494.268	677.12
494.485	687.12
494.703	693.12
494.92	703.12
495.138	683.12
495.355	704.12
495.573	681.12
495.79	678.12
496.008	720.12
496.225	705.12
496.442	717.12
496.66	709.12
496.877	744.12
497.094	741.12
497.312	742.12
497.529	736.12
497.746	728.12
497.963	774.12
498.181	767.12
498.398	765.12
498.615	776.12
498.832	822.12
499.049	829.12
499.267	834.12
499.484	831.12
499.701	886.12
499.918	859.12
500.135	905.12
500.352	972.12
500.569	973.12
500.786	978.12
501.003	917.12
501.22	952.12
501.437	909.12
501.654	860.12
501.871	853.12
