Data from Fe(NO3)3@0.1M.TitratingCurve.Agarose3%dH2O.NegLispCup.LampEnergy10.LIBS07252019_HRD10591_16-40-09-332.txt Node
Date: Thu Jul 25 16:40:09 EDT 2019
User: cochatt
Spectrometer: HR+D1059
Trigger mode: 1
Integration Time (sec): 1.000000E-1
Scans to average: 1
Electric dark correction enabled: true
Nonlinearity correction enabled: false
Boxcar width: 0
XAxis mode: Wavelengths
Number of Pixels in Spectrum: 2048
>>>>>Begin Spectral Data<<<<<
223.165	-21.38
223.4	-21.38
223.635	-21.38
223.869	-13.38
224.104	-28.38
224.338	-20.38
224.573	-16.38
224.808	-11.38
225.042	-10.38
225.277	-0.38
225.511	-0.38
225.746	2.62
225.98	7.62
226.215	11.62
226.449	17.62
226.683	17.62
226.918	28.62
227.152	36.62
227.387	36.62
227.621	33.62
227.856	55.62
228.09	44.62
228.324	43.62
228.559	52.62
228.793	60.62
229.027	54.62
229.262	68.62
229.496	85.62
229.73	65.62
229.964	81.62
230.199	78.62
230.433	84.62
230.667	83.62
230.901	84.62
231.136	84.62
231.37	87.62
231.604	85.62
231.838	77.62
232.072	90.62
232.306	86.62
232.541	92.62
232.775	96.62
233.009	95.62
233.243	83.62
233.477	91.62
233.711	93.62
233.945	74.62
234.179	80.62
234.413	89.62
234.647	77.62
234.881	77.62
235.115	92.62
235.349	86.62
235.583	92.62
235.817	94.62
236.051	94.62
236.285	82.62
236.519	77.62
236.753	92.62
236.987	95.62
237.221	84.62
237.455	77.62
237.689	84.62
237.922	89.62
238.156	73.62
238.39	89.62
238.624	82.62
238.858	93.62
239.091	77.62
239.325	93.62
239.559	81.62
239.793	83.62
240.027	83.62
240.26	99.62
240.494	89.62
240.728	89.62
240.961	90.62
241.195	94.62
241.429	96.62
241.662	87.62
241.896	79.62
242.13	101.62
242.363	81.62
242.597	86.62
242.83	94.62
243.064	94.62
243.298	94.62
243.531	93.62
243.765	89.62
243.998	84.62
244.232	100.62
244.465	85.62
244.699	97.62
244.932	90.62
245.166	92.62
245.399	100.62
245.633	86.62
245.866	88.62
246.099	100.62
246.333	109.62
246.566	100.62
246.8	94.62
247.033	110.62
247.266	94.62
247.5	100.62
247.733	101.62
247.966	87.62
248.2	78.62
248.433	99.62
248.666	86.62
248.899	104.62
249.133	101.62
249.366	110.62
249.599	90.62
249.832	92.62
250.066	105.62
250.299	96.62
250.532	96.62
250.765	101.62
250.998	102.62
251.231	102.62
251.465	94.62
251.698	96.62
251.931	99.62
252.164	108.62
252.397	101.62
252.63	108.62
252.863	100.62
253.096	108.62
253.329	114.62
253.562	99.62
253.795	100.62
254.028	113.62
254.261	103.62
254.494	96.62
254.727	103.62
254.96	96.62
255.193	107.62
255.426	99.62
255.659	106.62
255.892	106.62
256.124	110.62
256.357	102.62
256.59	112.62
256.823	96.62
257.056	94.62
257.289	92.62
257.521	105.62
257.754	113.62
257.987	102.62
258.22	113.62
258.452	118.62
258.685	109.62
258.918	124.62
259.151	96.62
259.383	105.62
259.616	114.62
259.849	112.62
260.081	95.62
260.314	100.62
260.547	97.62
260.779	101.62
261.012	103.62
261.244	93.62
261.477	102.62
261.71	101.62
261.942	117.62
262.175	116.62
262.407	120.62
262.64	105.62
262.872	120.62
263.105	116.62
263.337	114.62
263.57	102.62
263.802	123.62
264.035	120.62
264.267	120.62
264.499	109.62
264.732	106.62
264.964	100.62
265.197	118.62
265.429	122.62
265.661	108.62
265.894	110.62
266.126	113.62
266.358	107.62
266.591	114.62
266.823	126.62
267.055	132.62
267.287	108.62
267.52	118.62
267.752	116.62
267.984	109.62
268.216	123.62
268.448	118.62
268.681	114.62
268.913	116.62
269.145	118.62
269.377	101.62
269.609	116.62
269.841	117.62
270.073	117.62
270.306	116.62
270.538	117.62
270.77	115.62
271.002	114.62
271.234	117.62
271.466	108.62
271.698	120.62
271.93	129.62
272.162	115.62
272.394	131.62
272.626	126.62
272.858	108.62
273.09	136.62
273.322	123.62
273.553	127.62
273.785	122.62
274.017	141.62
274.249	128.62
274.481	114.62
274.713	122.62
274.945	117.62
275.176	129.62
275.408	122.62
275.64	139.62
275.872	127.62
276.104	133.62
276.335	126.62
276.567	116.62
276.799	122.62
277.031	119.62
277.262	136.62
277.494	114.62
277.726	140.62
277.957	122.62
278.189	137.62
278.421	127.62
278.652	128.62
278.884	116.62
279.115	112.62
279.347	138.62
279.579	120.62
279.81	122.62
280.042	126.62
280.273	122.62
280.505	129.62
280.736	125.62
280.968	114.62
281.199	128.62
281.431	128.62
281.662	131.62
281.894	145.62
282.125	119.62
282.356	135.62
282.588	137.62
282.819	123.62
283.051	134.62
283.282	142.62
283.513	126.62
283.745	115.62
283.976	138.62
284.207	132.62
284.439	133.62
284.67	145.62
284.901	132.62
285.132	128.62
285.364	132.62
285.595	138.62
285.826	134.62
286.057	129.62
286.288	149.62
286.52	137.62
286.751	138.62
286.982	137.62
287.213	121.62
287.444	124.62
287.675	140.62
287.906	132.62
288.138	145.62
288.369	140.62
288.6	136.62
288.831	136.62
289.062	129.62
289.293	152.62
289.524	139.62
289.755	141.62
289.986	134.62
290.217	139.62
290.448	133.62
290.679	153.62
290.91	135.62
291.141	136.62
291.371	147.62
291.602	146.62
291.833	136.62
292.064	145.62
292.295	145.62
292.526	132.62
292.757	150.62
292.987	134.62
293.218	125.62
293.449	133.62
293.68	140.62
293.91	140.62
294.141	142.62
294.372	145.62
294.603	132.62
294.833	155.62
295.064	143.62
295.295	139.62
295.525	154.62
295.756	140.62
295.987	148.62
296.217	145.62
296.448	143.62
296.679	141.62
296.909	140.62
297.14	152.62
297.37	144.62
297.601	148.62
297.831	154.62
298.062	139.62
298.292	137.62
298.523	151.62
298.753	160.62
298.984	156.62
299.214	148.62
299.445	164.62
299.675	148.62
299.905	155.62
300.136	145.62
300.366	172.62
300.597	158.62
300.827	146.62
301.057	146.62
301.288	156.62
301.518	150.62
301.748	164.62
301.979	173.62
302.209	163.62
302.439	164.62
302.669	160.62
302.9	149.62
303.13	160.62
303.36	155.62
303.59	156.62
303.82	165.62
304.051	172.62
304.281	147.62
304.511	155.62
304.741	142.62
304.971	151.62
305.201	158.62
305.431	153.62
305.661	162.62
305.891	153.62
306.121	167.62
306.352	157.62
306.582	161.62
306.812	158.62
307.042	164.62
307.272	161.62
307.502	158.62
307.731	154.62
307.961	171.62
308.191	130.62
308.421	148.62
308.651	145.62
308.881	160.62
309.111	167.62
309.341	148.62
309.571	167.62
309.8	153.62
310.03	138.62
310.26	164.62
310.49	161.62
310.72	160.62
310.949	171.62
311.179	161.62
311.409	141.62
311.639	149.62
311.868	164.62
312.098	165.62
312.328	151.62
312.557	163.62
312.787	158.62
313.017	149.62
313.246	177.62
313.476	171.62
313.706	179.62
313.935	160.62
314.165	164.62
314.394	160.62
314.624	158.62
314.853	170.62
315.083	165.62
315.312	181.62
315.542	159.62
315.771	172.62
316.001	155.62
316.23	158.62
316.46	170.62
316.689	163.62
316.919	166.62
317.148	168.62
317.377	154.62
317.607	157.62
317.836	168.62
318.065	188.62
318.295	184.62
318.524	171.62
318.753	162.62
318.983	171.62
319.212	158.62
319.441	179.62
319.67	168.62
319.9	156.62
320.129	173.62
320.358	177.62
320.587	164.62
320.816	165.62
321.046	152.62
321.275	163.62
321.504	184.62
321.733	180.62
321.962	169.62
322.191	167.62
322.42	162.62
322.649	173.62
322.878	157.62
323.108	184.62
323.337	176.62
323.566	179.62
323.795	174.62
324.024	179.62
324.253	164.62
324.482	173.62
324.71	177.62
324.939	172.62
325.168	181.62
325.397	180.62
325.626	163.62
325.855	154.62
326.084	173.62
326.313	182.62
326.542	188.62
326.77	181.62
326.999	178.62
327.228	184.62
327.457	188.62
327.686	157.62
327.914	166.62
328.143	181.62
328.372	180.62
328.6	184.62
328.829	181.62
329.058	181.62
329.287	171.62
329.515	186.62
329.744	178.62
329.972	192.62
330.201	179.62
330.43	169.62
330.658	185.62
330.887	197.62
331.115	201.62
331.344	189.62
331.572	178.62
331.801	203.62
332.03	179.62
332.258	184.62
332.486	187.62
332.715	212.62
332.943	197.62
333.172	206.62
333.4	208.62
333.629	220.62
333.857	219.62
334.085	196.62
334.314	212.62
334.542	198.62
334.771	205.62
334.999	206.62
335.227	209.62
335.455	213.62
335.684	211.62
335.912	206.62
336.14	180.62
336.369	187.62
336.597	187.62
336.825	197.62
337.053	199.62
337.281	176.62
337.51	189.62
337.738	198.62
337.966	179.62
338.194	198.62
338.422	194.62
338.65	198.62
338.878	193.62
339.106	207.62
339.334	185.62
339.562	179.62
339.79	196.62
340.018	178.62
340.246	201.62
340.474	176.62
340.702	198.62
340.93	186.62
341.158	197.62
341.386	186.62
341.614	207.62
341.842	180.62
342.07	188.62
342.298	194.62
342.526	197.62
342.754	188.62
342.981	192.62
343.209	198.62
343.437	187.62
343.665	196.62
343.893	213.62
344.12	212.62
344.348	207.62
344.576	212.62
344.804	206.62
345.031	200.62
345.259	187.62
345.487	189.62
345.714	173.62
345.942	180.62
346.17	194.62
346.397	195.62
346.625	196.62
346.853	178.62
347.08	193.62
347.308	187.62
347.535	184.62
347.763	198.62
347.99	178.62
348.218	176.62
348.445	200.62
348.673	168.62
348.9	186.62
349.128	190.62
349.355	176.62
349.583	202.62
349.81	198.62
350.037	183.62
350.265	191.62
350.492	182.62
350.72	174.62
350.947	178.62
351.174	180.62
351.402	182.62
351.629	188.62
351.856	184.62
352.083	195.62
352.311	176.62
352.538	181.62
352.765	199.62
352.992	180.62
353.22	173.62
353.447	179.62
353.674	196.62
353.901	182.62
354.128	173.62
354.355	196.62
354.583	184.62
354.81	196.62
355.037	179.62
355.264	190.62
355.491	189.62
355.718	185.62
355.945	200.62
356.172	179.62
356.399	181.62
356.626	179.62
356.853	202.62
357.08	188.62
357.307	189.62
357.534	174.62
357.761	189.62
357.988	188.62
358.215	196.62
358.441	192.62
358.668	188.62
358.895	190.62
359.122	186.62
359.349	181.62
359.576	178.62
359.802	198.62
360.029	183.62
360.256	188.62
360.483	193.62
360.709	190.62
360.936	176.62
361.163	206.62
361.39	204.62
361.616	189.62
361.843	211.62
362.07	196.62
362.296	206.62
362.523	185.62
362.749	193.62
362.976	197.62
363.203	214.62
363.429	182.62
363.656	193.62
363.882	178.62
364.109	194.62
364.335	186.62
364.562	179.62
364.788	201.62
365.015	191.62
365.241	203.62
365.468	186.62
365.694	184.62
365.92	192.62
366.147	197.62
366.373	178.62
366.599	191.62
366.826	192.62
367.052	179.62
367.278	195.62
367.505	179.62
367.731	190.62
367.957	192.62
368.184	202.62
368.41	184.62
368.636	190.62
368.862	202.62
369.089	177.62
369.315	209.62
369.541	195.62
369.767	199.62
369.993	186.62
370.219	183.62
370.445	195.62
370.672	199.62
370.898	197.62
371.124	202.62
371.35	198.62
371.576	184.62
371.802	201.62
372.028	210.62
372.254	211.62
372.48	184.62
372.706	219.62
372.932	219.62
373.158	220.62
373.384	222.62
373.61	202.62
373.835	209.62
374.061	219.62
374.287	210.62
374.513	201.62
374.739	207.62
374.965	195.62
375.191	215.62
375.416	217.62
375.642	203.62
375.868	212.62
376.094	201.62
376.319	189.62
376.545	210.62
376.771	212.62
376.997	206.62
377.222	207.62
377.448	192.62
377.674	195.62
377.899	202.62
378.125	199.62
378.35	216.62
378.576	199.62
378.802	203.62
379.027	195.62
379.253	206.62
379.478	210.62
379.704	214.62
379.929	211.62
380.155	192.62
380.38	201.62
380.606	201.62
380.831	220.62
381.057	210.62
381.282	198.62
381.507	203.62
381.733	212.62
381.958	225.62
382.184	200.62
382.409	221.62
382.634	221.62
382.86	224.62
383.085	216.62
383.31	213.62
383.535	215.62
383.761	226.62
383.986	218.62
384.211	219.62
384.436	224.62
384.662	234.62
384.887	233.62
385.112	228.62
385.337	245.62
385.562	221.62
385.787	219.62
386.013	232.62
386.238	232.62
386.463	232.62
386.688	240.62
386.913	216.62
387.138	233.62
387.363	223.62
387.588	222.62
387.813	241.62
388.038	234.62
388.263	236.62
388.488	229.62
388.713	236.62
388.938	229.62
389.163	229.62
389.387	236.62
389.612	228.62
389.837	218.62
390.062	228.62
390.287	249.62
390.512	231.62
390.736	235.62
390.961	265.62
391.186	250.62
391.411	237.62
391.636	264.62
391.86	236.62
392.085	256.62
392.31	255.62
392.534	250.62
392.759	238.62
392.984	256.62
393.208	258.62
393.433	224.62
393.658	243.62
393.882	244.62
394.107	228.62
394.331	252.62
394.556	260.62
394.78	235.62
395.005	259.62
395.229	250.62
395.454	250.62
395.678	242.62
395.903	257.62
396.127	262.62
396.352	272.62
396.576	249.62
396.801	240.62
397.025	258.62
397.249	268.62
397.474	269.62
397.698	271.62
397.922	258.62
398.147	271.62
398.371	264.62
398.595	265.62
398.82	289.62
399.044	311.62
399.268	316.62
399.492	346.62
399.717	352.62
399.941	360.62
400.165	324.62
400.389	302.62
400.613	300.62
400.837	284.62
401.062	295.62
401.286	295.62
401.51	279.62
401.734	289.62
401.958	290.62
402.182	290.62
402.406	282.62
402.63	279.62
402.854	289.62
403.078	297.62
403.302	298.62
403.526	289.62
403.75	300.62
403.974	309.62
404.198	298.62
404.422	309.62
404.645	313.62
404.869	297.62
405.093	298.62
405.317	282.62
405.541	306.62
405.765	318.62
405.988	287.62
406.212	296.62
406.436	298.62
406.66	326.62
406.883	288.62
407.107	326.62
407.331	333.62
407.555	337.62
407.778	301.62
408.002	310.62
408.226	314.62
408.449	308.62
408.673	301.62
408.896	309.62
409.12	325.62
409.344	312.62
409.567	309.62
409.791	306.62
410.014	309.62
410.238	301.62
410.461	304.62
410.685	294.62
410.908	304.62
411.132	294.62
411.355	280.62
411.578	296.62
411.802	304.62
412.025	313.62
412.249	292.62
412.472	314.62
412.695	290.62
412.919	288.62
413.142	291.62
413.365	296.62
413.589	284.62
413.812	283.62
414.035	270.62
414.258	276.62
414.482	293.62
414.705	300.62
414.928	309.62
415.151	282.62
415.374	285.62
415.597	284.62
415.821	281.62
416.044	286.62
416.267	286.62
416.49	297.62
416.713	280.62
416.936	283.62
417.159	293.62
417.382	292.62
417.605	290.62
417.828	288.62
418.051	290.62
418.274	293.62
418.497	289.62
418.72	292.62
418.943	283.62
419.166	311.62
419.389	316.62
419.611	299.62
419.834	303.62
420.057	306.62
420.28	286.62
420.503	280.62
420.726	299.62
420.948	294.62
421.171	275.62
421.394	293.62
421.617	262.62
421.839	305.62
422.062	303.62
422.285	271.62
422.507	265.62
422.73	280.62
422.953	296.62
423.175	281.62
423.398	293.62
423.621	272.62
423.843	297.62
424.066	300.62
424.288	291.62
424.511	302.62
424.733	293.62
424.956	280.62
425.178	288.62
425.401	312.62
425.623	291.62
425.846	291.62
426.068	279.62
426.291	281.62
426.513	273.62
426.735	279.62
426.958	257.62
427.18	284.62
427.402	283.62
427.625	267.62
427.847	279.62
428.069	254.62
428.292	253.62
428.514	269.62
428.736	277.62
428.958	273.62
429.181	244.62
429.403	244.62
429.625	283.62
429.847	256.62
430.069	264.62
430.292	273.62
430.514	252.62
430.736	278.62
430.958	259.62
431.18	279.62
431.402	272.62
431.624	276.62
431.846	263.62
432.068	264.62
432.29	260.62
432.512	271.62
432.734	268.62
432.956	270.62
433.178	285.62
433.4	273.62
433.622	266.62
433.844	286.62
434.066	283.62
434.287	286.62
434.509	272.62
434.731	288.62
434.953	282.62
435.175	302.62
435.397	291.62
435.618	293.62
435.84	276.62
436.062	280.62
436.284	285.62
436.505	282.62
436.727	276.62
436.949	274.62
437.17	280.62
437.392	258.62
437.614	286.62
437.835	260.62
438.057	248.62
438.278	261.62
438.5	279.62
438.721	276.62
438.943	267.62
439.165	279.62
439.386	278.62
439.608	274.62
439.829	283.62
440.05	282.62
440.272	301.62
440.493	279.62
440.715	292.62
440.936	306.62
441.158	293.62
441.379	281.62
441.6	309.62
441.822	314.62
442.043	334.62
442.264	311.62
442.486	304.62
442.707	296.62
442.928	291.62
443.149	288.62
443.371	308.62
443.592	318.62
443.813	334.62
444.034	315.62
444.255	314.62
444.476	327.62
444.698	333.62
444.919	347.62
445.14	434.62
445.361	357.62
445.582	295.62
445.803	305.62
446.024	310.62
446.245	310.62
446.466	296.62
446.687	280.62
446.908	280.62
447.129	285.62
447.35	286.62
447.571	292.62
447.792	282.62
448.013	270.62
448.234	269.62
448.455	273.62
448.675	266.62
448.896	295.62
449.117	268.62
449.338	271.62
449.559	272.62
449.779	266.62
450	264.62
450.221	282.62
450.442	271.62
450.662	260.62
450.883	267.62
451.104	276.62
451.324	273.62
451.545	268.62
451.766	275.62
451.986	259.62
452.207	268.62
452.428	256.62
452.648	248.62
452.869	255.62
453.089	262.62
453.31	256.62
453.53	236.62
453.751	250.62
453.971	256.62
454.192	247.62
454.412	230.62
454.633	234.62
454.853	260.62
455.073	244.62
455.294	247.62
455.514	256.62
455.734	256.62
455.955	235.62
456.175	256.62
456.395	226.62
456.616	229.62
456.836	266.62
457.056	247.62
457.276	245.62
457.497	255.62
457.717	262.62
457.937	267.62
458.157	252.62
458.377	275.62
458.598	265.62
458.818	260.62
459.038	261.62
459.258	271.62
459.478	278.62
459.698	271.62
459.918	276.62
460.138	288.62
460.358	295.62
460.578	303.62
460.798	306.62
461.018	315.62
461.238	309.62
461.458	295.62
461.678	312.62
461.898	319.62
462.118	316.62
462.338	337.62
462.558	338.62
462.777	333.62
462.997	367.62
463.217	385.62
463.437	348.62
463.657	338.62
463.876	348.62
464.096	348.62
464.316	330.62
464.536	342.62
464.755	323.62
464.975	318.62
465.195	316.62
465.414	278.62
465.634	290.62
465.854	270.62
466.073	280.62
466.293	284.62
466.512	283.62
466.732	281.62
466.951	273.62
467.171	288.62
467.391	274.62
467.61	277.62
467.829	277.62
468.049	292.62
468.268	262.62
468.488	256.62
468.707	281.62
468.927	272.62
469.146	266.62
469.365	270.62
469.585	269.62
469.804	263.62
470.023	295.62
470.243	289.62
470.462	269.62
470.681	271.62
470.901	288.62
471.12	285.62
471.339	284.62
471.558	274.62
471.777	280.62
471.997	240.62
472.216	254.62
472.435	252.62
472.654	246.62
472.873	270.62
473.092	259.62
473.311	244.62
473.53	254.62
473.749	273.62
473.968	262.62
474.187	276.62
474.406	261.62
474.625	246.62
474.844	247.62
475.063	250.62
475.282	261.62
475.501	276.62
475.72	256.62
475.939	248.62
476.158	273.62
476.377	272.62
476.596	279.62
476.814	293.62
477.033	279.62
477.252	267.62
477.471	282.62
477.69	277.62
477.908	278.62
478.127	308.62
478.346	310.62
478.564	308.62
478.783	309.62
479.002	283.62
479.22	288.62
479.439	304.62
479.658	295.62
479.876	297.62
480.095	305.62
480.313	310.62
480.532	322.62
480.751	298.62
480.969	306.62
481.188	273.62
481.406	300.62
481.624	271.62
481.843	289.62
482.061	291.62
482.28	282.62
482.498	280.62
482.717	297.62
482.935	281.62
483.153	278.62
483.372	296.62
483.59	281.62
483.808	266.62
484.027	273.62
484.245	283.62
484.463	284.62
484.681	299.62
484.9	291.62
485.118	305.62
485.336	274.62
485.554	289.62
485.772	291.62
485.99	298.62
486.209	291.62
486.427	282.62
486.645	305.62
486.863	296.62
487.081	294.62
487.299	301.62
487.517	289.62
487.735	314.62
487.953	286.62
488.171	309.62
488.389	295.62
488.607	288.62
488.825	301.62
489.043	298.62
489.261	283.62
489.479	294.62
489.696	291.62
489.914	305.62
490.132	312.62
490.35	297.62
490.568	296.62
490.786	313.62
491.003	302.62
491.221	292.62
491.439	300.62
491.657	319.62
491.874	320.62
492.092	327.62
492.31	307.62
492.527	309.62
492.745	306.62
492.963	296.62
493.18	317.62
493.398	323.62
493.615	313.62
493.833	316.62
494.05	296.62
494.268	317.62
494.485	306.62
494.703	321.62
494.92	324.62
495.138	320.62
495.355	313.62
495.573	310.62
495.79	302.62
496.008	317.62
496.225	322.62
496.442	332.62
496.66	324.62
496.877	328.62
497.094	336.62
497.312	340.62
497.529	341.62
497.746	345.62
497.963	346.62
498.181	371.62
498.398	378.62
498.615	384.62
498.832	421.62
499.049	434.62
499.267	443.62
499.484	476.62
499.701	516.62
499.918	550.62
500.135	605.62
500.352	654.62
500.569	660.62
500.786	635.62
501.003	624.62
501.22	569.62
501.437	496.62
501.654	469.62
501.871	461.62
502.088	438.62
502.305	418.62
502.522	406.62
502.739	384.62
