Data from Fe(NO3)3@0.025M.TitratingCurve.Agarose3%dH2O.NegLispCup.LampEnergy10.LIBS07252019_HRD10591_16-53-55-335.txt Node
Date: Thu Jul 25 16:53:55 EDT 2019
User: cochatt
Spectrometer: HR+D1059
Trigger mode: 1
Integration Time (sec): 1.000000E-1
Scans to average: 1
Electric dark correction enabled: true
Nonlinearity correction enabled: false
Boxcar width: 0
XAxis mode: Wavelengths
Number of Pixels in Spectrum: 2048
>>>>>Begin Spectral Data<<<<<
223.165	-16.62
223.4	-16.62
223.635	-16.62
223.869	-21.62
224.104	-9.62
224.338	-5.62
224.573	-16.62
224.808	-25.62
225.042	-10.62
225.277	-1.62
225.511	15.38
225.746	7.38
225.98	10.38
226.215	21.38
226.449	5.38
226.683	16.38
226.918	1.38
227.152	30.38
227.387	39.38
227.621	38.38
227.856	49.38
228.09	49.38
228.324	58.38
228.559	63.38
228.793	66.38
229.027	71.38
229.262	92.38
229.496	85.38
229.73	81.38
229.964	93.38
230.199	89.38
230.433	87.38
230.667	86.38
230.901	98.38
231.136	94.38
231.37	98.38
231.604	88.38
231.838	93.38
232.072	94.38
232.306	101.38
232.541	101.38
232.775	90.38
233.009	90.38
233.243	86.38
233.477	90.38
233.711	104.38
233.945	99.38
234.179	81.38
234.413	106.38
234.647	100.38
234.881	101.38
235.115	101.38
235.349	103.38
235.583	97.38
235.817	96.38
236.051	84.38
236.285	101.38
236.519	105.38
236.753	91.38
236.987	97.38
237.221	88.38
237.455	101.38
237.689	98.38
237.922	90.38
238.156	92.38
238.39	103.38
238.624	100.38
238.858	102.38
239.091	103.38
239.325	114.38
239.559	99.38
239.793	88.38
240.027	104.38
240.26	105.38
240.494	106.38
240.728	117.38
240.961	124.38
241.195	114.38
241.429	102.38
241.662	97.38
241.896	105.38
242.13	112.38
242.363	108.38
242.597	118.38
242.83	117.38
243.064	100.38
243.298	102.38
243.531	106.38
243.765	107.38
243.998	120.38
244.232	103.38
244.465	102.38
244.699	109.38
244.932	104.38
245.166	102.38
245.399	112.38
245.633	104.38
245.866	109.38
246.099	118.38
246.333	108.38
246.566	110.38
246.8	124.38
247.033	115.38
247.266	104.38
247.5	110.38
247.733	116.38
247.966	119.38
248.2	100.38
248.433	131.38
248.666	127.38
248.899	108.38
249.133	122.38
249.366	116.38
249.599	122.38
249.832	116.38
250.066	120.38
250.299	110.38
250.532	115.38
250.765	128.38
250.998	118.38
251.231	126.38
251.465	128.38
251.698	121.38
251.931	128.38
252.164	134.38
252.397	119.38
252.63	130.38
252.863	141.38
253.096	134.38
253.329	127.38
253.562	136.38
253.795	114.38
254.028	125.38
254.261	144.38
254.494	125.38
254.727	143.38
254.96	139.38
255.193	137.38
255.426	127.38
255.659	133.38
255.892	133.38
256.124	124.38
256.357	122.38
256.59	129.38
256.823	129.38
257.056	138.38
257.289	141.38
257.521	125.38
257.754	123.38
257.987	139.38
258.22	132.38
258.452	131.38
258.685	137.38
258.918	131.38
259.151	139.38
259.383	140.38
259.616	127.38
259.849	153.38
260.081	147.38
260.314	137.38
260.547	148.38
260.779	135.38
261.012	133.38
261.244	148.38
261.477	144.38
261.71	149.38
261.942	148.38
262.175	133.38
262.407	142.38
262.64	135.38
262.872	156.38
263.105	131.38
263.337	137.38
263.57	154.38
263.802	152.38
264.035	122.38
264.267	153.38
264.499	151.38
264.732	153.38
264.964	152.38
265.197	158.38
265.429	155.38
265.661	155.38
265.894	161.38
266.126	149.38
266.358	147.38
266.591	161.38
266.823	155.38
267.055	148.38
267.287	148.38
267.52	158.38
267.752	161.38
267.984	146.38
268.216	162.38
268.448	145.38
268.681	154.38
268.913	161.38
269.145	158.38
269.377	156.38
269.609	157.38
269.841	164.38
270.073	158.38
270.306	147.38
270.538	148.38
270.77	160.38
271.002	144.38
271.234	161.38
271.466	159.38
271.698	170.38
271.93	163.38
272.162	172.38
272.394	174.38
272.626	174.38
272.858	182.38
273.09	173.38
273.322	177.38
273.553	167.38
273.785	155.38
274.017	181.38
274.249	178.38
274.481	172.38
274.713	170.38
274.945	175.38
275.176	186.38
275.408	178.38
275.64	169.38
275.872	175.38
276.104	179.38
276.335	177.38
276.567	181.38
276.799	179.38
277.031	185.38
277.262	174.38
277.494	169.38
277.726	186.38
277.957	177.38
278.189	179.38
278.421	185.38
278.652	175.38
278.884	184.38
279.115	172.38
279.347	180.38
279.579	182.38
279.81	194.38
280.042	175.38
280.273	171.38
280.505	195.38
280.736	189.38
280.968	189.38
281.199	197.38
281.431	181.38
281.662	194.38
281.894	208.38
282.125	175.38
282.356	192.38
282.588	189.38
282.819	189.38
283.051	183.38
283.282	207.38
283.513	196.38
283.745	202.38
283.976	192.38
284.207	209.38
284.439	218.38
284.67	183.38
284.901	198.38
285.132	219.38
285.364	216.38
285.595	205.38
285.826	199.38
286.057	204.38
286.288	211.38
286.52	203.38
286.751	204.38
286.982	207.38
287.213	196.38
287.444	210.38
287.675	189.38
287.906	191.38
288.138	207.38
288.369	207.38
288.6	220.38
288.831	211.38
289.062	219.38
289.293	220.38
289.524	217.38
289.755	220.38
289.986	202.38
290.217	208.38
290.448	207.38
290.679	223.38
290.91	219.38
291.141	233.38
291.371	217.38
291.602	215.38
291.833	229.38
292.064	203.38
292.295	204.38
292.526	224.38
292.757	223.38
292.987	231.38
293.218	222.38
293.449	230.38
293.68	202.38
293.91	226.38
294.141	219.38
294.372	211.38
294.603	214.38
294.833	215.38
295.064	222.38
295.295	203.38
295.525	230.38
295.756	205.38
295.987	211.38
296.217	201.38
296.448	229.38
296.679	242.38
296.909	233.38
297.14	222.38
297.37	246.38
297.601	248.38
297.831	248.38
298.062	229.38
298.292	236.38
298.523	227.38
298.753	227.38
298.984	246.38
299.214	230.38
299.445	236.38
299.675	234.38
299.905	262.38
300.136	240.38
300.366	236.38
300.597	235.38
300.827	247.38
301.057	246.38
301.288	227.38
301.518	241.38
301.748	241.38
301.979	234.38
302.209	247.38
302.439	250.38
302.669	248.38
302.9	238.38
303.13	234.38
303.36	249.38
303.59	242.38
303.82	247.38
304.051	263.38
304.281	258.38
304.511	252.38
304.741	253.38
304.971	250.38
305.201	254.38
305.431	254.38
305.661	266.38
305.891	267.38
306.121	246.38
306.352	253.38
306.582	263.38
306.812	257.38
307.042	266.38
307.272	247.38
307.502	249.38
307.731	252.38
307.961	249.38
308.191	260.38
308.421	243.38
308.651	248.38
308.881	250.38
309.111	243.38
309.341	246.38
309.571	262.38
309.8	262.38
310.03	266.38
310.26	262.38
310.49	262.38
310.72	262.38
310.949	272.38
311.179	262.38
311.409	267.38
311.639	260.38
311.868	255.38
312.098	267.38
312.328	259.38
312.557	260.38
312.787	279.38
313.017	273.38
313.246	281.38
313.476	287.38
313.706	290.38
313.935	274.38
314.165	268.38
314.394	271.38
314.624	266.38
314.853	260.38
315.083	254.38
315.312	291.38
315.542	277.38
315.771	270.38
316.001	291.38
316.23	281.38
316.46	263.38
316.689	277.38
316.919	283.38
317.148	276.38
317.377	286.38
317.607	297.38
317.836	271.38
318.065	271.38
318.295	281.38
318.524	295.38
318.753	279.38
318.983	280.38
319.212	281.38
319.441	298.38
319.67	274.38
319.9	281.38
320.129	294.38
320.358	276.38
320.587	307.38
320.816	285.38
321.046	288.38
321.275	310.38
321.504	304.38
321.733	305.38
321.962	285.38
322.191	286.38
322.42	273.38
322.649	281.38
322.878	301.38
323.108	290.38
323.337	309.38
323.566	287.38
323.795	293.38
324.024	299.38
324.253	297.38
324.482	306.38
324.71	308.38
324.939	309.38
325.168	290.38
325.397	309.38
325.626	299.38
325.855	319.38
326.084	305.38
326.313	319.38
326.542	308.38
326.77	322.38
326.999	297.38
327.228	305.38
327.457	306.38
327.686	322.38
327.914	309.38
328.143	317.38
328.372	319.38
328.6	311.38
328.829	305.38
329.058	303.38
329.287	317.38
329.515	334.38
329.744	321.38
329.972	319.38
330.201	323.38
330.43	309.38
330.658	325.38
330.887	324.38
331.115	298.38
331.344	320.38
331.572	331.38
331.801	324.38
332.03	323.38
332.258	310.38
332.486	334.38
332.715	338.38
332.943	336.38
333.172	315.38
333.4	342.38
333.629	339.38
333.857	342.38
334.085	329.38
334.314	352.38
334.542	340.38
334.771	327.38
334.999	342.38
335.227	341.38
335.455	374.38
335.684	357.38
335.912	357.38
336.14	340.38
336.369	322.38
336.597	362.38
336.825	335.38
337.053	332.38
337.281	347.38
337.51	339.38
337.738	335.38
337.966	334.38
338.194	358.38
338.422	353.38
338.65	359.38
338.878	343.38
339.106	341.38
339.334	330.38
339.562	331.38
339.79	328.38
340.018	357.38
340.246	354.38
340.474	357.38
340.702	337.38
340.93	334.38
341.158	346.38
341.386	330.38
341.614	329.38
341.842	327.38
342.07	345.38
342.298	349.38
342.526	341.38
342.754	355.38
342.981	329.38
343.209	322.38
343.437	340.38
343.665	323.38
343.893	344.38
344.12	360.38
344.348	378.38
344.576	356.38
344.804	355.38
345.031	347.38
345.259	314.38
345.487	333.38
345.714	335.38
345.942	341.38
346.17	345.38
346.397	349.38
346.625	328.38
346.853	329.38
347.08	330.38
347.308	331.38
347.535	329.38
347.763	327.38
347.99	327.38
348.218	326.38
348.445	345.38
348.673	306.38
348.9	335.38
349.128	311.38
349.355	315.38
349.583	319.38
349.81	326.38
350.037	346.38
350.265	322.38
350.492	333.38
350.72	315.38
350.947	325.38
351.174	335.38
351.402	338.38
351.629	332.38
351.856	325.38
352.083	311.38
352.311	325.38
352.538	322.38
352.765	333.38
352.992	335.38
353.22	327.38
353.447	323.38
353.674	317.38
353.901	325.38
354.128	310.38
354.355	333.38
354.583	319.38
354.81	331.38
355.037	318.38
355.264	323.38
355.491	309.38
355.718	322.38
355.945	343.38
356.172	326.38
356.399	324.38
356.626	326.38
356.853	335.38
357.08	327.38
357.307	324.38
357.534	332.38
357.761	341.38
357.988	332.38
358.215	325.38
358.441	348.38
358.668	326.38
358.895	329.38
359.122	341.38
359.349	324.38
359.576	322.38
359.802	323.38
360.029	337.38
360.256	333.38
360.483	325.38
360.709	339.38
360.936	346.38
361.163	353.38
361.39	322.38
361.616	335.38
361.843	339.38
362.07	334.38
362.296	343.38
362.523	324.38
362.749	349.38
362.976	343.38
363.203	327.38
363.429	341.38
363.656	339.38
363.882	348.38
364.109	324.38
364.335	346.38
364.562	321.38
364.788	344.38
365.015	348.38
365.241	338.38
365.468	340.38
365.694	332.38
365.92	336.38
366.147	337.38
366.373	335.38
366.599	343.38
366.826	341.38
367.052	346.38
367.278	343.38
367.505	346.38
367.731	358.38
367.957	338.38
368.184	344.38
368.41	336.38
368.636	345.38
368.862	363.38
369.089	331.38
369.315	355.38
369.541	355.38
369.767	353.38
369.993	340.38
370.219	358.38
370.445	362.38
370.672	335.38
370.898	348.38
371.124	356.38
371.35	351.38
371.576	348.38
371.802	376.38
372.028	373.38
372.254	361.38
372.48	361.38
372.706	349.38
372.932	353.38
373.158	374.38
373.384	375.38
373.61	370.38
373.835	363.38
374.061	357.38
374.287	373.38
374.513	372.38
374.739	365.38
374.965	381.38
375.191	376.38
375.416	365.38
375.642	365.38
375.868	378.38
376.094	353.38
376.319	367.38
376.545	382.38
376.771	363.38
376.997	347.38
377.222	359.38
377.448	351.38
377.674	380.38
377.899	350.38
378.125	341.38
378.35	357.38
378.576	350.38
378.802	342.38
379.027	347.38
379.253	347.38
379.478	370.38
379.704	375.38
379.929	364.38
380.155	353.38
380.38	357.38
380.606	375.38
380.831	349.38
381.057	369.38
381.282	365.38
381.507	352.38
381.733	377.38
381.958	368.38
382.184	376.38
382.409	362.38
382.634	391.38
382.86	377.38
383.085	370.38
383.31	382.38
383.535	356.38
383.761	383.38
383.986	409.38
384.211	405.38
384.436	401.38
384.662	396.38
384.887	393.38
385.112	398.38
385.337	406.38
385.562	386.38
385.787	393.38
386.013	411.38
386.238	406.38
386.463	399.38
386.688	410.38
386.913	381.38
387.138	398.38
387.363	413.38
387.588	406.38
387.813	424.38
388.038	419.38
388.263	401.38
388.488	408.38
388.713	413.38
388.938	397.38
389.163	392.38
389.387	419.38
389.612	430.38
389.837	438.38
390.062	419.38
390.287	431.38
390.512	408.38
390.736	400.38
390.961	424.38
391.186	428.38
391.411	406.38
391.636	441.38
391.86	421.38
392.085	412.38
392.31	420.38
392.534	440.38
392.759	452.38
392.984	447.38
393.208	441.38
393.433	438.38
393.658	415.38
393.882	425.38
394.107	433.38
394.331	419.38
394.556	435.38
394.78	429.38
395.005	434.38
395.229	433.38
395.454	454.38
395.678	452.38
395.903	453.38
396.127	435.38
396.352	445.38
396.576	420.38
396.801	442.38
397.025	439.38
397.249	444.38
397.474	440.38
397.698	457.38
397.922	470.38
398.147	449.38
398.371	471.38
398.595	454.38
398.82	453.38
399.044	490.38
399.268	485.38
399.492	509.38
399.717	512.38
399.941	501.38
400.165	516.38
400.389	516.38
400.613	498.38
400.837	499.38
401.062	470.38
401.286	508.38
401.51	497.38
401.734	472.38
401.958	475.38
402.182	473.38
402.406	474.38
402.63	483.38
402.854	470.38
403.078	491.38
403.302	498.38
403.526	462.38
403.75	489.38
403.974	474.38
404.198	487.38
404.422	483.38
404.645	478.38
404.869	477.38
405.093	491.38
405.317	481.38
405.541	488.38
405.765	498.38
405.988	483.38
406.212	501.38
406.436	499.38
406.66	520.38
406.883	509.38
407.107	523.38
407.331	533.38
407.555	513.38
407.778	520.38
408.002	513.38
408.226	520.38
408.449	519.38
408.673	501.38
408.896	510.38
409.12	520.38
409.344	524.38
409.567	495.38
409.791	531.38
410.014	482.38
410.238	510.38
410.461	507.38
410.685	498.38
410.908	483.38
411.132	524.38
411.355	490.38
411.578	486.38
411.802	476.38
412.025	500.38
412.249	469.38
412.472	484.38
412.695	479.38
412.919	476.38
413.142	503.38
413.365	492.38
413.589	499.38
413.812	489.38
414.035	477.38
414.258	461.38
414.482	474.38
414.705	483.38
414.928	449.38
415.151	473.38
415.374	484.38
415.597	447.38
415.821	477.38
416.044	477.38
416.267	430.38
416.49	483.38
416.713	447.38
416.936	451.38
417.159	454.38
417.382	461.38
417.605	452.38
417.828	437.38
418.051	461.38
418.274	444.38
418.497	457.38
418.72	447.38
418.943	467.38
419.166	471.38
419.389	520.38
419.611	493.38
419.834	472.38
420.057	457.38
420.28	469.38
420.503	438.38
420.726	460.38
420.948	451.38
421.171	453.38
421.394	450.38
421.617	467.38
421.839	453.38
422.062	438.38
422.285	467.38
422.507	467.38
422.73	434.38
422.953	445.38
423.175	429.38
423.398	443.38
423.621	452.38
423.843	452.38
424.066	449.38
424.288	463.38
424.511	426.38
424.733	470.38
424.956	450.38
425.178	435.38
425.401	447.38
425.623	448.38
425.846	437.38
426.068	434.38
426.291	456.38
426.513	443.38
426.735	445.38
426.958	463.38
427.18	440.38
427.402	421.38
427.625	452.38
427.847	455.38
428.069	445.38
428.292	431.38
428.514	447.38
428.736	429.38
428.958	449.38
429.181	431.38
429.403	427.38
429.625	434.38
429.847	458.38
430.069	435.38
430.292	447.38
430.514	438.38
430.736	426.38
430.958	448.38
431.18	439.38
431.402	416.38
431.624	425.38
431.846	427.38
432.068	449.38
432.29	459.38
432.512	420.38
432.734	453.38
432.956	436.38
433.178	447.38
433.4	436.38
433.622	469.38
433.844	470.38
434.066	437.38
434.287	423.38
434.509	443.38
434.731	462.38
434.953	454.38
435.175	451.38
435.397	433.38
435.618	452.38
435.84	455.38
436.062	438.38
436.284	437.38
436.505	445.38
436.727	441.38
436.949	431.38
437.17	427.38
437.392	437.38
437.614	445.38
437.835	426.38
438.057	419.38
438.278	416.38
438.5	423.38
438.721	423.38
438.943	425.38
439.165	427.38
439.386	433.38
439.608	429.38
439.829	422.38
440.05	437.38
440.272	418.38
440.493	411.38
440.715	456.38
440.936	435.38
441.158	450.38
441.379	443.38
441.6	436.38
441.822	459.38
442.043	442.38
442.264	448.38
442.486	459.38
442.707	428.38
442.928	449.38
443.149	453.38
443.371	451.38
443.592	431.38
443.813	442.38
444.034	449.38
444.255	448.38
444.476	467.38
444.698	451.38
444.919	451.38
445.14	589.38
445.361	503.38
445.582	457.38
445.803	447.38
446.024	434.38
446.245	437.38
446.466	441.38
446.687	427.38
446.908	436.38
447.129	424.38
447.35	434.38
447.571	445.38
447.792	429.38
448.013	411.38
448.234	417.38
448.455	409.38
448.675	418.38
448.896	424.38
449.117	411.38
449.338	396.38
449.559	405.38
449.779	398.38
450	392.38
450.221	409.38
450.442	398.38
450.662	403.38
450.883	414.38
451.104	412.38
451.324	418.38
451.545	407.38
451.766	412.38
451.986	388.38
452.207	386.38
452.428	406.38
452.648	417.38
452.869	409.38
453.089	387.38
453.31	419.38
453.53	382.38
453.751	395.38
453.971	410.38
454.192	406.38
454.412	399.38
454.633	400.38
454.853	400.38
455.073	409.38
455.294	381.38
455.514	398.38
455.734	390.38
455.955	404.38
456.175	412.38
456.395	396.38
456.616	415.38
456.836	395.38
457.056	393.38
457.276	385.38
457.497	405.38
457.717	393.38
457.937	402.38
458.157	406.38
458.377	394.38
458.598	402.38
458.818	419.38
459.038	437.38
459.258	427.38
459.478	423.38
459.698	430.38
459.918	448.38
460.138	430.38
460.358	459.38
460.578	446.38
460.798	444.38
461.018	451.38
461.238	467.38
461.458	483.38
461.678	470.38
461.898	470.38
462.118	473.38
462.338	484.38
462.558	483.38
462.777	484.38
462.997	503.38
463.217	509.38
463.437	515.38
463.657	509.38
463.876	487.38
464.096	507.38
464.316	483.38
464.536	485.38
464.755	484.38
464.975	475.38
465.195	465.38
465.414	469.38
465.634	451.38
465.854	467.38
466.073	463.38
466.293	445.38
466.512	454.38
466.732	450.38
466.951	430.38
467.171	443.38
467.391	427.38
467.61	428.38
467.829	441.38
468.049	440.38
468.268	427.38
468.488	425.38
468.707	409.38
468.927	435.38
469.146	442.38
469.365	432.38
469.585	432.38
469.804	431.38
470.023	439.38
470.243	423.38
470.462	427.38
470.681	414.38
470.901	430.38
471.12	419.38
471.339	435.38
471.558	411.38
471.777	438.38
471.997	437.38
472.216	442.38
472.435	458.38
472.654	441.38
472.873	440.38
473.092	438.38
473.311	427.38
473.53	444.38
473.749	440.38
473.968	444.38
474.187	421.38
474.406	423.38
474.625	436.38
474.844	454.38
475.063	457.38
475.282	445.38
475.501	428.38
475.72	462.38
475.939	435.38
476.158	439.38
476.377	461.38
476.596	451.38
476.814	466.38
477.033	468.38
477.252	468.38
477.471	468.38
477.69	481.38
477.908	491.38
478.127	499.38
478.346	477.38
478.564	488.38
478.783	486.38
479.002	497.38
479.22	508.38
479.439	482.38
479.658	508.38
479.876	501.38
480.095	497.38
480.313	519.38
480.532	505.38
480.751	517.38
480.969	503.38
481.188	507.38
481.406	522.38
481.624	517.38
481.843	514.38
482.061	490.38
482.28	515.38
482.498	511.38
482.717	500.38
482.935	490.38
483.153	515.38
483.372	503.38
483.59	517.38
483.808	505.38
484.027	510.38
484.245	505.38
484.463	502.38
484.681	499.38
484.9	503.38
485.118	498.38
485.336	515.38
485.554	518.38
485.772	503.38
485.99	521.38
486.209	511.38
486.427	504.38
486.645	549.38
486.863	543.38
487.081	531.38
487.299	506.38
487.517	503.38
487.735	518.38
487.953	509.38
488.171	521.38
488.389	514.38
488.607	520.38
488.825	512.38
489.043	532.38
489.261	527.38
489.479	523.38
489.696	535.38
489.914	527.38
490.132	521.38
490.35	507.38
490.568	513.38
490.786	536.38
491.003	519.38
491.221	554.38
491.439	540.38
491.657	529.38
491.874	538.38
492.092	545.38
492.31	556.38
492.527	549.38
492.745	530.38
492.963	548.38
493.18	556.38
493.398	540.38
493.615	533.38
493.833	546.38
494.05	546.38
494.268	550.38
494.485	571.38
494.703	561.38
494.92	551.38
495.138	558.38
495.355	579.38
495.573	582.38
495.79	548.38
496.008	570.38
496.225	594.38
496.442	572.38
496.66	596.38
496.877	606.38
497.094	607.38
497.312	630.38
497.529	597.38
497.746	603.38
497.963	610.38
498.181	648.38
498.398	649.38
498.615	679.38
498.832	659.38
499.049	694.38
499.267	715.38
499.484	736.38
499.701	761.38
499.918	755.38
500.135	788.38
500.352	818.38
500.569	779.38
500.786	771.38
501.003	798.38
501.22	783.38
501.437	762.38
501.654	750.38
501.871	732.38
502.088	733.38
