Data from Fe(NO3)3@0.05M.TitratingCurve.Agarose3%dH2O.NegLispCup.LampEnergy10.LIBS07252019_HRD10591_16-45-42-334.txt Node
Date: Thu Jul 25 16:45:42 EDT 2019
User: cochatt
Spectrometer: HR+D1059
Trigger mode: 1
Integration Time (sec): 1.000000E-1
Scans to average: 1
Electric dark correction enabled: true
Nonlinearity correction enabled: false
Boxcar width: 0
XAxis mode: Wavelengths
Number of Pixels in Spectrum: 2048
>>>>>Begin Spectral Data<<<<<
223.165	4.75
223.4	4.75
223.635	4.75
223.869	-14.25
224.104	-32.25
224.338	-19.25
224.573	-16.25
224.808	-13.25
225.042	-14.25
225.277	-5.25
225.511	-5.25
225.746	10.75
225.98	7.75
226.215	4.75
226.449	13.75
226.683	27.75
226.918	35.75
227.152	14.75
227.387	39.75
227.621	43.75
227.856	49.75
228.09	54.75
228.324	50.75
228.559	48.75
228.793	73.75
229.027	119.75
229.262	130.75
229.496	129.75
229.73	115.75
229.964	120.75
230.199	136.75
230.433	140.75
230.667	132.75
230.901	138.75
231.136	150.75
231.37	139.75
231.604	161.75
231.838	164.75
232.072	149.75
232.306	151.75
232.541	144.75
232.775	159.75
233.009	173.75
233.243	173.75
233.477	182.75
233.711	185.75
233.945	160.75
234.179	160.75
234.413	184.75
234.647	192.75
234.881	197.75
235.115	192.75
235.349	185.75
235.583	170.75
235.817	189.75
236.051	193.75
236.285	187.75
236.519	194.75
236.753	191.75
236.987	201.75
237.221	199.75
237.455	194.75
237.689	208.75
237.922	206.75
238.156	215.75
238.39	225.75
238.624	265.75
238.858	247.75
239.091	221.75
239.325	215.75
239.559	217.75
239.793	237.75
240.027	248.75
240.26	245.75
240.494	231.75
240.728	239.75
240.961	257.75
241.195	243.75
241.429	251.75
241.662	233.75
241.896	242.75
242.13	219.75
242.363	217.75
242.597	226.75
242.83	253.75
243.064	232.75
243.298	241.75
243.531	261.75
243.765	275.75
243.998	253.75
244.232	269.75
244.465	264.75
244.699	259.75
244.932	270.75
245.166	267.75
245.399	251.75
245.633	244.75
245.866	265.75
246.099	258.75
246.333	263.75
246.566	279.75
246.8	288.75
247.033	298.75
247.266	269.75
247.5	286.75
247.733	280.75
247.966	267.75
248.2	281.75
248.433	291.75
248.666	306.75
248.899	314.75
249.133	299.75
249.366	323.75
249.599	321.75
249.832	339.75
250.066	322.75
250.299	311.75
250.532	300.75
250.765	319.75
250.998	313.75
251.231	309.75
251.465	316.75
251.698	317.75
251.931	332.75
252.164	318.75
252.397	334.75
252.63	351.75
252.863	352.75
253.096	375.75
253.329	363.75
253.562	341.75
253.795	364.75
254.028	388.75
254.261	380.75
254.494	359.75
254.727	371.75
254.96	362.75
255.193	371.75
255.426	361.75
255.659	350.75
255.892	350.75
256.124	347.75
256.357	364.75
256.59	383.75
256.823	395.75
257.056	374.75
257.289	352.75
257.521	360.75
257.754	359.75
257.987	363.75
258.22	360.75
258.452	371.75
258.685	401.75
258.918	401.75
259.151	388.75
259.383	394.75
259.616	381.75
259.849	421.75
260.081	523.75
260.314	561.75
260.547	455.75
260.779	422.75
261.012	477.75
261.244	472.75
261.477	467.75
261.71	454.75
261.942	409.75
262.175	416.75
262.407	408.75
262.64	401.75
262.872	452.75
263.105	446.75
263.337	483.75
263.57	485.75
263.802	411.75
264.035	370.75
264.267	422.75
264.499	403.75
264.732	399.75
264.964	411.75
265.197	392.75
265.429	405.75
265.661	390.75
265.894	405.75
266.126	404.75
266.358	414.75
266.591	440.75
266.823	439.75
267.055	427.75
267.287	409.75
267.52	413.75
267.752	421.75
267.984	423.75
268.216	413.75
268.448	451.75
268.681	448.75
268.913	421.75
269.145	442.75
269.377	451.75
269.609	439.75
269.841	419.75
270.073	449.75
270.306	433.75
270.538	451.75
270.77	482.75
271.002	455.75
271.234	448.75
271.466	479.75
271.698	471.75
271.93	473.75
272.162	483.75
272.394	483.75
272.626	450.75
272.858	480.75
273.09	496.75
273.322	473.75
273.553	504.75
273.785	499.75
274.017	565.75
274.249	598.75
274.481	599.75
274.713	635.75
274.945	705.75
275.176	705.75
275.408	651.75
275.64	629.75
275.872	635.75
276.104	585.75
276.335	508.75
276.567	527.75
276.799	540.75
277.031	523.75
277.262	527.75
277.494	517.75
277.726	488.75
277.957	518.75
278.189	498.75
278.421	508.75
278.652	519.75
278.884	532.75
279.115	515.75
279.347	540.75
279.579	518.75
279.81	528.75
280.042	524.75
280.273	510.75
280.505	517.75
280.736	523.75
280.968	501.75
281.199	502.75
281.431	540.75
281.662	532.75
281.894	527.75
282.125	525.75
282.356	527.75
282.588	527.75
282.819	528.75
283.051	532.75
283.282	538.75
283.513	569.75
283.745	540.75
283.976	538.75
284.207	543.75
284.439	555.75
284.67	581.75
284.901	569.75
285.132	560.75
285.364	553.75
285.595	579.75
285.826	564.75
286.057	572.75
286.288	556.75
286.52	553.75
286.751	582.75
286.982	560.75
287.213	571.75
287.444	582.75
287.675	592.75
287.906	590.75
288.138	550.75
288.369	582.75
288.6	577.75
288.831	585.75
289.062	608.75
289.293	586.75
289.524	558.75
289.755	581.75
289.986	595.75
290.217	584.75
290.448	571.75
290.679	564.75
290.91	592.75
291.141	571.75
291.371	575.75
291.602	571.75
291.833	579.75
292.064	592.75
292.295	598.75
292.526	610.75
292.757	604.75
292.987	592.75
293.218	585.75
293.449	600.75
293.68	599.75
293.91	586.75
294.141	603.75
294.372	595.75
294.603	595.75
294.833	597.75
295.064	624.75
295.295	609.75
295.525	611.75
295.756	602.75
295.987	609.75
296.217	606.75
296.448	608.75
296.679	628.75
296.909	611.75
297.14	627.75
297.37	616.75
297.601	641.75
297.831	621.75
298.062	626.75
298.292	609.75
298.523	655.75
298.753	647.75
298.984	643.75
299.214	634.75
299.445	625.75
299.675	643.75
299.905	661.75
300.136	632.75
300.366	640.75
300.597	644.75
300.827	640.75
301.057	658.75
301.288	657.75
301.518	699.75
301.748	669.75
301.979	664.75
302.209	690.75
302.439	681.75
302.669	679.75
302.9	684.75
303.13	665.75
303.36	683.75
303.59	672.75
303.82	676.75
304.051	692.75
304.281	645.75
304.511	684.75
304.741	663.75
304.971	651.75
305.201	667.75
305.431	681.75
305.661	663.75
305.891	660.75
306.121	683.75
306.352	654.75
306.582	653.75
306.812	659.75
307.042	685.75
307.272	691.75
307.502	668.75
307.731	659.75
307.961	668.75
308.191	668.75
308.421	666.75
308.651	661.75
308.881	679.75
309.111	678.75
309.341	684.75
309.571	698.75
309.8	678.75
310.03	707.75
310.26	668.75
310.49	703.75
310.72	674.75
310.949	677.75
311.179	696.75
311.409	710.75
311.639	692.75
311.868	683.75
312.098	707.75
312.328	703.75
312.557	695.75
312.787	692.75
313.017	713.75
313.246	720.75
313.476	710.75
313.706	708.75
313.935	725.75
314.165	724.75
314.394	723.75
314.624	723.75
314.853	751.75
315.083	720.75
315.312	743.75
315.542	773.75
315.771	721.75
316.001	706.75
316.23	721.75
316.46	748.75
316.689	771.75
316.919	732.75
317.148	761.75
317.377	735.75
317.607	720.75
317.836	758.75
318.065	768.75
318.295	728.75
318.524	733.75
318.753	741.75
318.983	752.75
319.212	714.75
319.441	751.75
319.67	739.75
319.9	748.75
320.129	743.75
320.358	741.75
320.587	745.75
320.816	763.75
321.046	748.75
321.275	763.75
321.504	741.75
321.733	757.75
321.962	767.75
322.191	760.75
322.42	771.75
322.649	780.75
322.878	747.75
323.108	776.75
323.337	775.75
323.566	780.75
323.795	782.75
324.024	787.75
324.253	776.75
324.482	779.75
324.71	745.75
324.939	769.75
325.168	798.75
325.397	787.75
325.626	791.75
325.855	787.75
326.084	804.75
326.313	789.75
326.542	770.75
326.77	791.75
326.999	811.75
327.228	777.75
327.457	792.75
327.686	811.75
327.914	802.75
328.143	818.75
328.372	817.75
328.6	795.75
328.829	795.75
329.058	801.75
329.287	803.75
329.515	809.75
329.744	805.75
329.972	832.75
330.201	819.75
330.43	838.75
330.658	822.75
330.887	849.75
331.115	858.75
331.344	843.75
331.572	843.75
331.801	820.75
332.03	802.75
332.258	849.75
332.486	853.75
332.715	885.75
332.943	866.75
333.172	872.75
333.4	903.75
333.629	900.75
333.857	930.75
334.085	920.75
334.314	903.75
334.542	897.75
334.771	910.75
334.999	918.75
335.227	923.75
335.455	939.75
335.684	961.75
335.912	931.75
336.14	908.75
336.369	912.75
336.597	912.75
336.825	932.75
337.053	913.75
337.281	925.75
337.51	919.75
337.738	899.75
337.966	877.75
338.194	889.75
338.422	901.75
338.65	884.75
338.878	875.75
339.106	880.75
339.334	874.75
339.562	872.75
339.79	876.75
340.018	870.75
340.246	845.75
340.474	886.75
340.702	858.75
340.93	859.75
341.158	859.75
341.386	856.75
341.614	851.75
341.842	869.75
342.07	873.75
342.298	843.75
342.526	846.75
342.754	841.75
342.981	890.75
343.209	851.75
343.437	872.75
343.665	879.75
343.893	935.75
344.12	968.75
344.348	939.75
344.576	919.75
344.804	906.75
345.031	848.75
345.259	897.75
345.487	873.75
345.714	860.75
345.942	840.75
346.17	824.75
346.397	864.75
346.625	862.75
346.853	827.75
347.08	837.75
347.308	854.75
347.535	828.75
347.763	833.75
347.99	815.75
348.218	805.75
348.445	813.75
348.673	812.75
348.9	828.75
349.128	828.75
349.355	839.75
349.583	833.75
349.81	817.75
350.037	825.75
350.265	830.75
350.492	817.75
350.72	852.75
350.947	819.75
351.174	830.75
351.402	816.75
351.629	831.75
351.856	807.75
352.083	838.75
352.311	828.75
352.538	798.75
352.765	816.75
352.992	790.75
353.22	829.75
353.447	810.75
353.674	802.75
353.901	819.75
354.128	839.75
354.355	823.75
354.583	819.75
354.81	828.75
355.037	784.75
355.264	844.75
355.491	812.75
355.718	831.75
355.945	837.75
356.172	808.75
356.399	837.75
356.626	858.75
356.853	823.75
357.08	823.75
357.307	857.75
357.534	852.75
357.761	844.75
357.988	849.75
358.215	870.75
358.441	869.75
358.668	855.75
358.895	838.75
359.122	855.75
359.349	840.75
359.576	838.75
359.802	831.75
360.029	837.75
360.256	810.75
360.483	810.75
360.709	832.75
360.936	844.75
361.163	842.75
361.39	832.75
361.616	828.75
361.843	840.75
362.07	837.75
362.296	826.75
362.523	851.75
362.749	846.75
362.976	824.75
363.203	894.75
363.429	864.75
363.656	865.75
363.882	835.75
364.109	837.75
364.335	853.75
364.562	855.75
364.788	860.75
365.015	861.75
365.241	851.75
365.468	825.75
365.694	859.75
365.92	887.75
366.147	831.75
366.373	866.75
366.599	857.75
366.826	841.75
367.052	865.75
367.278	835.75
367.505	866.75
367.731	858.75
367.957	881.75
368.184	874.75
368.41	883.75
368.636	885.75
368.862	909.75
369.089	882.75
369.315	883.75
369.541	881.75
369.767	894.75
369.993	886.75
370.219	881.75
370.445	883.75
370.672	903.75
370.898	923.75
371.124	927.75
371.35	892.75
371.576	923.75
371.802	938.75
372.028	935.75
372.254	944.75
372.48	949.75
372.706	955.75
372.932	960.75
373.158	924.75
373.384	959.75
373.61	969.75
373.835	999.75
374.061	948.75
374.287	928.75
374.513	956.75
374.739	967.75
374.965	984.75
375.191	1020.75
375.416	970.75
375.642	947.75
375.868	926.75
376.094	947.75
376.319	959.75
376.545	970.75
376.771	955.75
376.997	918.75
377.222	917.75
377.448	929.75
377.674	895.75
377.899	932.75
378.125	937.75
378.35	926.75
378.576	905.75
378.802	912.75
379.027	950.75
379.253	935.75
379.478	918.75
379.704	948.75
379.929	938.75
380.155	922.75
380.38	914.75
380.606	932.75
380.831	946.75
381.057	968.75
381.282	937.75
381.507	956.75
381.733	976.75
381.958	984.75
382.184	1015.75
382.409	1019.75
382.634	988.75
382.86	1004.75
383.085	993.75
383.31	976.75
383.535	1003.75
383.761	997.75
383.986	1015.75
384.211	1021.75
384.436	1017.75
384.662	1010.75
384.887	1062.75
385.112	1022.75
385.337	1018.75
385.562	1038.75
385.787	1059.75
386.013	1071.75
386.238	1081.75
386.463	1060.75
386.688	1064.75
386.913	1059.75
387.138	1050.75
387.363	1080.75
387.588	1083.75
387.813	1073.75
388.038	1101.75
388.263	1073.75
388.488	1100.75
388.713	1086.75
388.938	1075.75
389.163	1081.75
389.387	1089.75
389.612	1055.75
389.837	1091.75
390.062	1076.75
390.287	1092.75
390.512	1078.75
390.736	1077.75
390.961	1118.75
391.186	1104.75
391.411	1116.75
391.636	1141.75
391.86	1143.75
392.085	1151.75
392.31	1171.75
392.534	1177.75
392.759	1155.75
392.984	1137.75
393.208	1147.75
393.433	1133.75
393.658	1153.75
393.882	1127.75
394.107	1131.75
394.331	1165.75
394.556	1141.75
394.78	1166.75
395.005	1137.75
395.229	1159.75
395.454	1153.75
395.678	1189.75
395.903	1162.75
396.127	1194.75
396.352	1177.75
396.576	1167.75
396.801	1154.75
397.025	1199.75
397.249	1205.75
397.474	1233.75
397.698	1211.75
397.922	1239.75
398.147	1193.75
398.371	1212.75
398.595	1247.75
398.82	1277.75
399.044	1343.75
399.268	1357.75
399.492	1437.75
399.717	1477.75
399.941	1493.75
400.165	1490.75
400.389	1424.75
400.613	1402.75
400.837	1356.75
401.062	1351.75
401.286	1325.75
401.51	1313.75
401.734	1298.75
401.958	1307.75
402.182	1297.75
402.406	1292.75
402.63	1316.75
402.854	1302.75
403.078	1303.75
403.302	1312.75
403.526	1322.75
403.75	1337.75
403.974	1341.75
404.198	1298.75
404.422	1338.75
404.645	1331.75
404.869	1357.75
405.093	1364.75
405.317	1335.75
405.541	1347.75
405.765	1357.75
405.988	1333.75
406.212	1384.75
406.436	1384.75
406.66	1407.75
406.883	1389.75
407.107	1421.75
407.331	1460.75
407.555	1505.75
407.778	1494.75
408.002	1450.75
408.226	1444.75
408.449	1453.75
408.673	1437.75
408.896	1479.75
409.12	1407.75
409.344	1415.75
409.567	1401.75
409.791	1427.75
410.014	1399.75
410.238	1393.75
410.461	1397.75
410.685	1385.75
410.908	1360.75
411.132	1344.75
411.355	1333.75
411.578	1345.75
411.802	1351.75
412.025	1341.75
412.249	1364.75
412.472	1368.75
412.695	1348.75
412.919	1328.75
413.142	1319.75
413.365	1299.75
413.589	1315.75
413.812	1324.75
414.035	1330.75
414.258	1310.75
414.482	1323.75
414.705	1342.75
414.928	1338.75
415.151	1313.75
415.374	1304.75
415.597	1315.75
415.821	1257.75
416.044	1285.75
416.267	1240.75
416.49	1277.75
416.713	1277.75
416.936	1286.75
417.159	1259.75
417.382	1272.75
417.605	1253.75
417.828	1222.75
418.051	1279.75
418.274	1254.75
418.497	1245.75
418.72	1271.75
418.943	1259.75
419.166	1293.75
419.389	1400.75
419.611	1372.75
419.834	1320.75
420.057	1331.75
420.28	1290.75
420.503	1249.75
420.726	1197.75
420.948	1187.75
421.171	1221.75
421.394	1264.75
421.617	1245.75
421.839	1225.75
422.062	1264.75
422.285	1233.75
422.507	1230.75
422.73	1271.75
422.953	1233.75
423.175	1236.75
423.398	1262.75
423.621	1237.75
423.843	1273.75
424.066	1256.75
424.288	1241.75
424.511	1215.75
424.733	1244.75
424.956	1224.75
425.178	1233.75
425.401	1249.75
425.623	1279.75
425.846	1248.75
426.068	1216.75
426.291	1240.75
426.513	1236.75
426.735	1232.75
426.958	1222.75
427.18	1186.75
427.402	1231.75
427.625	1238.75
427.847	1189.75
428.069	1198.75
428.292	1235.75
428.514	1191.75
428.736	1211.75
428.958	1223.75
429.181	1195.75
429.403	1185.75
429.625	1200.75
429.847	1162.75
430.069	1193.75
430.292	1193.75
430.514	1189.75
430.736	1197.75
430.958	1236.75
431.18	1181.75
431.402	1192.75
431.624	1178.75
431.846	1190.75
432.068	1201.75
432.29	1217.75
432.512	1203.75
432.734	1226.75
432.956	1215.75
433.178	1208.75
433.4	1185.75
433.622	1226.75
433.844	1255.75
434.066	1219.75
434.287	1212.75
434.509	1266.75
434.731	1251.75
434.953	1241.75
435.175	1257.75
435.397	1235.75
435.618	1250.75
435.84	1226.75
436.062	1211.75
436.284	1207.75
436.505	1178.75
436.727	1181.75
436.949	1199.75
437.17	1191.75
437.392	1183.75
437.614	1189.75
437.835	1200.75
438.057	1187.75
438.278	1191.75
438.5	1203.75
438.721	1171.75
438.943	1175.75
439.165	1159.75
439.386	1156.75
439.608	1228.75
439.829	1177.75
440.05	1205.75
440.272	1176.75
440.493	1233.75
440.715	1261.75
440.936	1208.75
441.158	1217.75
441.379	1247.75
441.6	1241.75
441.822	1242.75
442.043	1213.75
442.264	1274.75
442.486	1227.75
442.707	1257.75
442.928	1246.75
443.149	1224.75
443.371	1235.75
443.592	1247.75
443.813	1211.75
444.034	1264.75
444.255	1318.75
444.476	1275.75
444.698	1297.75
444.919	1294.75
445.14	1391.75
445.361	1283.75
445.582	1308.75
445.803	1237.75
446.024	1237.75
446.245	1216.75
446.466	1217.75
446.687	1230.75
446.908	1226.75
447.129	1169.75
447.35	1165.75
447.571	1155.75
447.792	1139.75
448.013	1139.75
448.234	1127.75
448.455	1148.75
448.675	1096.75
448.896	1090.75
449.117	1111.75
449.338	1117.75
449.559	1088.75
449.779	1090.75
450	1104.75
450.221	1108.75
450.442	1089.75
450.662	1090.75
450.883	1084.75
451.104	1122.75
451.324	1107.75
451.545	1096.75
451.766	1088.75
451.986	1065.75
452.207	1048.75
452.428	1063.75
452.648	1093.75
452.869	1064.75
453.089	1045.75
453.31	1065.75
453.53	1037.75
453.751	1043.75
453.971	1056.75
454.192	1029.75
454.412	1037.75
454.633	1041.75
454.853	1062.75
455.073	1038.75
455.294	1067.75
455.514	1067.75
455.734	1036.75
455.955	1053.75
456.175	1059.75
456.395	1040.75
456.616	1066.75
456.836	1057.75
457.056	1047.75
457.276	1039.75
457.497	1052.75
457.717	1061.75
457.937	1089.75
458.157	1089.75
458.377	1055.75
458.598	1095.75
458.818	1128.75
459.038	1144.75
459.258	1118.75
459.478	1147.75
459.698	1190.75
459.918	1197.75
460.138	1220.75
460.358	1205.75
460.578	1225.75
460.798	1280.75
461.018	1302.75
461.238	1272.75
461.458	1310.75
461.678	1280.75
461.898	1350.75
462.118	1314.75
462.338	1349.75
462.558	1355.75
462.777	1407.75
462.997	1422.75
463.217	1459.75
463.437	1445.75
463.657	1413.75
463.876	1439.75
464.096	1430.75
464.316	1352.75
464.536	1400.75
464.755	1383.75
464.975	1361.75
465.195	1298.75
465.414	1319.75
465.634	1250.75
465.854	1213.75
466.073	1222.75
466.293	1216.75
466.512	1211.75
466.732	1201.75
466.951	1192.75
467.171	1165.75
467.391	1195.75
467.61	1158.75
467.829	1159.75
468.049	1147.75
468.268	1122.75
468.488	1151.75
468.707	1135.75
468.927	1196.75
469.146	1157.75
469.365	1191.75
469.585	1162.75
469.804	1195.75
470.023	1182.75
470.243	1152.75
470.462	1186.75
470.681	1165.75
470.901	1160.75
471.12	1236.75
471.339	1179.75
471.558	1217.75
471.777	1176.75
471.997	1171.75
472.216	1205.75
472.435	1183.75
472.654	1136.75
472.873	1137.75
473.092	1155.75
473.311	1167.75
473.53	1194.75
473.749	1171.75
473.968	1194.75
474.187	1150.75
474.406	1164.75
474.625	1199.75
474.844	1189.75
475.063	1179.75
475.282	1180.75
475.501	1172.75
475.72	1207.75
475.939	1215.75
476.158	1235.75
476.377	1244.75
476.596	1323.75
476.814	1344.75
477.033	1263.75
477.252	1263.75
477.471	1264.75
477.69	1288.75
477.908	1319.75
478.127	1321.75
478.346	1337.75
478.564	1337.75
478.783	1388.75
479.002	1375.75
479.22	1413.75
479.439	1481.75
479.658	1439.75
479.876	1402.75
480.095	1400.75
480.313	1421.75
480.532	1425.75
480.751	1420.75
480.969	1397.75
481.188	1430.75
481.406	1448.75
481.624	1438.75
481.843	1407.75
482.061	1388.75
482.28	1417.75
482.498	1397.75
482.717	1392.75
482.935	1420.75
483.153	1417.75
483.372	1411.75
483.59	1447.75
483.808	1458.75
484.027	1409.75
484.245	1426.75
484.463	1391.75
484.681	1457.75
484.9	1424.75
485.118	1453.75
485.336	1414.75
485.554	1434.75
485.772	1466.75
485.99	1459.75
486.209	1441.75
486.427	1415.75
486.645	1473.75
486.863	1452.75
487.081	1455.75
487.299	1446.75
487.517	1438.75
487.735	1448.75
487.953	1427.75
488.171	1489.75
488.389	1464.75
488.607	1461.75
488.825	1432.75
489.043	1425.75
489.261	1456.75
489.479	1431.75
489.696	1464.75
489.914	1403.75
490.132	1462.75
490.35	1445.75
490.568	1439.75
490.786	1443.75
491.003	1454.75
491.221	1463.75
491.439	1475.75
491.657	1487.75
491.874	1451.75
492.092	1482.75
492.31	1539.75
492.527	1510.75
492.745	1526.75
492.963	1489.75
493.18	1485.75
493.398	1486.75
493.615	1487.75
493.833	1493.75
494.05	1499.75
494.268	1488.75
494.485	1478.75
494.703	1516.75
