Data from Fe(NO3)3@0.1M.TitratingCurve.Agarose3%dH2O.NegLispCup.LampEnergy10.LIBS07252019_HRD10591_16-41-50-333.txt Node
Date: Thu Jul 25 16:41:50 EDT 2019
User: cochatt
Spectrometer: HR+D1059
Trigger mode: 1
Integration Time (sec): 1.000000E-1
Scans to average: 1
Electric dark correction enabled: true
Nonlinearity correction enabled: false
Boxcar width: 0
XAxis mode: Wavelengths
Number of Pixels in Spectrum: 2048
>>>>>Begin Spectral Data<<<<<
223.165	-8.38
223.4	-8.38
223.635	-8.38
223.869	-12.38
224.104	-19.38
224.338	-13.38
224.573	-19.38
224.808	-21.38
225.042	-4.38
225.277	3.62
225.511	0.62
225.746	3.62
225.98	8.62
226.215	3.62
226.449	5.62
226.683	23.62
226.918	27.62
227.152	21.62
227.387	30.62
227.621	44.62
227.856	29.62
228.09	50.62
228.324	57.62
228.559	61.62
228.793	63.62
229.027	63.62
229.262	61.62
229.496	76.62
229.73	84.62
229.964	81.62
230.199	76.62
230.433	91.62
230.667	82.62
230.901	77.62
231.136	89.62
231.37	87.62
231.604	94.62
231.838	93.62
232.072	73.62
232.306	79.62
232.541	98.62
232.775	91.62
233.009	92.62
233.243	97.62
233.477	81.62
233.711	97.62
233.945	95.62
234.179	73.62
234.413	90.62
234.647	104.62
234.881	84.62
235.115	91.62
235.349	102.62
235.583	88.62
235.817	87.62
236.051	93.62
236.285	80.62
236.519	89.62
236.753	91.62
236.987	105.62
237.221	105.62
237.455	87.62
237.689	96.62
237.922	88.62
238.156	92.62
238.39	76.62
238.624	88.62
238.858	84.62
239.091	79.62
239.325	75.62
239.559	87.62
239.793	84.62
240.027	88.62
240.26	85.62
240.494	117.62
240.728	85.62
240.961	100.62
241.195	96.62
241.429	97.62
241.662	83.62
241.896	86.62
242.13	85.62
242.363	93.62
242.597	84.62
242.83	77.62
243.064	101.62
243.298	95.62
243.531	84.62
243.765	90.62
243.998	103.62
244.232	82.62
244.465	96.62
244.699	92.62
244.932	98.62
245.166	82.62
245.399	102.62
245.633	85.62
245.866	89.62
246.099	100.62
246.333	90.62
246.566	99.62
246.8	82.62
247.033	91.62
247.266	107.62
247.5	104.62
247.733	92.62
247.966	93.62
248.2	96.62
248.433	113.62
248.666	87.62
248.899	77.62
249.133	103.62
249.366	99.62
249.599	104.62
249.832	102.62
250.066	93.62
250.299	94.62
250.532	95.62
250.765	98.62
250.998	102.62
251.231	101.62
251.465	121.62
251.698	114.62
251.931	109.62
252.164	98.62
252.397	104.62
252.63	104.62
252.863	105.62
253.096	104.62
253.329	87.62
253.562	95.62
253.795	118.62
254.028	88.62
254.261	102.62
254.494	86.62
254.727	97.62
254.96	98.62
255.193	101.62
255.426	85.62
255.659	77.62
255.892	107.62
256.124	105.62
256.357	109.62
256.59	110.62
256.823	104.62
257.056	96.62
257.289	113.62
257.521	115.62
257.754	111.62
257.987	103.62
258.22	99.62
258.452	99.62
258.685	109.62
258.918	113.62
259.151	113.62
259.383	89.62
259.616	113.62
259.849	119.62
260.081	119.62
260.314	104.62
260.547	115.62
260.779	99.62
261.012	100.62
261.244	121.62
261.477	117.62
261.71	105.62
261.942	114.62
262.175	116.62
262.407	102.62
262.64	111.62
262.872	108.62
263.105	105.62
263.337	130.62
263.57	115.62
263.802	127.62
264.035	123.62
264.267	114.62
264.499	112.62
264.732	102.62
264.964	116.62
265.197	114.62
265.429	111.62
265.661	103.62
265.894	111.62
266.126	119.62
266.358	115.62
266.591	129.62
266.823	100.62
267.055	112.62
267.287	126.62
267.52	116.62
267.752	116.62
267.984	115.62
268.216	128.62
268.448	116.62
268.681	122.62
268.913	117.62
269.145	121.62
269.377	130.62
269.609	111.62
269.841	117.62
270.073	100.62
270.306	133.62
270.538	135.62
270.77	118.62
271.002	123.62
271.234	112.62
271.466	108.62
271.698	124.62
271.93	126.62
272.162	125.62
272.394	129.62
272.626	109.62
272.858	116.62
273.09	116.62
273.322	122.62
273.553	122.62
273.785	112.62
274.017	121.62
274.249	142.62
274.481	135.62
274.713	135.62
274.945	123.62
275.176	121.62
275.408	131.62
275.64	121.62
275.872	120.62
276.104	130.62
276.335	126.62
276.567	123.62
276.799	125.62
277.031	119.62
277.262	117.62
277.494	131.62
277.726	130.62
277.957	131.62
278.189	123.62
278.421	129.62
278.652	137.62
278.884	124.62
279.115	124.62
279.347	135.62
279.579	125.62
279.81	132.62
280.042	142.62
280.273	141.62
280.505	127.62
280.736	117.62
280.968	139.62
281.199	128.62
281.431	117.62
281.662	133.62
281.894	137.62
282.125	123.62
282.356	131.62
282.588	135.62
282.819	122.62
283.051	131.62
283.282	135.62
283.513	130.62
283.745	135.62
283.976	148.62
284.207	147.62
284.439	131.62
284.67	137.62
284.901	141.62
285.132	141.62
285.364	127.62
285.595	124.62
285.826	131.62
286.057	154.62
286.288	125.62
286.52	132.62
286.751	149.62
286.982	144.62
287.213	147.62
287.444	140.62
287.675	127.62
287.906	129.62
288.138	137.62
288.369	132.62
288.6	150.62
288.831	135.62
289.062	134.62
289.293	148.62
289.524	149.62
289.755	145.62
289.986	128.62
290.217	135.62
290.448	133.62
290.679	146.62
290.91	151.62
291.141	142.62
291.371	122.62
291.602	140.62
291.833	139.62
292.064	136.62
292.295	144.62
292.526	146.62
292.757	144.62
292.987	145.62
293.218	142.62
293.449	146.62
293.68	148.62
293.91	125.62
294.141	125.62
294.372	130.62
294.603	145.62
294.833	153.62
295.064	149.62
295.295	146.62
295.525	137.62
295.756	142.62
295.987	134.62
296.217	155.62
296.448	145.62
296.679	130.62
296.909	144.62
297.14	143.62
297.37	143.62
297.601	154.62
297.831	154.62
298.062	142.62
298.292	142.62
298.523	152.62
298.753	154.62
298.984	155.62
299.214	162.62
299.445	147.62
299.675	139.62
299.905	160.62
300.136	151.62
300.366	146.62
300.597	153.62
300.827	141.62
301.057	155.62
301.288	151.62
301.518	154.62
301.748	166.62
301.979	159.62
302.209	149.62
302.439	156.62
302.669	145.62
302.9	152.62
303.13	175.62
303.36	151.62
303.59	144.62
303.82	162.62
304.051	154.62
304.281	148.62
304.511	155.62
304.741	161.62
304.971	141.62
305.201	152.62
305.431	160.62
305.661	163.62
305.891	148.62
306.121	136.62
306.352	161.62
306.582	152.62
306.812	162.62
307.042	139.62
307.272	162.62
307.502	163.62
307.731	156.62
307.961	160.62
308.191	160.62
308.421	155.62
308.651	152.62
308.881	146.62
309.111	153.62
309.341	162.62
309.571	149.62
309.8	155.62
310.03	153.62
310.26	147.62
310.49	154.62
310.72	143.62
310.949	160.62
311.179	148.62
311.409	150.62
311.639	162.62
311.868	165.62
312.098	144.62
312.328	149.62
312.557	144.62
312.787	153.62
313.017	150.62
313.246	164.62
313.476	146.62
313.706	155.62
313.935	164.62
314.165	153.62
314.394	172.62
314.624	157.62
314.853	146.62
315.083	159.62
315.312	155.62
315.542	163.62
315.771	147.62
316.001	158.62
316.23	160.62
316.46	149.62
316.689	142.62
316.919	153.62
317.148	169.62
317.377	181.62
317.607	145.62
317.836	133.62
318.065	158.62
318.295	163.62
318.524	156.62
318.753	146.62
318.983	147.62
319.212	167.62
319.441	162.62
319.67	159.62
319.9	163.62
320.129	167.62
320.358	163.62
320.587	159.62
320.816	182.62
321.046	154.62
321.275	169.62
321.504	156.62
321.733	155.62
321.962	159.62
322.191	168.62
322.42	157.62
322.649	176.62
322.878	151.62
323.108	149.62
323.337	160.62
323.566	168.62
323.795	158.62
324.024	176.62
324.253	189.62
324.482	165.62
324.71	157.62
324.939	164.62
325.168	167.62
325.397	166.62
325.626	180.62
325.855	168.62
326.084	162.62
326.313	180.62
326.542	163.62
326.77	177.62
326.999	171.62
327.228	178.62
327.457	170.62
327.686	181.62
327.914	179.62
328.143	184.62
328.372	166.62
328.6	170.62
328.829	173.62
329.058	176.62
329.287	181.62
329.515	168.62
329.744	167.62
329.972	190.62
330.201	172.62
330.43	170.62
330.658	179.62
330.887	172.62
331.115	177.62
331.344	177.62
331.572	196.62
331.801	193.62
332.03	178.62
332.258	189.62
332.486	183.62
332.715	168.62
332.943	200.62
333.172	194.62
333.4	206.62
333.629	207.62
333.857	204.62
334.085	189.62
334.314	193.62
334.542	205.62
334.771	207.62
334.999	203.62
335.227	200.62
335.455	189.62
335.684	183.62
335.912	205.62
336.14	203.62
336.369	191.62
336.597	195.62
336.825	200.62
337.053	192.62
337.281	185.62
337.51	192.62
337.738	196.62
337.966	197.62
338.194	194.62
338.422	190.62
338.65	189.62
338.878	178.62
339.106	188.62
339.334	196.62
339.562	179.62
339.79	172.62
340.018	172.62
340.246	173.62
340.474	183.62
340.702	183.62
340.93	192.62
341.158	177.62
341.386	190.62
341.614	162.62
341.842	177.62
342.07	181.62
342.298	175.62
342.526	179.62
342.754	183.62
342.981	184.62
343.209	187.62
343.437	177.62
343.665	203.62
343.893	210.62
344.12	202.62
344.348	195.62
344.576	206.62
344.804	185.62
345.031	203.62
345.259	178.62
345.487	179.62
345.714	170.62
345.942	185.62
346.17	179.62
346.397	170.62
346.625	179.62
346.853	189.62
347.08	183.62
347.308	175.62
347.535	183.62
347.763	176.62
347.99	186.62
348.218	175.62
348.445	177.62
348.673	162.62
348.9	179.62
349.128	183.62
349.355	166.62
349.583	174.62
349.81	168.62
350.037	180.62
350.265	189.62
350.492	157.62
350.72	169.62
350.947	175.62
351.174	181.62
351.402	168.62
351.629	162.62
351.856	175.62
352.083	180.62
352.311	188.62
352.538	171.62
352.765	168.62
352.992	175.62
353.22	176.62
353.447	179.62
353.674	183.62
353.901	192.62
354.128	167.62
354.355	166.62
354.583	175.62
354.81	172.62
355.037	182.62
355.264	175.62
355.491	167.62
355.718	159.62
355.945	168.62
356.172	175.62
356.399	170.62
356.626	165.62
356.853	178.62
357.08	172.62
357.307	183.62
357.534	183.62
357.761	186.62
357.988	171.62
358.215	188.62
358.441	183.62
358.668	191.62
358.895	188.62
359.122	179.62
359.349	179.62
359.576	186.62
359.802	175.62
360.029	185.62
360.256	166.62
360.483	172.62
360.709	184.62
360.936	168.62
361.163	171.62
361.39	185.62
361.616	182.62
361.843	188.62
362.07	176.62
362.296	168.62
362.523	179.62
362.749	187.62
362.976	190.62
363.203	173.62
363.429	177.62
363.656	194.62
363.882	185.62
364.109	190.62
364.335	169.62
364.562	175.62
364.788	183.62
365.015	180.62
365.241	179.62
365.468	170.62
365.694	173.62
365.92	176.62
366.147	182.62
366.373	177.62
366.599	185.62
366.826	188.62
367.052	183.62
367.278	181.62
367.505	175.62
367.731	187.62
367.957	182.62
368.184	160.62
368.41	190.62
368.636	187.62
368.862	183.62
369.089	176.62
369.315	179.62
369.541	183.62
369.767	185.62
369.993	177.62
370.219	170.62
370.445	187.62
370.672	191.62
370.898	187.62
371.124	187.62
371.35	192.62
371.576	189.62
371.802	187.62
372.028	184.62
372.254	183.62
372.48	184.62
372.706	196.62
372.932	183.62
373.158	189.62
373.384	189.62
373.61	196.62
373.835	201.62
374.061	201.62
374.287	189.62
374.513	191.62
374.739	211.62
374.965	199.62
375.191	217.62
375.416	207.62
375.642	202.62
375.868	195.62
376.094	200.62
376.319	190.62
376.545	205.62
376.771	192.62
376.997	190.62
377.222	192.62
377.448	182.62
377.674	197.62
377.899	184.62
378.125	186.62
378.35	188.62
378.576	181.62
378.802	196.62
379.027	199.62
379.253	188.62
379.478	193.62
379.704	191.62
379.929	208.62
380.155	191.62
380.38	189.62
380.606	196.62
380.831	199.62
381.057	188.62
381.282	179.62
381.507	194.62
381.733	181.62
381.958	206.62
382.184	180.62
382.409	207.62
382.634	204.62
382.86	188.62
383.085	207.62
383.31	205.62
383.535	200.62
383.761	218.62
383.986	202.62
384.211	217.62
384.436	213.62
384.662	207.62
384.887	211.62
385.112	199.62
385.337	207.62
385.562	206.62
385.787	216.62
386.013	232.62
386.238	209.62
386.463	217.62
386.688	222.62
386.913	219.62
387.138	213.62
387.363	215.62
387.588	227.62
387.813	232.62
388.038	219.62
388.263	222.62
388.488	223.62
388.713	220.62
388.938	215.62
389.163	212.62
389.387	209.62
389.612	234.62
389.837	236.62
390.062	221.62
390.287	235.62
390.512	239.62
390.736	200.62
390.961	224.62
391.186	235.62
391.411	241.62
391.636	247.62
391.86	234.62
392.085	219.62
392.31	224.62
392.534	231.62
392.759	231.62
392.984	234.62
393.208	231.62
393.433	229.62
393.658	236.62
393.882	222.62
394.107	235.62
394.331	234.62
394.556	224.62
394.78	219.62
395.005	235.62
395.229	236.62
395.454	243.62
395.678	221.62
395.903	229.62
396.127	246.62
396.352	232.62
396.576	232.62
396.801	219.62
397.025	222.62
397.249	253.62
397.474	261.62
397.698	252.62
397.922	258.62
398.147	241.62
398.371	231.62
398.595	253.62
398.82	262.62
399.044	282.62
399.268	307.62
399.492	333.62
399.717	340.62
399.941	332.62
400.165	333.62
400.389	297.62
400.613	275.62
400.837	284.62
401.062	269.62
401.286	262.62
401.51	255.62
401.734	257.62
401.958	253.62
402.182	265.62
402.406	261.62
402.63	283.62
402.854	271.62
403.078	275.62
403.302	285.62
403.526	277.62
403.75	298.62
403.974	298.62
404.198	280.62
404.422	308.62
404.645	285.62
404.869	289.62
405.093	282.62
405.317	271.62
405.541	283.62
405.765	267.62
405.988	280.62
406.212	274.62
406.436	286.62
406.66	299.62
406.883	301.62
407.107	309.62
407.331	316.62
407.555	319.62
407.778	303.62
408.002	315.62
408.226	309.62
408.449	307.62
408.673	286.62
408.896	282.62
409.12	300.62
409.344	296.62
409.567	293.62
409.791	295.62
410.014	303.62
410.238	288.62
410.461	292.62
410.685	290.62
410.908	266.62
411.132	268.62
411.355	276.62
411.578	283.62
411.802	276.62
412.025	265.62
412.249	285.62
412.472	300.62
412.695	284.62
412.919	280.62
413.142	261.62
413.365	279.62
413.589	279.62
413.812	272.62
414.035	279.62
414.258	267.62
414.482	277.62
414.705	300.62
414.928	288.62
415.151	287.62
415.374	286.62
415.597	259.62
415.821	270.62
416.044	267.62
416.267	273.62
416.49	276.62
416.713	276.62
416.936	278.62
417.159	265.62
417.382	273.62
417.605	268.62
417.828	253.62
418.051	261.62
418.274	272.62
418.497	292.62
418.72	252.62
418.943	286.62
419.166	285.62
419.389	311.62
419.611	287.62
419.834	268.62
420.057	287.62
420.28	285.62
420.503	277.62
420.726	280.62
420.948	265.62
421.171	290.62
421.394	283.62
421.617	288.62
421.839	271.62
422.062	282.62
422.285	269.62
422.507	278.62
422.73	269.62
422.953	280.62
423.175	283.62
423.398	290.62
423.621	275.62
423.843	278.62
424.066	268.62
424.288	280.62
424.511	290.62
424.733	298.62
424.956	299.62
425.178	260.62
425.401	287.62
425.623	265.62
425.846	257.62
426.068	260.62
426.291	247.62
426.513	275.62
426.735	269.62
426.958	268.62
427.18	274.62
427.402	269.62
427.625	259.62
427.847	259.62
428.069	261.62
428.292	259.62
428.514	260.62
428.736	244.62
428.958	258.62
429.181	267.62
429.403	236.62
429.625	257.62
429.847	260.62
430.069	273.62
430.292	263.62
430.514	253.62
430.736	270.62
430.958	261.62
431.18	259.62
431.402	267.62
431.624	255.62
431.846	271.62
432.068	268.62
432.29	263.62
432.512	255.62
432.734	259.62
432.956	264.62
433.178	271.62
433.4	265.62
433.622	283.62
433.844	258.62
434.066	271.62
434.287	266.62
434.509	286.62
434.731	275.62
434.953	276.62
435.175	294.62
435.397	271.62
435.618	264.62
435.84	271.62
436.062	268.62
436.284	268.62
436.505	264.62
436.727	260.62
436.949	264.62
437.17	259.62
437.392	264.62
437.614	263.62
437.835	247.62
438.057	260.62
438.278	255.62
438.5	276.62
438.721	260.62
438.943	275.62
439.165	267.62
439.386	244.62
439.608	264.62
439.829	283.62
440.05	278.62
440.272	276.62
440.493	272.62
440.715	269.62
440.936	275.62
441.158	265.62
441.379	273.62
441.6	290.62
441.822	305.62
442.043	299.62
442.264	300.62
442.486	299.62
442.707	281.62
442.928	293.62
443.149	291.62
443.371	279.62
443.592	292.62
443.813	281.62
444.034	305.62
444.255	308.62
444.476	304.62
444.698	327.62
444.919	323.62
445.14	393.62
445.361	330.62
445.582	297.62
445.803	298.62
446.024	267.62
446.245	296.62
446.466	291.62
446.687	283.62
446.908	289.62
447.129	279.62
447.35	281.62
447.571	285.62
447.792	270.62
448.013	259.62
448.234	253.62
448.455	256.62
448.675	252.62
448.896	265.62
449.117	243.62
449.338	263.62
449.559	265.62
449.779	264.62
450	261.62
450.221	257.62
450.442	278.62
450.662	244.62
450.883	264.62
451.104	248.62
451.324	237.62
451.545	257.62
451.766	275.62
451.986	247.62
452.207	260.62
452.428	244.62
452.648	244.62
452.869	240.62
453.089	234.62
453.31	255.62
453.53	247.62
453.751	229.62
453.971	224.62
454.192	233.62
454.412	233.62
454.633	234.62
454.853	264.62
455.073	225.62
455.294	245.62
455.514	243.62
455.734	242.62
455.955	233.62
456.175	217.62
456.395	230.62
456.616	231.62
456.836	244.62
457.056	234.62
457.276	220.62
457.497	215.62
457.717	241.62
457.937	256.62
458.157	237.62
458.377	234.62
458.598	241.62
458.818	250.62
459.038	241.62
459.258	243.62
459.478	250.62
459.698	251.62
459.918	259.62
460.138	284.62
460.358	280.62
460.578	293.62
460.798	292.62
461.018	307.62
461.238	299.62
461.458	283.62
461.678	308.62
461.898	299.62
462.118	314.62
462.338	325.62
462.558	305.62
462.777	332.62
462.997	349.62
463.217	364.62
463.437	351.62
463.657	338.62
463.876	335.62
464.096	316.62
464.316	320.62
464.536	339.62
464.755	309.62
464.975	296.62
465.195	298.62
465.414	305.62
465.634	293.62
465.854	269.62
466.073	268.62
466.293	250.62
466.512	269.62
466.732	256.62
466.951	279.62
467.171	273.62
467.391	260.62
467.61	265.62
467.829	260.62
468.049	273.62
468.268	262.62
468.488	247.62
468.707	246.62
468.927	255.62
469.146	275.62
469.365	269.62
469.585	262.62
469.804	264.62
470.023	265.62
470.243	271.62
470.462	283.62
470.681	281.62
470.901	263.62
471.12	255.62
471.339	257.62
471.558	250.62
471.777	259.62
471.997	248.62
472.216	259.62
472.435	256.62
472.654	234.62
472.873	244.62
473.092	261.62
473.311	263.62
473.53	257.62
473.749	264.62
473.968	266.62
474.187	246.62
474.406	243.62
474.625	259.62
474.844	246.62
475.063	257.62
475.282	260.62
475.501	260.62
475.72	246.62
475.939	248.62
476.158	268.62
476.377	251.62
476.596	242.62
476.814	240.62
477.033	245.62
477.252	264.62
477.471	273.62
477.69	295.62
477.908	292.62
478.127	283.62
478.346	272.62
478.564	276.62
478.783	283.62
479.002	300.62
479.22	297.62
479.439	283.62
479.658	293.62
479.876	265.62
480.095	288.62
480.313	296.62
480.532	298.62
480.751	296.62
480.969	291.62
481.188	285.62
481.406	266.62
481.624	285.62
481.843	253.62
482.061	268.62
482.28	264.62
482.498	272.62
482.717	281.62
482.935	262.62
483.153	259.62
483.372	291.62
483.59	268.62
483.808	286.62
484.027	266.62
484.245	281.62
484.463	286.62
484.681	273.62
484.9	289.62
485.118	311.62
485.336	279.62
485.554	289.62
485.772	300.62
485.99	290.62
486.209	269.62
486.427	274.62
486.645	279.62
486.863	297.62
487.081	296.62
487.299	268.62
487.517	275.62
487.735	291.62
487.953	284.62
488.171	287.62
488.389	294.62
488.607	266.62
488.825	288.62
489.043	297.62
489.261	281.62
489.479	268.62
489.696	287.62
489.914	267.62
490.132	299.62
490.35	301.62
490.568	279.62
490.786	298.62
491.003	285.62
491.221	300.62
491.439	321.62
491.657	295.62
491.874	307.62
492.092	315.62
492.31	318.62
492.527	301.62
492.745	292.62
492.963	301.62
493.18	300.62
493.398	309.62
493.615	299.62
493.833	295.62
494.05	295.62
494.268	288.62
494.485	296.62
494.703	281.62
494.92	297.62
495.138	286.62
495.355	288.62
495.573	282.62
495.79	295.62
496.008	319.62
496.225	312.62
496.442	297.62
496.66	319.62
496.877	311.62
497.094	320.62
497.312	322.62
497.529	330.62
497.746	345.62
497.963	329.62
498.181	345.62
498.398	351.62
498.615	365.62
498.832	384.62
499.049	397.62
499.267	426.62
499.484	461.62
499.701	476.62
499.918	535.62
500.135	601.62
500.352	622.62
500.569	656.62
500.786	634.62
501.003	602.62
501.22	561.62
501.437	496.62
501.654	458.62
501.871	432.62
502.088	433.62
502.305	382.62
502.522	358.62
502.739	363.62
502.956	355.62
