Data from Fe(NO3)3@0.05M.TitratingCurve.Agarose3%dH2O.NegLispCup.LampEnergy10.LIBS07252019_HRD10591_16-46-39-334.txt Node
Date: Thu Jul 25 16:46:39 EDT 2019
User: cochatt
Spectrometer: HR+D1059
Trigger mode: 1
Integration Time (sec): 1.000000E-1
Scans to average: 1
Electric dark correction enabled: true
Nonlinearity correction enabled: false
Boxcar width: 0
XAxis mode: Wavelengths
Number of Pixels in Spectrum: 2048
>>>>>Begin Spectral Data<<<<<
223.165	-21.75
223.4	-21.75
223.635	-21.75
223.869	-17.75
224.104	-17.75
224.338	-8.75
224.573	-6.75
224.808	-14.75
225.042	9.25
225.277	-0.75
225.511	-25.75
225.746	-7.75
225.98	15.25
226.215	10.25
226.449	22.25
226.683	18.25
226.918	16.25
227.152	30.25
227.387	41.25
227.621	39.25
227.856	44.25
228.09	42.25
228.324	54.25
228.559	59.25
228.793	74.25
229.027	107.25
229.262	114.25
229.496	127.25
229.73	123.25
229.964	133.25
230.199	128.25
230.433	146.25
230.667	149.25
230.901	148.25
231.136	156.25
231.37	153.25
231.604	134.25
231.838	160.25
232.072	154.25
232.306	167.25
232.541	157.25
232.775	167.25
233.009	161.25
233.243	173.25
233.477	160.25
233.711	179.25
233.945	176.25
234.179	162.25
234.413	179.25
234.647	191.25
234.881	190.25
235.115	192.25
235.349	173.25
235.583	177.25
235.817	186.25
236.051	189.25
236.285	164.25
236.519	195.25
236.753	214.25
236.987	181.25
237.221	177.25
237.455	183.25
237.689	200.25
237.922	203.25
238.156	199.25
238.39	198.25
238.624	231.25
238.858	225.25
239.091	209.25
239.325	217.25
239.559	207.25
239.793	217.25
240.027	220.25
240.26	224.25
240.494	211.25
240.728	245.25
240.961	241.25
241.195	224.25
241.429	227.25
241.662	230.25
241.896	206.25
242.13	233.25
242.363	210.25
242.597	226.25
242.83	226.25
243.064	237.25
243.298	235.25
243.531	254.25
243.765	249.25
243.998	250.25
244.232	245.25
244.465	232.25
244.699	256.25
244.932	265.25
245.166	246.25
245.399	249.25
245.633	259.25
245.866	266.25
246.099	241.25
246.333	285.25
246.566	265.25
246.8	276.25
247.033	261.25
247.266	264.25
247.5	257.25
247.733	277.25
247.966	265.25
248.2	281.25
248.433	298.25
248.666	272.25
248.899	291.25
249.133	293.25
249.366	320.25
249.599	315.25
249.832	302.25
250.066	303.25
250.299	300.25
250.532	311.25
250.765	299.25
250.998	298.25
251.231	300.25
251.465	311.25
251.698	292.25
251.931	314.25
252.164	319.25
252.397	333.25
252.63	323.25
252.863	339.25
253.096	341.25
253.329	341.25
253.562	336.25
253.795	343.25
254.028	359.25
254.261	368.25
254.494	338.25
254.727	355.25
254.96	364.25
255.193	340.25
255.426	349.25
255.659	327.25
255.892	334.25
256.124	353.25
256.357	351.25
256.59	366.25
256.823	368.25
257.056	362.25
257.289	345.25
257.521	368.25
257.754	376.25
257.987	365.25
258.22	373.25
258.452	368.25
258.685	357.25
258.918	385.25
259.151	376.25
259.383	365.25
259.616	383.25
259.849	393.25
260.081	437.25
260.314	467.25
260.547	402.25
260.779	419.25
261.012	427.25
261.244	407.25
261.477	417.25
261.71	394.25
261.942	397.25
262.175	413.25
262.407	420.25
262.64	390.25
262.872	418.25
263.105	430.25
263.337	449.25
263.57	437.25
263.802	405.25
264.035	402.25
264.267	393.25
264.499	369.25
264.732	386.25
264.964	403.25
265.197	397.25
265.429	416.25
265.661	387.25
265.894	402.25
266.126	395.25
266.358	396.25
266.591	422.25
266.823	426.25
267.055	426.25
267.287	431.25
267.52	406.25
267.752	433.25
267.984	438.25
268.216	429.25
268.448	437.25
268.681	446.25
268.913	431.25
269.145	433.25
269.377	465.25
269.609	462.25
269.841	435.25
270.073	431.25
270.306	435.25
270.538	461.25
270.77	429.25
271.002	459.25
271.234	450.25
271.466	470.25
271.698	491.25
271.93	463.25
272.162	488.25
272.394	478.25
272.626	485.25
272.858	459.25
273.09	483.25
273.322	496.25
273.553	485.25
273.785	481.25
274.017	523.25
274.249	570.25
274.481	541.25
274.713	551.25
274.945	596.25
275.176	603.25
275.408	583.25
275.64	557.25
275.872	569.25
276.104	524.25
276.335	518.25
276.567	519.25
276.799	517.25
277.031	520.25
277.262	499.25
277.494	519.25
277.726	504.25
277.957	525.25
278.189	521.25
278.421	518.25
278.652	501.25
278.884	530.25
279.115	533.25
279.347	513.25
279.579	530.25
279.81	512.25
280.042	537.25
280.273	537.25
280.505	527.25
280.736	529.25
280.968	527.25
281.199	525.25
281.431	534.25
281.662	549.25
281.894	535.25
282.125	570.25
282.356	568.25
282.588	554.25
282.819	532.25
283.051	544.25
283.282	544.25
283.513	547.25
283.745	535.25
283.976	571.25
284.207	587.25
284.439	566.25
284.67	575.25
284.901	569.25
285.132	561.25
285.364	559.25
285.595	586.25
285.826	555.25
286.057	575.25
286.288	596.25
286.52	570.25
286.751	566.25
286.982	593.25
287.213	583.25
287.444	587.25
287.675	594.25
287.906	596.25
288.138	586.25
288.369	569.25
288.6	588.25
288.831	614.25
289.062	626.25
289.293	613.25
289.524	630.25
289.755	603.25
289.986	591.25
290.217	597.25
290.448	593.25
290.679	611.25
290.91	579.25
291.141	606.25
291.371	620.25
291.602	596.25
291.833	623.25
292.064	601.25
292.295	607.25
292.526	597.25
292.757	595.25
292.987	622.25
293.218	598.25
293.449	614.25
293.68	650.25
293.91	603.25
294.141	622.25
294.372	609.25
294.603	608.25
294.833	638.25
295.064	643.25
295.295	623.25
295.525	628.25
295.756	629.25
295.987	602.25
296.217	611.25
296.448	634.25
296.679	635.25
296.909	646.25
297.14	653.25
297.37	639.25
297.601	666.25
297.831	646.25
298.062	645.25
298.292	625.25
298.523	631.25
298.753	682.25
298.984	671.25
299.214	632.25
299.445	629.25
299.675	655.25
299.905	648.25
300.136	665.25
300.366	675.25
300.597	690.25
300.827	700.25
301.057	677.25
301.288	688.25
301.518	697.25
301.748	687.25
301.979	699.25
302.209	707.25
302.439	698.25
302.669	719.25
302.9	703.25
303.13	743.25
303.36	702.25
303.59	700.25
303.82	677.25
304.051	685.25
304.281	673.25
304.511	689.25
304.741	701.25
304.971	711.25
305.201	695.25
305.431	700.25
305.661	696.25
305.891	678.25
306.121	693.25
306.352	689.25
306.582	696.25
306.812	678.25
307.042	701.25
307.272	695.25
307.502	681.25
307.731	673.25
307.961	693.25
308.191	674.25
308.421	681.25
308.651	715.25
308.881	679.25
309.111	713.25
309.341	691.25
309.571	704.25
309.8	720.25
310.03	700.25
310.26	715.25
310.49	712.25
310.72	735.25
310.949	718.25
311.179	714.25
311.409	719.25
311.639	729.25
311.868	717.25
312.098	722.25
312.328	740.25
312.557	732.25
312.787	733.25
313.017	730.25
313.246	731.25
313.476	722.25
313.706	738.25
313.935	757.25
314.165	761.25
314.394	740.25
314.624	763.25
314.853	757.25
315.083	739.25
315.312	769.25
315.542	778.25
315.771	773.25
316.001	768.25
316.23	753.25
316.46	739.25
316.689	776.25
316.919	752.25
317.148	762.25
317.377	747.25
317.607	765.25
317.836	773.25
318.065	749.25
318.295	746.25
318.524	777.25
318.753	759.25
318.983	751.25
319.212	765.25
319.441	749.25
319.67	803.25
319.9	749.25
320.129	764.25
320.358	782.25
320.587	761.25
320.816	747.25
321.046	775.25
321.275	777.25
321.504	771.25
321.733	790.25
321.962	747.25
322.191	792.25
322.42	778.25
322.649	781.25
322.878	778.25
323.108	791.25
323.337	791.25
323.566	805.25
323.795	768.25
324.024	794.25
324.253	801.25
324.482	801.25
324.71	811.25
324.939	801.25
325.168	802.25
325.397	819.25
325.626	825.25
325.855	809.25
326.084	823.25
326.313	824.25
326.542	838.25
326.77	832.25
326.999	833.25
327.228	819.25
327.457	866.25
327.686	808.25
327.914	835.25
328.143	858.25
328.372	826.25
328.6	846.25
328.829	824.25
329.058	843.25
329.287	840.25
329.515	859.25
329.744	861.25
329.972	850.25
330.201	854.25
330.43	841.25
330.658	847.25
330.887	866.25
331.115	856.25
331.344	860.25
331.572	857.25
331.801	861.25
332.03	902.25
332.258	906.25
332.486	892.25
332.715	914.25
332.943	952.25
333.172	920.25
333.4	976.25
333.629	963.25
333.857	970.25
334.085	976.25
334.314	988.25
334.542	958.25
334.771	974.25
334.999	966.25
335.227	991.25
335.455	1006.25
335.684	973.25
335.912	1008.25
336.14	992.25
336.369	980.25
336.597	976.25
336.825	981.25
337.053	981.25
337.281	965.25
337.51	931.25
337.738	917.25
337.966	953.25
338.194	928.25
338.422	932.25
338.65	945.25
338.878	930.25
339.106	921.25
339.334	903.25
339.562	937.25
339.79	899.25
340.018	902.25
340.246	899.25
340.474	883.25
340.702	899.25
340.93	872.25
341.158	913.25
341.386	912.25
341.614	883.25
341.842	888.25
342.07	880.25
342.298	894.25
342.526	880.25
342.754	871.25
342.981	919.25
343.209	896.25
343.437	901.25
343.665	955.25
343.893	967.25
344.12	991.25
344.348	995.25
344.576	979.25
344.804	958.25
345.031	924.25
345.259	933.25
345.487	922.25
345.714	913.25
345.942	893.25
346.17	900.25
346.397	877.25
346.625	869.25
346.853	864.25
347.08	862.25
347.308	871.25
347.535	892.25
347.763	870.25
347.99	877.25
348.218	890.25
348.445	863.25
348.673	871.25
348.9	845.25
349.128	844.25
349.355	840.25
349.583	863.25
349.81	866.25
350.037	847.25
350.265	857.25
350.492	865.25
350.72	853.25
350.947	861.25
351.174	857.25
351.402	833.25
351.629	834.25
351.856	843.25
352.083	834.25
352.311	837.25
352.538	821.25
352.765	838.25
352.992	825.25
353.22	853.25
353.447	857.25
353.674	847.25
353.901	833.25
354.128	833.25
354.355	826.25
354.583	840.25
354.81	854.25
355.037	874.25
355.264	838.25
355.491	864.25
355.718	847.25
355.945	873.25
356.172	872.25
356.399	866.25
356.626	852.25
356.853	864.25
357.08	868.25
357.307	913.25
357.534	871.25
357.761	856.25
357.988	854.25
358.215	872.25
358.441	871.25
358.668	858.25
358.895	890.25
359.122	843.25
359.349	844.25
359.576	841.25
359.802	852.25
360.029	852.25
360.256	864.25
360.483	868.25
360.709	857.25
360.936	872.25
361.163	896.25
361.39	865.25
361.616	854.25
361.843	877.25
362.07	893.25
362.296	847.25
362.523	884.25
362.749	867.25
362.976	882.25
363.203	882.25
363.429	875.25
363.656	851.25
363.882	846.25
364.109	868.25
364.335	876.25
364.562	859.25
364.788	900.25
365.015	889.25
365.241	864.25
365.468	883.25
365.694	872.25
365.92	865.25
366.147	877.25
366.373	873.25
366.599	880.25
366.826	873.25
367.052	876.25
367.278	874.25
367.505	890.25
367.731	914.25
367.957	887.25
368.184	877.25
368.41	903.25
368.636	893.25
368.862	878.25
369.089	893.25
369.315	901.25
369.541	881.25
369.767	927.25
369.993	895.25
370.219	892.25
370.445	925.25
370.672	932.25
370.898	933.25
371.124	970.25
371.35	916.25
371.576	929.25
371.802	968.25
372.028	953.25
372.254	945.25
372.48	980.25
372.706	990.25
372.932	964.25
373.158	965.25
373.384	979.25
373.61	968.25
373.835	1008.25
374.061	979.25
374.287	965.25
374.513	1000.25
374.739	1015.25
374.965	1049.25
375.191	1035.25
375.416	1015.25
375.642	990.25
375.868	999.25
376.094	1007.25
376.319	963.25
376.545	967.25
376.771	970.25
376.997	955.25
377.222	945.25
377.448	950.25
377.674	935.25
377.899	933.25
378.125	948.25
378.35	951.25
378.576	955.25
378.802	965.25
379.027	945.25
379.253	926.25
379.478	938.25
379.704	922.25
379.929	969.25
380.155	937.25
380.38	951.25
380.606	932.25
380.831	945.25
381.057	972.25
381.282	987.25
381.507	970.25
381.733	1019.25
381.958	1017.25
382.184	1036.25
382.409	1023.25
382.634	1005.25
382.86	1042.25
383.085	1030.25
383.31	1020.25
383.535	1033.25
383.761	1039.25
383.986	1052.25
384.211	1068.25
384.436	1037.25
384.662	1059.25
384.887	1066.25
385.112	1073.25
385.337	1074.25
385.562	1113.25
385.787	1121.25
386.013	1113.25
386.238	1085.25
386.463	1123.25
386.688	1109.25
386.913	1126.25
387.138	1145.25
387.363	1151.25
387.588	1105.25
387.813	1139.25
388.038	1132.25
388.263	1111.25
388.488	1131.25
388.713	1151.25
388.938	1163.25
389.163	1115.25
389.387	1149.25
389.612	1122.25
389.837	1121.25
390.062	1150.25
390.287	1153.25
390.512	1144.25
390.736	1161.25
390.961	1147.25
391.186	1182.25
391.411	1171.25
391.636	1158.25
391.86	1225.25
392.085	1214.25
392.31	1240.25
392.534	1206.25
392.759	1199.25
392.984	1187.25
393.208	1201.25
393.433	1221.25
393.658	1194.25
393.882	1191.25
394.107	1170.25
394.331	1184.25
394.556	1172.25
394.78	1191.25
395.005	1219.25
395.229	1195.25
395.454	1222.25
395.678	1242.25
395.903	1250.25
396.127	1234.25
396.352	1229.25
396.576	1213.25
396.801	1205.25
397.025	1245.25
397.249	1269.25
397.474	1267.25
397.698	1283.25
397.922	1281.25
398.147	1275.25
398.371	1310.25
398.595	1325.25
398.82	1390.25
399.044	1443.25
399.268	1457.25
399.492	1581.25
399.717	1656.25
399.941	1692.25
400.165	1633.25
400.389	1579.25
400.613	1531.25
400.837	1487.25
401.062	1422.25
401.286	1421.25
401.51	1410.25
401.734	1368.25
401.958	1382.25
402.182	1371.25
402.406	1383.25
402.63	1407.25
402.854	1390.25
403.078	1406.25
403.302	1417.25
403.526	1407.25
403.75	1405.25
403.974	1440.25
404.198	1426.25
404.422	1448.25
404.645	1426.25
404.869	1438.25
405.093	1431.25
405.317	1471.25
405.541	1451.25
405.765	1474.25
405.988	1466.25
406.212	1487.25
406.436	1474.25
406.66	1513.25
406.883	1517.25
407.107	1560.25
407.331	1633.25
407.555	1616.25
407.778	1634.25
408.002	1601.25
408.226	1576.25
408.449	1573.25
408.673	1545.25
408.896	1541.25
409.12	1468.25
409.344	1527.25
409.567	1443.25
409.791	1502.25
410.014	1516.25
410.238	1494.25
410.461	1482.25
410.685	1447.25
410.908	1458.25
411.132	1418.25
411.355	1423.25
411.578	1420.25
411.802	1410.25
412.025	1483.25
412.249	1466.25
412.472	1466.25
412.695	1409.25
412.919	1375.25
413.142	1379.25
413.365	1427.25
413.589	1393.25
413.812	1407.25
414.035	1368.25
414.258	1375.25
414.482	1367.25
414.705	1427.25
414.928	1407.25
415.151	1384.25
415.374	1381.25
415.597	1374.25
415.821	1355.25
416.044	1349.25
416.267	1339.25
416.49	1326.25
416.713	1328.25
416.936	1367.25
417.159	1323.25
417.382	1342.25
417.605	1317.25
417.828	1341.25
418.051	1357.25
418.274	1363.25
418.497	1337.25
418.72	1361.25
418.943	1322.25
419.166	1409.25
419.389	1470.25
419.611	1473.25
419.834	1430.25
420.057	1405.25
420.28	1401.25
420.503	1306.25
420.726	1317.25
420.948	1315.25
421.171	1295.25
421.394	1325.25
421.617	1309.25
421.839	1328.25
422.062	1352.25
422.285	1330.25
422.507	1342.25
422.73	1331.25
422.953	1292.25
423.175	1351.25
423.398	1389.25
423.621	1339.25
423.843	1365.25
424.066	1309.25
424.288	1327.25
424.511	1327.25
424.733	1322.25
424.956	1285.25
425.178	1341.25
425.401	1309.25
425.623	1363.25
425.846	1289.25
426.068	1306.25
426.291	1308.25
426.513	1269.25
426.735	1278.25
426.958	1282.25
427.18	1294.25
427.402	1269.25
427.625	1278.25
427.847	1226.25
428.069	1264.25
428.292	1271.25
428.514	1234.25
428.736	1247.25
428.958	1259.25
429.181	1245.25
429.403	1244.25
429.625	1241.25
429.847	1279.25
430.069	1244.25
430.292	1241.25
430.514	1227.25
430.736	1278.25
430.958	1244.25
431.18	1253.25
431.402	1280.25
431.624	1219.25
431.846	1242.25
432.068	1238.25
432.29	1300.25
432.512	1234.25
432.734	1272.25
432.956	1272.25
433.178	1262.25
433.4	1258.25
433.622	1281.25
433.844	1297.25
434.066	1301.25
434.287	1274.25
434.509	1283.25
434.731	1324.25
434.953	1333.25
435.175	1333.25
435.397	1307.25
435.618	1315.25
435.84	1303.25
436.062	1243.25
436.284	1287.25
436.505	1249.25
436.727	1265.25
436.949	1240.25
437.17	1240.25
437.392	1212.25
437.614	1235.25
437.835	1213.25
438.057	1205.25
438.278	1232.25
438.5	1260.25
438.721	1262.25
438.943	1247.25
439.165	1207.25
439.386	1215.25
439.608	1249.25
439.829	1254.25
440.05	1186.25
440.272	1252.25
440.493	1239.25
440.715	1269.25
440.936	1291.25
441.158	1280.25
441.379	1294.25
441.6	1319.25
441.822	1333.25
442.043	1343.25
442.264	1294.25
442.486	1301.25
442.707	1325.25
442.928	1295.25
443.149	1323.25
443.371	1280.25
443.592	1327.25
443.813	1322.25
444.034	1335.25
444.255	1358.25
444.476	1378.25
444.698	1425.25
444.919	1435.25
445.14	1486.25
445.361	1413.25
445.582	1352.25
445.803	1303.25
446.024	1301.25
446.245	1282.25
446.466	1256.25
446.687	1248.25
446.908	1274.25
447.129	1235.25
447.35	1245.25
447.571	1190.25
447.792	1171.25
448.013	1170.25
448.234	1168.25
448.455	1163.25
448.675	1179.25
448.896	1183.25
449.117	1143.25
449.338	1161.25
449.559	1149.25
449.779	1129.25
450	1137.25
450.221	1129.25
450.442	1149.25
450.662	1129.25
450.883	1158.25
451.104	1157.25
451.324	1154.25
451.545	1161.25
451.766	1147.25
451.986	1127.25
452.207	1143.25
452.428	1116.25
452.648	1090.25
452.869	1102.25
453.089	1090.25
453.31	1102.25
453.53	1122.25
453.751	1075.25
453.971	1111.25
454.192	1073.25
454.412	1090.25
454.633	1117.25
454.853	1091.25
455.073	1107.25
455.294	1094.25
455.514	1072.25
455.734	1077.25
455.955	1086.25
456.175	1098.25
456.395	1113.25
456.616	1102.25
456.836	1107.25
457.056	1116.25
457.276	1093.25
457.497	1087.25
457.717	1093.25
457.937	1101.25
458.157	1130.25
458.377	1114.25
458.598	1126.25
458.818	1178.25
459.038	1180.25
459.258	1208.25
459.478	1218.25
459.698	1274.25
459.918	1311.25
460.138	1309.25
460.358	1327.25
460.578	1328.25
460.798	1356.25
461.018	1398.25
461.238	1372.25
461.458	1387.25
461.678	1393.25
461.898	1402.25
462.118	1403.25
462.338	1459.25
462.558	1447.25
462.777	1506.25
462.997	1549.25
463.217	1591.25
463.437	1619.25
463.657	1565.25
463.876	1537.25
464.096	1558.25
464.316	1508.25
464.536	1528.25
464.755	1466.25
464.975	1500.25
465.195	1403.25
465.414	1382.25
465.634	1309.25
465.854	1321.25
466.073	1258.25
466.293	1259.25
466.512	1247.25
466.732	1235.25
466.951	1271.25
467.171	1215.25
467.391	1207.25
467.61	1224.25
467.829	1214.25
468.049	1207.25
468.268	1207.25
468.488	1198.25
468.707	1193.25
468.927	1189.25
469.146	1180.25
469.365	1224.25
469.585	1217.25
469.804	1233.25
470.023	1233.25
470.243	1224.25
470.462	1221.25
470.681	1223.25
470.901	1224.25
471.12	1225.25
471.339	1208.25
471.558	1238.25
471.777	1234.25
471.997	1224.25
472.216	1232.25
472.435	1198.25
472.654	1227.25
472.873	1226.25
473.092	1198.25
473.311	1196.25
473.53	1191.25
473.749	1171.25
473.968	1158.25
474.187	1202.25
474.406	1185.25
474.625	1222.25
474.844	1172.25
475.063	1194.25
475.282	1205.25
475.501	1207.25
475.72	1225.25
475.939	1248.25
476.158	1243.25
476.377	1256.25
476.596	1286.25
476.814	1340.25
477.033	1264.25
477.252	1267.25
477.471	1307.25
477.69	1303.25
477.908	1381.25
478.127	1375.25
478.346	1374.25
478.564	1349.25
478.783	1387.25
479.002	1386.25
479.22	1441.25
479.439	1483.25
479.658	1430.25
479.876	1443.25
480.095	1401.25
480.313	1497.25
480.532	1448.25
480.751	1484.25
480.969	1489.25
481.188	1472.25
481.406	1422.25
481.624	1429.25
481.843	1414.25
482.061	1375.25
482.28	1399.25
482.498	1444.25
482.717	1379.25
482.935	1407.25
483.153	1397.25
483.372	1382.25
483.59	1397.25
483.808	1393.25
484.027	1375.25
484.245	1403.25
484.463	1417.25
484.681	1435.25
484.9	1397.25
485.118	1427.25
485.336	1385.25
485.554	1421.25
485.772	1440.25
485.99	1442.25
486.209	1453.25
486.427	1467.25
486.645	1453.25
486.863	1465.25
487.081	1455.25
487.299	1457.25
487.517	1401.25
487.735	1460.25
487.953	1413.25
488.171	1496.25
488.389	1467.25
488.607	1416.25
488.825	1428.25
489.043	1429.25
489.261	1450.25
489.479	1465.25
489.696	1468.25
489.914	1467.25
490.132	1417.25
490.35	1451.25
490.568	1424.25
490.786	1454.25
491.003	1456.25
491.221	1465.25
491.439	1480.25
491.657	1455.25
491.874	1488.25
492.092	1491.25
492.31	1521.25
492.527	1521.25
492.745	1480.25
492.963	1471.25
493.18	1485.25
493.398	1499.25
493.615	1508.25
493.833	1528.25
494.05	1520.25
494.268	1538.25
494.485	1506.25
