Data from Fe(NO3)3@0.05M.TitratingCurve.Agarose3%dH2O.NegLispCup.LampEnergy10.LIBS07252019_HRD10591_16-45-43-333.txt Node
Date: Thu Jul 25 16:45:43 EDT 2019
User: cochatt
Spectrometer: HR+D1059
Trigger mode: 1
Integration Time (sec): 1.000000E-1
Scans to average: 1
Electric dark correction enabled: true
Nonlinearity correction enabled: false
Boxcar width: 0
XAxis mode: Wavelengths
Number of Pixels in Spectrum: 2048
>>>>>Begin Spectral Data<<<<<
223.165	-19.19
223.4	-19.19
223.635	-19.19
223.869	-3.19
224.104	-22.19
224.338	-28.19
224.573	-6.19
224.808	-5.19
225.042	-2.19
225.277	-10.19
225.511	-5.19
225.746	14.81
225.98	1.81
226.215	9.81
226.449	26.81
226.683	12.81
226.918	16.81
227.152	18.81
227.387	32.81
227.621	38.81
227.856	34.81
228.09	48.81
228.324	30.81
228.559	49.81
228.793	72.81
229.027	109.81
229.262	103.81
229.496	119.81
229.73	109.81
229.964	140.81
230.199	145.81
230.433	122.81
230.667	118.81
230.901	138.81
231.136	141.81
231.37	128.81
231.604	141.81
231.838	129.81
232.072	145.81
232.306	139.81
232.541	151.81
232.775	138.81
233.009	138.81
233.243	152.81
233.477	154.81
233.711	154.81
233.945	167.81
234.179	157.81
234.413	163.81
234.647	165.81
234.881	175.81
235.115	170.81
235.349	158.81
235.583	148.81
235.817	154.81
236.051	153.81
236.285	161.81
236.519	179.81
236.753	157.81
236.987	173.81
237.221	166.81
237.455	162.81
237.689	171.81
237.922	171.81
238.156	169.81
238.39	196.81
238.624	202.81
238.858	210.81
239.091	204.81
239.325	194.81
239.559	182.81
239.793	188.81
240.027	200.81
240.26	199.81
240.494	189.81
240.728	186.81
240.961	247.81
241.195	212.81
241.429	204.81
241.662	218.81
241.896	204.81
242.13	196.81
242.363	197.81
242.597	205.81
242.83	199.81
243.064	190.81
243.298	195.81
243.531	224.81
243.765	230.81
243.998	213.81
244.232	222.81
244.465	225.81
244.699	207.81
244.932	215.81
245.166	220.81
245.399	228.81
245.633	235.81
245.866	235.81
246.099	241.81
246.333	260.81
246.566	230.81
246.8	243.81
247.033	233.81
247.266	250.81
247.5	276.81
247.733	250.81
247.966	255.81
248.2	266.81
248.433	255.81
248.666	265.81
248.899	259.81
249.133	265.81
249.366	253.81
249.599	279.81
249.832	273.81
250.066	288.81
250.299	274.81
250.532	259.81
250.765	274.81
250.998	281.81
251.231	266.81
251.465	269.81
251.698	257.81
251.931	280.81
252.164	279.81
252.397	296.81
252.63	294.81
252.863	297.81
253.096	317.81
253.329	295.81
253.562	316.81
253.795	308.81
254.028	318.81
254.261	318.81
254.494	333.81
254.727	318.81
254.96	311.81
255.193	326.81
255.426	317.81
255.659	307.81
255.892	313.81
256.124	303.81
256.357	315.81
256.59	344.81
256.823	323.81
257.056	295.81
257.289	318.81
257.521	303.81
257.754	321.81
257.987	321.81
258.22	306.81
258.452	325.81
258.685	330.81
258.918	348.81
259.151	340.81
259.383	350.81
259.616	351.81
259.849	362.81
260.081	417.81
260.314	435.81
260.547	379.81
260.779	369.81
261.012	379.81
261.244	383.81
261.477	399.81
261.71	389.81
261.942	377.81
262.175	354.81
262.407	341.81
262.64	378.81
262.872	369.81
263.105	385.81
263.337	397.81
263.57	395.81
263.802	353.81
264.035	347.81
264.267	359.81
264.499	353.81
264.732	342.81
264.964	357.81
265.197	351.81
265.429	358.81
265.661	363.81
265.894	373.81
266.126	348.81
266.358	362.81
266.591	360.81
266.823	398.81
267.055	403.81
267.287	376.81
267.52	371.81
267.752	375.81
267.984	378.81
268.216	374.81
268.448	374.81
268.681	381.81
268.913	391.81
269.145	394.81
269.377	398.81
269.609	387.81
269.841	406.81
270.073	383.81
270.306	387.81
270.538	418.81
270.77	383.81
271.002	401.81
271.234	400.81
271.466	406.81
271.698	419.81
271.93	434.81
272.162	423.81
272.394	417.81
272.626	426.81
272.858	409.81
273.09	432.81
273.322	438.81
273.553	423.81
273.785	450.81
274.017	475.81
274.249	507.81
274.481	480.81
274.713	508.81
274.945	545.81
275.176	570.81
275.408	513.81
275.64	518.81
275.872	543.81
276.104	473.81
276.335	427.81
276.567	459.81
276.799	446.81
277.031	449.81
277.262	484.81
277.494	443.81
277.726	441.81
277.957	443.81
278.189	485.81
278.421	473.81
278.652	475.81
278.884	468.81
279.115	467.81
279.347	449.81
279.579	445.81
279.81	461.81
280.042	448.81
280.273	459.81
280.505	456.81
280.736	464.81
280.968	457.81
281.199	484.81
281.431	460.81
281.662	495.81
281.894	483.81
282.125	478.81
282.356	481.81
282.588	490.81
282.819	489.81
283.051	482.81
283.282	493.81
283.513	463.81
283.745	483.81
283.976	481.81
284.207	495.81
284.439	482.81
284.67	503.81
284.901	499.81
285.132	493.81
285.364	512.81
285.595	515.81
285.826	474.81
286.057	513.81
286.288	493.81
286.52	501.81
286.751	528.81
286.982	498.81
287.213	524.81
287.444	522.81
287.675	516.81
287.906	496.81
288.138	515.81
288.369	513.81
288.6	512.81
288.831	525.81
289.062	518.81
289.293	503.81
289.524	535.81
289.755	508.81
289.986	523.81
290.217	518.81
290.448	539.81
290.679	539.81
290.91	539.81
291.141	529.81
291.371	500.81
291.602	526.81
291.833	524.81
292.064	512.81
292.295	536.81
292.526	544.81
292.757	529.81
292.987	533.81
293.218	534.81
293.449	536.81
293.68	520.81
293.91	527.81
294.141	519.81
294.372	532.81
294.603	549.81
294.833	573.81
295.064	551.81
295.295	550.81
295.525	530.81
295.756	549.81
295.987	553.81
296.217	550.81
296.448	543.81
296.679	553.81
296.909	562.81
297.14	573.81
297.37	562.81
297.601	599.81
297.831	578.81
298.062	538.81
298.292	559.81
298.523	561.81
298.753	568.81
298.984	558.81
299.214	567.81
299.445	591.81
299.675	572.81
299.905	572.81
300.136	568.81
300.366	566.81
300.597	567.81
300.827	584.81
301.057	585.81
301.288	576.81
301.518	586.81
301.748	602.81
301.979	609.81
302.209	618.81
302.439	627.81
302.669	601.81
302.9	601.81
303.13	591.81
303.36	620.81
303.59	593.81
303.82	589.81
304.051	623.81
304.281	618.81
304.511	608.81
304.741	607.81
304.971	614.81
305.201	598.81
305.431	633.81
305.661	622.81
305.891	618.81
306.121	625.81
306.352	610.81
306.582	610.81
306.812	598.81
307.042	634.81
307.272	612.81
307.502	605.81
307.731	603.81
307.961	611.81
308.191	599.81
308.421	587.81
308.651	621.81
308.881	592.81
309.111	603.81
309.341	595.81
309.571	584.81
309.8	625.81
310.03	607.81
310.26	629.81
310.49	623.81
310.72	617.81
310.949	618.81
311.179	615.81
311.409	630.81
311.639	608.81
311.868	625.81
312.098	620.81
312.328	632.81
312.557	633.81
312.787	651.81
313.017	611.81
313.246	627.81
313.476	633.81
313.706	652.81
313.935	667.81
314.165	635.81
314.394	650.81
314.624	646.81
314.853	635.81
315.083	674.81
315.312	662.81
315.542	690.81
315.771	639.81
316.001	670.81
316.23	649.81
316.46	632.81
316.689	649.81
316.919	666.81
317.148	677.81
317.377	675.81
317.607	655.81
317.836	651.81
318.065	664.81
318.295	679.81
318.524	662.81
318.753	651.81
318.983	670.81
319.212	653.81
319.441	671.81
319.67	671.81
319.9	678.81
320.129	673.81
320.358	666.81
320.587	654.81
320.816	675.81
321.046	704.81
321.275	671.81
321.504	655.81
321.733	669.81
321.962	669.81
322.191	679.81
322.42	683.81
322.649	714.81
322.878	697.81
323.108	675.81
323.337	691.81
323.566	698.81
323.795	672.81
324.024	686.81
324.253	701.81
324.482	660.81
324.71	691.81
324.939	687.81
325.168	683.81
325.397	680.81
325.626	730.81
325.855	701.81
326.084	696.81
326.313	725.81
326.542	731.81
326.77	733.81
326.999	737.81
327.228	709.81
327.457	721.81
327.686	708.81
327.914	720.81
328.143	727.81
328.372	722.81
328.6	726.81
328.829	712.81
329.058	723.81
329.287	721.81
329.515	735.81
329.744	727.81
329.972	738.81
330.201	729.81
330.43	743.81
330.658	721.81
330.887	752.81
331.115	744.81
331.344	769.81
331.572	773.81
331.801	768.81
332.03	764.81
332.258	775.81
332.486	771.81
332.715	782.81
332.943	790.81
333.172	814.81
333.4	801.81
333.629	805.81
333.857	844.81
334.085	825.81
334.314	864.81
334.542	866.81
334.771	832.81
334.999	889.81
335.227	839.81
335.455	863.81
335.684	867.81
335.912	887.81
336.14	889.81
336.369	861.81
336.597	847.81
336.825	854.81
337.053	850.81
337.281	861.81
337.51	853.81
337.738	807.81
337.966	849.81
338.194	821.81
338.422	811.81
338.65	804.81
338.878	805.81
339.106	786.81
339.334	763.81
339.562	789.81
339.79	807.81
340.018	817.81
340.246	777.81
340.474	768.81
340.702	793.81
340.93	804.81
341.158	761.81
341.386	768.81
341.614	792.81
341.842	767.81
342.07	789.81
342.298	767.81
342.526	773.81
342.754	784.81
342.981	782.81
343.209	769.81
343.437	805.81
343.665	802.81
343.893	831.81
344.12	868.81
344.348	819.81
344.576	822.81
344.804	836.81
345.031	805.81
345.259	793.81
345.487	793.81
345.714	784.81
345.942	776.81
346.17	785.81
346.397	760.81
346.625	740.81
346.853	758.81
347.08	732.81
347.308	738.81
347.535	756.81
347.763	770.81
347.99	739.81
348.218	727.81
348.445	733.81
348.673	746.81
348.9	751.81
349.128	745.81
349.355	737.81
349.583	735.81
349.81	749.81
350.037	725.81
350.265	731.81
350.492	729.81
350.72	730.81
350.947	737.81
351.174	708.81
351.402	729.81
351.629	718.81
351.856	697.81
352.083	717.81
352.311	713.81
352.538	719.81
352.765	718.81
352.992	712.81
353.22	712.81
353.447	727.81
353.674	739.81
353.901	745.81
354.128	734.81
354.355	743.81
354.583	732.81
354.81	738.81
355.037	727.81
355.264	729.81
355.491	741.81
355.718	756.81
355.945	731.81
356.172	722.81
356.399	750.81
356.626	730.81
356.853	773.81
357.08	753.81
357.307	756.81
357.534	729.81
357.761	771.81
357.988	771.81
358.215	749.81
358.441	793.81
358.668	784.81
358.895	761.81
359.122	754.81
359.349	741.81
359.576	725.81
359.802	725.81
360.029	755.81
360.256	715.81
360.483	753.81
360.709	732.81
360.936	755.81
361.163	746.81
361.39	749.81
361.616	750.81
361.843	759.81
362.07	774.81
362.296	781.81
362.523	734.81
362.749	761.81
362.976	744.81
363.203	765.81
363.429	799.81
363.656	759.81
363.882	735.81
364.109	756.81
364.335	759.81
364.562	761.81
364.788	759.81
365.015	784.81
365.241	779.81
365.468	722.81
365.694	727.81
365.92	758.81
366.147	757.81
366.373	758.81
366.599	749.81
366.826	787.81
367.052	752.81
367.278	756.81
367.505	743.81
367.731	773.81
367.957	785.81
368.184	805.81
368.41	773.81
368.636	781.81
368.862	775.81
369.089	777.81
369.315	789.81
369.541	781.81
369.767	790.81
369.993	787.81
370.219	783.81
370.445	809.81
370.672	845.81
370.898	787.81
371.124	813.81
371.35	825.81
371.576	800.81
371.802	815.81
372.028	842.81
372.254	855.81
372.48	873.81
372.706	818.81
372.932	833.81
373.158	817.81
373.384	848.81
373.61	888.81
373.835	877.81
374.061	852.81
374.287	856.81
374.513	850.81
374.739	912.81
374.965	899.81
375.191	905.81
375.416	885.81
375.642	874.81
375.868	860.81
376.094	871.81
376.319	872.81
376.545	852.81
376.771	859.81
376.997	828.81
377.222	832.81
377.448	828.81
377.674	803.81
377.899	803.81
378.125	821.81
378.35	805.81
378.576	825.81
378.802	818.81
379.027	853.81
379.253	837.81
379.478	813.81
379.704	835.81
379.929	821.81
380.155	848.81
380.38	856.81
380.606	852.81
380.831	856.81
381.057	867.81
381.282	846.81
381.507	864.81
381.733	856.81
381.958	865.81
382.184	885.81
382.409	907.81
382.634	923.81
382.86	922.81
383.085	899.81
383.31	895.81
383.535	908.81
383.761	917.81
383.986	895.81
384.211	939.81
384.436	921.81
384.662	907.81
384.887	926.81
385.112	933.81
385.337	941.81
385.562	946.81
385.787	966.81
386.013	979.81
386.238	977.81
386.463	1002.81
386.688	974.81
386.913	972.81
387.138	953.81
387.363	968.81
387.588	966.81
387.813	959.81
388.038	979.81
388.263	1007.81
388.488	974.81
388.713	1012.81
388.938	1012.81
389.163	999.81
389.387	978.81
389.612	963.81
389.837	978.81
390.062	999.81
390.287	996.81
390.512	1010.81
390.736	1009.81
390.961	1009.81
391.186	1034.81
391.411	1025.81
391.636	1055.81
391.86	1069.81
392.085	1075.81
392.31	1039.81
392.534	1053.81
392.759	1065.81
392.984	1038.81
393.208	1043.81
393.433	1071.81
393.658	1074.81
393.882	1044.81
394.107	1005.81
394.331	1032.81
394.556	1032.81
394.78	1065.81
395.005	1041.81
395.229	1080.81
395.454	1093.81
395.678	1061.81
395.903	1083.81
396.127	1081.81
396.352	1081.81
396.576	1056.81
396.801	1079.81
397.025	1112.81
397.249	1119.81
397.474	1138.81
397.698	1118.81
397.922	1110.81
398.147	1149.81
398.371	1149.81
398.595	1164.81
398.82	1213.81
399.044	1229.81
399.268	1290.81
399.492	1365.81
399.717	1380.81
399.941	1417.81
400.165	1394.81
400.389	1369.81
400.613	1325.81
400.837	1314.81
401.062	1269.81
401.286	1240.81
401.51	1240.81
401.734	1203.81
401.958	1234.81
402.182	1230.81
402.406	1192.81
402.63	1190.81
402.854	1196.81
403.078	1224.81
403.302	1205.81
403.526	1234.81
403.75	1246.81
403.974	1265.81
404.198	1209.81
404.422	1227.81
404.645	1245.81
404.869	1256.81
405.093	1283.81
405.317	1285.81
405.541	1266.81
405.765	1242.81
405.988	1270.81
406.212	1317.81
406.436	1288.81
406.66	1314.81
406.883	1307.81
407.107	1360.81
407.331	1400.81
407.555	1431.81
407.778	1446.81
408.002	1419.81
408.226	1430.81
408.449	1395.81
408.673	1409.81
408.896	1344.81
409.12	1330.81
409.344	1365.81
409.567	1314.81
409.791	1353.81
410.014	1339.81
410.238	1341.81
410.461	1335.81
410.685	1313.81
410.908	1328.81
411.132	1289.81
411.355	1289.81
411.578	1287.81
411.802	1265.81
412.025	1270.81
412.249	1288.81
412.472	1289.81
412.695	1265.81
412.919	1244.81
413.142	1261.81
413.365	1242.81
413.589	1271.81
413.812	1272.81
414.035	1235.81
414.258	1249.81
414.482	1265.81
414.705	1233.81
414.928	1216.81
415.151	1239.81
415.374	1231.81
415.597	1215.81
415.821	1221.81
416.044	1215.81
416.267	1217.81
416.49	1185.81
416.713	1163.81
416.936	1213.81
417.159	1195.81
417.382	1169.81
417.605	1149.81
417.828	1167.81
418.051	1173.81
418.274	1188.81
418.497	1177.81
418.72	1198.81
418.943	1177.81
419.166	1249.81
419.389	1333.81
419.611	1298.81
419.834	1286.81
420.057	1246.81
420.28	1200.81
420.503	1189.81
420.726	1180.81
420.948	1169.81
421.171	1171.81
421.394	1164.81
421.617	1177.81
421.839	1192.81
422.062	1174.81
422.285	1155.81
422.507	1149.81
422.73	1165.81
422.953	1185.81
423.175	1190.81
423.398	1175.81
423.621	1156.81
423.843	1161.81
424.066	1180.81
424.288	1184.81
424.511	1168.81
424.733	1193.81
424.956	1173.81
425.178	1179.81
425.401	1164.81
425.623	1197.81
425.846	1165.81
426.068	1169.81
426.291	1166.81
426.513	1110.81
426.735	1133.81
426.958	1170.81
427.18	1127.81
427.402	1159.81
427.625	1139.81
427.847	1142.81
428.069	1145.81
428.292	1147.81
428.514	1123.81
428.736	1125.81
428.958	1135.81
429.181	1096.81
429.403	1098.81
429.625	1130.81
429.847	1100.81
430.069	1117.81
430.292	1125.81
430.514	1125.81
430.736	1152.81
430.958	1145.81
431.18	1143.81
431.402	1144.81
431.624	1128.81
431.846	1122.81
432.068	1137.81
432.29	1147.81
432.512	1136.81
432.734	1182.81
432.956	1141.81
433.178	1147.81
433.4	1101.81
433.622	1138.81
433.844	1160.81
434.066	1146.81
434.287	1124.81
434.509	1175.81
434.731	1175.81
434.953	1169.81
435.175	1199.81
435.397	1213.81
435.618	1173.81
435.84	1178.81
436.062	1153.81
436.284	1133.81
436.505	1134.81
436.727	1125.81
436.949	1173.81
437.17	1139.81
437.392	1117.81
437.614	1104.81
437.835	1081.81
438.057	1084.81
438.278	1112.81
438.5	1125.81
438.721	1115.81
438.943	1126.81
439.165	1107.81
439.386	1098.81
439.608	1167.81
439.829	1145.81
440.05	1120.81
440.272	1137.81
440.493	1147.81
440.715	1149.81
440.936	1155.81
441.158	1137.81
441.379	1198.81
441.6	1198.81
441.822	1199.81
442.043	1174.81
442.264	1162.81
442.486	1151.81
442.707	1179.81
442.928	1197.81
443.149	1190.81
443.371	1165.81
443.592	1187.81
443.813	1211.81
444.034	1201.81
444.255	1224.81
444.476	1209.81
444.698	1233.81
444.919	1262.81
445.14	1330.81
445.361	1264.81
445.582	1218.81
445.803	1195.81
446.024	1193.81
446.245	1146.81
446.466	1169.81
446.687	1119.81
446.908	1129.81
447.129	1155.81
447.35	1143.81
447.571	1117.81
447.792	1078.81
448.013	1122.81
448.234	1070.81
448.455	1055.81
448.675	1064.81
448.896	1069.81
449.117	1052.81
449.338	1077.81
449.559	1036.81
449.779	1041.81
450	1042.81
450.221	1062.81
450.442	1047.81
450.662	1051.81
450.883	1051.81
451.104	1099.81
451.324	1053.81
451.545	1031.81
451.766	1042.81
451.986	1039.81
452.207	1050.81
452.428	1034.81
452.648	1022.81
452.869	996.81
453.089	1009.81
453.31	991.81
453.53	1026.81
453.751	1000.81
453.971	1010.81
454.192	1008.81
454.412	1000.81
454.633	995.81
454.853	993.81
455.073	998.81
455.294	993.81
455.514	995.81
455.734	1015.81
455.955	1006.81
456.175	975.81
456.395	994.81
456.616	999.81
456.836	998.81
457.056	998.81
457.276	995.81
457.497	1026.81
457.717	1002.81
457.937	1001.81
458.157	998.81
458.377	1019.81
458.598	1041.81
458.818	1050.81
459.038	1079.81
459.258	1070.81
459.478	1094.81
459.698	1132.81
459.918	1153.81
460.138	1170.81
460.358	1182.81
460.578	1199.81
460.798	1228.81
461.018	1262.81
461.238	1201.81
461.458	1254.81
461.678	1240.81
461.898	1278.81
462.118	1278.81
462.338	1301.81
462.558	1283.81
462.777	1347.81
462.997	1381.81
463.217	1421.81
463.437	1415.81
463.657	1399.81
463.876	1380.81
464.096	1384.81
464.316	1365.81
464.536	1338.81
464.755	1333.81
464.975	1329.81
465.195	1294.81
465.414	1262.81
465.634	1205.81
465.854	1183.81
466.073	1167.81
466.293	1173.81
466.512	1116.81
466.732	1147.81
466.951	1133.81
467.171	1131.81
467.391	1112.81
467.61	1062.81
467.829	1101.81
468.049	1113.81
468.268	1086.81
468.488	1071.81
468.707	1063.81
468.927	1115.81
469.146	1103.81
469.365	1100.81
469.585	1077.81
469.804	1096.81
470.023	1139.81
470.243	1095.81
470.462	1087.81
470.681	1114.81
470.901	1110.81
471.12	1128.81
471.339	1099.81
471.558	1101.81
471.777	1105.81
471.997	1085.81
472.216	1099.81
472.435	1107.81
472.654	1071.81
472.873	1053.81
473.092	1083.81
473.311	1066.81
473.53	1102.81
473.749	1071.81
473.968	1091.81
474.187	1086.81
474.406	1093.81
474.625	1089.81
474.844	1097.81
475.063	1094.81
475.282	1085.81
475.501	1088.81
475.72	1085.81
475.939	1118.81
476.158	1097.81
476.377	1150.81
476.596	1159.81
476.814	1219.81
477.033	1138.81
477.252	1185.81
477.471	1152.81
477.69	1191.81
477.908	1211.81
478.127	1209.81
478.346	1226.81
478.564	1251.81
478.783	1255.81
479.002	1281.81
479.22	1286.81
479.439	1316.81
479.658	1279.81
479.876	1305.81
480.095	1289.81
480.313	1306.81
480.532	1290.81
480.751	1315.81
480.969	1312.81
481.188	1312.81
481.406	1316.81
481.624	1294.81
481.843	1215.81
482.061	1279.81
482.28	1253.81
482.498	1286.81
482.717	1277.81
482.935	1272.81
483.153	1270.81
483.372	1288.81
483.59	1289.81
483.808	1266.81
484.027	1270.81
484.245	1275.81
484.463	1293.81
484.681	1281.81
484.9	1306.81
485.118	1283.81
485.336	1272.81
485.554	1273.81
485.772	1290.81
485.99	1279.81
486.209	1274.81
486.427	1301.81
486.645	1258.81
486.863	1300.81
487.081	1299.81
487.299	1266.81
487.517	1285.81
487.735	1295.81
487.953	1329.81
488.171	1300.81
488.389	1312.81
488.607	1275.81
488.825	1295.81
489.043	1299.81
489.261	1283.81
489.479	1298.81
489.696	1301.81
489.914	1297.81
490.132	1313.81
490.35	1330.81
490.568	1309.81
490.786	1337.81
491.003	1291.81
491.221	1303.81
491.439	1315.81
491.657	1316.81
491.874	1354.81
492.092	1345.81
492.31	1374.81
492.527	1352.81
492.745	1343.81
492.963	1354.81
493.18	1335.81
493.398	1374.81
493.615	1347.81
493.833	1355.81
494.05	1376.81
494.268	1383.81
494.485	1330.81
494.703	1354.81
494.92	1405.81
495.138	1369.81
