Data from Fe(NO3)3@0.025M.TitratingCurve.Agarose3%dH2O.NegLispCup.LampEnergy10.LIBS07252019_HRD10591_16-54-10-335.txt Node
Date: Thu Jul 25 16:54:10 EDT 2019
User: cochatt
Spectrometer: HR+D1059
Trigger mode: 1
Integration Time (sec): 1.000000E-1
Scans to average: 1
Electric dark correction enabled: true
Nonlinearity correction enabled: false
Boxcar width: 0
XAxis mode: Wavelengths
Number of Pixels in Spectrum: 2048
>>>>>Begin Spectral Data<<<<<
223.165	-17.88
223.4	-17.88
223.635	-17.88
223.869	-13.88
224.104	-11.88
224.338	-15.88
224.573	-14.88
224.808	-16.88
225.042	-5.88
225.277	-10.88
225.511	-1.88
225.746	0.12
225.98	9.12
226.215	13.12
226.449	12.12
226.683	18.12
226.918	24.12
227.152	33.12
227.387	36.12
227.621	31.12
227.856	50.12
228.09	53.12
228.324	56.12
228.559	50.12
228.793	64.12
229.027	96.12
229.262	106.12
229.496	83.12
229.73	93.12
229.964	93.12
230.199	115.12
230.433	118.12
230.667	115.12
230.901	121.12
231.136	122.12
231.37	114.12
231.604	119.12
231.838	124.12
232.072	126.12
232.306	131.12
232.541	132.12
232.775	132.12
233.009	131.12
233.243	141.12
233.477	132.12
233.711	128.12
233.945	132.12
234.179	129.12
234.413	133.12
234.647	136.12
234.881	142.12
235.115	135.12
235.349	142.12
235.583	151.12
235.817	138.12
236.051	133.12
236.285	141.12
236.519	140.12
236.753	141.12
236.987	139.12
237.221	131.12
237.455	136.12
237.689	141.12
237.922	143.12
238.156	141.12
238.39	145.12
238.624	168.12
238.858	164.12
239.091	164.12
239.325	160.12
239.559	153.12
239.793	168.12
240.027	172.12
240.26	180.12
240.494	162.12
240.728	151.12
240.961	170.12
241.195	169.12
241.429	177.12
241.662	174.12
241.896	178.12
242.13	155.12
242.363	157.12
242.597	161.12
242.83	165.12
243.064	168.12
243.298	186.12
243.531	169.12
243.765	170.12
243.998	186.12
244.232	178.12
244.465	180.12
244.699	165.12
244.932	186.12
245.166	171.12
245.399	184.12
245.633	179.12
245.866	188.12
246.099	173.12
246.333	188.12
246.566	210.12
246.8	196.12
247.033	196.12
247.266	179.12
247.5	190.12
247.733	184.12
247.966	205.12
248.2	203.12
248.433	193.12
248.666	213.12
248.899	224.12
249.133	217.12
249.366	214.12
249.599	211.12
249.832	202.12
250.066	203.12
250.299	213.12
250.532	224.12
250.765	212.12
250.998	227.12
251.231	210.12
251.465	211.12
251.698	229.12
251.931	219.12
252.164	209.12
252.397	242.12
252.63	238.12
252.863	230.12
253.096	233.12
253.329	231.12
253.562	213.12
253.795	240.12
254.028	251.12
254.261	245.12
254.494	233.12
254.727	235.12
254.96	246.12
255.193	252.12
255.426	224.12
255.659	229.12
255.892	226.12
256.124	231.12
256.357	242.12
256.59	248.12
256.823	249.12
257.056	250.12
257.289	244.12
257.521	238.12
257.754	236.12
257.987	269.12
258.22	256.12
258.452	241.12
258.685	249.12
258.918	261.12
259.151	242.12
259.383	268.12
259.616	271.12
259.849	286.12
260.081	306.12
260.314	329.12
260.547	242.12
260.779	270.12
261.012	299.12
261.244	277.12
261.477	289.12
261.71	301.12
261.942	282.12
262.175	274.12
262.407	275.12
262.64	287.12
262.872	285.12
263.105	292.12
263.337	291.12
263.57	298.12
263.802	304.12
264.035	279.12
264.267	271.12
264.499	255.12
264.732	271.12
264.964	294.12
265.197	291.12
265.429	273.12
265.661	269.12
265.894	284.12
266.126	284.12
266.358	289.12
266.591	292.12
266.823	288.12
267.055	298.12
267.287	286.12
267.52	300.12
267.752	296.12
267.984	296.12
268.216	308.12
268.448	288.12
268.681	314.12
268.913	284.12
269.145	313.12
269.377	280.12
269.609	318.12
269.841	325.12
270.073	301.12
270.306	290.12
270.538	330.12
270.77	310.12
271.002	329.12
271.234	297.12
271.466	318.12
271.698	323.12
271.93	333.12
272.162	304.12
272.394	344.12
272.626	325.12
272.858	340.12
273.09	340.12
273.322	316.12
273.553	341.12
273.785	349.12
274.017	342.12
274.249	368.12
274.481	379.12
274.713	378.12
274.945	392.12
275.176	411.12
275.408	389.12
275.64	356.12
275.872	368.12
276.104	355.12
276.335	339.12
276.567	361.12
276.799	338.12
277.031	350.12
277.262	333.12
277.494	364.12
277.726	344.12
277.957	366.12
278.189	355.12
278.421	349.12
278.652	345.12
278.884	352.12
279.115	368.12
279.347	357.12
279.579	368.12
279.81	365.12
280.042	368.12
280.273	356.12
280.505	363.12
280.736	367.12
280.968	348.12
281.199	352.12
281.431	397.12
281.662	378.12
281.894	377.12
282.125	364.12
282.356	382.12
282.588	382.12
282.819	361.12
283.051	370.12
283.282	370.12
283.513	396.12
283.745	393.12
283.976	380.12
284.207	385.12
284.439	394.12
284.67	389.12
284.901	384.12
285.132	404.12
285.364	399.12
285.595	381.12
285.826	388.12
286.057	392.12
286.288	394.12
286.52	408.12
286.751	402.12
286.982	392.12
287.213	381.12
287.444	404.12
287.675	407.12
287.906	420.12
288.138	406.12
288.369	424.12
288.6	400.12
288.831	387.12
289.062	414.12
289.293	395.12
289.524	421.12
289.755	412.12
289.986	424.12
290.217	419.12
290.448	384.12
290.679	413.12
290.91	422.12
291.141	429.12
291.371	414.12
291.602	421.12
291.833	423.12
292.064	421.12
292.295	425.12
292.526	417.12
292.757	421.12
292.987	409.12
293.218	406.12
293.449	419.12
293.68	406.12
293.91	440.12
294.141	428.12
294.372	418.12
294.603	452.12
294.833	436.12
295.064	409.12
295.295	422.12
295.525	425.12
295.756	436.12
295.987	397.12
296.217	444.12
296.448	440.12
296.679	437.12
296.909	446.12
297.14	434.12
297.37	448.12
297.601	442.12
297.831	442.12
298.062	448.12
298.292	448.12
298.523	452.12
298.753	459.12
298.984	472.12
299.214	453.12
299.445	464.12
299.675	456.12
299.905	471.12
300.136	459.12
300.366	462.12
300.597	467.12
300.827	468.12
301.057	472.12
301.288	471.12
301.518	470.12
301.748	460.12
301.979	474.12
302.209	511.12
302.439	495.12
302.669	463.12
302.9	484.12
303.13	450.12
303.36	477.12
303.59	518.12
303.82	485.12
304.051	488.12
304.281	477.12
304.511	473.12
304.741	498.12
304.971	471.12
305.201	482.12
305.431	492.12
305.661	490.12
305.891	471.12
306.121	475.12
306.352	498.12
306.582	475.12
306.812	484.12
307.042	470.12
307.272	498.12
307.502	470.12
307.731	470.12
307.961	498.12
308.191	498.12
308.421	484.12
308.651	493.12
308.881	497.12
309.111	487.12
309.341	487.12
309.571	486.12
309.8	490.12
310.03	481.12
310.26	504.12
310.49	525.12
310.72	516.12
310.949	481.12
311.179	518.12
311.409	514.12
311.639	488.12
311.868	498.12
312.098	489.12
312.328	512.12
312.557	522.12
312.787	516.12
313.017	536.12
313.246	516.12
313.476	531.12
313.706	530.12
313.935	522.12
314.165	511.12
314.394	524.12
314.624	501.12
314.853	511.12
315.083	514.12
315.312	538.12
315.542	529.12
315.771	517.12
316.001	518.12
316.23	540.12
316.46	528.12
316.689	529.12
316.919	552.12
317.148	548.12
317.377	536.12
317.607	540.12
317.836	535.12
318.065	521.12
318.295	535.12
318.524	553.12
318.753	536.12
318.983	546.12
319.212	522.12
319.441	550.12
319.67	529.12
319.9	525.12
320.129	532.12
320.358	539.12
320.587	560.12
320.816	524.12
321.046	542.12
321.275	555.12
321.504	547.12
321.733	555.12
321.962	540.12
322.191	560.12
322.42	552.12
322.649	551.12
322.878	552.12
323.108	568.12
323.337	551.12
323.566	561.12
323.795	548.12
324.024	560.12
324.253	549.12
324.482	572.12
324.71	556.12
324.939	564.12
325.168	594.12
325.397	580.12
325.626	579.12
325.855	564.12
326.084	588.12
326.313	589.12
326.542	566.12
326.77	586.12
326.999	566.12
327.228	576.12
327.457	564.12
327.686	600.12
327.914	582.12
328.143	595.12
328.372	600.12
328.6	586.12
328.829	569.12
329.058	613.12
329.287	595.12
329.515	586.12
329.744	578.12
329.972	589.12
330.201	594.12
330.43	620.12
330.658	585.12
330.887	604.12
331.115	593.12
331.344	613.12
331.572	588.12
331.801	609.12
332.03	614.12
332.258	635.12
332.486	630.12
332.715	622.12
332.943	624.12
333.172	639.12
333.4	665.12
333.629	634.12
333.857	688.12
334.085	668.12
334.314	655.12
334.542	650.12
334.771	669.12
334.999	671.12
335.227	662.12
335.455	664.12
335.684	669.12
335.912	672.12
336.14	674.12
336.369	661.12
336.597	662.12
336.825	677.12
337.053	673.12
337.281	678.12
337.51	670.12
337.738	674.12
337.966	661.12
338.194	673.12
338.422	657.12
338.65	643.12
338.878	669.12
339.106	652.12
339.334	649.12
339.562	641.12
339.79	657.12
340.018	620.12
340.246	638.12
340.474	646.12
340.702	635.12
340.93	640.12
341.158	644.12
341.386	642.12
341.614	640.12
341.842	632.12
342.07	608.12
342.298	609.12
342.526	645.12
342.754	636.12
342.981	653.12
343.209	617.12
343.437	652.12
343.665	636.12
343.893	675.12
344.12	670.12
344.348	690.12
344.576	679.12
344.804	677.12
345.031	631.12
345.259	656.12
345.487	633.12
345.714	642.12
345.942	643.12
346.17	650.12
346.397	638.12
346.625	618.12
346.853	624.12
347.08	602.12
347.308	613.12
347.535	634.12
347.763	603.12
347.99	621.12
348.218	603.12
348.445	619.12
348.673	598.12
348.9	613.12
349.128	616.12
349.355	627.12
349.583	610.12
349.81	600.12
350.037	600.12
350.265	618.12
350.492	602.12
350.72	604.12
350.947	595.12
351.174	605.12
351.402	578.12
351.629	604.12
351.856	606.12
352.083	594.12
352.311	598.12
352.538	604.12
352.765	595.12
352.992	598.12
353.22	573.12
353.447	583.12
353.674	587.12
353.901	573.12
354.128	592.12
354.355	598.12
354.583	593.12
354.81	596.12
355.037	574.12
355.264	597.12
355.491	615.12
355.718	593.12
355.945	598.12
356.172	600.12
356.399	594.12
356.626	589.12
356.853	635.12
357.08	622.12
357.307	633.12
357.534	626.12
357.761	609.12
357.988	603.12
358.215	620.12
358.441	620.12
358.668	604.12
358.895	596.12
359.122	612.12
359.349	594.12
359.576	610.12
359.802	599.12
360.029	593.12
360.256	616.12
360.483	593.12
360.709	620.12
360.936	603.12
361.163	614.12
361.39	618.12
361.616	612.12
361.843	613.12
362.07	609.12
362.296	614.12
362.523	625.12
362.749	602.12
362.976	620.12
363.203	624.12
363.429	634.12
363.656	618.12
363.882	616.12
364.109	632.12
364.335	624.12
364.562	608.12
364.788	593.12
365.015	641.12
365.241	613.12
365.468	626.12
365.694	610.12
365.92	608.12
366.147	614.12
366.373	605.12
366.599	596.12
366.826	622.12
367.052	615.12
367.278	632.12
367.505	629.12
367.731	619.12
367.957	624.12
368.184	642.12
368.41	653.12
368.636	648.12
368.862	645.12
369.089	622.12
369.315	630.12
369.541	640.12
369.767	675.12
369.993	632.12
370.219	654.12
370.445	645.12
370.672	638.12
370.898	669.12
371.124	655.12
371.35	649.12
371.576	648.12
371.802	666.12
372.028	674.12
372.254	666.12
372.48	652.12
372.706	678.12
372.932	667.12
373.158	650.12
373.384	700.12
373.61	668.12
373.835	652.12
374.061	666.12
374.287	679.12
374.513	691.12
374.739	693.12
374.965	681.12
375.191	722.12
375.416	700.12
375.642	680.12
375.868	675.12
376.094	700.12
376.319	683.12
376.545	654.12
376.771	680.12
376.997	645.12
377.222	636.12
377.448	643.12
377.674	646.12
377.899	639.12
378.125	652.12
378.35	667.12
378.576	673.12
378.802	660.12
379.027	646.12
379.253	678.12
379.478	678.12
379.704	657.12
379.929	658.12
380.155	652.12
380.38	644.12
380.606	666.12
380.831	656.12
381.057	674.12
381.282	668.12
381.507	674.12
381.733	660.12
381.958	668.12
382.184	708.12
382.409	701.12
382.634	701.12
382.86	665.12
383.085	674.12
383.31	686.12
383.535	690.12
383.761	714.12
383.986	723.12
384.211	700.12
384.436	719.12
384.662	728.12
384.887	704.12
385.112	729.12
385.337	706.12
385.562	721.12
385.787	733.12
386.013	732.12
386.238	772.12
386.463	746.12
386.688	745.12
386.913	760.12
387.138	752.12
387.363	748.12
387.588	752.12
387.813	752.12
388.038	746.12
388.263	765.12
388.488	778.12
388.713	803.12
388.938	777.12
389.163	756.12
389.387	755.12
389.612	774.12
389.837	766.12
390.062	762.12
390.287	774.12
390.512	767.12
390.736	772.12
390.961	763.12
391.186	762.12
391.411	784.12
391.636	783.12
391.86	780.12
392.085	809.12
392.31	816.12
392.534	786.12
392.759	757.12
392.984	778.12
393.208	794.12
393.433	816.12
393.658	810.12
393.882	793.12
394.107	793.12
394.331	787.12
394.556	770.12
394.78	792.12
395.005	774.12
395.229	788.12
395.454	828.12
395.678	826.12
395.903	809.12
396.127	829.12
396.352	834.12
396.576	831.12
396.801	800.12
397.025	842.12
397.249	804.12
397.474	834.12
397.698	830.12
397.922	871.12
398.147	849.12
398.371	874.12
398.595	855.12
398.82	882.12
399.044	909.12
399.268	902.12
399.492	984.12
399.717	978.12
399.941	1015.12
400.165	995.12
400.389	953.12
400.613	975.12
400.837	910.12
401.062	912.12
401.286	909.12
401.51	865.12
401.734	862.12
401.958	910.12
402.182	889.12
402.406	897.12
402.63	891.12
402.854	860.12
403.078	881.12
403.302	889.12
403.526	860.12
403.75	880.12
403.974	922.12
404.198	865.12
404.422	881.12
404.645	910.12
404.869	908.12
405.093	897.12
405.317	900.12
405.541	914.12
405.765	905.12
405.988	924.12
406.212	928.12
406.436	908.12
406.66	937.12
406.883	947.12
407.107	956.12
407.331	961.12
407.555	992.12
407.778	965.12
408.002	995.12
408.226	990.12
408.449	998.12
408.673	977.12
408.896	962.12
409.12	948.12
409.344	972.12
409.567	936.12
409.791	946.12
410.014	938.12
410.238	933.12
410.461	950.12
410.685	944.12
410.908	926.12
411.132	904.12
411.355	874.12
411.578	919.12
411.802	885.12
412.025	885.12
412.249	904.12
412.472	934.12
412.695	905.12
412.919	910.12
413.142	898.12
413.365	901.12
413.589	925.12
413.812	909.12
414.035	896.12
414.258	895.12
414.482	888.12
414.705	901.12
414.928	889.12
415.151	877.12
415.374	861.12
415.597	875.12
415.821	852.12
416.044	873.12
416.267	862.12
416.49	871.12
416.713	841.12
416.936	848.12
417.159	861.12
417.382	874.12
417.605	856.12
417.828	831.12
418.051	823.12
418.274	838.12
418.497	845.12
418.72	835.12
418.943	836.12
419.166	884.12
419.389	912.12
419.611	883.12
419.834	877.12
420.057	855.12
420.28	844.12
420.503	805.12
420.726	803.12
420.948	830.12
421.171	817.12
421.394	823.12
421.617	842.12
421.839	843.12
422.062	829.12
422.285	781.12
422.507	849.12
422.73	821.12
422.953	809.12
423.175	793.12
423.398	798.12
423.621	813.12
423.843	824.12
424.066	830.12
424.288	835.12
424.511	813.12
424.733	861.12
424.956	815.12
425.178	828.12
425.401	790.12
425.623	828.12
425.846	819.12
426.068	812.12
426.291	812.12
426.513	809.12
426.735	811.12
426.958	801.12
427.18	799.12
427.402	797.12
427.625	792.12
427.847	782.12
428.069	781.12
428.292	792.12
428.514	824.12
428.736	776.12
428.958	824.12
429.181	794.12
429.403	794.12
429.625	793.12
429.847	807.12
430.069	795.12
430.292	773.12
430.514	789.12
430.736	792.12
430.958	801.12
431.18	786.12
431.402	781.12
431.624	790.12
431.846	806.12
432.068	798.12
432.29	830.12
432.512	800.12
432.734	813.12
432.956	802.12
433.178	806.12
433.4	796.12
433.622	800.12
433.844	830.12
434.066	794.12
434.287	807.12
434.509	835.12
434.731	816.12
434.953	809.12
435.175	828.12
435.397	838.12
435.618	807.12
435.84	818.12
436.062	821.12
436.284	813.12
436.505	775.12
436.727	788.12
436.949	770.12
437.17	779.12
437.392	759.12
437.614	778.12
437.835	776.12
438.057	776.12
438.278	749.12
438.5	757.12
438.721	748.12
438.943	782.12
439.165	748.12
439.386	737.12
439.608	768.12
439.829	768.12
440.05	771.12
440.272	771.12
440.493	796.12
440.715	772.12
440.936	788.12
441.158	775.12
441.379	764.12
441.6	808.12
441.822	812.12
442.043	800.12
442.264	803.12
442.486	818.12
442.707	764.12
442.928	789.12
443.149	823.12
443.371	805.12
443.592	800.12
443.813	797.12
444.034	806.12
444.255	805.12
444.476	838.12
444.698	854.12
444.919	823.12
445.14	954.12
445.361	902.12
445.582	795.12
445.803	799.12
446.024	794.12
446.245	788.12
446.466	774.12
446.687	768.12
446.908	777.12
447.129	741.12
447.35	761.12
447.571	757.12
447.792	728.12
448.013	721.12
448.234	709.12
448.455	707.12
448.675	702.12
448.896	722.12
449.117	698.12
449.338	688.12
449.559	719.12
449.779	676.12
450	702.12
450.221	721.12
450.442	712.12
450.662	706.12
450.883	698.12
451.104	692.12
451.324	690.12
451.545	708.12
451.766	694.12
451.986	688.12
452.207	694.12
452.428	698.12
452.648	687.12
452.869	703.12
453.089	704.12
453.31	714.12
453.53	699.12
453.751	696.12
453.971	716.12
454.192	676.12
454.412	693.12
454.633	701.12
454.853	667.12
455.073	678.12
455.294	684.12
455.514	697.12
455.734	669.12
455.955	707.12
456.175	667.12
456.395	653.12
456.616	690.12
456.836	700.12
457.056	730.12
457.276	687.12
457.497	681.12
457.717	690.12
457.937	704.12
458.157	715.12
458.377	691.12
458.598	723.12
458.818	709.12
459.038	739.12
459.258	762.12
459.478	780.12
459.698	754.12
459.918	793.12
460.138	802.12
460.358	800.12
460.578	773.12
460.798	804.12
461.018	824.12
461.238	806.12
461.458	796.12
461.678	818.12
461.898	844.12
462.118	837.12
462.338	845.12
462.558	879.12
462.777	864.12
462.997	880.12
463.217	891.12
463.437	908.12
463.657	866.12
463.876	880.12
464.096	898.12
464.316	877.12
464.536	871.12
464.755	881.12
464.975	852.12
465.195	832.12
465.414	841.12
465.634	792.12
465.854	786.12
466.073	794.12
466.293	765.12
466.512	796.12
466.732	760.12
466.951	778.12
467.171	758.12
467.391	754.12
467.61	754.12
467.829	744.12
468.049	752.12
468.268	741.12
468.488	755.12
468.707	745.12
468.927	761.12
469.146	768.12
469.365	769.12
469.585	741.12
469.804	741.12
470.023	768.12
470.243	746.12
470.462	771.12
470.681	762.12
470.901	737.12
471.12	740.12
471.339	776.12
471.558	766.12
471.777	780.12
471.997	741.12
472.216	784.12
472.435	764.12
472.654	778.12
472.873	758.12
473.092	745.12
473.311	743.12
473.53	764.12
473.749	776.12
473.968	775.12
474.187	756.12
474.406	749.12
474.625	748.12
474.844	757.12
475.063	788.12
475.282	772.12
475.501	762.12
475.72	769.12
475.939	780.12
476.158	787.12
476.377	812.12
476.596	822.12
476.814	863.12
477.033	840.12
477.252	812.12
477.471	818.12
477.69	812.12
477.908	850.12
478.127	854.12
478.346	860.12
478.564	846.12
478.783	902.12
479.002	858.12
479.22	875.12
479.439	930.12
479.658	914.12
479.876	901.12
480.095	900.12
480.313	914.12
480.532	919.12
480.751	893.12
480.969	881.12
481.188	912.12
481.406	928.12
481.624	908.12
481.843	890.12
482.061	885.12
482.28	893.12
482.498	910.12
482.717	880.12
482.935	903.12
483.153	925.12
483.372	908.12
483.59	918.12
483.808	902.12
484.027	902.12
484.245	904.12
484.463	892.12
484.681	922.12
484.9	934.12
485.118	936.12
485.336	933.12
485.554	927.12
485.772	937.12
485.99	934.12
486.209	938.12
486.427	916.12
486.645	937.12
486.863	956.12
487.081	936.12
487.299	937.12
487.517	948.12
487.735	930.12
487.953	937.12
488.171	939.12
488.389	909.12
488.607	931.12
488.825	957.12
489.043	923.12
489.261	957.12
489.479	947.12
489.696	922.12
489.914	912.12
490.132	922.12
490.35	917.12
490.568	913.12
490.786	930.12
491.003	924.12
491.221	909.12
491.439	938.12
491.657	932.12
491.874	944.12
492.092	962.12
492.31	949.12
492.527	940.12
492.745	974.12
492.963	949.12
493.18	956.12
493.398	951.12
493.615	947.12
493.833	967.12
494.05	946.12
494.268	955.12
494.485	951.12
494.703	974.12
494.92	958.12
495.138	976.12
495.355	974.12
495.573	951.12
495.79	1006.12
496.008	1012.12
496.225	1016.12
496.442	1023.12
496.66	1016.12
496.877	1036.12
497.094	1057.12
497.312	1084.12
497.529	1066.12
497.746	1072.12
497.963	1134.12
498.181	1136.12
498.398	1151.12
498.615	1147.12
498.832	1226.12
499.049	1282.12
499.267	1257.12
499.484	1325.12
499.701	1356.12
499.918	1383.12
500.135	1461.12
500.352	1494.12
500.569	1525.12
500.786	1501.12
501.003	1491.12
501.22	1469.12
