Data from Fe(NO3)3@0.025M.TitratingCurve.Agarose3%dH2O.NegLispCup.LampEnergy10.LIBS07252019_HRD10591_16-56-36-336.txt Node
Date: Thu Jul 25 16:56:36 EDT 2019
User: cochatt
Spectrometer: HR+D1059
Trigger mode: 1
Integration Time (sec): 1.000000E-1
Scans to average: 1
Electric dark correction enabled: true
Nonlinearity correction enabled: false
Boxcar width: 0
XAxis mode: Wavelengths
Number of Pixels in Spectrum: 2048
>>>>>Begin Spectral Data<<<<<
223.165	-11.5
223.4	-11.5
223.635	-11.5
223.869	-19.5
224.104	-22.5
224.338	-13.5
224.573	-14.5
224.808	-11.5
225.042	-6.5
225.277	-7.5
225.511	1.5
225.746	8.5
225.98	6.5
226.215	15.5
226.449	12.5
226.683	15.5
226.918	22.5
227.152	24.5
227.387	33.5
227.621	49.5
227.856	48.5
228.09	54.5
228.324	41.5
228.559	50.5
228.793	66.5
229.027	82.5
229.262	76.5
229.496	68.5
229.73	86.5
229.964	85.5
230.199	93.5
230.433	96.5
230.667	78.5
230.901	99.5
231.136	89.5
231.37	90.5
231.604	93.5
231.838	86.5
232.072	93.5
232.306	99.5
232.541	91.5
232.775	93.5
233.009	94.5
233.243	89.5
233.477	89.5
233.711	107.5
233.945	90.5
234.179	92.5
234.413	93.5
234.647	112.5
234.881	92.5
235.115	94.5
235.349	98.5
235.583	107.5
235.817	98.5
236.051	90.5
236.285	99.5
236.519	90.5
236.753	98.5
236.987	114.5
237.221	108.5
237.455	90.5
237.689	92.5
237.922	100.5
238.156	97.5
238.39	92.5
238.624	118.5
238.858	96.5
239.091	106.5
239.325	84.5
239.559	101.5
239.793	108.5
240.027	93.5
240.26	105.5
240.494	101.5
240.728	105.5
240.961	105.5
241.195	102.5
241.429	99.5
241.662	105.5
241.896	111.5
242.13	74.5
242.363	103.5
242.597	114.5
242.83	95.5
243.064	92.5
243.298	94.5
243.531	90.5
243.765	115.5
243.998	100.5
244.232	101.5
244.465	98.5
244.699	109.5
244.932	104.5
245.166	108.5
245.399	121.5
245.633	105.5
245.866	108.5
246.099	107.5
246.333	89.5
246.566	106.5
246.8	108.5
247.033	116.5
247.266	94.5
247.5	108.5
247.733	118.5
247.966	123.5
248.2	106.5
248.433	105.5
248.666	122.5
248.899	108.5
249.133	100.5
249.366	117.5
249.599	118.5
249.832	116.5
250.066	113.5
250.299	114.5
250.532	109.5
250.765	117.5
250.998	118.5
251.231	105.5
251.465	121.5
251.698	118.5
251.931	132.5
252.164	117.5
252.397	124.5
252.63	128.5
252.863	114.5
253.096	125.5
253.329	123.5
253.562	120.5
253.795	137.5
254.028	117.5
254.261	125.5
254.494	125.5
254.727	122.5
254.96	121.5
255.193	126.5
255.426	112.5
255.659	126.5
255.892	134.5
256.124	128.5
256.357	108.5
256.59	131.5
256.823	132.5
257.056	117.5
257.289	118.5
257.521	131.5
257.754	120.5
257.987	128.5
258.22	125.5
258.452	130.5
258.685	136.5
258.918	129.5
259.151	124.5
259.383	134.5
259.616	127.5
259.849	151.5
260.081	141.5
260.314	137.5
260.547	130.5
260.779	132.5
261.012	118.5
261.244	136.5
261.477	136.5
261.71	122.5
261.942	139.5
262.175	128.5
262.407	135.5
262.64	144.5
262.872	133.5
263.105	146.5
263.337	143.5
263.57	139.5
263.802	128.5
264.035	125.5
264.267	136.5
264.499	140.5
264.732	129.5
264.964	149.5
265.197	142.5
265.429	158.5
265.661	141.5
265.894	139.5
266.126	142.5
266.358	134.5
266.591	161.5
266.823	157.5
267.055	160.5
267.287	146.5
267.52	141.5
267.752	153.5
267.984	159.5
268.216	152.5
268.448	158.5
268.681	157.5
268.913	134.5
269.145	134.5
269.377	153.5
269.609	148.5
269.841	146.5
270.073	154.5
270.306	140.5
270.538	154.5
270.77	149.5
271.002	146.5
271.234	151.5
271.466	168.5
271.698	160.5
271.93	165.5
272.162	155.5
272.394	142.5
272.626	157.5
272.858	166.5
273.09	154.5
273.322	149.5
273.553	154.5
273.785	151.5
274.017	154.5
274.249	142.5
274.481	152.5
274.713	149.5
274.945	147.5
275.176	162.5
275.408	151.5
275.64	154.5
275.872	168.5
276.104	169.5
276.335	152.5
276.567	160.5
276.799	160.5
277.031	157.5
277.262	153.5
277.494	158.5
277.726	180.5
277.957	164.5
278.189	171.5
278.421	159.5
278.652	176.5
278.884	164.5
279.115	149.5
279.347	163.5
279.579	177.5
279.81	170.5
280.042	173.5
280.273	184.5
280.505	176.5
280.736	176.5
280.968	165.5
281.199	167.5
281.431	179.5
281.662	177.5
281.894	174.5
282.125	176.5
282.356	179.5
282.588	183.5
282.819	171.5
283.051	158.5
283.282	170.5
283.513	165.5
283.745	164.5
283.976	188.5
284.207	169.5
284.439	170.5
284.67	181.5
284.901	172.5
285.132	186.5
285.364	188.5
285.595	173.5
285.826	193.5
286.057	173.5
286.288	181.5
286.52	184.5
286.751	175.5
286.982	180.5
287.213	186.5
287.444	167.5
287.675	184.5
287.906	178.5
288.138	194.5
288.369	192.5
288.6	169.5
288.831	181.5
289.062	190.5
289.293	192.5
289.524	190.5
289.755	184.5
289.986	183.5
290.217	197.5
290.448	189.5
290.679	182.5
290.91	170.5
291.141	183.5
291.371	184.5
291.602	185.5
291.833	185.5
292.064	189.5
292.295	194.5
292.526	182.5
292.757	194.5
292.987	180.5
293.218	181.5
293.449	222.5
293.68	202.5
293.91	192.5
294.141	203.5
294.372	187.5
294.603	203.5
294.833	189.5
295.064	195.5
295.295	201.5
295.525	197.5
295.756	196.5
295.987	185.5
296.217	191.5
296.448	206.5
296.679	215.5
296.909	175.5
297.14	206.5
297.37	202.5
297.601	202.5
297.831	206.5
298.062	210.5
298.292	203.5
298.523	212.5
298.753	203.5
298.984	210.5
299.214	214.5
299.445	211.5
299.675	208.5
299.905	206.5
300.136	196.5
300.366	219.5
300.597	217.5
300.827	216.5
301.057	206.5
301.288	211.5
301.518	208.5
301.748	208.5
301.979	200.5
302.209	198.5
302.439	218.5
302.669	215.5
302.9	219.5
303.13	218.5
303.36	219.5
303.59	213.5
303.82	223.5
304.051	225.5
304.281	216.5
304.511	231.5
304.741	212.5
304.971	220.5
305.201	229.5
305.431	220.5
305.661	219.5
305.891	229.5
306.121	213.5
306.352	219.5
306.582	224.5
306.812	200.5
307.042	215.5
307.272	233.5
307.502	222.5
307.731	228.5
307.961	216.5
308.191	229.5
308.421	216.5
308.651	229.5
308.881	217.5
309.111	219.5
309.341	216.5
309.571	220.5
309.8	220.5
310.03	237.5
310.26	210.5
310.49	205.5
310.72	224.5
310.949	225.5
311.179	222.5
311.409	229.5
311.639	224.5
311.868	219.5
312.098	207.5
312.328	215.5
312.557	234.5
312.787	213.5
313.017	240.5
313.246	222.5
313.476	221.5
313.706	216.5
313.935	231.5
314.165	241.5
314.394	217.5
314.624	225.5
314.853	217.5
315.083	238.5
315.312	241.5
315.542	233.5
315.771	223.5
316.001	227.5
316.23	232.5
316.46	222.5
316.689	249.5
316.919	241.5
317.148	243.5
317.377	241.5
317.607	238.5
317.836	228.5
318.065	231.5
318.295	229.5
318.524	227.5
318.753	231.5
318.983	231.5
319.212	238.5
319.441	231.5
319.67	235.5
319.9	241.5
320.129	238.5
320.358	233.5
320.587	233.5
320.816	228.5
321.046	231.5
321.275	227.5
321.504	242.5
321.733	240.5
321.962	224.5
322.191	242.5
322.42	235.5
322.649	242.5
322.878	258.5
323.108	254.5
323.337	233.5
323.566	230.5
323.795	236.5
324.024	234.5
324.253	230.5
324.482	251.5
324.71	258.5
324.939	243.5
325.168	242.5
325.397	252.5
325.626	262.5
325.855	250.5
326.084	248.5
326.313	254.5
326.542	235.5
326.77	231.5
326.999	248.5
327.228	258.5
327.457	237.5
327.686	244.5
327.914	274.5
328.143	268.5
328.372	254.5
328.6	257.5
328.829	265.5
329.058	247.5
329.287	258.5
329.515	255.5
329.744	252.5
329.972	249.5
330.201	268.5
330.43	266.5
330.658	259.5
330.887	262.5
331.115	260.5
331.344	275.5
331.572	268.5
331.801	262.5
332.03	276.5
332.258	278.5
332.486	274.5
332.715	298.5
332.943	296.5
333.172	306.5
333.4	285.5
333.629	282.5
333.857	325.5
334.085	314.5
334.314	313.5
334.542	300.5
334.771	297.5
334.999	282.5
335.227	276.5
335.455	311.5
335.684	301.5
335.912	293.5
336.14	295.5
336.369	293.5
336.597	300.5
336.825	278.5
337.053	292.5
337.281	287.5
337.51	294.5
337.738	279.5
337.966	305.5
338.194	289.5
338.422	266.5
338.65	274.5
338.878	263.5
339.106	281.5
339.334	276.5
339.562	281.5
339.79	287.5
340.018	257.5
340.246	258.5
340.474	266.5
340.702	270.5
340.93	293.5
341.158	273.5
341.386	267.5
341.614	272.5
341.842	281.5
342.07	265.5
342.298	275.5
342.526	275.5
342.754	269.5
342.981	292.5
343.209	274.5
343.437	280.5
343.665	278.5
343.893	314.5
344.12	292.5
344.348	289.5
344.576	276.5
344.804	271.5
345.031	280.5
345.259	291.5
345.487	273.5
345.714	286.5
345.942	270.5
346.17	262.5
346.397	281.5
346.625	260.5
346.853	271.5
347.08	276.5
347.308	249.5
347.535	258.5
347.763	283.5
347.99	276.5
348.218	265.5
348.445	254.5
348.673	258.5
348.9	276.5
349.128	256.5
349.355	273.5
349.583	252.5
349.81	256.5
350.037	268.5
350.265	263.5
350.492	257.5
350.72	270.5
350.947	263.5
351.174	267.5
351.402	285.5
351.629	261.5
351.856	256.5
352.083	265.5
352.311	270.5
352.538	243.5
352.765	258.5
352.992	256.5
353.22	269.5
353.447	261.5
353.674	261.5
353.901	270.5
354.128	253.5
354.355	269.5
354.583	285.5
354.81	254.5
355.037	247.5
355.264	257.5
355.491	256.5
355.718	262.5
355.945	276.5
356.172	262.5
356.399	269.5
356.626	274.5
356.853	267.5
357.08	244.5
357.307	262.5
357.534	256.5
357.761	250.5
357.988	269.5
358.215	246.5
358.441	248.5
358.668	260.5
358.895	247.5
359.122	258.5
359.349	268.5
359.576	259.5
359.802	237.5
360.029	280.5
360.256	272.5
360.483	256.5
360.709	254.5
360.936	238.5
361.163	277.5
361.39	270.5
361.616	269.5
361.843	271.5
362.07	274.5
362.296	264.5
362.523	262.5
362.749	262.5
362.976	280.5
363.203	278.5
363.429	259.5
363.656	275.5
363.882	266.5
364.109	277.5
364.335	263.5
364.562	258.5
364.788	276.5
365.015	267.5
365.241	277.5
365.468	270.5
365.694	282.5
365.92	283.5
366.147	260.5
366.373	269.5
366.599	271.5
366.826	284.5
367.052	270.5
367.278	275.5
367.505	272.5
367.731	276.5
367.957	263.5
368.184	273.5
368.41	276.5
368.636	277.5
368.862	271.5
369.089	277.5
369.315	288.5
369.541	280.5
369.767	266.5
369.993	271.5
370.219	269.5
370.445	270.5
370.672	262.5
370.898	268.5
371.124	280.5
371.35	270.5
371.576	268.5
371.802	284.5
372.028	290.5
372.254	288.5
372.48	270.5
372.706	275.5
372.932	286.5
373.158	300.5
373.384	308.5
373.61	291.5
373.835	284.5
374.061	296.5
374.287	277.5
374.513	292.5
374.739	284.5
374.965	304.5
375.191	293.5
375.416	319.5
375.642	307.5
375.868	293.5
376.094	298.5
376.319	288.5
376.545	294.5
376.771	277.5
376.997	308.5
377.222	267.5
377.448	274.5
377.674	276.5
377.899	280.5
378.125	286.5
378.35	293.5
378.576	289.5
378.802	304.5
379.027	290.5
379.253	311.5
379.478	298.5
379.704	277.5
379.929	284.5
380.155	279.5
380.38	278.5
380.606	296.5
380.831	286.5
381.057	281.5
381.282	286.5
381.507	298.5
381.733	307.5
381.958	284.5
382.184	293.5
382.409	285.5
382.634	278.5
382.86	286.5
383.085	292.5
383.31	300.5
383.535	291.5
383.761	310.5
383.986	306.5
384.211	333.5
384.436	311.5
384.662	320.5
384.887	310.5
385.112	318.5
385.337	323.5
385.562	316.5
385.787	327.5
386.013	344.5
386.238	332.5
386.463	325.5
386.688	328.5
386.913	315.5
387.138	330.5
387.363	333.5
387.588	325.5
387.813	312.5
388.038	312.5
388.263	325.5
388.488	323.5
388.713	327.5
388.938	328.5
389.163	339.5
389.387	342.5
389.612	308.5
389.837	328.5
390.062	326.5
390.287	333.5
390.512	332.5
390.736	337.5
390.961	332.5
391.186	342.5
391.411	331.5
391.636	369.5
391.86	344.5
392.085	344.5
392.31	334.5
392.534	358.5
392.759	340.5
392.984	325.5
393.208	338.5
393.433	338.5
393.658	326.5
393.882	351.5
394.107	314.5
394.331	326.5
394.556	349.5
394.78	340.5
395.005	348.5
395.229	341.5
395.454	334.5
395.678	355.5
395.903	346.5
396.127	364.5
396.352	323.5
396.576	341.5
396.801	352.5
397.025	346.5
397.249	363.5
397.474	364.5
397.698	374.5
397.922	376.5
398.147	390.5
398.371	382.5
398.595	364.5
398.82	378.5
399.044	399.5
399.268	420.5
399.492	443.5
399.717	477.5
399.941	473.5
400.165	448.5
400.389	417.5
400.613	418.5
400.837	403.5
401.062	429.5
401.286	370.5
401.51	388.5
401.734	394.5
401.958	405.5
402.182	390.5
402.406	393.5
402.63	395.5
402.854	406.5
403.078	390.5
403.302	393.5
403.526	420.5
403.75	396.5
403.974	404.5
404.198	404.5
404.422	402.5
404.645	409.5
404.869	406.5
405.093	417.5
405.317	399.5
405.541	425.5
405.765	416.5
405.988	387.5
406.212	416.5
406.436	386.5
406.66	424.5
406.883	416.5
407.107	423.5
407.331	444.5
407.555	459.5
407.778	454.5
408.002	440.5
408.226	445.5
408.449	434.5
408.673	425.5
408.896	411.5
409.12	406.5
409.344	415.5
409.567	408.5
409.791	398.5
410.014	406.5
410.238	384.5
410.461	410.5
410.685	420.5
410.908	396.5
411.132	412.5
411.355	379.5
411.578	393.5
411.802	384.5
412.025	393.5
412.249	385.5
412.472	408.5
412.695	412.5
412.919	395.5
413.142	381.5
413.365	393.5
413.589	397.5
413.812	377.5
414.035	374.5
414.258	374.5
414.482	386.5
414.705	398.5
414.928	389.5
415.151	374.5
415.374	387.5
415.597	372.5
415.821	362.5
416.044	376.5
416.267	366.5
416.49	378.5
416.713	394.5
416.936	392.5
417.159	389.5
417.382	387.5
417.605	373.5
417.828	346.5
418.051	368.5
418.274	362.5
418.497	358.5
418.72	370.5
418.943	387.5
419.166	377.5
419.389	409.5
419.611	397.5
419.834	380.5
420.057	384.5
420.28	369.5
420.503	365.5
420.726	376.5
420.948	368.5
421.171	379.5
421.394	377.5
421.617	356.5
421.839	373.5
422.062	379.5
422.285	352.5
422.507	392.5
422.73	367.5
422.953	378.5
423.175	363.5
423.398	382.5
423.621	369.5
423.843	362.5
424.066	374.5
424.288	367.5
424.511	385.5
424.733	378.5
424.956	356.5
425.178	370.5
425.401	374.5
425.623	357.5
425.846	368.5
426.068	366.5
426.291	348.5
426.513	339.5
426.735	360.5
426.958	361.5
427.18	340.5
427.402	345.5
427.625	359.5
427.847	344.5
428.069	351.5
428.292	350.5
428.514	348.5
428.736	362.5
428.958	354.5
429.181	340.5
429.403	346.5
429.625	323.5
429.847	336.5
430.069	341.5
430.292	345.5
430.514	354.5
430.736	338.5
430.958	331.5
431.18	344.5
431.402	358.5
431.624	334.5
431.846	344.5
432.068	354.5
432.29	355.5
432.512	342.5
432.734	344.5
432.956	347.5
433.178	348.5
433.4	334.5
433.622	362.5
433.844	338.5
434.066	345.5
434.287	359.5
434.509	366.5
434.731	368.5
434.953	363.5
435.175	342.5
435.397	363.5
435.618	370.5
435.84	360.5
436.062	346.5
436.284	344.5
436.505	348.5
436.727	332.5
436.949	353.5
437.17	329.5
437.392	320.5
437.614	323.5
437.835	322.5
438.057	345.5
438.278	316.5
438.5	332.5
438.721	354.5
438.943	333.5
439.165	330.5
439.386	347.5
439.608	344.5
439.829	330.5
440.05	332.5
440.272	326.5
440.493	333.5
440.715	347.5
440.936	328.5
441.158	354.5
441.379	333.5
441.6	377.5
441.822	363.5
442.043	355.5
442.264	355.5
442.486	357.5
442.707	339.5
442.928	356.5
443.149	359.5
443.371	359.5
443.592	357.5
443.813	365.5
444.034	368.5
444.255	374.5
444.476	391.5
444.698	393.5
444.919	391.5
445.14	470.5
445.361	429.5
445.582	361.5
445.803	365.5
446.024	354.5
446.245	340.5
446.466	359.5
446.687	347.5
446.908	349.5
447.129	314.5
447.35	326.5
447.571	331.5
447.792	321.5
448.013	320.5
448.234	310.5
448.455	319.5
448.675	337.5
448.896	302.5
449.117	321.5
449.338	331.5
449.559	332.5
449.779	321.5
450	300.5
450.221	320.5
450.442	322.5
450.662	312.5
450.883	306.5
451.104	333.5
451.324	297.5
451.545	312.5
451.766	298.5
451.986	316.5
452.207	316.5
452.428	320.5
452.648	306.5
452.869	299.5
453.089	312.5
453.31	308.5
453.53	307.5
453.751	319.5
453.971	294.5
454.192	295.5
454.412	314.5
454.633	315.5
454.853	302.5
455.073	313.5
455.294	293.5
455.514	310.5
455.734	295.5
455.955	295.5
456.175	311.5
456.395	312.5
456.616	302.5
456.836	298.5
457.056	275.5
457.276	276.5
457.497	312.5
457.717	320.5
457.937	308.5
458.157	322.5
458.377	312.5
458.598	299.5
458.818	333.5
459.038	332.5
459.258	330.5
459.478	346.5
459.698	344.5
459.918	331.5
460.138	362.5
460.358	384.5
460.578	374.5
460.798	369.5
461.018	388.5
461.238	371.5
461.458	387.5
461.678	379.5
461.898	359.5
462.118	377.5
462.338	390.5
462.558	400.5
462.777	420.5
462.997	424.5
463.217	435.5
463.437	424.5
463.657	423.5
463.876	411.5
464.096	412.5
464.316	433.5
464.536	407.5
464.755	372.5
464.975	378.5
465.195	374.5
465.414	384.5
465.634	348.5
465.854	348.5
466.073	341.5
466.293	340.5
466.512	340.5
466.732	332.5
466.951	317.5
467.171	356.5
467.391	326.5
467.61	339.5
467.829	324.5
468.049	324.5
468.268	320.5
468.488	328.5
468.707	311.5
468.927	329.5
469.146	315.5
469.365	327.5
469.585	325.5
469.804	320.5
470.023	338.5
470.243	320.5
470.462	332.5
470.681	323.5
470.901	344.5
471.12	329.5
471.339	342.5
471.558	349.5
471.777	324.5
471.997	333.5
472.216	326.5
472.435	320.5
472.654	320.5
472.873	317.5
473.092	312.5
473.311	329.5
473.53	335.5
473.749	319.5
473.968	321.5
474.187	320.5
474.406	314.5
474.625	336.5
474.844	320.5
475.063	319.5
475.282	329.5
475.501	337.5
475.72	357.5
475.939	333.5
476.158	338.5
476.377	344.5
476.596	354.5
476.814	353.5
477.033	336.5
477.252	345.5
477.471	344.5
477.69	352.5
477.908	368.5
478.127	369.5
478.346	368.5
478.564	357.5
478.783	378.5
479.002	388.5
479.22	402.5
479.439	406.5
479.658	407.5
479.876	402.5
480.095	389.5
480.313	399.5
480.532	392.5
480.751	410.5
480.969	371.5
481.188	392.5
481.406	392.5
481.624	384.5
481.843	372.5
482.061	357.5
482.28	385.5
482.498	384.5
482.717	370.5
482.935	372.5
483.153	393.5
483.372	378.5
483.59	371.5
483.808	374.5
484.027	396.5
484.245	397.5
484.463	376.5
484.681	394.5
484.9	403.5
485.118	411.5
485.336	390.5
485.554	385.5
485.772	394.5
485.99	376.5
486.209	389.5
486.427	412.5
486.645	396.5
486.863	394.5
487.081	383.5
487.299	382.5
487.517	389.5
487.735	391.5
487.953	385.5
488.171	379.5
488.389	402.5
488.607	384.5
488.825	401.5
489.043	414.5
489.261	396.5
489.479	406.5
489.696	397.5
489.914	374.5
490.132	393.5
490.35	401.5
490.568	388.5
490.786	404.5
491.003	393.5
491.221	398.5
491.439	388.5
491.657	398.5
491.874	395.5
492.092	401.5
492.31	414.5
492.527	420.5
492.745	395.5
492.963	404.5
493.18	412.5
493.398	394.5
493.615	423.5
493.833	393.5
494.05	396.5
494.268	411.5
494.485	412.5
494.703	389.5
494.92	403.5
495.138	411.5
495.355	427.5
495.573	418.5
495.79	399.5
496.008	412.5
496.225	427.5
496.442	432.5
496.66	414.5
496.877	443.5
497.094	442.5
497.312	449.5
497.529	450.5
497.746	420.5
497.963	456.5
498.181	464.5
498.398	498.5
498.615	526.5
498.832	501.5
499.049	536.5
499.267	577.5
499.484	603.5
499.701	633.5
499.918	700.5
500.135	699.5
500.352	775.5
500.569	763.5
500.786	763.5
501.003	734.5
501.22	716.5
501.437	654.5
501.654	611.5
501.871	586.5
502.088	562.5
502.305	540.5
502.522	492.5
502.739	508.5
502.956	478.5
503.172	463.5
503.389	462.5
503.606	450.5
503.823	448.5
504.04	441.5
504.256	459.5
504.473	437.5
504.69	423.5
504.907	427.5
505.123	409.5
505.34	422.5
505.557	410.5
505.773	415.5
505.99	416.5
506.207	384.5
506.423	382.5
506.64	385.5
506.856	372.5
507.073	367.5
507.289	331.5
507.506	360.5
507.722	370.5
507.939	350.5
508.155	360.5
508.372	347.5
508.588	353.5
508.805	346.5
509.021	348.5
509.238	363.5
509.454	341.5
509.67	342.5
509.887	343.5
510.103	349.5
510.319	331.5
510.536	336.5
510.752	348.5
510.968	342.5
511.184	333.5
511.401	331.5
511.617	327.5
511.833	331.5
512.049	348.5
512.265	323.5
512.481	320.5
512.698	329.5
512.914	334.5
513.13	339.5
513.346	330.5
513.562	346.5
513.778	330.5
513.994	330.5
514.21	341.5
514.426	348.5
514.642	334.5
514.858	346.5
515.074	328.5
515.29	344.5
515.506	337.5
515.721	322.5
515.937	340.5
516.153	340.5
516.369	372.5
516.585	372.5
516.801	387.5
517.016	369.5
517.232	388.5
517.448	387.5
517.664	406.5
517.879	395.5
518.095	395.5
518.311	399.5
518.527	366.5
518.742	382.5
518.958	371.5
519.173	348.5
519.389	368.5
519.605	364.5
519.82	362.5
520.036	346.5
520.251	342.5
