Data from Fe(NO3)3@0.05M.TitratingCurve.Agarose3%dH2O.NegLispCup.LampEnergy10.LIBS07252019_HRD10591_16-46-58-334.txt Node
Date: Thu Jul 25 16:46:58 EDT 2019
User: cochatt
Spectrometer: HR+D1059
Trigger mode: 1
Integration Time (sec): 1.000000E-1
Scans to average: 1
Electric dark correction enabled: true
Nonlinearity correction enabled: false
Boxcar width: 0
XAxis mode: Wavelengths
Number of Pixels in Spectrum: 2048
>>>>>Begin Spectral Data<<<<<
223.165	-11.06
223.4	-11.06
223.635	-11.06
223.869	-9.06
224.104	-7.06
224.338	-19.06
224.573	-22.06
224.808	-12.06
225.042	-3.06
225.277	-1.06
225.511	-17.06
225.746	7.94
225.98	-3.06
226.215	2.94
226.449	20.94
226.683	13.94
226.918	24.94
227.152	33.94
227.387	25.94
227.621	25.94
227.856	48.94
228.09	57.94
228.324	50.94
228.559	56.94
228.793	53.94
229.027	102.94
229.262	104.94
229.496	112.94
229.73	114.94
229.964	108.94
230.199	119.94
230.433	121.94
230.667	117.94
230.901	121.94
231.136	112.94
231.37	128.94
231.604	132.94
231.838	124.94
232.072	124.94
232.306	128.94
232.541	127.94
232.775	131.94
233.009	121.94
233.243	124.94
233.477	128.94
233.711	135.94
233.945	123.94
234.179	134.94
234.413	147.94
234.647	136.94
234.881	144.94
235.115	141.94
235.349	147.94
235.583	139.94
235.817	134.94
236.051	156.94
236.285	134.94
236.519	142.94
236.753	152.94
236.987	143.94
237.221	162.94
237.455	149.94
237.689	141.94
237.922	151.94
238.156	142.94
238.39	147.94
238.624	180.94
238.858	167.94
239.091	169.94
239.325	164.94
239.559	141.94
239.793	158.94
240.027	163.94
240.26	167.94
240.494	154.94
240.728	159.94
240.961	156.94
241.195	174.94
241.429	178.94
241.662	166.94
241.896	163.94
242.13	153.94
242.363	164.94
242.597	157.94
242.83	166.94
243.064	169.94
243.298	180.94
243.531	183.94
243.765	172.94
243.998	194.94
244.232	192.94
244.465	193.94
244.699	173.94
244.932	180.94
245.166	181.94
245.399	188.94
245.633	188.94
245.866	187.94
246.099	196.94
246.333	199.94
246.566	193.94
246.8	200.94
247.033	200.94
247.266	191.94
247.5	210.94
247.733	198.94
247.966	195.94
248.2	190.94
248.433	213.94
248.666	198.94
248.899	224.94
249.133	202.94
249.366	228.94
249.599	216.94
249.832	223.94
250.066	223.94
250.299	216.94
250.532	226.94
250.765	216.94
250.998	218.94
251.231	216.94
251.465	217.94
251.698	225.94
251.931	238.94
252.164	207.94
252.397	208.94
252.63	249.94
252.863	255.94
253.096	229.94
253.329	245.94
253.562	240.94
253.795	234.94
254.028	248.94
254.261	262.94
254.494	251.94
254.727	242.94
254.96	241.94
255.193	249.94
255.426	244.94
255.659	260.94
255.892	247.94
256.124	238.94
256.357	241.94
256.59	263.94
256.823	279.94
257.056	253.94
257.289	252.94
257.521	244.94
257.754	266.94
257.987	269.94
258.22	263.94
258.452	259.94
258.685	293.94
258.918	284.94
259.151	270.94
259.383	285.94
259.616	286.94
259.849	278.94
260.081	307.94
260.314	345.94
260.547	293.94
260.779	276.94
261.012	296.94
261.244	287.94
261.477	311.94
261.71	298.94
261.942	300.94
262.175	292.94
262.407	294.94
262.64	286.94
262.872	304.94
263.105	306.94
263.337	323.94
263.57	295.94
263.802	306.94
264.035	297.94
264.267	294.94
264.499	289.94
264.732	296.94
264.964	291.94
265.197	290.94
265.429	295.94
265.661	302.94
265.894	310.94
266.126	302.94
266.358	317.94
266.591	320.94
266.823	309.94
267.055	312.94
267.287	300.94
267.52	302.94
267.752	315.94
267.984	308.94
268.216	333.94
268.448	323.94
268.681	316.94
268.913	316.94
269.145	317.94
269.377	319.94
269.609	312.94
269.841	325.94
270.073	311.94
270.306	309.94
270.538	322.94
270.77	331.94
271.002	323.94
271.234	322.94
271.466	337.94
271.698	334.94
271.93	335.94
272.162	336.94
272.394	357.94
272.626	322.94
272.858	333.94
273.09	333.94
273.322	350.94
273.553	357.94
273.785	380.94
274.017	366.94
274.249	397.94
274.481	385.94
274.713	395.94
274.945	411.94
275.176	414.94
275.408	379.94
275.64	400.94
275.872	381.94
276.104	380.94
276.335	352.94
276.567	376.94
276.799	351.94
277.031	375.94
277.262	352.94
277.494	374.94
277.726	355.94
277.957	368.94
278.189	372.94
278.421	369.94
278.652	380.94
278.884	383.94
279.115	382.94
279.347	381.94
279.579	384.94
279.81	361.94
280.042	384.94
280.273	376.94
280.505	380.94
280.736	393.94
280.968	404.94
281.199	367.94
281.431	388.94
281.662	381.94
281.894	373.94
282.125	385.94
282.356	418.94
282.588	398.94
282.819	392.94
283.051	379.94
283.282	404.94
283.513	432.94
283.745	393.94
283.976	395.94
284.207	391.94
284.439	406.94
284.67	404.94
284.901	423.94
285.132	422.94
285.364	408.94
285.595	404.94
285.826	401.94
286.057	420.94
286.288	420.94
286.52	408.94
286.751	426.94
286.982	433.94
287.213	431.94
287.444	423.94
287.675	424.94
287.906	413.94
288.138	419.94
288.369	432.94
288.6	423.94
288.831	420.94
289.062	429.94
289.293	423.94
289.524	417.94
289.755	419.94
289.986	438.94
290.217	419.94
290.448	434.94
290.679	452.94
290.91	436.94
291.141	444.94
291.371	435.94
291.602	432.94
291.833	434.94
292.064	407.94
292.295	430.94
292.526	448.94
292.757	438.94
292.987	428.94
293.218	434.94
293.449	453.94
293.68	424.94
293.91	444.94
294.141	432.94
294.372	436.94
294.603	448.94
294.833	435.94
295.064	458.94
295.295	438.94
295.525	435.94
295.756	433.94
295.987	448.94
296.217	456.94
296.448	465.94
296.679	465.94
296.909	426.94
297.14	460.94
297.37	484.94
297.601	468.94
297.831	474.94
298.062	458.94
298.292	464.94
298.523	485.94
298.753	509.94
298.984	457.94
299.214	450.94
299.445	444.94
299.675	468.94
299.905	480.94
300.136	468.94
300.366	448.94
300.597	481.94
300.827	482.94
301.057	485.94
301.288	481.94
301.518	487.94
301.748	486.94
301.979	525.94
302.209	520.94
302.439	516.94
302.669	488.94
302.9	475.94
303.13	502.94
303.36	495.94
303.59	467.94
303.82	482.94
304.051	504.94
304.281	520.94
304.511	485.94
304.741	506.94
304.971	494.94
305.201	502.94
305.431	505.94
305.661	509.94
305.891	508.94
306.121	496.94
306.352	515.94
306.582	511.94
306.812	511.94
307.042	493.94
307.272	502.94
307.502	505.94
307.731	490.94
307.961	498.94
308.191	466.94
308.421	482.94
308.651	500.94
308.881	492.94
309.111	494.94
309.341	504.94
309.571	496.94
309.8	500.94
310.03	509.94
310.26	513.94
310.49	523.94
310.72	514.94
310.949	492.94
311.179	510.94
311.409	514.94
311.639	523.94
311.868	511.94
312.098	529.94
312.328	519.94
312.557	527.94
312.787	508.94
313.017	524.94
313.246	514.94
313.476	525.94
313.706	508.94
313.935	526.94
314.165	544.94
314.394	546.94
314.624	557.94
314.853	519.94
315.083	547.94
315.312	541.94
315.542	542.94
315.771	548.94
316.001	546.94
316.23	536.94
316.46	534.94
316.689	531.94
316.919	539.94
317.148	551.94
317.377	548.94
317.607	526.94
317.836	528.94
318.065	558.94
318.295	560.94
318.524	560.94
318.753	546.94
318.983	566.94
319.212	536.94
319.441	552.94
319.67	537.94
319.9	533.94
320.129	537.94
320.358	536.94
320.587	543.94
320.816	536.94
321.046	542.94
321.275	540.94
321.504	541.94
321.733	536.94
321.962	540.94
322.191	536.94
322.42	551.94
322.649	559.94
322.878	547.94
323.108	570.94
323.337	586.94
323.566	558.94
323.795	564.94
324.024	564.94
324.253	576.94
324.482	573.94
324.71	567.94
324.939	586.94
325.168	563.94
325.397	576.94
325.626	606.94
325.855	593.94
326.084	583.94
326.313	607.94
326.542	580.94
326.77	595.94
326.999	599.94
327.228	565.94
327.457	598.94
327.686	621.94
327.914	592.94
328.143	587.94
328.372	581.94
328.6	592.94
328.829	585.94
329.058	604.94
329.287	606.94
329.515	613.94
329.744	594.94
329.972	615.94
330.201	623.94
330.43	612.94
330.658	617.94
330.887	630.94
331.115	622.94
331.344	626.94
331.572	630.94
331.801	629.94
332.03	624.94
332.258	632.94
332.486	651.94
332.715	638.94
332.943	642.94
333.172	671.94
333.4	680.94
333.629	689.94
333.857	704.94
334.085	692.94
334.314	723.94
334.542	721.94
334.771	703.94
334.999	705.94
335.227	721.94
335.455	723.94
335.684	729.94
335.912	719.94
336.14	719.94
336.369	697.94
336.597	703.94
336.825	720.94
337.053	701.94
337.281	697.94
337.51	686.94
337.738	684.94
337.966	661.94
338.194	668.94
338.422	644.94
338.65	663.94
338.878	656.94
339.106	662.94
339.334	680.94
339.562	656.94
339.79	644.94
340.018	635.94
340.246	642.94
340.474	646.94
340.702	642.94
340.93	663.94
341.158	649.94
341.386	648.94
341.614	633.94
341.842	656.94
342.07	633.94
342.298	650.94
342.526	633.94
342.754	620.94
342.981	617.94
343.209	648.94
343.437	649.94
343.665	687.94
343.893	702.94
344.12	708.94
344.348	699.94
344.576	678.94
344.804	679.94
345.031	664.94
345.259	674.94
345.487	651.94
345.714	644.94
345.942	636.94
346.17	656.94
346.397	634.94
346.625	632.94
346.853	621.94
347.08	605.94
347.308	627.94
347.535	589.94
347.763	607.94
347.99	625.94
348.218	608.94
348.445	609.94
348.673	623.94
348.9	615.94
349.128	622.94
349.355	590.94
349.583	593.94
349.81	616.94
350.037	600.94
350.265	600.94
350.492	597.94
350.72	597.94
350.947	591.94
351.174	576.94
351.402	602.94
351.629	621.94
351.856	590.94
352.083	574.94
352.311	602.94
352.538	601.94
352.765	601.94
352.992	578.94
353.22	587.94
353.447	599.94
353.674	622.94
353.901	590.94
354.128	607.94
354.355	613.94
354.583	600.94
354.81	577.94
355.037	617.94
355.264	609.94
355.491	604.94
355.718	607.94
355.945	605.94
356.172	622.94
356.399	608.94
356.626	602.94
356.853	637.94
357.08	604.94
357.307	618.94
357.534	614.94
357.761	627.94
357.988	607.94
358.215	628.94
358.441	640.94
358.668	608.94
358.895	612.94
359.122	610.94
359.349	625.94
359.576	599.94
359.802	608.94
360.029	597.94
360.256	624.94
360.483	596.94
360.709	604.94
360.936	601.94
361.163	613.94
361.39	600.94
361.616	622.94
361.843	632.94
362.07	604.94
362.296	606.94
362.523	616.94
362.749	644.94
362.976	621.94
363.203	637.94
363.429	596.94
363.656	634.94
363.882	627.94
364.109	629.94
364.335	599.94
364.562	622.94
364.788	617.94
365.015	648.94
365.241	617.94
365.468	592.94
365.694	616.94
365.92	606.94
366.147	611.94
366.373	618.94
366.599	611.94
366.826	600.94
367.052	606.94
367.278	647.94
367.505	630.94
367.731	644.94
367.957	624.94
368.184	651.94
368.41	624.94
368.636	602.94
368.862	640.94
369.089	617.94
369.315	660.94
369.541	640.94
369.767	634.94
369.993	650.94
370.219	642.94
370.445	646.94
370.672	650.94
370.898	675.94
371.124	680.94
371.35	646.94
371.576	642.94
371.802	686.94
372.028	697.94
372.254	684.94
372.48	674.94
372.706	674.94
372.932	690.94
373.158	697.94
373.384	711.94
373.61	706.94
373.835	709.94
374.061	690.94
374.287	705.94
374.513	671.94
374.739	720.94
374.965	707.94
375.191	727.94
375.416	708.94
375.642	707.94
375.868	719.94
376.094	719.94
376.319	701.94
376.545	686.94
376.771	703.94
376.997	674.94
377.222	677.94
377.448	659.94
377.674	675.94
377.899	669.94
378.125	693.94
378.35	674.94
378.576	680.94
378.802	653.94
379.027	676.94
379.253	681.94
379.478	676.94
379.704	682.94
379.929	675.94
380.155	686.94
380.38	661.94
380.606	671.94
380.831	664.94
381.057	672.94
381.282	672.94
381.507	681.94
381.733	689.94
381.958	688.94
382.184	706.94
382.409	717.94
382.634	707.94
382.86	720.94
383.085	721.94
383.31	711.94
383.535	721.94
383.761	730.94
383.986	721.94
384.211	727.94
384.436	745.94
384.662	750.94
384.887	770.94
385.112	776.94
385.337	790.94
385.562	776.94
385.787	768.94
386.013	782.94
386.238	813.94
386.463	819.94
386.688	815.94
386.913	797.94
387.138	760.94
387.363	779.94
387.588	802.94
387.813	783.94
388.038	775.94
388.263	817.94
388.488	782.94
388.713	780.94
388.938	795.94
389.163	821.94
389.387	841.94
389.612	785.94
389.837	799.94
390.062	815.94
390.287	777.94
390.512	801.94
390.736	781.94
390.961	816.94
391.186	807.94
391.411	798.94
391.636	863.94
391.86	880.94
392.085	846.94
392.31	864.94
392.534	842.94
392.759	860.94
392.984	846.94
393.208	856.94
393.433	824.94
393.658	833.94
393.882	852.94
394.107	854.94
394.331	832.94
394.556	836.94
394.78	822.94
395.005	851.94
395.229	868.94
395.454	857.94
395.678	869.94
395.903	864.94
396.127	857.94
396.352	870.94
396.576	862.94
396.801	870.94
397.025	869.94
397.249	881.94
397.474	914.94
397.698	896.94
397.922	907.94
398.147	920.94
398.371	929.94
398.595	927.94
398.82	966.94
399.044	1005.94
399.268	1036.94
399.492	1086.94
399.717	1182.94
399.941	1193.94
400.165	1134.94
400.389	1097.94
400.613	1038.94
400.837	1020.94
401.062	964.94
401.286	972.94
401.51	980.94
401.734	978.94
401.958	974.94
402.182	997.94
402.406	993.94
402.63	979.94
402.854	956.94
403.078	988.94
403.302	993.94
403.526	1010.94
403.75	983.94
403.974	999.94
404.198	1009.94
404.422	1010.94
404.645	1001.94
404.869	1019.94
405.093	1012.94
405.317	1005.94
405.541	1039.94
405.765	1042.94
405.988	1020.94
406.212	1048.94
406.436	1079.94
406.66	1071.94
406.883	1073.94
407.107	1123.94
407.331	1128.94
407.555	1174.94
407.778	1168.94
408.002	1153.94
408.226	1112.94
408.449	1096.94
408.673	1093.94
408.896	1071.94
409.12	1092.94
409.344	1085.94
409.567	1061.94
409.791	1069.94
410.014	1044.94
410.238	1070.94
410.461	1058.94
410.685	1016.94
410.908	1045.94
411.132	1015.94
411.355	982.94
411.578	1011.94
411.802	998.94
412.025	999.94
412.249	1014.94
412.472	991.94
412.695	1000.94
412.919	971.94
413.142	1005.94
413.365	994.94
413.589	995.94
413.812	986.94
414.035	1007.94
414.258	995.94
414.482	996.94
414.705	976.94
414.928	1004.94
415.151	964.94
415.374	983.94
415.597	963.94
415.821	974.94
416.044	918.94
416.267	968.94
416.49	968.94
416.713	960.94
416.936	961.94
417.159	925.94
417.382	964.94
417.605	920.94
417.828	963.94
418.051	970.94
418.274	944.94
418.497	938.94
418.72	958.94
418.943	968.94
419.166	990.94
419.389	1062.94
419.611	1044.94
419.834	1004.94
420.057	1013.94
420.28	965.94
420.503	932.94
420.726	911.94
420.948	920.94
421.171	905.94
421.394	956.94
421.617	898.94
421.839	933.94
422.062	912.94
422.285	912.94
422.507	957.94
422.73	920.94
422.953	945.94
423.175	941.94
423.398	960.94
423.621	925.94
423.843	925.94
424.066	926.94
424.288	959.94
424.511	939.94
424.733	940.94
424.956	928.94
425.178	972.94
425.401	959.94
425.623	915.94
425.846	924.94
426.068	921.94
426.291	912.94
426.513	941.94
426.735	919.94
426.958	896.94
427.18	895.94
427.402	896.94
427.625	893.94
427.847	914.94
428.069	911.94
428.292	900.94
428.514	862.94
428.736	890.94
428.958	897.94
429.181	873.94
429.403	876.94
429.625	881.94
429.847	890.94
430.069	873.94
430.292	876.94
430.514	872.94
430.736	881.94
430.958	910.94
431.18	854.94
431.402	879.94
431.624	861.94
431.846	889.94
432.068	871.94
432.29	892.94
432.512	876.94
432.734	919.94
432.956	905.94
433.178	890.94
433.4	902.94
433.622	896.94
433.844	885.94
434.066	915.94
434.287	911.94
434.509	925.94
434.731	925.94
434.953	945.94
435.175	952.94
435.397	907.94
435.618	934.94
435.84	924.94
436.062	879.94
436.284	876.94
436.505	912.94
436.727	944.94
436.949	904.94
437.17	878.94
437.392	867.94
437.614	857.94
437.835	857.94
438.057	902.94
438.278	869.94
438.5	876.94
438.721	871.94
438.943	876.94
439.165	884.94
439.386	883.94
439.608	892.94
439.829	873.94
440.05	901.94
440.272	894.94
440.493	871.94
440.715	874.94
440.936	912.94
441.158	903.94
441.379	898.94
441.6	950.94
441.822	919.94
442.043	956.94
442.264	932.94
442.486	918.94
442.707	924.94
442.928	944.94
443.149	944.94
443.371	958.94
443.592	932.94
443.813	934.94
444.034	946.94
444.255	952.94
444.476	996.94
444.698	985.94
444.919	1008.94
445.14	1084.94
445.361	1011.94
445.582	990.94
445.803	954.94
446.024	912.94
446.245	919.94
446.466	893.94
446.687	894.94
446.908	929.94
447.129	857.94
447.35	852.94
447.571	871.94
447.792	858.94
448.013	847.94
448.234	832.94
448.455	823.94
448.675	837.94
448.896	823.94
449.117	821.94
449.338	825.94
449.559	831.94
449.779	804.94
450	808.94
450.221	821.94
450.442	822.94
450.662	818.94
450.883	857.94
451.104	833.94
451.324	807.94
451.545	842.94
451.766	835.94
451.986	790.94
452.207	819.94
452.428	819.94
452.648	817.94
452.869	798.94
453.089	777.94
453.31	807.94
453.53	780.94
453.751	781.94
453.971	773.94
454.192	766.94
454.412	781.94
454.633	791.94
454.853	777.94
455.073	788.94
455.294	790.94
455.514	781.94
455.734	792.94
455.955	752.94
456.175	763.94
456.395	787.94
456.616	753.94
456.836	765.94
457.056	752.94
457.276	762.94
457.497	794.94
457.717	773.94
457.937	783.94
458.157	778.94
458.377	831.94
458.598	792.94
458.818	854.94
459.038	838.94
459.258	846.94
459.478	881.94
459.698	878.94
459.918	922.94
460.138	904.94
460.358	950.94
460.578	948.94
460.798	948.94
461.018	999.94
461.238	972.94
461.458	963.94
461.678	982.94
461.898	979.94
462.118	983.94
462.338	1005.94
462.558	1022.94
462.777	1059.94
462.997	1132.94
463.217	1116.94
463.437	1154.94
463.657	1124.94
463.876	1108.94
464.096	1097.94
464.316	1060.94
464.536	1060.94
464.755	1061.94
464.975	1029.94
465.195	1007.94
465.414	975.94
465.634	954.94
465.854	892.94
466.073	898.94
466.293	888.94
466.512	872.94
466.732	876.94
466.951	863.94
467.171	840.94
467.391	882.94
467.61	865.94
467.829	848.94
468.049	862.94
468.268	852.94
468.488	823.94
468.707	854.94
468.927	838.94
469.146	845.94
469.365	864.94
469.585	830.94
469.804	867.94
470.023	894.94
470.243	864.94
470.462	878.94
470.681	889.94
470.901	863.94
471.12	894.94
471.339	889.94
471.558	853.94
471.777	868.94
471.997	835.94
472.216	840.94
472.435	841.94
472.654	813.94
472.873	849.94
473.092	853.94
473.311	816.94
473.53	837.94
473.749	846.94
473.968	838.94
474.187	824.94
474.406	842.94
474.625	825.94
474.844	868.94
475.063	861.94
475.282	854.94
475.501	870.94
475.72	872.94
475.939	888.94
476.158	880.94
476.377	866.94
476.596	949.94
476.814	918.94
477.033	916.94
477.252	905.94
477.471	883.94
477.69	922.94
477.908	942.94
478.127	956.94
478.346	960.94
478.564	970.94
478.783	980.94
479.002	991.94
479.22	1008.94
479.439	1024.94
479.658	1006.94
479.876	1004.94
480.095	1010.94
480.313	1064.94
480.532	1048.94
480.751	1025.94
480.969	1025.94
481.188	1011.94
481.406	1034.94
481.624	991.94
481.843	963.94
482.061	967.94
482.28	988.94
482.498	972.94
482.717	976.94
482.935	963.94
483.153	989.94
483.372	987.94
483.59	977.94
483.808	995.94
484.027	1020.94
484.245	991.94
484.463	967.94
484.681	1006.94
484.9	990.94
485.118	1009.94
485.336	972.94
485.554	1020.94
485.772	1004.94
485.99	999.94
486.209	1006.94
486.427	1012.94
486.645	1007.94
486.863	1019.94
487.081	1011.94
487.299	993.94
487.517	998.94
487.735	1001.94
487.953	1036.94
488.171	1044.94
488.389	991.94
488.607	1022.94
488.825	998.94
489.043	990.94
489.261	1025.94
489.479	1038.94
489.696	1024.94
489.914	1017.94
490.132	1027.94
490.35	1001.94
490.568	1030.94
490.786	1044.94
491.003	1007.94
491.221	1033.94
491.439	1054.94
491.657	1026.94
491.874	1033.94
492.092	1033.94
492.31	1063.94
492.527	1061.94
492.745	1061.94
492.963	1071.94
493.18	1050.94
493.398	1033.94
493.615	1060.94
493.833	1052.94
494.05	1042.94
494.268	1048.94
494.485	1038.94
494.703	1101.94
494.92	1065.94
495.138	1110.94
495.355	1076.94
495.573	1084.94
495.79	1099.94
496.008	1101.94
496.225	1098.94
496.442	1109.94
496.66	1096.94
496.877	1110.94
497.094	1149.94
497.312	1190.94
497.529	1166.94
497.746	1190.94
497.963	1222.94
498.181	1266.94
498.398	1320.94
498.615	1331.94
498.832	1396.94
499.049	1490.94
499.267	1519.94
499.484	1625.94
499.701	1693.94
