Data from Fe(NO3)3@0.025M.TitratingCurve.Agarose3%dH2O.NegLispCup.LampEnergy10.LIBS07252019_HRD10591_16-54-02-335.txt Node
Date: Thu Jul 25 16:54:02 EDT 2019
User: cochatt
Spectrometer: HR+D1059
Trigger mode: 1
Integration Time (sec): 1.000000E-1
Scans to average: 1
Electric dark correction enabled: true
Nonlinearity correction enabled: false
Boxcar width: 0
XAxis mode: Wavelengths
Number of Pixels in Spectrum: 2048
>>>>>Begin Spectral Data<<<<<
223.165	-7.06
223.4	-7.06
223.635	-7.06
223.869	-29.06
224.104	-13.06
224.338	-12.06
224.573	-10.06
224.808	-14.06
225.042	-18.06
225.277	-10.06
225.511	-5.06
225.746	1.94
225.98	9.94
226.215	8.94
226.449	18.94
226.683	27.94
226.918	29.94
227.152	20.94
227.387	41.94
227.621	26.94
227.856	41.94
228.09	43.94
228.324	54.94
228.559	52.94
228.793	71.94
229.027	69.94
229.262	84.94
229.496	94.94
229.73	84.94
229.964	82.94
230.199	93.94
230.433	101.94
230.667	108.94
230.901	85.94
231.136	103.94
231.37	99.94
231.604	101.94
231.838	113.94
232.072	102.94
232.306	101.94
232.541	114.94
232.775	97.94
233.009	117.94
233.243	116.94
233.477	99.94
233.711	113.94
233.945	102.94
234.179	106.94
234.413	105.94
234.647	112.94
234.881	130.94
235.115	110.94
235.349	108.94
235.583	120.94
235.817	122.94
236.051	100.94
236.285	103.94
236.519	110.94
236.753	104.94
236.987	109.94
237.221	105.94
237.455	115.94
237.689	120.94
237.922	120.94
238.156	123.94
238.39	120.94
238.624	123.94
238.858	136.94
239.091	129.94
239.325	125.94
239.559	117.94
239.793	128.94
240.027	148.94
240.26	120.94
240.494	132.94
240.728	122.94
240.961	128.94
241.195	128.94
241.429	134.94
241.662	132.94
241.896	128.94
242.13	127.94
242.363	134.94
242.597	125.94
242.83	124.94
243.064	148.94
243.298	141.94
243.531	124.94
243.765	126.94
243.998	122.94
244.232	144.94
244.465	144.94
244.699	136.94
244.932	148.94
245.166	149.94
245.399	147.94
245.633	134.94
245.866	136.94
246.099	131.94
246.333	143.94
246.566	150.94
246.8	139.94
247.033	145.94
247.266	144.94
247.5	154.94
247.733	138.94
247.966	136.94
248.2	143.94
248.433	156.94
248.666	154.94
248.899	156.94
249.133	146.94
249.366	164.94
249.599	157.94
249.832	170.94
250.066	164.94
250.299	141.94
250.532	157.94
250.765	146.94
250.998	152.94
251.231	159.94
251.465	168.94
251.698	171.94
251.931	155.94
252.164	176.94
252.397	175.94
252.63	166.94
252.863	155.94
253.096	172.94
253.329	165.94
253.562	171.94
253.795	165.94
254.028	174.94
254.261	179.94
254.494	180.94
254.727	171.94
254.96	173.94
255.193	172.94
255.426	169.94
255.659	184.94
255.892	189.94
256.124	159.94
256.357	182.94
256.59	173.94
256.823	176.94
257.056	191.94
257.289	165.94
257.521	178.94
257.754	177.94
257.987	174.94
258.22	161.94
258.452	173.94
258.685	189.94
258.918	200.94
259.151	190.94
259.383	195.94
259.616	192.94
259.849	211.94
260.081	218.94
260.314	212.94
260.547	197.94
260.779	198.94
261.012	209.94
261.244	199.94
261.477	218.94
261.71	209.94
261.942	213.94
262.175	187.94
262.407	189.94
262.64	211.94
262.872	209.94
263.105	213.94
263.337	205.94
263.57	221.94
263.802	196.94
264.035	196.94
264.267	190.94
264.499	207.94
264.732	196.94
264.964	201.94
265.197	213.94
265.429	200.94
265.661	201.94
265.894	200.94
266.126	201.94
266.358	210.94
266.591	191.94
266.823	226.94
267.055	217.94
267.287	215.94
267.52	215.94
267.752	206.94
267.984	204.94
268.216	205.94
268.448	201.94
268.681	201.94
268.913	214.94
269.145	205.94
269.377	220.94
269.609	212.94
269.841	224.94
270.073	217.94
270.306	227.94
270.538	233.94
270.77	218.94
271.002	223.94
271.234	225.94
271.466	240.94
271.698	251.94
271.93	227.94
272.162	243.94
272.394	215.94
272.626	235.94
272.858	236.94
273.09	245.94
273.322	233.94
273.553	249.94
273.785	251.94
274.017	281.94
274.249	248.94
274.481	269.94
274.713	276.94
274.945	292.94
275.176	288.94
275.408	270.94
275.64	252.94
275.872	268.94
276.104	268.94
276.335	259.94
276.567	249.94
276.799	265.94
277.031	240.94
277.262	256.94
277.494	254.94
277.726	238.94
277.957	255.94
278.189	267.94
278.421	260.94
278.652	247.94
278.884	267.94
279.115	257.94
279.347	267.94
279.579	266.94
279.81	267.94
280.042	261.94
280.273	239.94
280.505	256.94
280.736	267.94
280.968	264.94
281.199	270.94
281.431	280.94
281.662	285.94
281.894	268.94
282.125	273.94
282.356	281.94
282.588	275.94
282.819	259.94
283.051	276.94
283.282	277.94
283.513	287.94
283.745	280.94
283.976	272.94
284.207	279.94
284.439	289.94
284.67	295.94
284.901	291.94
285.132	295.94
285.364	292.94
285.595	309.94
285.826	292.94
286.057	312.94
286.288	279.94
286.52	308.94
286.751	295.94
286.982	276.94
287.213	294.94
287.444	293.94
287.675	312.94
287.906	280.94
288.138	289.94
288.369	301.94
288.6	304.94
288.831	298.94
289.062	302.94
289.293	292.94
289.524	292.94
289.755	314.94
289.986	296.94
290.217	298.94
290.448	311.94
290.679	288.94
290.91	311.94
291.141	291.94
291.371	300.94
291.602	318.94
291.833	314.94
292.064	296.94
292.295	302.94
292.526	320.94
292.757	315.94
292.987	294.94
293.218	316.94
293.449	334.94
293.68	322.94
293.91	316.94
294.141	331.94
294.372	315.94
294.603	311.94
294.833	317.94
295.064	313.94
295.295	314.94
295.525	324.94
295.756	324.94
295.987	310.94
296.217	329.94
296.448	347.94
296.679	332.94
296.909	313.94
297.14	332.94
297.37	334.94
297.601	328.94
297.831	316.94
298.062	334.94
298.292	331.94
298.523	343.94
298.753	340.94
298.984	339.94
299.214	329.94
299.445	342.94
299.675	330.94
299.905	342.94
300.136	322.94
300.366	329.94
300.597	325.94
300.827	341.94
301.057	359.94
301.288	330.94
301.518	337.94
301.748	378.94
301.979	382.94
302.209	350.94
302.439	353.94
302.669	365.94
302.9	352.94
303.13	342.94
303.36	372.94
303.59	359.94
303.82	360.94
304.051	361.94
304.281	365.94
304.511	368.94
304.741	370.94
304.971	369.94
305.201	344.94
305.431	374.94
305.661	368.94
305.891	374.94
306.121	375.94
306.352	363.94
306.582	380.94
306.812	366.94
307.042	367.94
307.272	369.94
307.502	389.94
307.731	380.94
307.961	376.94
308.191	376.94
308.421	371.94
308.651	365.94
308.881	368.94
309.111	365.94
309.341	374.94
309.571	378.94
309.8	382.94
310.03	390.94
310.26	378.94
310.49	400.94
310.72	371.94
310.949	370.94
311.179	378.94
311.409	372.94
311.639	386.94
311.868	386.94
312.098	380.94
312.328	376.94
312.557	411.94
312.787	385.94
313.017	383.94
313.246	404.94
313.476	369.94
313.706	386.94
313.935	401.94
314.165	404.94
314.394	378.94
314.624	403.94
314.853	410.94
315.083	404.94
315.312	416.94
315.542	403.94
315.771	420.94
316.001	404.94
316.23	427.94
316.46	402.94
316.689	407.94
316.919	399.94
317.148	414.94
317.377	417.94
317.607	396.94
317.836	423.94
318.065	408.94
318.295	410.94
318.524	434.94
318.753	420.94
318.983	427.94
319.212	403.94
319.441	430.94
319.67	403.94
319.9	435.94
320.129	419.94
320.358	424.94
320.587	425.94
320.816	429.94
321.046	413.94
321.275	438.94
321.504	436.94
321.733	420.94
321.962	444.94
322.191	430.94
322.42	436.94
322.649	436.94
322.878	459.94
323.108	431.94
323.337	444.94
323.566	412.94
323.795	429.94
324.024	434.94
324.253	434.94
324.482	439.94
324.71	426.94
324.939	475.94
325.168	439.94
325.397	439.94
325.626	439.94
325.855	437.94
326.084	456.94
326.313	442.94
326.542	446.94
326.77	458.94
326.999	443.94
327.228	434.94
327.457	460.94
327.686	452.94
327.914	456.94
328.143	464.94
328.372	442.94
328.6	452.94
328.829	452.94
329.058	455.94
329.287	459.94
329.515	460.94
329.744	465.94
329.972	460.94
330.201	479.94
330.43	452.94
330.658	469.94
330.887	469.94
331.115	470.94
331.344	470.94
331.572	477.94
331.801	476.94
332.03	481.94
332.258	476.94
332.486	466.94
332.715	470.94
332.943	510.94
333.172	489.94
333.4	489.94
333.629	505.94
333.857	511.94
334.085	478.94
334.314	469.94
334.542	530.94
334.771	508.94
334.999	509.94
335.227	502.94
335.455	487.94
335.684	496.94
335.912	497.94
336.14	509.94
336.369	512.94
336.597	514.94
336.825	508.94
337.053	500.94
337.281	509.94
337.51	513.94
337.738	506.94
337.966	512.94
338.194	518.94
338.422	517.94
338.65	496.94
338.878	488.94
339.106	508.94
339.334	512.94
339.562	484.94
339.79	512.94
340.018	496.94
340.246	473.94
340.474	500.94
340.702	500.94
340.93	484.94
341.158	519.94
341.386	503.94
341.614	518.94
341.842	468.94
342.07	480.94
342.298	500.94
342.526	505.94
342.754	490.94
342.981	493.94
343.209	491.94
343.437	483.94
343.665	499.94
343.893	529.94
344.12	537.94
344.348	501.94
344.576	496.94
344.804	510.94
345.031	507.94
345.259	517.94
345.487	489.94
345.714	484.94
345.942	496.94
346.17	492.94
346.397	503.94
346.625	496.94
346.853	468.94
347.08	491.94
347.308	491.94
347.535	480.94
347.763	484.94
347.99	472.94
348.218	476.94
348.445	487.94
348.673	475.94
348.9	484.94
349.128	494.94
349.355	476.94
349.583	476.94
349.81	483.94
350.037	466.94
350.265	468.94
350.492	474.94
350.72	460.94
350.947	480.94
351.174	516.94
351.402	477.94
351.629	482.94
351.856	476.94
352.083	474.94
352.311	473.94
352.538	482.94
352.765	475.94
352.992	465.94
353.22	475.94
353.447	480.94
353.674	449.94
353.901	482.94
354.128	483.94
354.355	481.94
354.583	469.94
354.81	475.94
355.037	451.94
355.264	472.94
355.491	470.94
355.718	498.94
355.945	472.94
356.172	494.94
356.399	473.94
356.626	475.94
356.853	496.94
357.08	475.94
357.307	484.94
357.534	482.94
357.761	483.94
357.988	492.94
358.215	509.94
358.441	488.94
358.668	462.94
358.895	474.94
359.122	484.94
359.349	498.94
359.576	491.94
359.802	480.94
360.029	479.94
360.256	485.94
360.483	490.94
360.709	491.94
360.936	482.94
361.163	494.94
361.39	490.94
361.616	496.94
361.843	499.94
362.07	500.94
362.296	500.94
362.523	479.94
362.749	480.94
362.976	474.94
363.203	474.94
363.429	485.94
363.656	489.94
363.882	482.94
364.109	513.94
364.335	520.94
364.562	488.94
364.788	509.94
365.015	506.94
365.241	488.94
365.468	496.94
365.694	496.94
365.92	481.94
366.147	498.94
366.373	482.94
366.599	495.94
366.826	492.94
367.052	512.94
367.278	504.94
367.505	479.94
367.731	501.94
367.957	496.94
368.184	523.94
368.41	504.94
368.636	503.94
368.862	518.94
369.089	515.94
369.315	534.94
369.541	525.94
369.767	518.94
369.993	513.94
370.219	482.94
370.445	509.94
370.672	516.94
370.898	519.94
371.124	533.94
371.35	520.94
371.576	502.94
371.802	527.94
372.028	517.94
372.254	526.94
372.48	526.94
372.706	530.94
372.932	532.94
373.158	563.94
373.384	528.94
373.61	537.94
373.835	564.94
374.061	526.94
374.287	522.94
374.513	538.94
374.739	557.94
374.965	528.94
375.191	538.94
375.416	527.94
375.642	537.94
375.868	547.94
376.094	540.94
376.319	566.94
376.545	519.94
376.771	530.94
376.997	532.94
377.222	524.94
377.448	540.94
377.674	518.94
377.899	527.94
378.125	515.94
378.35	539.94
378.576	528.94
378.802	533.94
379.027	557.94
379.253	504.94
379.478	530.94
379.704	517.94
379.929	536.94
380.155	547.94
380.38	530.94
380.606	520.94
380.831	530.94
381.057	538.94
381.282	534.94
381.507	519.94
381.733	530.94
381.958	541.94
382.184	559.94
382.409	545.94
382.634	550.94
382.86	571.94
383.085	560.94
383.31	573.94
383.535	555.94
383.761	549.94
383.986	571.94
384.211	569.94
384.436	562.94
384.662	580.94
384.887	565.94
385.112	568.94
385.337	575.94
385.562	581.94
385.787	594.94
386.013	603.94
386.238	586.94
386.463	602.94
386.688	574.94
386.913	581.94
387.138	599.94
387.363	591.94
387.588	595.94
387.813	583.94
388.038	592.94
388.263	597.94
388.488	602.94
388.713	586.94
388.938	633.94
389.163	577.94
389.387	597.94
389.612	622.94
389.837	590.94
390.062	606.94
390.287	592.94
390.512	619.94
390.736	620.94
390.961	598.94
391.186	598.94
391.411	599.94
391.636	604.94
391.86	616.94
392.085	625.94
392.31	632.94
392.534	620.94
392.759	621.94
392.984	613.94
393.208	641.94
393.433	640.94
393.658	620.94
393.882	591.94
394.107	614.94
394.331	619.94
394.556	628.94
394.78	608.94
395.005	628.94
395.229	624.94
395.454	646.94
395.678	641.94
395.903	653.94
396.127	632.94
396.352	654.94
396.576	646.94
396.801	650.94
397.025	649.94
397.249	663.94
397.474	657.94
397.698	644.94
397.922	657.94
398.147	672.94
398.371	670.94
398.595	655.94
398.82	691.94
399.044	704.94
399.268	714.94
399.492	704.94
399.717	720.94
399.941	752.94
400.165	747.94
400.389	734.94
400.613	730.94
400.837	705.94
401.062	722.94
401.286	693.94
401.51	706.94
401.734	698.94
401.958	691.94
402.182	662.94
402.406	669.94
402.63	669.94
402.854	659.94
403.078	682.94
403.302	680.94
403.526	714.94
403.75	690.94
403.974	701.94
404.198	678.94
404.422	676.94
404.645	698.94
404.869	675.94
405.093	682.94
405.317	694.94
405.541	692.94
405.765	699.94
405.988	709.94
406.212	696.94
406.436	705.94
406.66	726.94
406.883	714.94
407.107	741.94
407.331	722.94
407.555	754.94
407.778	754.94
408.002	746.94
408.226	740.94
408.449	736.94
408.673	732.94
408.896	746.94
409.12	713.94
409.344	722.94
409.567	709.94
409.791	712.94
410.014	688.94
410.238	725.94
410.461	721.94
410.685	701.94
410.908	714.94
411.132	715.94
411.355	698.94
411.578	692.94
411.802	698.94
412.025	707.94
412.249	696.94
412.472	717.94
412.695	701.94
412.919	686.94
413.142	692.94
413.365	678.94
413.589	680.94
413.812	677.94
414.035	692.94
414.258	648.94
414.482	676.94
414.705	710.94
414.928	690.94
415.151	662.94
415.374	680.94
415.597	678.94
415.821	653.94
416.044	653.94
416.267	670.94
416.49	655.94
416.713	676.94
416.936	678.94
417.159	640.94
417.382	628.94
417.605	644.94
417.828	654.94
418.051	654.94
418.274	655.94
418.497	650.94
418.72	643.94
418.943	638.94
419.166	669.94
419.389	696.94
419.611	681.94
419.834	670.94
420.057	670.94
420.28	663.94
420.503	652.94
420.726	637.94
420.948	624.94
421.171	641.94
421.394	638.94
421.617	646.94
421.839	618.94
422.062	641.94
422.285	654.94
422.507	635.94
422.73	635.94
422.953	630.94
423.175	639.94
423.398	639.94
423.621	646.94
423.843	640.94
424.066	631.94
424.288	624.94
424.511	611.94
424.733	629.94
424.956	624.94
425.178	619.94
425.401	610.94
425.623	639.94
425.846	648.94
426.068	650.94
426.291	643.94
426.513	642.94
426.735	653.94
426.958	651.94
427.18	619.94
427.402	643.94
427.625	626.94
427.847	619.94
428.069	626.94
428.292	634.94
428.514	625.94
428.736	631.94
428.958	656.94
429.181	617.94
429.403	614.94
429.625	624.94
429.847	630.94
430.069	626.94
430.292	632.94
430.514	588.94
430.736	624.94
430.958	622.94
431.18	625.94
431.402	625.94
431.624	616.94
431.846	629.94
432.068	618.94
432.29	639.94
432.512	609.94
432.734	660.94
432.956	637.94
433.178	613.94
433.4	656.94
433.622	636.94
433.844	642.94
434.066	666.94
434.287	636.94
434.509	626.94
434.731	630.94
434.953	638.94
435.175	639.94
435.397	640.94
435.618	628.94
435.84	643.94
436.062	631.94
436.284	632.94
436.505	624.94
436.727	632.94
436.949	600.94
437.17	624.94
437.392	619.94
437.614	610.94
437.835	597.94
438.057	579.94
438.278	610.94
438.5	620.94
438.721	610.94
438.943	600.94
439.165	612.94
439.386	625.94
439.608	615.94
439.829	611.94
440.05	612.94
440.272	602.94
440.493	604.94
440.715	626.94
440.936	624.94
441.158	611.94
441.379	651.94
441.6	628.94
441.822	616.94
442.043	621.94
442.264	627.94
442.486	609.94
442.707	600.94
442.928	621.94
443.149	650.94
443.371	610.94
443.592	622.94
443.813	622.94
444.034	598.94
444.255	614.94
444.476	636.94
444.698	634.94
444.919	630.94
445.14	741.94
445.361	699.94
445.582	625.94
445.803	614.94
446.024	598.94
446.245	640.94
446.466	627.94
446.687	608.94
446.908	620.94
447.129	621.94
447.35	614.94
447.571	597.94
447.792	588.94
448.013	612.94
448.234	588.94
448.455	587.94
448.675	585.94
448.896	577.94
449.117	573.94
449.338	585.94
449.559	581.94
449.779	571.94
450	576.94
450.221	566.94
450.442	575.94
450.662	553.94
450.883	548.94
451.104	566.94
451.324	567.94
451.545	580.94
451.766	566.94
451.986	555.94
452.207	563.94
452.428	580.94
452.648	562.94
452.869	550.94
453.089	551.94
453.31	551.94
453.53	566.94
453.751	570.94
453.971	576.94
454.192	565.94
454.412	546.94
454.633	557.94
454.853	560.94
455.073	557.94
455.294	557.94
455.514	565.94
455.734	554.94
455.955	536.94
456.175	552.94
456.395	542.94
456.616	547.94
456.836	562.94
457.056	552.94
457.276	540.94
457.497	553.94
457.717	579.94
457.937	545.94
458.157	566.94
458.377	582.94
458.598	589.94
458.818	605.94
459.038	603.94
459.258	585.94
459.478	614.94
459.698	606.94
459.918	603.94
460.138	630.94
460.358	646.94
460.578	643.94
460.798	639.94
461.018	638.94
461.238	668.94
461.458	638.94
461.678	654.94
461.898	657.94
462.118	665.94
462.338	677.94
462.558	645.94
462.777	680.94
462.997	693.94
463.217	638.94
463.437	697.94
463.657	707.94
463.876	664.94
464.096	686.94
464.316	679.94
464.536	680.94
464.755	667.94
464.975	650.94
465.195	657.94
465.414	660.94
465.634	634.94
465.854	620.94
466.073	625.94
466.293	627.94
466.512	614.94
466.732	587.94
466.951	616.94
467.171	616.94
467.391	606.94
467.61	604.94
467.829	626.94
468.049	635.94
468.268	615.94
468.488	610.94
468.707	621.94
468.927	644.94
469.146	627.94
469.365	628.94
469.585	609.94
469.804	605.94
470.023	608.94
470.243	610.94
470.462	605.94
470.681	608.94
470.901	613.94
471.12	607.94
471.339	612.94
471.558	630.94
471.777	616.94
471.997	618.94
472.216	612.94
472.435	644.94
472.654	623.94
472.873	650.94
473.092	634.94
473.311	644.94
473.53	632.94
473.749	615.94
473.968	603.94
474.187	636.94
474.406	621.94
474.625	615.94
474.844	635.94
475.063	646.94
475.282	638.94
475.501	650.94
475.72	640.94
475.939	645.94
476.158	658.94
476.377	668.94
476.596	666.94
476.814	699.94
477.033	659.94
477.252	681.94
477.471	704.94
477.69	679.94
477.908	709.94
478.127	697.94
478.346	715.94
478.564	697.94
478.783	705.94
479.002	699.94
479.22	717.94
479.439	730.94
479.658	733.94
479.876	718.94
480.095	771.94
480.313	725.94
480.532	762.94
480.751	723.94
480.969	741.94
481.188	728.94
481.406	753.94
481.624	764.94
481.843	745.94
482.061	754.94
482.28	739.94
482.498	746.94
482.717	738.94
482.935	733.94
483.153	744.94
483.372	719.94
483.59	746.94
483.808	734.94
484.027	746.94
484.245	740.94
484.463	754.94
484.681	747.94
484.9	765.94
485.118	764.94
485.336	732.94
485.554	734.94
485.772	765.94
485.99	761.94
486.209	761.94
486.427	779.94
486.645	779.94
486.863	765.94
487.081	771.94
487.299	761.94
487.517	772.94
487.735	738.94
487.953	765.94
488.171	748.94
488.389	778.94
488.607	747.94
488.825	750.94
489.043	760.94
489.261	772.94
489.479	766.94
489.696	764.94
489.914	775.94
490.132	777.94
490.35	800.94
490.568	768.94
490.786	755.94
491.003	770.94
491.221	784.94
491.439	771.94
491.657	785.94
491.874	762.94
492.092	773.94
492.31	798.94
492.527	816.94
492.745	804.94
492.963	778.94
493.18	775.94
493.398	800.94
493.615	791.94
493.833	802.94
494.05	836.94
494.268	792.94
494.485	826.94
494.703	798.94
494.92	795.94
495.138	801.94
495.355	827.94
495.573	828.94
495.79	837.94
496.008	837.94
496.225	834.94
496.442	840.94
496.66	867.94
496.877	855.94
497.094	872.94
497.312	860.94
497.529	857.94
497.746	882.94
497.963	956.94
498.181	930.94
498.398	932.94
498.615	920.94
498.832	954.94
499.049	942.94
499.267	989.94
499.484	1028.94
499.701	1048.94
499.918	1077.94
500.135	1072.94
500.352	1073.94
500.569	1057.94
500.786	1078.94
501.003	1069.94
501.22	1090.94
501.437	1050.94
501.654	1034.94
