Data from Fe(NO3)3@0.1M.TitratingCurve.Agarose3%dH2O.NegLispCup.LampEnergy10.LIBS07252019_HRD10591_16-37-51-331.txt Node
Date: Thu Jul 25 16:37:51 EDT 2019
User: cochatt
Spectrometer: HR+D1059
Trigger mode: 1
Integration Time (sec): 1.000000E-1
Scans to average: 1
Electric dark correction enabled: true
Nonlinearity correction enabled: false
Boxcar width: 0
XAxis mode: Wavelengths
Number of Pixels in Spectrum: 2048
>>>>>Begin Spectral Data<<<<<
223.165	-5.88
223.4	-5.88
223.635	-5.88
223.869	-28.88
224.104	-22.88
224.338	4.12
224.573	-16.88
224.808	-11.88
225.042	-0.88
225.277	-0.88
225.511	-8.88
225.746	-0.88
225.98	4.12
226.215	12.12
226.449	13.12
226.683	8.12
226.918	23.12
227.152	33.12
227.387	31.12
227.621	39.12
227.856	50.12
228.09	47.12
228.324	28.12
228.559	49.12
228.793	64.12
229.027	64.12
229.262	58.12
229.496	68.12
229.73	75.12
229.964	69.12
230.199	79.12
230.433	75.12
230.667	77.12
230.901	90.12
231.136	96.12
231.37	82.12
231.604	88.12
231.838	85.12
232.072	77.12
232.306	87.12
232.541	86.12
232.775	85.12
233.009	96.12
233.243	94.12
233.477	85.12
233.711	90.12
233.945	98.12
234.179	77.12
234.413	88.12
234.647	83.12
234.881	87.12
235.115	88.12
235.349	90.12
235.583	87.12
235.817	85.12
236.051	91.12
236.285	81.12
236.519	87.12
236.753	88.12
236.987	81.12
237.221	71.12
237.455	101.12
237.689	78.12
237.922	89.12
238.156	94.12
238.39	88.12
238.624	93.12
238.858	85.12
239.091	93.12
239.325	78.12
239.559	85.12
239.793	84.12
240.027	74.12
240.26	87.12
240.494	79.12
240.728	99.12
240.961	83.12
241.195	109.12
241.429	95.12
241.662	102.12
241.896	90.12
242.13	87.12
242.363	97.12
242.597	75.12
242.83	99.12
243.064	99.12
243.298	115.12
243.531	98.12
243.765	92.12
243.998	89.12
244.232	105.12
244.465	98.12
244.699	105.12
244.932	85.12
245.166	94.12
245.399	114.12
245.633	103.12
245.866	92.12
246.099	86.12
246.333	86.12
246.566	90.12
246.8	95.12
247.033	101.12
247.266	99.12
247.5	114.12
247.733	99.12
247.966	109.12
248.2	93.12
248.433	95.12
248.666	102.12
248.899	109.12
249.133	91.12
249.366	114.12
249.599	121.12
249.832	106.12
250.066	97.12
250.299	112.12
250.532	91.12
250.765	97.12
250.998	106.12
251.231	114.12
251.465	101.12
251.698	109.12
251.931	102.12
252.164	109.12
252.397	101.12
252.63	121.12
252.863	95.12
253.096	115.12
253.329	100.12
253.562	107.12
253.795	97.12
254.028	113.12
254.261	99.12
254.494	111.12
254.727	121.12
254.96	94.12
255.193	117.12
255.426	129.12
255.659	120.12
255.892	113.12
256.124	105.12
256.357	120.12
256.59	115.12
256.823	123.12
257.056	105.12
257.289	113.12
257.521	107.12
257.754	102.12
257.987	118.12
258.22	118.12
258.452	114.12
258.685	119.12
258.918	106.12
259.151	131.12
259.383	119.12
259.616	105.12
259.849	111.12
260.081	127.12
260.314	137.12
260.547	130.12
260.779	118.12
261.012	121.12
261.244	118.12
261.477	121.12
261.71	106.12
261.942	122.12
262.175	111.12
262.407	113.12
262.64	106.12
262.872	129.12
263.105	119.12
263.337	131.12
263.57	131.12
263.802	123.12
264.035	117.12
264.267	116.12
264.499	130.12
264.732	125.12
264.964	111.12
265.197	125.12
265.429	127.12
265.661	118.12
265.894	116.12
266.126	107.12
266.358	131.12
266.591	115.12
266.823	122.12
267.055	134.12
267.287	119.12
267.52	119.12
267.752	134.12
267.984	133.12
268.216	139.12
268.448	129.12
268.681	129.12
268.913	110.12
269.145	129.12
269.377	129.12
269.609	126.12
269.841	129.12
270.073	120.12
270.306	135.12
270.538	140.12
270.77	123.12
271.002	137.12
271.234	136.12
271.466	125.12
271.698	138.12
271.93	153.12
272.162	124.12
272.394	138.12
272.626	126.12
272.858	133.12
273.09	125.12
273.322	117.12
273.553	125.12
273.785	130.12
274.017	141.12
274.249	139.12
274.481	131.12
274.713	139.12
274.945	152.12
275.176	147.12
275.408	134.12
275.64	133.12
275.872	126.12
276.104	140.12
276.335	140.12
276.567	139.12
276.799	145.12
277.031	132.12
277.262	142.12
277.494	134.12
277.726	151.12
277.957	131.12
278.189	130.12
278.421	132.12
278.652	151.12
278.884	131.12
279.115	126.12
279.347	145.12
279.579	146.12
279.81	145.12
280.042	144.12
280.273	137.12
280.505	149.12
280.736	145.12
280.968	144.12
281.199	130.12
281.431	144.12
281.662	138.12
281.894	141.12
282.125	131.12
282.356	143.12
282.588	149.12
282.819	146.12
283.051	131.12
283.282	145.12
283.513	151.12
283.745	143.12
283.976	146.12
284.207	144.12
284.439	138.12
284.67	141.12
284.901	145.12
285.132	149.12
285.364	150.12
285.595	137.12
285.826	152.12
286.057	140.12
286.288	144.12
286.52	139.12
286.751	145.12
286.982	166.12
287.213	163.12
287.444	147.12
287.675	144.12
287.906	135.12
288.138	157.12
288.369	151.12
288.6	162.12
288.831	144.12
289.062	141.12
289.293	150.12
289.524	156.12
289.755	148.12
289.986	144.12
290.217	164.12
290.448	153.12
290.679	167.12
290.91	143.12
291.141	137.12
291.371	134.12
291.602	145.12
291.833	145.12
292.064	165.12
292.295	161.12
292.526	151.12
292.757	140.12
292.987	152.12
293.218	158.12
293.449	160.12
293.68	134.12
293.91	128.12
294.141	154.12
294.372	154.12
294.603	163.12
294.833	163.12
295.064	175.12
295.295	150.12
295.525	143.12
295.756	139.12
295.987	165.12
296.217	154.12
296.448	177.12
296.679	168.12
296.909	159.12
297.14	165.12
297.37	158.12
297.601	175.12
297.831	145.12
298.062	160.12
298.292	169.12
298.523	157.12
298.753	168.12
298.984	157.12
299.214	157.12
299.445	165.12
299.675	166.12
299.905	160.12
300.136	156.12
300.366	175.12
300.597	190.12
300.827	168.12
301.057	161.12
301.288	143.12
301.518	179.12
301.748	160.12
301.979	175.12
302.209	167.12
302.439	166.12
302.669	164.12
302.9	174.12
303.13	162.12
303.36	169.12
303.59	153.12
303.82	155.12
304.051	176.12
304.281	159.12
304.511	177.12
304.741	178.12
304.971	167.12
305.201	159.12
305.431	165.12
305.661	161.12
305.891	177.12
306.121	178.12
306.352	176.12
306.582	181.12
306.812	173.12
307.042	161.12
307.272	169.12
307.502	164.12
307.731	182.12
307.961	190.12
308.191	163.12
308.421	161.12
308.651	146.12
308.881	161.12
309.111	169.12
309.341	156.12
309.571	153.12
309.8	160.12
310.03	170.12
310.26	174.12
310.49	176.12
310.72	161.12
310.949	155.12
311.179	173.12
311.409	180.12
311.639	161.12
311.868	177.12
312.098	160.12
312.328	176.12
312.557	193.12
312.787	182.12
313.017	167.12
313.246	166.12
313.476	178.12
313.706	183.12
313.935	160.12
314.165	166.12
314.394	173.12
314.624	160.12
314.853	171.12
315.083	192.12
315.312	175.12
315.542	173.12
315.771	175.12
316.001	179.12
316.23	181.12
316.46	183.12
316.689	186.12
316.919	183.12
317.148	188.12
317.377	178.12
317.607	173.12
317.836	171.12
318.065	165.12
318.295	180.12
318.524	162.12
318.753	168.12
318.983	175.12
319.212	175.12
319.441	165.12
319.67	199.12
319.9	175.12
320.129	180.12
320.358	177.12
320.587	183.12
320.816	183.12
321.046	183.12
321.275	194.12
321.504	174.12
321.733	174.12
321.962	166.12
322.191	172.12
322.42	181.12
322.649	184.12
322.878	182.12
323.108	178.12
323.337	177.12
323.566	164.12
323.795	193.12
324.024	177.12
324.253	174.12
324.482	184.12
324.71	186.12
324.939	184.12
325.168	186.12
325.397	179.12
325.626	159.12
325.855	186.12
326.084	190.12
326.313	193.12
326.542	198.12
326.77	181.12
326.999	182.12
327.228	199.12
327.457	187.12
327.686	178.12
327.914	183.12
328.143	186.12
328.372	197.12
328.6	197.12
328.829	192.12
329.058	180.12
329.287	187.12
329.515	191.12
329.744	190.12
329.972	189.12
330.201	178.12
330.43	184.12
330.658	193.12
330.887	185.12
331.115	187.12
331.344	203.12
331.572	210.12
331.801	195.12
332.03	206.12
332.258	201.12
332.486	202.12
332.715	209.12
332.943	206.12
333.172	220.12
333.4	225.12
333.629	233.12
333.857	215.12
334.085	219.12
334.314	224.12
334.542	227.12
334.771	226.12
334.999	250.12
335.227	221.12
335.455	202.12
335.684	210.12
335.912	233.12
336.14	221.12
336.369	216.12
336.597	218.12
336.825	206.12
337.053	221.12
337.281	204.12
337.51	206.12
337.738	199.12
337.966	212.12
338.194	202.12
338.422	212.12
338.65	191.12
338.878	179.12
339.106	203.12
339.334	206.12
339.562	193.12
339.79	193.12
340.018	190.12
340.246	195.12
340.474	188.12
340.702	200.12
340.93	202.12
341.158	194.12
341.386	181.12
341.614	197.12
341.842	200.12
342.07	188.12
342.298	202.12
342.526	181.12
342.754	211.12
342.981	200.12
343.209	197.12
343.437	209.12
343.665	219.12
343.893	236.12
344.12	220.12
344.348	212.12
344.576	208.12
344.804	193.12
345.031	201.12
345.259	212.12
345.487	208.12
345.714	191.12
345.942	183.12
346.17	177.12
346.397	197.12
346.625	210.12
346.853	197.12
347.08	186.12
347.308	181.12
347.535	185.12
347.763	191.12
347.99	196.12
348.218	191.12
348.445	201.12
348.673	210.12
348.9	191.12
349.128	197.12
349.355	199.12
349.583	191.12
349.81	182.12
350.037	193.12
350.265	173.12
350.492	198.12
350.72	183.12
350.947	191.12
351.174	199.12
351.402	198.12
351.629	181.12
351.856	185.12
352.083	196.12
352.311	181.12
352.538	179.12
352.765	194.12
352.992	192.12
353.22	167.12
353.447	189.12
353.674	194.12
353.901	197.12
354.128	209.12
354.355	189.12
354.583	191.12
354.81	198.12
355.037	200.12
355.264	177.12
355.491	200.12
355.718	191.12
355.945	187.12
356.172	197.12
356.399	193.12
356.626	179.12
356.853	183.12
357.08	202.12
357.307	194.12
357.534	185.12
357.761	191.12
357.988	191.12
358.215	214.12
358.441	197.12
358.668	193.12
358.895	194.12
359.122	188.12
359.349	179.12
359.576	171.12
359.802	169.12
360.029	182.12
360.256	184.12
360.483	191.12
360.709	192.12
360.936	188.12
361.163	187.12
361.39	187.12
361.616	183.12
361.843	199.12
362.07	188.12
362.296	177.12
362.523	193.12
362.749	209.12
362.976	188.12
363.203	182.12
363.429	188.12
363.656	191.12
363.882	194.12
364.109	207.12
364.335	206.12
364.562	186.12
364.788	183.12
365.015	199.12
365.241	205.12
365.468	202.12
365.694	175.12
365.92	201.12
366.147	198.12
366.373	169.12
366.599	197.12
366.826	180.12
367.052	197.12
367.278	173.12
367.505	194.12
367.731	183.12
367.957	182.12
368.184	194.12
368.41	196.12
368.636	180.12
368.862	180.12
369.089	204.12
369.315	198.12
369.541	212.12
369.767	203.12
369.993	205.12
370.219	203.12
370.445	205.12
370.672	200.12
370.898	203.12
371.124	199.12
371.35	211.12
371.576	189.12
371.802	205.12
372.028	222.12
372.254	214.12
372.48	216.12
372.706	203.12
372.932	221.12
373.158	203.12
373.384	209.12
373.61	209.12
373.835	233.12
374.061	218.12
374.287	217.12
374.513	215.12
374.739	215.12
374.965	234.12
375.191	215.12
375.416	221.12
375.642	210.12
375.868	214.12
376.094	210.12
376.319	204.12
376.545	202.12
376.771	214.12
376.997	215.12
377.222	199.12
377.448	216.12
377.674	212.12
377.899	215.12
378.125	211.12
378.35	195.12
378.576	194.12
378.802	201.12
379.027	220.12
379.253	210.12
379.478	222.12
379.704	216.12
379.929	200.12
380.155	209.12
380.38	222.12
380.606	231.12
380.831	216.12
381.057	219.12
381.282	216.12
381.507	199.12
381.733	211.12
381.958	219.12
382.184	219.12
382.409	242.12
382.634	213.12
382.86	213.12
383.085	217.12
383.31	222.12
383.535	234.12
383.761	233.12
383.986	229.12
384.211	231.12
384.436	255.12
384.662	258.12
384.887	245.12
385.112	250.12
385.337	235.12
385.562	230.12
385.787	253.12
386.013	261.12
386.238	258.12
386.463	255.12
386.688	236.12
386.913	227.12
387.138	253.12
387.363	243.12
387.588	254.12
387.813	243.12
388.038	237.12
388.263	253.12
388.488	226.12
388.713	246.12
388.938	245.12
389.163	243.12
389.387	257.12
389.612	241.12
389.837	237.12
390.062	273.12
390.287	243.12
390.512	262.12
390.736	257.12
390.961	247.12
391.186	263.12
391.411	267.12
391.636	259.12
391.86	273.12
392.085	285.12
392.31	254.12
392.534	257.12
392.759	270.12
392.984	248.12
393.208	259.12
393.433	273.12
393.658	257.12
393.882	279.12
394.107	269.12
394.331	278.12
394.556	264.12
394.78	281.12
395.005	266.12
395.229	256.12
395.454	273.12
395.678	271.12
395.903	283.12
396.127	286.12
396.352	266.12
396.576	268.12
396.801	264.12
397.025	265.12
397.249	273.12
397.474	286.12
397.698	266.12
397.922	277.12
398.147	256.12
398.371	282.12
398.595	297.12
398.82	311.12
399.044	320.12
399.268	350.12
399.492	346.12
399.717	393.12
399.941	404.12
400.165	363.12
400.389	357.12
400.613	310.12
400.837	318.12
401.062	303.12
401.286	296.12
401.51	296.12
401.734	309.12
401.958	309.12
402.182	318.12
402.406	309.12
402.63	307.12
402.854	312.12
403.078	320.12
403.302	310.12
403.526	331.12
403.75	326.12
403.974	326.12
404.198	332.12
404.422	335.12
404.645	324.12
404.869	328.12
405.093	338.12
405.317	319.12
405.541	330.12
405.765	327.12
405.988	350.12
406.212	313.12
406.436	341.12
406.66	341.12
406.883	331.12
407.107	349.12
407.331	329.12
407.555	354.12
407.778	379.12
408.002	380.12
408.226	359.12
408.449	375.12
408.673	353.12
408.896	334.12
409.12	343.12
409.344	372.12
409.567	349.12
409.791	353.12
410.014	337.12
410.238	331.12
410.461	332.12
410.685	343.12
410.908	335.12
411.132	327.12
411.355	335.12
411.578	337.12
411.802	342.12
412.025	330.12
412.249	328.12
412.472	334.12
412.695	315.12
412.919	312.12
413.142	321.12
413.365	298.12
413.589	314.12
413.812	311.12
414.035	306.12
414.258	296.12
414.482	332.12
414.705	333.12
414.928	328.12
415.151	326.12
415.374	327.12
415.597	328.12
415.821	296.12
416.044	292.12
416.267	289.12
416.49	285.12
416.713	321.12
416.936	291.12
417.159	310.12
417.382	309.12
417.605	300.12
417.828	288.12
418.051	319.12
418.274	295.12
418.497	287.12
418.72	315.12
418.943	313.12
419.166	334.12
419.389	326.12
419.611	338.12
419.834	323.12
420.057	308.12
420.28	323.12
420.503	321.12
420.726	294.12
420.948	328.12
421.171	311.12
421.394	321.12
421.617	301.12
421.839	315.12
422.062	314.12
422.285	316.12
422.507	313.12
422.73	310.12
422.953	311.12
423.175	322.12
423.398	327.12
423.621	325.12
423.843	328.12
424.066	315.12
424.288	317.12
424.511	332.12
424.733	317.12
424.956	310.12
425.178	313.12
425.401	315.12
425.623	320.12
425.846	302.12
426.068	301.12
426.291	295.12
426.513	317.12
426.735	313.12
426.958	311.12
427.18	290.12
427.402	301.12
427.625	267.12
427.847	280.12
428.069	292.12
428.292	289.12
428.514	293.12
428.736	286.12
428.958	280.12
429.181	283.12
429.403	259.12
429.625	283.12
429.847	275.12
430.069	277.12
430.292	296.12
430.514	285.12
430.736	292.12
430.958	274.12
431.18	281.12
431.402	288.12
431.624	276.12
431.846	294.12
432.068	296.12
432.29	291.12
432.512	283.12
432.734	296.12
432.956	280.12
433.178	298.12
433.4	291.12
433.622	299.12
433.844	289.12
434.066	301.12
434.287	296.12
434.509	301.12
434.731	295.12
434.953	297.12
435.175	311.12
435.397	297.12
435.618	289.12
435.84	275.12
436.062	283.12
436.284	294.12
436.505	291.12
436.727	303.12
436.949	291.12
437.17	277.12
437.392	306.12
437.614	293.12
437.835	281.12
438.057	288.12
438.278	265.12
438.5	285.12
438.721	277.12
438.943	278.12
439.165	269.12
439.386	294.12
439.608	282.12
439.829	282.12
440.05	280.12
440.272	293.12
440.493	295.12
440.715	281.12
440.936	289.12
441.158	301.12
441.379	276.12
441.6	325.12
441.822	309.12
442.043	319.12
442.264	310.12
442.486	285.12
442.707	297.12
442.928	309.12
443.149	316.12
443.371	305.12
443.592	335.12
443.813	308.12
444.034	322.12
444.255	328.12
444.476	328.12
444.698	339.12
444.919	344.12
445.14	458.12
445.361	377.12
445.582	310.12
445.803	313.12
446.024	303.12
446.245	287.12
446.466	281.12
446.687	274.12
446.908	280.12
447.129	279.12
447.35	282.12
447.571	303.12
447.792	270.12
448.013	271.12
448.234	275.12
448.455	260.12
448.675	287.12
448.896	283.12
449.117	269.12
449.338	273.12
449.559	279.12
449.779	265.12
450	265.12
450.221	275.12
450.442	258.12
450.662	265.12
450.883	267.12
451.104	287.12
451.324	280.12
451.545	270.12
451.766	284.12
451.986	257.12
452.207	263.12
452.428	268.12
452.648	289.12
452.869	270.12
453.089	252.12
453.31	246.12
453.53	257.12
453.751	270.12
453.971	252.12
454.192	257.12
454.412	244.12
454.633	261.12
454.853	250.12
455.073	263.12
455.294	263.12
455.514	265.12
455.734	252.12
455.955	255.12
456.175	260.12
456.395	279.12
456.616	255.12
456.836	246.12
457.056	231.12
457.276	241.12
457.497	238.12
457.717	248.12
457.937	258.12
458.157	264.12
458.377	261.12
458.598	258.12
458.818	284.12
459.038	281.12
459.258	282.12
459.478	279.12
459.698	281.12
459.918	285.12
460.138	296.12
460.358	311.12
460.578	325.12
460.798	318.12
461.018	349.12
461.238	325.12
461.458	328.12
461.678	335.12
461.898	320.12
462.118	344.12
462.338	355.12
462.558	337.12
462.777	349.12
462.997	378.12
463.217	389.12
463.437	403.12
463.657	387.12
463.876	379.12
464.096	379.12
464.316	354.12
464.536	354.12
464.755	350.12
464.975	353.12
465.195	333.12
465.414	303.12
465.634	295.12
465.854	312.12
466.073	285.12
466.293	284.12
466.512	301.12
466.732	295.12
466.951	290.12
467.171	292.12
467.391	275.12
467.61	282.12
467.829	277.12
468.049	279.12
468.268	284.12
468.488	256.12
468.707	277.12
468.927	269.12
469.146	269.12
469.365	279.12
469.585	252.12
469.804	290.12
470.023	269.12
470.243	291.12
470.462	296.12
470.681	304.12
470.901	277.12
471.12	290.12
471.339	285.12
471.558	279.12
471.777	273.12
471.997	269.12
472.216	268.12
472.435	271.12
472.654	271.12
472.873	272.12
473.092	264.12
473.311	261.12
473.53	266.12
473.749	256.12
473.968	251.12
474.187	263.12
474.406	262.12
474.625	270.12
474.844	276.12
475.063	268.12
475.282	277.12
475.501	286.12
475.72	278.12
475.939	297.12
476.158	284.12
476.377	281.12
476.596	285.12
476.814	302.12
477.033	288.12
477.252	273.12
477.471	296.12
477.69	312.12
477.908	297.12
478.127	314.12
478.346	322.12
478.564	311.12
478.783	305.12
479.002	321.12
479.22	314.12
479.439	306.12
479.658	312.12
479.876	326.12
480.095	320.12
480.313	330.12
480.532	350.12
480.751	330.12
480.969	322.12
481.188	307.12
481.406	305.12
481.624	293.12
481.843	311.12
482.061	305.12
482.28	311.12
482.498	303.12
482.717	314.12
482.935	288.12
483.153	288.12
483.372	302.12
483.59	289.12
483.808	299.12
484.027	312.12
484.245	303.12
484.463	319.12
484.681	316.12
484.9	314.12
485.118	298.12
485.336	301.12
485.554	298.12
485.772	307.12
485.99	313.12
486.209	318.12
486.427	307.12
486.645	300.12
486.863	290.12
487.081	299.12
487.299	318.12
487.517	324.12
487.735	299.12
487.953	303.12
488.171	307.12
488.389	318.12
488.607	308.12
488.825	291.12
489.043	324.12
489.261	309.12
489.479	327.12
489.696	310.12
489.914	294.12
490.132	308.12
490.35	302.12
490.568	306.12
490.786	318.12
491.003	302.12
491.221	324.12
491.439	335.12
491.657	331.12
491.874	326.12
492.092	321.12
492.31	322.12
492.527	321.12
492.745	317.12
492.963	343.12
493.18	324.12
493.398	337.12
493.615	342.12
493.833	336.12
494.05	333.12
494.268	318.12
494.485	305.12
494.703	341.12
494.92	319.12
495.138	315.12
495.355	319.12
495.573	326.12
495.79	322.12
496.008	344.12
496.225	327.12
496.442	324.12
496.66	336.12
496.877	329.12
497.094	357.12
497.312	339.12
497.529	345.12
497.746	354.12
497.963	381.12
498.181	400.12
498.398	405.12
498.615	426.12
498.832	439.12
499.049	457.12
499.267	460.12
499.484	523.12
499.701	563.12
499.918	622.12
500.135	673.12
500.352	749.12
500.569	747.12
500.786	765.12
501.003	719.12
501.22	657.12
501.437	601.12
501.654	533.12
501.871	504.12
502.088	489.12
502.305	439.12
502.522	435.12
502.739	421.12
