Data from Fe(NO3)3@0.1M.TitratingCurve.Agarose3%dH2O.NegLispCup.LampEnergy10.LIBS07252019_HRD10591_16-38-08-331.txt Node
Date: Thu Jul 25 16:38:08 EDT 2019
User: cochatt
Spectrometer: HR+D1059
Trigger mode: 1
Integration Time (sec): 1.000000E-1
Scans to average: 1
Electric dark correction enabled: true
Nonlinearity correction enabled: false
Boxcar width: 0
XAxis mode: Wavelengths
Number of Pixels in Spectrum: 2048
>>>>>Begin Spectral Data<<<<<
223.165	-15.06
223.4	-15.06
223.635	-15.06
223.869	-25.06
224.104	-21.06
224.338	-3.06
224.573	-16.06
224.808	-2.06
225.042	-12.06
225.277	-3.06
225.511	-14.06
225.746	9.94
225.98	3.94
226.215	16.94
226.449	15.94
226.683	5.94
226.918	29.94
227.152	28.94
227.387	23.94
227.621	28.94
227.856	51.94
228.09	45.94
228.324	54.94
228.559	59.94
228.793	37.94
229.027	56.94
229.262	84.94
229.496	62.94
229.73	88.94
229.964	74.94
230.199	74.94
230.433	89.94
230.667	72.94
230.901	86.94
231.136	79.94
231.37	88.94
231.604	96.94
231.838	90.94
232.072	92.94
232.306	92.94
232.541	100.94
232.775	88.94
233.009	96.94
233.243	96.94
233.477	103.94
233.711	89.94
233.945	83.94
234.179	87.94
234.413	81.94
234.647	84.94
234.881	87.94
235.115	92.94
235.349	89.94
235.583	88.94
235.817	78.94
236.051	83.94
236.285	78.94
236.519	97.94
236.753	97.94
236.987	84.94
237.221	89.94
237.455	83.94
237.689	80.94
237.922	92.94
238.156	95.94
238.39	91.94
238.624	97.94
238.858	78.94
239.091	84.94
239.325	92.94
239.559	82.94
239.793	94.94
240.027	98.94
240.26	89.94
240.494	101.94
240.728	83.94
240.961	82.94
241.195	83.94
241.429	96.94
241.662	92.94
241.896	81.94
242.13	87.94
242.363	86.94
242.597	93.94
242.83	95.94
243.064	109.94
243.298	91.94
243.531	97.94
243.765	97.94
243.998	96.94
244.232	97.94
244.465	103.94
244.699	103.94
244.932	90.94
245.166	96.94
245.399	83.94
245.633	97.94
245.866	111.94
246.099	85.94
246.333	84.94
246.566	93.94
246.8	84.94
247.033	93.94
247.266	80.94
247.5	97.94
247.733	105.94
247.966	92.94
248.2	81.94
248.433	86.94
248.666	90.94
248.899	108.94
249.133	103.94
249.366	108.94
249.599	100.94
249.832	107.94
250.066	110.94
250.299	101.94
250.532	97.94
250.765	95.94
250.998	97.94
251.231	105.94
251.465	116.94
251.698	98.94
251.931	99.94
252.164	103.94
252.397	102.94
252.63	93.94
252.863	95.94
253.096	110.94
253.329	117.94
253.562	99.94
253.795	91.94
254.028	94.94
254.261	103.94
254.494	94.94
254.727	119.94
254.96	99.94
255.193	101.94
255.426	118.94
255.659	102.94
255.892	104.94
256.124	103.94
256.357	113.94
256.59	104.94
256.823	117.94
257.056	114.94
257.289	112.94
257.521	111.94
257.754	110.94
257.987	94.94
258.22	110.94
258.452	118.94
258.685	113.94
258.918	97.94
259.151	99.94
259.383	99.94
259.616	85.94
259.849	98.94
260.081	102.94
260.314	117.94
260.547	116.94
260.779	106.94
261.012	97.94
261.244	100.94
261.477	106.94
261.71	113.94
261.942	107.94
262.175	109.94
262.407	110.94
262.64	105.94
262.872	103.94
263.105	111.94
263.337	122.94
263.57	115.94
263.802	117.94
264.035	111.94
264.267	119.94
264.499	107.94
264.732	113.94
264.964	113.94
265.197	124.94
265.429	101.94
265.661	118.94
265.894	115.94
266.126	124.94
266.358	117.94
266.591	110.94
266.823	125.94
267.055	118.94
267.287	115.94
267.52	101.94
267.752	120.94
267.984	129.94
268.216	113.94
268.448	111.94
268.681	109.94
268.913	122.94
269.145	125.94
269.377	113.94
269.609	106.94
269.841	123.94
270.073	128.94
270.306	134.94
270.538	119.94
270.77	116.94
271.002	120.94
271.234	110.94
271.466	119.94
271.698	123.94
271.93	103.94
272.162	117.94
272.394	132.94
272.626	122.94
272.858	103.94
273.09	125.94
273.322	117.94
273.553	114.94
273.785	129.94
274.017	125.94
274.249	133.94
274.481	121.94
274.713	106.94
274.945	124.94
275.176	118.94
275.408	120.94
275.64	128.94
275.872	129.94
276.104	126.94
276.335	119.94
276.567	134.94
276.799	137.94
277.031	122.94
277.262	117.94
277.494	127.94
277.726	116.94
277.957	131.94
278.189	127.94
278.421	120.94
278.652	130.94
278.884	114.94
279.115	141.94
279.347	128.94
279.579	127.94
279.81	109.94
280.042	130.94
280.273	137.94
280.505	133.94
280.736	140.94
280.968	131.94
281.199	129.94
281.431	126.94
281.662	121.94
281.894	136.94
282.125	125.94
282.356	124.94
282.588	120.94
282.819	133.94
283.051	135.94
283.282	113.94
283.513	143.94
283.745	136.94
283.976	123.94
284.207	126.94
284.439	119.94
284.67	140.94
284.901	131.94
285.132	141.94
285.364	126.94
285.595	131.94
285.826	139.94
286.057	127.94
286.288	129.94
286.52	132.94
286.751	147.94
286.982	133.94
287.213	136.94
287.444	133.94
287.675	129.94
287.906	135.94
288.138	121.94
288.369	129.94
288.6	139.94
288.831	139.94
289.062	146.94
289.293	129.94
289.524	137.94
289.755	146.94
289.986	133.94
290.217	136.94
290.448	147.94
290.679	125.94
290.91	141.94
291.141	131.94
291.371	149.94
291.602	137.94
291.833	125.94
292.064	147.94
292.295	148.94
292.526	137.94
292.757	136.94
292.987	129.94
293.218	127.94
293.449	122.94
293.68	129.94
293.91	125.94
294.141	129.94
294.372	136.94
294.603	129.94
294.833	135.94
295.064	143.94
295.295	144.94
295.525	138.94
295.756	135.94
295.987	139.94
296.217	121.94
296.448	133.94
296.679	133.94
296.909	145.94
297.14	150.94
297.37	137.94
297.601	151.94
297.831	139.94
298.062	139.94
298.292	137.94
298.523	145.94
298.753	138.94
298.984	133.94
299.214	154.94
299.445	153.94
299.675	146.94
299.905	143.94
300.136	148.94
300.366	133.94
300.597	135.94
300.827	145.94
301.057	153.94
301.288	138.94
301.518	135.94
301.748	149.94
301.979	160.94
302.209	143.94
302.439	145.94
302.669	155.94
302.9	141.94
303.13	140.94
303.36	149.94
303.59	135.94
303.82	135.94
304.051	157.94
304.281	133.94
304.511	148.94
304.741	151.94
304.971	143.94
305.201	163.94
305.431	154.94
305.661	143.94
305.891	147.94
306.121	142.94
306.352	153.94
306.582	143.94
306.812	155.94
307.042	145.94
307.272	154.94
307.502	152.94
307.731	147.94
307.961	156.94
308.191	130.94
308.421	134.94
308.651	157.94
308.881	145.94
309.111	137.94
309.341	145.94
309.571	140.94
309.8	134.94
310.03	150.94
310.26	151.94
310.49	150.94
310.72	143.94
310.949	135.94
311.179	162.94
311.409	158.94
311.639	156.94
311.868	144.94
312.098	133.94
312.328	137.94
312.557	158.94
312.787	151.94
313.017	165.94
313.246	144.94
313.476	159.94
313.706	150.94
313.935	134.94
314.165	154.94
314.394	151.94
314.624	160.94
314.853	154.94
315.083	166.94
315.312	140.94
315.542	151.94
315.771	154.94
316.001	163.94
316.23	158.94
316.46	139.94
316.689	147.94
316.919	159.94
317.148	147.94
317.377	153.94
317.607	153.94
317.836	147.94
318.065	145.94
318.295	127.94
318.524	149.94
318.753	153.94
318.983	162.94
319.212	141.94
319.441	152.94
319.67	146.94
319.9	161.94
320.129	149.94
320.358	153.94
320.587	165.94
320.816	153.94
321.046	147.94
321.275	142.94
321.504	153.94
321.733	142.94
321.962	163.94
322.191	130.94
322.42	150.94
322.649	164.94
322.878	162.94
323.108	153.94
323.337	157.94
323.566	149.94
323.795	137.94
324.024	147.94
324.253	141.94
324.482	142.94
324.71	139.94
324.939	165.94
325.168	141.94
325.397	160.94
325.626	151.94
325.855	162.94
326.084	148.94
326.313	152.94
326.542	157.94
326.77	149.94
326.999	148.94
327.228	153.94
327.457	159.94
327.686	158.94
327.914	174.94
328.143	177.94
328.372	158.94
328.6	166.94
328.829	164.94
329.058	157.94
329.287	133.94
329.515	153.94
329.744	157.94
329.972	156.94
330.201	157.94
330.43	169.94
330.658	162.94
330.887	165.94
331.115	155.94
331.344	157.94
331.572	163.94
331.801	142.94
332.03	147.94
332.258	155.94
332.486	161.94
332.715	182.94
332.943	172.94
333.172	193.94
333.4	167.94
333.629	177.94
333.857	182.94
334.085	179.94
334.314	183.94
334.542	190.94
334.771	167.94
334.999	169.94
335.227	181.94
335.455	172.94
335.684	175.94
335.912	187.94
336.14	159.94
336.369	179.94
336.597	165.94
336.825	172.94
337.053	169.94
337.281	188.94
337.51	172.94
337.738	188.94
337.966	172.94
338.194	159.94
338.422	171.94
338.65	169.94
338.878	164.94
339.106	161.94
339.334	162.94
339.562	166.94
339.79	167.94
340.018	159.94
340.246	154.94
340.474	159.94
340.702	158.94
340.93	158.94
341.158	166.94
341.386	164.94
341.614	156.94
341.842	153.94
342.07	174.94
342.298	155.94
342.526	149.94
342.754	155.94
342.981	155.94
343.209	162.94
343.437	161.94
343.665	177.94
343.893	179.94
344.12	185.94
344.348	164.94
344.576	179.94
344.804	169.94
345.031	149.94
345.259	168.94
345.487	164.94
345.714	168.94
345.942	156.94
346.17	169.94
346.397	151.94
346.625	166.94
346.853	159.94
347.08	170.94
347.308	149.94
347.535	159.94
347.763	151.94
347.99	148.94
348.218	160.94
348.445	149.94
348.673	165.94
348.9	157.94
349.128	166.94
349.355	155.94
349.583	150.94
349.81	153.94
350.037	150.94
350.265	157.94
350.492	145.94
350.72	142.94
350.947	143.94
351.174	158.94
351.402	162.94
351.629	157.94
351.856	150.94
352.083	138.94
352.311	147.94
352.538	159.94
352.765	163.94
352.992	158.94
353.22	154.94
353.447	154.94
353.674	156.94
353.901	158.94
354.128	142.94
354.355	142.94
354.583	142.94
354.81	156.94
355.037	166.94
355.264	164.94
355.491	144.94
355.718	135.94
355.945	146.94
356.172	168.94
356.399	166.94
356.626	153.94
356.853	160.94
357.08	160.94
357.307	157.94
357.534	163.94
357.761	155.94
357.988	154.94
358.215	136.94
358.441	155.94
358.668	158.94
358.895	152.94
359.122	148.94
359.349	162.94
359.576	167.94
359.802	150.94
360.029	147.94
360.256	151.94
360.483	149.94
360.709	154.94
360.936	137.94
361.163	152.94
361.39	152.94
361.616	152.94
361.843	169.94
362.07	162.94
362.296	158.94
362.523	149.94
362.749	152.94
362.976	148.94
363.203	155.94
363.429	170.94
363.656	153.94
363.882	149.94
364.109	152.94
364.335	153.94
364.562	167.94
364.788	145.94
365.015	165.94
365.241	151.94
365.468	162.94
365.694	155.94
365.92	135.94
366.147	150.94
366.373	150.94
366.599	157.94
366.826	141.94
367.052	159.94
367.278	154.94
367.505	152.94
367.731	158.94
367.957	157.94
368.184	158.94
368.41	179.94
368.636	180.94
368.862	160.94
369.089	157.94
369.315	162.94
369.541	162.94
369.767	175.94
369.993	168.94
370.219	167.94
370.445	155.94
370.672	155.94
370.898	164.94
371.124	183.94
371.35	157.94
371.576	170.94
371.802	167.94
372.028	162.94
372.254	169.94
372.48	160.94
372.706	168.94
372.932	168.94
373.158	161.94
373.384	180.94
373.61	169.94
373.835	166.94
374.061	175.94
374.287	161.94
374.513	171.94
374.739	199.94
374.965	188.94
375.191	201.94
375.416	183.94
375.642	169.94
375.868	167.94
376.094	191.94
376.319	181.94
376.545	177.94
376.771	182.94
376.997	173.94
377.222	187.94
377.448	162.94
377.674	178.94
377.899	172.94
378.125	177.94
378.35	163.94
378.576	177.94
378.802	189.94
379.027	181.94
379.253	177.94
379.478	169.94
379.704	175.94
379.929	184.94
380.155	168.94
380.38	154.94
380.606	184.94
380.831	171.94
381.057	182.94
381.282	175.94
381.507	181.94
381.733	186.94
381.958	161.94
382.184	181.94
382.409	172.94
382.634	192.94
382.86	189.94
383.085	188.94
383.31	179.94
383.535	202.94
383.761	198.94
383.986	215.94
384.211	185.94
384.436	195.94
384.662	194.94
384.887	200.94
385.112	204.94
385.337	210.94
385.562	209.94
385.787	200.94
386.013	207.94
386.238	213.94
386.463	206.94
386.688	201.94
386.913	198.94
387.138	197.94
387.363	212.94
387.588	199.94
387.813	213.94
388.038	218.94
388.263	193.94
388.488	218.94
388.713	209.94
388.938	213.94
389.163	212.94
389.387	218.94
389.612	203.94
389.837	201.94
390.062	203.94
390.287	217.94
390.512	204.94
390.736	230.94
390.961	212.94
391.186	220.94
391.411	211.94
391.636	228.94
391.86	236.94
392.085	230.94
392.31	240.94
392.534	233.94
392.759	206.94
392.984	233.94
393.208	222.94
393.433	226.94
393.658	225.94
393.882	221.94
394.107	223.94
394.331	215.94
394.556	231.94
394.78	217.94
395.005	242.94
395.229	229.94
395.454	249.94
395.678	234.94
395.903	235.94
396.127	260.94
396.352	233.94
396.576	227.94
396.801	212.94
397.025	227.94
397.249	245.94
397.474	227.94
397.698	217.94
397.922	240.94
398.147	247.94
398.371	243.94
398.595	255.94
398.82	257.94
399.044	280.94
399.268	299.94
399.492	325.94
399.717	342.94
399.941	359.94
400.165	314.94
400.389	286.94
400.613	283.94
400.837	283.94
401.062	278.94
401.286	264.94
401.51	265.94
401.734	248.94
401.958	247.94
402.182	254.94
402.406	267.94
402.63	284.94
402.854	289.94
403.078	289.94
403.302	296.94
403.526	285.94
403.75	301.94
403.974	284.94
404.198	273.94
404.422	283.94
404.645	284.94
404.869	291.94
405.093	298.94
405.317	301.94
405.541	286.94
405.765	289.94
405.988	277.94
406.212	293.94
406.436	297.94
406.66	315.94
406.883	308.94
407.107	307.94
407.331	321.94
407.555	321.94
407.778	327.94
408.002	313.94
408.226	315.94
408.449	302.94
408.673	309.94
408.896	296.94
409.12	289.94
409.344	311.94
409.567	311.94
409.791	288.94
410.014	273.94
410.238	297.94
410.461	300.94
410.685	299.94
410.908	289.94
411.132	298.94
411.355	281.94
411.578	279.94
411.802	277.94
412.025	294.94
412.249	295.94
412.472	287.94
412.695	285.94
412.919	271.94
413.142	265.94
413.365	265.94
413.589	264.94
413.812	271.94
414.035	276.94
414.258	285.94
414.482	286.94
414.705	279.94
414.928	277.94
415.151	260.94
415.374	284.94
415.597	283.94
415.821	279.94
416.044	261.94
416.267	277.94
416.49	270.94
416.713	275.94
416.936	281.94
417.159	265.94
417.382	277.94
417.605	268.94
417.828	269.94
418.051	278.94
418.274	265.94
418.497	270.94
418.72	268.94
418.943	292.94
419.166	302.94
419.389	295.94
419.611	278.94
419.834	300.94
420.057	276.94
420.28	274.94
420.503	289.94
420.726	292.94
420.948	264.94
421.171	277.94
421.394	271.94
421.617	278.94
421.839	255.94
422.062	263.94
422.285	273.94
422.507	270.94
422.73	275.94
422.953	269.94
423.175	277.94
423.398	285.94
423.621	276.94
423.843	276.94
424.066	290.94
424.288	301.94
424.511	290.94
424.733	278.94
424.956	277.94
425.178	270.94
425.401	258.94
425.623	278.94
425.846	258.94
426.068	262.94
426.291	255.94
426.513	277.94
426.735	269.94
426.958	265.94
427.18	247.94
427.402	260.94
427.625	254.94
427.847	234.94
428.069	253.94
428.292	250.94
428.514	253.94
428.736	261.94
428.958	246.94
429.181	249.94
429.403	259.94
429.625	243.94
429.847	245.94
430.069	247.94
430.292	253.94
430.514	247.94
430.736	258.94
430.958	257.94
431.18	245.94
431.402	255.94
431.624	255.94
431.846	262.94
432.068	229.94
432.29	261.94
432.512	267.94
432.734	249.94
432.956	261.94
433.178	270.94
433.4	242.94
433.622	275.94
433.844	265.94
434.066	257.94
434.287	268.94
434.509	268.94
434.731	277.94
434.953	278.94
435.175	277.94
435.397	267.94
435.618	269.94
435.84	278.94
436.062	267.94
436.284	253.94
436.505	263.94
436.727	247.94
436.949	253.94
437.17	246.94
437.392	253.94
437.614	256.94
437.835	243.94
438.057	238.94
438.278	245.94
438.5	248.94
438.721	247.94
438.943	226.94
439.165	236.94
439.386	255.94
439.608	250.94
439.829	254.94
440.05	262.94
440.272	264.94
440.493	271.94
440.715	258.94
440.936	247.94
441.158	259.94
441.379	278.94
441.6	269.94
441.822	289.94
442.043	282.94
442.264	297.94
442.486	274.94
442.707	263.94
442.928	271.94
443.149	275.94
443.371	287.94
443.592	271.94
443.813	293.94
444.034	284.94
444.255	293.94
444.476	298.94
444.698	321.94
444.919	319.94
445.14	418.94
445.361	336.94
445.582	301.94
445.803	259.94
446.024	276.94
446.245	273.94
446.466	268.94
446.687	275.94
446.908	266.94
447.129	258.94
447.35	279.94
447.571	247.94
447.792	249.94
448.013	268.94
448.234	231.94
448.455	246.94
448.675	236.94
448.896	253.94
449.117	227.94
449.338	236.94
449.559	271.94
449.779	239.94
450	236.94
450.221	231.94
450.442	232.94
450.662	255.94
450.883	263.94
451.104	257.94
451.324	252.94
451.545	250.94
451.766	254.94
451.986	237.94
452.207	226.94
452.428	233.94
452.648	244.94
452.869	213.94
453.089	227.94
453.31	226.94
453.53	245.94
453.751	229.94
453.971	263.94
454.192	243.94
454.412	225.94
454.633	236.94
454.853	222.94
455.073	225.94
455.294	227.94
455.514	222.94
455.734	219.94
455.955	235.94
456.175	214.94
456.395	219.94
456.616	241.94
456.836	237.94
457.056	213.94
457.276	215.94
457.497	225.94
457.717	208.94
457.937	228.94
458.157	242.94
458.377	235.94
458.598	248.94
458.818	245.94
459.038	222.94
459.258	250.94
459.478	253.94
459.698	249.94
459.918	259.94
460.138	286.94
460.358	288.94
460.578	295.94
460.798	294.94
461.018	307.94
461.238	297.94
461.458	298.94
461.678	314.94
461.898	303.94
462.118	308.94
462.338	304.94
462.558	308.94
462.777	321.94
462.997	338.94
463.217	365.94
463.437	356.94
463.657	328.94
463.876	340.94
464.096	326.94
464.316	340.94
464.536	309.94
464.755	325.94
464.975	319.94
465.195	308.94
465.414	290.94
465.634	272.94
465.854	283.94
466.073	237.94
466.293	264.94
466.512	251.94
466.732	259.94
466.951	269.94
467.171	241.94
467.391	250.94
467.61	255.94
467.829	247.94
468.049	269.94
468.268	233.94
468.488	250.94
468.707	245.94
468.927	234.94
469.146	239.94
469.365	261.94
469.585	252.94
469.804	246.94
470.023	246.94
470.243	265.94
470.462	237.94
470.681	262.94
470.901	257.94
471.12	250.94
471.339	261.94
471.558	271.94
471.777	258.94
471.997	235.94
472.216	257.94
472.435	249.94
472.654	249.94
472.873	228.94
473.092	235.94
473.311	237.94
473.53	244.94
473.749	244.94
473.968	240.94
474.187	249.94
474.406	231.94
474.625	238.94
474.844	231.94
475.063	229.94
475.282	244.94
475.501	239.94
475.72	233.94
475.939	248.94
476.158	234.94
476.377	246.94
476.596	257.94
476.814	251.94
477.033	263.94
477.252	254.94
477.471	250.94
477.69	262.94
477.908	269.94
478.127	275.94
478.346	278.94
478.564	251.94
478.783	277.94
479.002	285.94
479.22	289.94
479.439	293.94
479.658	270.94
479.876	271.94
480.095	287.94
480.313	300.94
480.532	298.94
480.751	275.94
480.969	269.94
481.188	274.94
481.406	271.94
481.624	273.94
481.843	275.94
482.061	267.94
482.28	257.94
482.498	272.94
482.717	268.94
482.935	263.94
483.153	268.94
483.372	263.94
483.59	237.94
483.808	255.94
484.027	274.94
484.245	269.94
484.463	275.94
484.681	279.94
484.9	262.94
485.118	268.94
485.336	268.94
485.554	269.94
485.772	297.94
485.99	271.94
486.209	279.94
486.427	279.94
486.645	265.94
486.863	283.94
487.081	285.94
487.299	271.94
487.517	282.94
487.735	263.94
487.953	288.94
488.171	279.94
488.389	271.94
488.607	274.94
488.825	259.94
489.043	290.94
489.261	286.94
489.479	273.94
489.696	260.94
489.914	290.94
490.132	281.94
490.35	298.94
490.568	292.94
490.786	271.94
491.003	289.94
491.221	281.94
491.439	274.94
491.657	269.94
491.874	275.94
492.092	284.94
492.31	313.94
492.527	300.94
492.745	298.94
492.963	289.94
493.18	294.94
493.398	277.94
493.615	279.94
493.833	317.94
494.05	291.94
494.268	293.94
494.485	284.94
494.703	302.94
494.92	308.94
495.138	311.94
495.355	284.94
495.573	311.94
495.79	314.94
496.008	280.94
496.225	306.94
496.442	301.94
496.66	322.94
496.877	289.94
497.094	319.94
497.312	319.94
497.529	329.94
497.746	329.94
497.963	350.94
498.181	345.94
498.398	357.94
498.615	359.94
498.832	388.94
499.049	405.94
499.267	442.94
499.484	453.94
499.701	527.94
499.918	554.94
500.135	614.94
500.352	676.94
500.569	717.94
500.786	684.94
501.003	637.94
501.22	594.94
501.437	566.94
501.654	489.94
501.871	447.94
502.088	411.94
502.305	412.94
502.522	382.94
502.739	367.94
502.956	367.94
