Data from Fe(NO3)3@0.1M.TitratingCurve.Agarose3%dH2O.NegLispCup.LampEnergy10.LIBS07252019_HRD10591_16-40-55-333.txt Node
Date: Thu Jul 25 16:40:55 EDT 2019
User: cochatt
Spectrometer: HR+D1059
Trigger mode: 1
Integration Time (sec): 1.000000E-1
Scans to average: 1
Electric dark correction enabled: true
Nonlinearity correction enabled: false
Boxcar width: 0
XAxis mode: Wavelengths
Number of Pixels in Spectrum: 2048
>>>>>Begin Spectral Data<<<<<
223.165	-18.12
223.4	-18.12
223.635	-18.12
223.869	-15.12
224.104	-3.12
224.338	-21.12
224.573	-21.12
224.808	-4.12
225.042	-12.12
225.277	-4.12
225.511	1.88
225.746	-0.12
225.98	1.88
226.215	12.88
226.449	4.88
226.683	7.88
226.918	37.88
227.152	31.88
227.387	39.88
227.621	49.88
227.856	40.88
228.09	40.88
228.324	42.88
228.559	50.88
228.793	62.88
229.027	84.88
229.262	73.88
229.496	75.88
229.73	84.88
229.964	81.88
230.199	79.88
230.433	83.88
230.667	87.88
230.901	83.88
231.136	87.88
231.37	86.88
231.604	91.88
231.838	87.88
232.072	91.88
232.306	93.88
232.541	93.88
232.775	96.88
233.009	99.88
233.243	106.88
233.477	117.88
233.711	100.88
233.945	103.88
234.179	101.88
234.413	109.88
234.647	98.88
234.881	108.88
235.115	100.88
235.349	102.88
235.583	96.88
235.817	91.88
236.051	106.88
236.285	104.88
236.519	108.88
236.753	95.88
236.987	113.88
237.221	99.88
237.455	113.88
237.689	102.88
237.922	105.88
238.156	101.88
238.39	98.88
238.624	103.88
238.858	95.88
239.091	103.88
239.325	105.88
239.559	121.88
239.793	113.88
240.027	104.88
240.26	89.88
240.494	123.88
240.728	111.88
240.961	113.88
241.195	116.88
241.429	101.88
241.662	115.88
241.896	113.88
242.13	106.88
242.363	104.88
242.597	113.88
242.83	117.88
243.064	112.88
243.298	113.88
243.531	131.88
243.765	109.88
243.998	106.88
244.232	119.88
244.465	115.88
244.699	96.88
244.932	100.88
245.166	114.88
245.399	130.88
245.633	122.88
245.866	115.88
246.099	121.88
246.333	102.88
246.566	115.88
246.8	108.88
247.033	109.88
247.266	133.88
247.5	131.88
247.733	118.88
247.966	124.88
248.2	125.88
248.433	118.88
248.666	119.88
248.899	119.88
249.133	128.88
249.366	123.88
249.599	134.88
249.832	120.88
250.066	121.88
250.299	132.88
250.532	128.88
250.765	129.88
250.998	132.88
251.231	133.88
251.465	115.88
251.698	122.88
251.931	138.88
252.164	131.88
252.397	129.88
252.63	150.88
252.863	134.88
253.096	135.88
253.329	129.88
253.562	129.88
253.795	129.88
254.028	120.88
254.261	130.88
254.494	140.88
254.727	122.88
254.96	140.88
255.193	142.88
255.426	140.88
255.659	131.88
255.892	151.88
256.124	140.88
256.357	135.88
256.59	153.88
256.823	156.88
257.056	140.88
257.289	139.88
257.521	155.88
257.754	124.88
257.987	149.88
258.22	149.88
258.452	137.88
258.685	141.88
258.918	146.88
259.151	143.88
259.383	152.88
259.616	145.88
259.849	151.88
260.081	153.88
260.314	149.88
260.547	133.88
260.779	137.88
261.012	167.88
261.244	138.88
261.477	153.88
261.71	146.88
261.942	159.88
262.175	146.88
262.407	162.88
262.64	149.88
262.872	156.88
263.105	143.88
263.337	144.88
263.57	153.88
263.802	151.88
264.035	176.88
264.267	153.88
264.499	149.88
264.732	156.88
264.964	165.88
265.197	175.88
265.429	149.88
265.661	160.88
265.894	147.88
266.126	154.88
266.358	175.88
266.591	148.88
266.823	159.88
267.055	168.88
267.287	166.88
267.52	155.88
267.752	169.88
267.984	146.88
268.216	167.88
268.448	177.88
268.681	161.88
268.913	181.88
269.145	163.88
269.377	169.88
269.609	189.88
269.841	183.88
270.073	178.88
270.306	172.88
270.538	180.88
270.77	186.88
271.002	162.88
271.234	172.88
271.466	166.88
271.698	171.88
271.93	181.88
272.162	177.88
272.394	167.88
272.626	184.88
272.858	178.88
273.09	171.88
273.322	169.88
273.553	182.88
273.785	181.88
274.017	168.88
274.249	187.88
274.481	183.88
274.713	175.88
274.945	186.88
275.176	194.88
275.408	184.88
275.64	188.88
275.872	176.88
276.104	192.88
276.335	192.88
276.567	171.88
276.799	204.88
277.031	178.88
277.262	181.88
277.494	191.88
277.726	191.88
277.957	203.88
278.189	194.88
278.421	169.88
278.652	193.88
278.884	177.88
279.115	202.88
279.347	187.88
279.579	194.88
279.81	202.88
280.042	197.88
280.273	189.88
280.505	208.88
280.736	196.88
280.968	187.88
281.199	191.88
281.431	196.88
281.662	188.88
281.894	208.88
282.125	194.88
282.356	204.88
282.588	187.88
282.819	209.88
283.051	187.88
283.282	193.88
283.513	195.88
283.745	192.88
283.976	202.88
284.207	200.88
284.439	202.88
284.67	195.88
284.901	199.88
285.132	208.88
285.364	202.88
285.595	204.88
285.826	205.88
286.057	214.88
286.288	208.88
286.52	220.88
286.751	211.88
286.982	213.88
287.213	219.88
287.444	201.88
287.675	210.88
287.906	215.88
288.138	217.88
288.369	205.88
288.6	216.88
288.831	200.88
289.062	225.88
289.293	204.88
289.524	214.88
289.755	204.88
289.986	218.88
290.217	225.88
290.448	212.88
290.679	216.88
290.91	203.88
291.141	228.88
291.371	211.88
291.602	219.88
291.833	205.88
292.064	239.88
292.295	218.88
292.526	229.88
292.757	215.88
292.987	209.88
293.218	203.88
293.449	217.88
293.68	232.88
293.91	237.88
294.141	222.88
294.372	218.88
294.603	200.88
294.833	219.88
295.064	212.88
295.295	220.88
295.525	197.88
295.756	204.88
295.987	213.88
296.217	223.88
296.448	215.88
296.679	210.88
296.909	244.88
297.14	224.88
297.37	234.88
297.601	220.88
297.831	225.88
298.062	231.88
298.292	217.88
298.523	245.88
298.753	247.88
298.984	222.88
299.214	223.88
299.445	222.88
299.675	216.88
299.905	231.88
300.136	239.88
300.366	230.88
300.597	253.88
300.827	251.88
301.057	225.88
301.288	239.88
301.518	244.88
301.748	237.88
301.979	259.88
302.209	241.88
302.439	244.88
302.669	248.88
302.9	242.88
303.13	239.88
303.36	246.88
303.59	251.88
303.82	243.88
304.051	234.88
304.281	243.88
304.511	258.88
304.741	242.88
304.971	254.88
305.201	235.88
305.431	223.88
305.661	254.88
305.891	233.88
306.121	231.88
306.352	265.88
306.582	239.88
306.812	235.88
307.042	239.88
307.272	248.88
307.502	227.88
307.731	244.88
307.961	263.88
308.191	237.88
308.421	233.88
308.651	243.88
308.881	259.88
309.111	243.88
309.341	235.88
309.571	243.88
309.8	240.88
310.03	241.88
310.26	235.88
310.49	237.88
310.72	239.88
310.949	247.88
311.179	248.88
311.409	233.88
311.639	252.88
311.868	260.88
312.098	261.88
312.328	255.88
312.557	258.88
312.787	263.88
313.017	253.88
313.246	239.88
313.476	267.88
313.706	250.88
313.935	253.88
314.165	257.88
314.394	270.88
314.624	273.88
314.853	286.88
315.083	262.88
315.312	246.88
315.542	274.88
315.771	261.88
316.001	245.88
316.23	264.88
316.46	261.88
316.689	258.88
316.919	262.88
317.148	249.88
317.377	273.88
317.607	246.88
317.836	251.88
318.065	264.88
318.295	245.88
318.524	276.88
318.753	258.88
318.983	278.88
319.212	255.88
319.441	266.88
319.67	268.88
319.9	258.88
320.129	257.88
320.358	250.88
320.587	253.88
320.816	242.88
321.046	257.88
321.275	262.88
321.504	262.88
321.733	266.88
321.962	242.88
322.191	255.88
322.42	273.88
322.649	281.88
322.878	276.88
323.108	264.88
323.337	266.88
323.566	249.88
323.795	269.88
324.024	260.88
324.253	272.88
324.482	254.88
324.71	283.88
324.939	277.88
325.168	288.88
325.397	271.88
325.626	264.88
325.855	283.88
326.084	294.88
326.313	279.88
326.542	278.88
326.77	289.88
326.999	275.88
327.228	283.88
327.457	284.88
327.686	282.88
327.914	287.88
328.143	269.88
328.372	271.88
328.6	279.88
328.829	288.88
329.058	288.88
329.287	275.88
329.515	291.88
329.744	268.88
329.972	290.88
330.201	298.88
330.43	276.88
330.658	290.88
330.887	296.88
331.115	285.88
331.344	303.88
331.572	312.88
331.801	308.88
332.03	300.88
332.258	328.88
332.486	321.88
332.715	334.88
332.943	349.88
333.172	346.88
333.4	326.88
333.629	353.88
333.857	356.88
334.085	359.88
334.314	329.88
334.542	351.88
334.771	342.88
334.999	337.88
335.227	359.88
335.455	347.88
335.684	343.88
335.912	326.88
336.14	341.88
336.369	324.88
336.597	359.88
336.825	332.88
337.053	348.88
337.281	329.88
337.51	319.88
337.738	309.88
337.966	309.88
338.194	316.88
338.422	310.88
338.65	312.88
338.878	311.88
339.106	301.88
339.334	298.88
339.562	296.88
339.79	304.88
340.018	303.88
340.246	290.88
340.474	296.88
340.702	288.88
340.93	304.88
341.158	295.88
341.386	298.88
341.614	290.88
341.842	293.88
342.07	288.88
342.298	296.88
342.526	287.88
342.754	297.88
342.981	296.88
343.209	301.88
343.437	325.88
343.665	336.88
343.893	337.88
344.12	361.88
344.348	337.88
344.576	322.88
344.804	324.88
345.031	311.88
345.259	297.88
345.487	298.88
345.714	295.88
345.942	277.88
346.17	301.88
346.397	299.88
346.625	287.88
346.853	283.88
347.08	283.88
347.308	288.88
347.535	293.88
347.763	287.88
347.99	281.88
348.218	276.88
348.445	284.88
348.673	283.88
348.9	284.88
349.128	296.88
349.355	268.88
349.583	284.88
349.81	281.88
350.037	300.88
350.265	294.88
350.492	287.88
350.72	289.88
350.947	290.88
351.174	284.88
351.402	289.88
351.629	290.88
351.856	267.88
352.083	285.88
352.311	304.88
352.538	268.88
352.765	271.88
352.992	282.88
353.22	275.88
353.447	269.88
353.674	264.88
353.901	275.88
354.128	281.88
354.355	276.88
354.583	292.88
354.81	278.88
355.037	289.88
355.264	280.88
355.491	291.88
355.718	282.88
355.945	294.88
356.172	282.88
356.399	299.88
356.626	282.88
356.853	308.88
357.08	288.88
357.307	286.88
357.534	274.88
357.761	301.88
357.988	283.88
358.215	287.88
358.441	287.88
358.668	281.88
358.895	289.88
359.122	279.88
359.349	279.88
359.576	268.88
359.802	285.88
360.029	287.88
360.256	286.88
360.483	299.88
360.709	277.88
360.936	296.88
361.163	292.88
361.39	291.88
361.616	272.88
361.843	269.88
362.07	281.88
362.296	272.88
362.523	295.88
362.749	284.88
362.976	295.88
363.203	268.88
363.429	285.88
363.656	281.88
363.882	280.88
364.109	273.88
364.335	290.88
364.562	289.88
364.788	273.88
365.015	283.88
365.241	295.88
365.468	276.88
365.694	270.88
365.92	293.88
366.147	287.88
366.373	272.88
366.599	286.88
366.826	303.88
367.052	286.88
367.278	304.88
367.505	296.88
367.731	296.88
367.957	280.88
368.184	292.88
368.41	290.88
368.636	288.88
368.862	299.88
369.089	282.88
369.315	297.88
369.541	291.88
369.767	289.88
369.993	287.88
370.219	290.88
370.445	295.88
370.672	312.88
370.898	304.88
371.124	299.88
371.35	306.88
371.576	324.88
371.802	316.88
372.028	321.88
372.254	338.88
372.48	324.88
372.706	323.88
372.932	324.88
373.158	309.88
373.384	318.88
373.61	320.88
373.835	325.88
374.061	323.88
374.287	340.88
374.513	294.88
374.739	319.88
374.965	341.88
375.191	359.88
375.416	326.88
375.642	335.88
375.868	319.88
376.094	329.88
376.319	319.88
376.545	300.88
376.771	291.88
376.997	308.88
377.222	313.88
377.448	303.88
377.674	304.88
377.899	313.88
378.125	312.88
378.35	295.88
378.576	307.88
378.802	296.88
379.027	296.88
379.253	301.88
379.478	305.88
379.704	309.88
379.929	303.88
380.155	300.88
380.38	328.88
380.606	310.88
380.831	298.88
381.057	330.88
381.282	314.88
381.507	309.88
381.733	307.88
381.958	310.88
382.184	314.88
382.409	317.88
382.634	322.88
382.86	346.88
383.085	311.88
383.31	338.88
383.535	334.88
383.761	324.88
383.986	350.88
384.211	339.88
384.436	360.88
384.662	371.88
384.887	363.88
385.112	349.88
385.337	354.88
385.562	370.88
385.787	367.88
386.013	360.88
386.238	369.88
386.463	377.88
386.688	367.88
386.913	354.88
387.138	381.88
387.363	362.88
387.588	357.88
387.813	368.88
388.038	353.88
388.263	346.88
388.488	357.88
388.713	355.88
388.938	350.88
389.163	347.88
389.387	352.88
389.612	364.88
389.837	341.88
390.062	360.88
390.287	368.88
390.512	355.88
390.736	374.88
390.961	359.88
391.186	391.88
391.411	388.88
391.636	377.88
391.86	412.88
392.085	425.88
392.31	409.88
392.534	398.88
392.759	386.88
392.984	389.88
393.208	401.88
393.433	386.88
393.658	387.88
393.882	406.88
394.107	383.88
394.331	385.88
394.556	393.88
394.78	400.88
395.005	407.88
395.229	391.88
395.454	400.88
395.678	413.88
395.903	406.88
396.127	404.88
396.352	401.88
396.576	397.88
396.801	391.88
397.025	406.88
397.249	403.88
397.474	417.88
397.698	410.88
397.922	404.88
398.147	403.88
398.371	423.88
398.595	444.88
398.82	441.88
399.044	458.88
399.268	498.88
399.492	537.88
399.717	585.88
399.941	610.88
400.165	555.88
400.389	507.88
400.613	466.88
400.837	464.88
401.062	448.88
401.286	451.88
401.51	445.88
401.734	443.88
401.958	459.88
402.182	456.88
402.406	451.88
402.63	455.88
402.854	456.88
403.078	507.88
403.302	482.88
403.526	473.88
403.75	475.88
403.974	487.88
404.198	505.88
404.422	482.88
404.645	493.88
404.869	492.88
405.093	485.88
405.317	472.88
405.541	483.88
405.765	484.88
405.988	491.88
406.212	489.88
406.436	497.88
406.66	481.88
406.883	520.88
407.107	530.88
407.331	546.88
407.555	545.88
407.778	533.88
408.002	540.88
408.226	519.88
408.449	519.88
408.673	519.88
408.896	481.88
409.12	507.88
409.344	519.88
409.567	496.88
409.791	474.88
410.014	488.88
410.238	474.88
410.461	493.88
410.685	490.88
410.908	478.88
411.132	477.88
411.355	461.88
411.578	488.88
411.802	486.88
412.025	468.88
412.249	463.88
412.472	459.88
412.695	451.88
412.919	458.88
413.142	457.88
413.365	469.88
413.589	478.88
413.812	474.88
414.035	467.88
414.258	452.88
414.482	470.88
414.705	459.88
414.928	451.88
415.151	470.88
415.374	455.88
415.597	469.88
415.821	455.88
416.044	451.88
416.267	444.88
416.49	455.88
416.713	447.88
416.936	436.88
417.159	434.88
417.382	451.88
417.605	458.88
417.828	451.88
418.051	452.88
418.274	450.88
418.497	447.88
418.72	468.88
418.943	439.88
419.166	473.88
419.389	514.88
419.611	497.88
419.834	471.88
420.057	457.88
420.28	453.88
420.503	468.88
420.726	435.88
420.948	446.88
421.171	448.88
421.394	451.88
421.617	438.88
421.839	455.88
422.062	465.88
422.285	452.88
422.507	461.88
422.73	463.88
422.953	471.88
423.175	464.88
423.398	469.88
423.621	457.88
423.843	480.88
424.066	481.88
424.288	478.88
424.511	447.88
424.733	450.88
424.956	444.88
425.178	441.88
425.401	432.88
425.623	471.88
425.846	435.88
426.068	452.88
426.291	418.88
426.513	423.88
426.735	420.88
426.958	422.88
427.18	400.88
427.402	426.88
427.625	405.88
427.847	391.88
428.069	428.88
428.292	431.88
428.514	419.88
428.736	412.88
428.958	419.88
429.181	436.88
429.403	390.88
429.625	403.88
429.847	405.88
430.069	433.88
430.292	404.88
430.514	412.88
430.736	411.88
430.958	386.88
431.18	405.88
431.402	437.88
431.624	400.88
431.846	405.88
432.068	411.88
432.29	392.88
432.512	416.88
432.734	410.88
432.956	441.88
433.178	397.88
433.4	417.88
433.622	429.88
433.844	427.88
434.066	428.88
434.287	420.88
434.509	439.88
434.731	449.88
434.953	450.88
435.175	462.88
435.397	439.88
435.618	420.88
435.84	444.88
436.062	421.88
436.284	403.88
436.505	437.88
436.727	409.88
436.949	406.88
437.17	413.88
437.392	409.88
437.614	392.88
437.835	398.88
438.057	391.88
438.278	401.88
438.5	401.88
438.721	412.88
438.943	393.88
439.165	412.88
439.386	414.88
439.608	421.88
439.829	425.88
440.05	411.88
440.272	411.88
440.493	429.88
440.715	427.88
440.936	439.88
441.158	431.88
441.379	436.88
441.6	439.88
441.822	458.88
442.043	461.88
442.264	459.88
442.486	449.88
442.707	452.88
442.928	450.88
443.149	464.88
443.371	452.88
443.592	476.88
443.813	456.88
444.034	463.88
444.255	494.88
444.476	476.88
444.698	514.88
444.919	523.88
445.14	584.88
445.361	521.88
445.582	480.88
445.803	452.88
446.024	447.88
446.245	469.88
446.466	460.88
446.687	424.88
446.908	418.88
447.129	424.88
447.35	433.88
447.571	439.88
447.792	412.88
448.013	403.88
448.234	410.88
448.455	389.88
448.675	402.88
448.896	409.88
449.117	388.88
449.338	380.88
449.559	382.88
449.779	401.88
450	392.88
450.221	403.88
450.442	414.88
450.662	403.88
450.883	410.88
451.104	422.88
451.324	409.88
451.545	391.88
451.766	396.88
451.986	391.88
452.207	396.88
452.428	377.88
452.648	402.88
452.869	378.88
453.089	384.88
453.31	380.88
453.53	378.88
453.751	374.88
453.971	377.88
454.192	373.88
454.412	373.88
454.633	380.88
454.853	364.88
455.073	376.88
455.294	367.88
455.514	384.88
455.734	367.88
455.955	381.88
456.175	360.88
456.395	379.88
456.616	355.88
456.836	365.88
457.056	367.88
457.276	363.88
457.497	378.88
457.717	370.88
457.937	371.88
458.157	377.88
458.377	368.88
458.598	381.88
458.818	383.88
459.038	392.88
459.258	406.88
459.478	412.88
459.698	418.88
459.918	454.88
460.138	442.88
460.358	475.88
460.578	456.88
460.798	470.88
461.018	475.88
461.238	467.88
461.458	480.88
461.678	478.88
461.898	469.88
462.118	469.88
462.338	489.88
462.558	516.88
462.777	523.88
462.997	551.88
463.217	597.88
463.437	580.88
463.657	544.88
463.876	525.88
464.096	556.88
464.316	524.88
464.536	517.88
464.755	515.88
464.975	511.88
465.195	495.88
465.414	477.88
465.634	437.88
465.854	444.88
466.073	411.88
466.293	425.88
466.512	415.88
466.732	391.88
466.951	413.88
467.171	412.88
467.391	397.88
467.61	408.88
467.829	403.88
468.049	390.88
468.268	395.88
468.488	377.88
468.707	394.88
468.927	400.88
469.146	396.88
469.365	383.88
469.585	407.88
469.804	407.88
470.023	397.88
470.243	393.88
470.462	406.88
470.681	433.88
470.901	415.88
471.12	414.88
471.339	401.88
471.558	423.88
471.777	409.88
471.997	392.88
472.216	395.88
472.435	381.88
472.654	393.88
472.873	382.88
473.092	371.88
473.311	383.88
473.53	389.88
473.749	386.88
473.968	368.88
474.187	381.88
474.406	374.88
474.625	403.88
474.844	375.88
475.063	391.88
475.282	395.88
475.501	391.88
475.72	376.88
475.939	370.88
476.158	383.88
476.377	395.88
476.596	395.88
476.814	395.88
477.033	423.88
477.252	404.88
477.471	424.88
477.69	426.88
477.908	441.88
478.127	449.88
478.346	429.88
478.564	445.88
478.783	427.88
479.002	449.88
479.22	448.88
479.439	463.88
479.658	433.88
479.876	434.88
480.095	440.88
480.313	455.88
480.532	484.88
480.751	471.88
480.969	446.88
481.188	452.88
481.406	438.88
481.624	423.88
481.843	413.88
482.061	403.88
482.28	429.88
482.498	412.88
482.717	408.88
482.935	404.88
483.153	414.88
483.372	436.88
483.59	416.88
483.808	425.88
484.027	428.88
484.245	418.88
484.463	441.88
484.681	446.88
484.9	439.88
485.118	428.88
485.336	439.88
485.554	448.88
485.772	443.88
485.99	438.88
486.209	456.88
486.427	432.88
486.645	443.88
486.863	442.88
487.081	442.88
487.299	418.88
487.517	420.88
487.735	445.88
487.953	448.88
488.171	436.88
488.389	440.88
488.607	451.88
488.825	434.88
489.043	440.88
489.261	440.88
489.479	429.88
489.696	416.88
489.914	436.88
490.132	419.88
490.35	444.88
490.568	426.88
490.786	433.88
491.003	443.88
491.221	447.88
491.439	450.88
491.657	449.88
491.874	445.88
492.092	450.88
492.31	460.88
492.527	457.88
492.745	476.88
492.963	439.88
493.18	447.88
493.398	449.88
493.615	453.88
493.833	472.88
494.05	470.88
494.268	459.88
494.485	472.88
494.703	456.88
494.92	467.88
495.138	447.88
495.355	449.88
495.573	494.88
495.79	470.88
496.008	450.88
496.225	458.88
496.442	469.88
496.66	470.88
496.877	479.88
497.094	489.88
497.312	483.88
497.529	517.88
497.746	517.88
497.963	531.88
498.181	565.88
498.398	588.88
498.615	603.88
498.832	598.88
499.049	680.88
499.267	713.88
499.484	775.88
499.701	818.88
499.918	887.88
500.135	982.88
500.352	1081.88
500.569	1138.88
500.786	1124.88
501.003	1041.88
501.22	916.88
501.437	863.88
501.654	763.88
501.871	727.88
