Data from Fe(NO3)3@0.0125M.TitratingCurve.Agarose3%dH2O.NegLispCup.LampEnergy10.LIBS07252019_HRD10591_17-00-11-337.txt Node
Date: Thu Jul 25 17:00:11 EDT 2019
User: cochatt
Spectrometer: HR+D1059
Trigger mode: 1
Integration Time (sec): 1.000000E-1
Scans to average: 1
Electric dark correction enabled: true
Nonlinearity correction enabled: false
Boxcar width: 0
XAxis mode: Wavelengths
Number of Pixels in Spectrum: 2048
>>>>>Begin Spectral Data<<<<<
223.165	-11.62
223.4	-11.62
223.635	-11.62
223.869	-9.62
224.104	-14.62
224.338	-13.62
224.573	-19.62
224.808	-12.62
225.042	-14.62
225.277	-0.62
225.511	-7.62
225.746	6.38
225.98	6.38
226.215	7.38
226.449	9.38
226.683	7.38
226.918	34.38
227.152	33.38
227.387	21.38
227.621	33.38
227.856	40.38
228.09	47.38
228.324	54.38
228.559	32.38
228.793	60.38
229.027	67.38
229.262	68.38
229.496	81.38
229.73	69.38
229.964	79.38
230.199	79.38
230.433	87.38
230.667	86.38
230.901	99.38
231.136	82.38
231.37	87.38
231.604	83.38
231.838	103.38
232.072	95.38
232.306	95.38
232.541	104.38
232.775	92.38
233.009	100.38
233.243	105.38
233.477	106.38
233.711	89.38
233.945	101.38
234.179	95.38
234.413	102.38
234.647	106.38
234.881	109.38
235.115	110.38
235.349	88.38
235.583	100.38
235.817	86.38
236.051	97.38
236.285	95.38
236.519	84.38
236.753	93.38
236.987	109.38
237.221	115.38
237.455	100.38
237.689	100.38
237.922	106.38
238.156	112.38
238.39	106.38
238.624	128.38
238.858	120.38
239.091	85.38
239.325	108.38
239.559	112.38
239.793	111.38
240.027	115.38
240.26	106.38
240.494	108.38
240.728	116.38
240.961	120.38
241.195	108.38
241.429	109.38
241.662	122.38
241.896	118.38
242.13	116.38
242.363	105.38
242.597	110.38
242.83	111.38
243.064	97.38
243.298	106.38
243.531	96.38
243.765	103.38
243.998	112.38
244.232	116.38
244.465	117.38
244.699	109.38
244.932	119.38
245.166	110.38
245.399	110.38
245.633	122.38
245.866	120.38
246.099	109.38
246.333	122.38
246.566	126.38
246.8	127.38
247.033	117.38
247.266	111.38
247.5	100.38
247.733	121.38
247.966	129.38
248.2	126.38
248.433	110.38
248.666	126.38
248.899	119.38
249.133	119.38
249.366	139.38
249.599	141.38
249.832	137.38
250.066	135.38
250.299	125.38
250.532	126.38
250.765	137.38
250.998	128.38
251.231	135.38
251.465	131.38
251.698	130.38
251.931	131.38
252.164	142.38
252.397	137.38
252.63	134.38
252.863	137.38
253.096	152.38
253.329	129.38
253.562	142.38
253.795	131.38
254.028	149.38
254.261	153.38
254.494	155.38
254.727	146.38
254.96	144.38
255.193	148.38
255.426	134.38
255.659	147.38
255.892	145.38
256.124	142.38
256.357	149.38
256.59	137.38
256.823	152.38
257.056	151.38
257.289	150.38
257.521	156.38
257.754	153.38
257.987	150.38
258.22	150.38
258.452	142.38
258.685	155.38
258.918	157.38
259.151	143.38
259.383	140.38
259.616	146.38
259.849	174.38
260.081	166.38
260.314	190.38
260.547	157.38
260.779	180.38
261.012	163.38
261.244	176.38
261.477	180.38
261.71	162.38
261.942	148.38
262.175	169.38
262.407	166.38
262.64	165.38
262.872	176.38
263.105	157.38
263.337	164.38
263.57	167.38
263.802	152.38
264.035	142.38
264.267	164.38
264.499	151.38
264.732	159.38
264.964	160.38
265.197	155.38
265.429	168.38
265.661	169.38
265.894	167.38
266.126	169.38
266.358	164.38
266.591	168.38
266.823	178.38
267.055	166.38
267.287	167.38
267.52	183.38
267.752	169.38
267.984	176.38
268.216	171.38
268.448	182.38
268.681	184.38
268.913	174.38
269.145	166.38
269.377	175.38
269.609	180.38
269.841	162.38
270.073	166.38
270.306	177.38
270.538	181.38
270.77	175.38
271.002	190.38
271.234	172.38
271.466	177.38
271.698	183.38
271.93	185.38
272.162	179.38
272.394	199.38
272.626	190.38
272.858	194.38
273.09	198.38
273.322	179.38
273.553	187.38
273.785	213.38
274.017	203.38
274.249	217.38
274.481	224.38
274.713	198.38
274.945	223.38
275.176	217.38
275.408	218.38
275.64	208.38
275.872	229.38
276.104	213.38
276.335	209.38
276.567	208.38
276.799	198.38
277.031	206.38
277.262	208.38
277.494	215.38
277.726	213.38
277.957	197.38
278.189	216.38
278.421	208.38
278.652	194.38
278.884	222.38
279.115	216.38
279.347	213.38
279.579	201.38
279.81	219.38
280.042	209.38
280.273	226.38
280.505	207.38
280.736	212.38
280.968	212.38
281.199	213.38
281.431	214.38
281.662	202.38
281.894	197.38
282.125	207.38
282.356	222.38
282.588	229.38
282.819	209.38
283.051	223.38
283.282	236.38
283.513	219.38
283.745	233.38
283.976	233.38
284.207	230.38
284.439	229.38
284.67	226.38
284.901	230.38
285.132	231.38
285.364	234.38
285.595	229.38
285.826	238.38
286.057	246.38
286.288	240.38
286.52	237.38
286.751	226.38
286.982	240.38
287.213	236.38
287.444	250.38
287.675	248.38
287.906	232.38
288.138	223.38
288.369	230.38
288.6	228.38
288.831	241.38
289.062	252.38
289.293	226.38
289.524	242.38
289.755	238.38
289.986	256.38
290.217	253.38
290.448	236.38
290.679	241.38
290.91	231.38
291.141	248.38
291.371	240.38
291.602	250.38
291.833	260.38
292.064	256.38
292.295	229.38
292.526	231.38
292.757	252.38
292.987	231.38
293.218	246.38
293.449	252.38
293.68	250.38
293.91	249.38
294.141	249.38
294.372	249.38
294.603	256.38
294.833	263.38
295.064	252.38
295.295	235.38
295.525	273.38
295.756	271.38
295.987	259.38
296.217	267.38
296.448	254.38
296.679	252.38
296.909	260.38
297.14	252.38
297.37	256.38
297.601	262.38
297.831	264.38
298.062	268.38
298.292	258.38
298.523	275.38
298.753	281.38
298.984	257.38
299.214	257.38
299.445	236.38
299.675	291.38
299.905	262.38
300.136	270.38
300.366	272.38
300.597	271.38
300.827	280.38
301.057	268.38
301.288	279.38
301.518	280.38
301.748	294.38
301.979	294.38
302.209	276.38
302.439	280.38
302.669	260.38
302.9	278.38
303.13	289.38
303.36	280.38
303.59	284.38
303.82	279.38
304.051	287.38
304.281	295.38
304.511	279.38
304.741	294.38
304.971	270.38
305.201	276.38
305.431	290.38
305.661	287.38
305.891	300.38
306.121	280.38
306.352	289.38
306.582	287.38
306.812	296.38
307.042	298.38
307.272	273.38
307.502	320.38
307.731	295.38
307.961	291.38
308.191	286.38
308.421	282.38
308.651	296.38
308.881	287.38
309.111	291.38
309.341	312.38
309.571	284.38
309.8	296.38
310.03	312.38
310.26	300.38
310.49	307.38
310.72	304.38
310.949	306.38
311.179	288.38
311.409	308.38
311.639	294.38
311.868	306.38
312.098	310.38
312.328	338.38
312.557	314.38
312.787	312.38
313.017	321.38
313.246	312.38
313.476	312.38
313.706	315.38
313.935	324.38
314.165	327.38
314.394	323.38
314.624	307.38
314.853	309.38
315.083	306.38
315.312	323.38
315.542	323.38
315.771	317.38
316.001	310.38
316.23	328.38
316.46	321.38
316.689	327.38
316.919	304.38
317.148	314.38
317.377	321.38
317.607	342.38
317.836	319.38
318.065	344.38
318.295	336.38
318.524	339.38
318.753	347.38
318.983	322.38
319.212	321.38
319.441	335.38
319.67	329.38
319.9	320.38
320.129	341.38
320.358	333.38
320.587	330.38
320.816	337.38
321.046	318.38
321.275	343.38
321.504	332.38
321.733	322.38
321.962	342.38
322.191	345.38
322.42	333.38
322.649	339.38
322.878	336.38
323.108	307.38
323.337	323.38
323.566	340.38
323.795	333.38
324.024	360.38
324.253	372.38
324.482	353.38
324.71	343.38
324.939	340.38
325.168	362.38
325.397	349.38
325.626	341.38
325.855	346.38
326.084	327.38
326.313	360.38
326.542	341.38
326.77	334.38
326.999	364.38
327.228	341.38
327.457	352.38
327.686	344.38
327.914	353.38
328.143	359.38
328.372	361.38
328.6	348.38
328.829	346.38
329.058	354.38
329.287	373.38
329.515	362.38
329.744	354.38
329.972	358.38
330.201	361.38
330.43	369.38
330.658	367.38
330.887	373.38
331.115	379.38
331.344	373.38
331.572	405.38
331.801	363.38
332.03	373.38
332.258	374.38
332.486	398.38
332.715	382.38
332.943	391.38
333.172	392.38
333.4	380.38
333.629	390.38
333.857	392.38
334.085	375.38
334.314	390.38
334.542	394.38
334.771	413.38
334.999	397.38
335.227	397.38
335.455	391.38
335.684	409.38
335.912	409.38
336.14	418.38
336.369	424.38
336.597	410.38
336.825	379.38
337.053	407.38
337.281	408.38
337.51	385.38
337.738	400.38
337.966	407.38
338.194	402.38
338.422	404.38
338.65	408.38
338.878	399.38
339.106	384.38
339.334	380.38
339.562	391.38
339.79	407.38
340.018	415.38
340.246	406.38
340.474	393.38
340.702	390.38
340.93	391.38
341.158	382.38
341.386	404.38
341.614	394.38
341.842	401.38
342.07	404.38
342.298	397.38
342.526	403.38
342.754	405.38
342.981	404.38
343.209	390.38
343.437	399.38
343.665	392.38
343.893	388.38
344.12	424.38
344.348	418.38
344.576	402.38
344.804	400.38
345.031	403.38
345.259	386.38
345.487	400.38
345.714	394.38
345.942	400.38
346.17	382.38
346.397	382.38
346.625	397.38
346.853	376.38
347.08	403.38
347.308	393.38
347.535	376.38
347.763	403.38
347.99	399.38
348.218	416.38
348.445	400.38
348.673	375.38
348.9	374.38
349.128	371.38
349.355	392.38
349.583	382.38
349.81	387.38
350.037	380.38
350.265	378.38
350.492	388.38
350.72	381.38
350.947	380.38
351.174	394.38
351.402	380.38
351.629	384.38
351.856	393.38
352.083	394.38
352.311	373.38
352.538	380.38
352.765	388.38
352.992	394.38
353.22	386.38
353.447	394.38
353.674	397.38
353.901	397.38
354.128	402.38
354.355	408.38
354.583	399.38
354.81	380.38
355.037	392.38
355.264	385.38
355.491	386.38
355.718	402.38
355.945	404.38
356.172	364.38
356.399	395.38
356.626	393.38
356.853	387.38
357.08	379.38
357.307	401.38
357.534	376.38
357.761	385.38
357.988	400.38
358.215	410.38
358.441	412.38
358.668	394.38
358.895	390.38
359.122	402.38
359.349	388.38
359.576	394.38
359.802	390.38
360.029	387.38
360.256	392.38
360.483	389.38
360.709	409.38
360.936	417.38
361.163	409.38
361.39	406.38
361.616	384.38
361.843	393.38
362.07	414.38
362.296	400.38
362.523	404.38
362.749	409.38
362.976	410.38
363.203	405.38
363.429	408.38
363.656	399.38
363.882	399.38
364.109	390.38
364.335	408.38
364.562	398.38
364.788	400.38
365.015	398.38
365.241	383.38
365.468	399.38
365.694	378.38
365.92	398.38
366.147	405.38
366.373	411.38
366.599	405.38
366.826	421.38
367.052	400.38
367.278	418.38
367.505	384.38
367.731	399.38
367.957	391.38
368.184	422.38
368.41	437.38
368.636	420.38
368.862	424.38
369.089	410.38
369.315	407.38
369.541	420.38
369.767	426.38
369.993	421.38
370.219	414.38
370.445	425.38
370.672	421.38
370.898	419.38
371.124	418.38
371.35	423.38
371.576	413.38
371.802	412.38
372.028	420.38
372.254	452.38
372.48	425.38
372.706	439.38
372.932	433.38
373.158	438.38
373.384	452.38
373.61	446.38
373.835	428.38
374.061	436.38
374.287	432.38
374.513	447.38
374.739	455.38
374.965	459.38
375.191	457.38
375.416	456.38
375.642	424.38
375.868	439.38
376.094	445.38
376.319	440.38
376.545	438.38
376.771	441.38
376.997	421.38
377.222	428.38
377.448	437.38
377.674	444.38
377.899	423.38
378.125	424.38
378.35	437.38
378.576	423.38
378.802	447.38
379.027	395.38
379.253	451.38
379.478	416.38
379.704	423.38
379.929	430.38
380.155	430.38
380.38	427.38
380.606	453.38
380.831	416.38
381.057	452.38
381.282	440.38
381.507	451.38
381.733	453.38
381.958	446.38
382.184	450.38
382.409	462.38
382.634	459.38
382.86	458.38
383.085	457.38
383.31	462.38
383.535	458.38
383.761	441.38
383.986	483.38
384.211	460.38
384.436	468.38
384.662	458.38
384.887	474.38
385.112	462.38
385.337	486.38
385.562	465.38
385.787	459.38
386.013	510.38
386.238	486.38
386.463	479.38
386.688	471.38
386.913	467.38
387.138	470.38
387.363	483.38
387.588	470.38
387.813	459.38
388.038	495.38
388.263	503.38
388.488	509.38
388.713	485.38
388.938	501.38
389.163	489.38
389.387	498.38
389.612	469.38
389.837	499.38
390.062	488.38
390.287	474.38
390.512	483.38
390.736	501.38
390.961	506.38
391.186	490.38
391.411	515.38
391.636	511.38
391.86	521.38
392.085	508.38
392.31	514.38
392.534	528.38
392.759	516.38
392.984	517.38
393.208	533.38
393.433	542.38
393.658	565.38
393.882	544.38
394.107	522.38
394.331	513.38
394.556	487.38
394.78	520.38
395.005	504.38
395.229	504.38
395.454	526.38
395.678	534.38
395.903	525.38
396.127	509.38
396.352	524.38
396.576	517.38
396.801	544.38
397.025	569.38
397.249	561.38
397.474	555.38
397.698	540.38
397.922	565.38
398.147	539.38
398.371	548.38
398.595	550.38
398.82	565.38
399.044	565.38
399.268	582.38
399.492	610.38
399.717	622.38
399.941	613.38
400.165	632.38
400.389	608.38
400.613	592.38
400.837	586.38
401.062	583.38
401.286	583.38
401.51	588.38
401.734	579.38
401.958	573.38
402.182	575.38
402.406	539.38
402.63	541.38
402.854	548.38
403.078	564.38
403.302	590.38
403.526	564.38
403.75	571.38
403.974	589.38
404.198	585.38
404.422	591.38
404.645	590.38
404.869	586.38
405.093	567.38
405.317	552.38
405.541	577.38
405.765	575.38
405.988	579.38
406.212	595.38
406.436	605.38
406.66	626.38
406.883	607.38
407.107	622.38
407.331	648.38
407.555	625.38
407.778	636.38
408.002	626.38
408.226	617.38
408.449	603.38
408.673	620.38
408.896	623.38
409.12	610.38
409.344	605.38
409.567	594.38
409.791	618.38
410.014	604.38
410.238	605.38
410.461	608.38
410.685	585.38
410.908	593.38
411.132	581.38
411.355	586.38
411.578	581.38
411.802	593.38
412.025	567.38
412.249	584.38
412.472	571.38
412.695	584.38
412.919	551.38
413.142	579.38
413.365	579.38
413.589	597.38
413.812	589.38
414.035	576.38
414.258	588.38
414.482	556.38
414.705	583.38
414.928	580.38
415.151	565.38
415.374	561.38
415.597	585.38
415.821	556.38
416.044	565.38
416.267	560.38
416.49	559.38
416.713	553.38
416.936	567.38
417.159	548.38
417.382	555.38
417.605	543.38
417.828	550.38
418.051	566.38
418.274	545.38
418.497	551.38
418.72	562.38
418.943	553.38
419.166	564.38
419.389	588.38
419.611	609.38
419.834	563.38
420.057	515.38
420.28	546.38
420.503	548.38
420.726	562.38
420.948	544.38
421.171	540.38
421.394	532.38
421.617	548.38
421.839	535.38
422.062	568.38
422.285	522.38
422.507	566.38
422.73	543.38
422.953	556.38
423.175	546.38
423.398	560.38
423.621	538.38
423.843	539.38
424.066	530.38
424.288	529.38
424.511	567.38
424.733	576.38
424.956	548.38
425.178	538.38
425.401	551.38
425.623	541.38
425.846	544.38
426.068	529.38
426.291	544.38
426.513	537.38
426.735	531.38
426.958	538.38
427.18	540.38
427.402	537.38
427.625	545.38
427.847	537.38
428.069	534.38
428.292	534.38
428.514	537.38
428.736	553.38
428.958	521.38
429.181	532.38
429.403	523.38
429.625	535.38
429.847	540.38
430.069	548.38
430.292	550.38
430.514	528.38
430.736	528.38
430.958	521.38
431.18	533.38
431.402	550.38
431.624	528.38
431.846	534.38
432.068	534.38
432.29	538.38
432.512	520.38
432.734	542.38
432.956	557.38
433.178	524.38
433.4	546.38
433.622	561.38
433.844	552.38
434.066	543.38
434.287	562.38
434.509	530.38
434.731	551.38
434.953	581.38
435.175	536.38
435.397	573.38
435.618	566.38
435.84	537.38
436.062	523.38
436.284	534.38
436.505	507.38
436.727	536.38
436.949	521.38
437.17	528.38
437.392	532.38
437.614	524.38
437.835	517.38
438.057	536.38
438.278	518.38
438.5	517.38
438.721	530.38
438.943	545.38
439.165	538.38
439.386	538.38
439.608	529.38
439.829	517.38
440.05	517.38
440.272	517.38
440.493	538.38
440.715	541.38
440.936	532.38
441.158	525.38
441.379	531.38
441.6	532.38
441.822	522.38
442.043	552.38
442.264	537.38
442.486	522.38
442.707	541.38
442.928	538.38
443.149	552.38
443.371	537.38
443.592	549.38
443.813	550.38
444.034	541.38
444.255	553.38
444.476	545.38
444.698	556.38
444.919	561.38
445.14	626.38
445.361	594.38
445.582	544.38
445.803	518.38
446.024	552.38
446.245	536.38
446.466	525.38
446.687	524.38
446.908	549.38
447.129	524.38
447.35	528.38
447.571	547.38
447.792	512.38
448.013	526.38
448.234	501.38
448.455	497.38
448.675	516.38
448.896	517.38
449.117	498.38
449.338	488.38
449.559	503.38
449.779	504.38
450	498.38
450.221	513.38
450.442	512.38
450.662	506.38
450.883	481.38
451.104	499.38
451.324	484.38
451.545	487.38
451.766	490.38
451.986	488.38
452.207	512.38
452.428	493.38
452.648	498.38
452.869	495.38
453.089	470.38
453.31	509.38
453.53	508.38
453.751	485.38
453.971	501.38
454.192	507.38
454.412	497.38
454.633	484.38
454.853	487.38
455.073	484.38
455.294	488.38
455.514	484.38
455.734	485.38
455.955	486.38
456.175	493.38
456.395	466.38
456.616	484.38
456.836	492.38
457.056	485.38
457.276	496.38
457.497	504.38
457.717	501.38
457.937	487.38
458.157	524.38
458.377	501.38
458.598	526.38
458.818	540.38
459.038	533.38
459.258	520.38
459.478	527.38
459.698	536.38
459.918	546.38
460.138	544.38
460.358	532.38
460.578	530.38
460.798	564.38
461.018	556.38
461.238	565.38
461.458	569.38
461.678	564.38
461.898	591.38
462.118	574.38
462.338	579.38
462.558	590.38
462.777	592.38
462.997	627.38
463.217	616.38
463.437	622.38
463.657	617.38
463.876	594.38
464.096	610.38
464.316	598.38
464.536	593.38
464.755	606.38
464.975	560.38
465.195	600.38
465.414	591.38
465.634	575.38
465.854	571.38
466.073	571.38
466.293	553.38
466.512	562.38
466.732	540.38
466.951	540.38
467.171	530.38
467.391	537.38
467.61	534.38
467.829	548.38
468.049	537.38
468.268	533.38
468.488	557.38
468.707	534.38
468.927	549.38
469.146	557.38
469.365	549.38
469.585	543.38
469.804	560.38
470.023	522.38
470.243	551.38
470.462	550.38
470.681	514.38
470.901	544.38
471.12	558.38
471.339	549.38
471.558	547.38
471.777	536.38
471.997	535.38
472.216	560.38
472.435	548.38
472.654	563.38
472.873	545.38
473.092	551.38
473.311	567.38
473.53	547.38
473.749	543.38
473.968	564.38
474.187	544.38
474.406	553.38
474.625	552.38
474.844	543.38
475.063	531.38
475.282	533.38
475.501	559.38
475.72	579.38
475.939	547.38
476.158	568.38
476.377	571.38
476.596	586.38
476.814	576.38
477.033	590.38
477.252	576.38
477.471	612.38
477.69	602.38
477.908	608.38
478.127	613.38
478.346	628.38
478.564	609.38
478.783	620.38
479.002	648.38
479.22	627.38
479.439	642.38
479.658	632.38
479.876	645.38
480.095	653.38
480.313	605.38
480.532	626.38
480.751	650.38
480.969	650.38
481.188	649.38
481.406	644.38
481.624	638.38
481.843	627.38
482.061	643.38
482.28	658.38
482.498	655.38
482.717	634.38
482.935	628.38
483.153	650.38
483.372	666.38
483.59	643.38
483.808	617.38
484.027	640.38
484.245	664.38
484.463	656.38
484.681	673.38
484.9	682.38
485.118	656.38
485.336	654.38
485.554	679.38
485.772	651.38
485.99	654.38
486.209	656.38
486.427	672.38
486.645	662.38
486.863	642.38
487.081	665.38
487.299	665.38
487.517	671.38
487.735	660.38
487.953	691.38
488.171	686.38
488.389	687.38
488.607	674.38
488.825	664.38
489.043	673.38
489.261	673.38
489.479	654.38
489.696	676.38
489.914	678.38
490.132	681.38
490.35	671.38
490.568	696.38
490.786	674.38
491.003	654.38
491.221	714.38
491.439	676.38
491.657	688.38
491.874	690.38
492.092	683.38
492.31	692.38
492.527	713.38
492.745	697.38
492.963	687.38
493.18	705.38
493.398	703.38
493.615	710.38
493.833	701.38
494.05	696.38
494.268	728.38
494.485	704.38
494.703	698.38
494.92	725.38
495.138	708.38
495.355	736.38
495.573	713.38
495.79	714.38
496.008	729.38
496.225	729.38
496.442	733.38
496.66	734.38
496.877	766.38
497.094	776.38
497.312	776.38
497.529	775.38
497.746	776.38
497.963	803.38
498.181	804.38
498.398	829.38
498.615	823.38
498.832	838.38
499.049	841.38
499.267	889.38
499.484	912.38
499.701	936.38
499.918	927.38
500.135	980.38
500.352	987.38
500.569	981.38
500.786	983.38
501.003	977.38
501.22	951.38
501.437	908.38
501.654	910.38
501.871	916.38
