Data from Fe(NO3)3@0.1M.TitratingCurve.Agarose3%dH2O.NegLispCup.LampEnergy10.LIBS07252019_HRD10591_16-39-35-332.txt Node
Date: Thu Jul 25 16:39:35 EDT 2019
User: cochatt
Spectrometer: HR+D1059
Trigger mode: 1
Integration Time (sec): 1.000000E-1
Scans to average: 1
Electric dark correction enabled: true
Nonlinearity correction enabled: false
Boxcar width: 0
XAxis mode: Wavelengths
Number of Pixels in Spectrum: 2048
>>>>>Begin Spectral Data<<<<<
223.165	-1.19
223.4	-1.19
223.635	-1.19
223.869	-23.19
224.104	-28.19
224.338	-17.19
224.573	-29.19
224.808	-16.19
225.042	0.81
225.277	-13.19
225.511	-4.19
225.746	11.81
225.98	20.81
226.215	11.81
226.449	32.81
226.683	19.81
226.918	13.81
227.152	20.81
227.387	50.81
227.621	42.81
227.856	53.81
228.09	46.81
228.324	50.81
228.559	48.81
228.793	55.81
229.027	83.81
229.262	82.81
229.496	98.81
229.73	87.81
229.964	98.81
230.199	103.81
230.433	111.81
230.667	99.81
230.901	83.81
231.136	100.81
231.37	106.81
231.604	109.81
231.838	99.81
232.072	104.81
232.306	112.81
232.541	91.81
232.775	107.81
233.009	117.81
233.243	102.81
233.477	107.81
233.711	104.81
233.945	108.81
234.179	130.81
234.413	122.81
234.647	123.81
234.881	118.81
235.115	115.81
235.349	118.81
235.583	101.81
235.817	111.81
236.051	115.81
236.285	124.81
236.519	113.81
236.753	112.81
236.987	108.81
237.221	114.81
237.455	131.81
237.689	120.81
237.922	114.81
238.156	129.81
238.39	105.81
238.624	126.81
238.858	130.81
239.091	118.81
239.325	132.81
239.559	119.81
239.793	131.81
240.027	129.81
240.26	125.81
240.494	131.81
240.728	135.81
240.961	116.81
241.195	145.81
241.429	136.81
241.662	132.81
241.896	133.81
242.13	128.81
242.363	126.81
242.597	147.81
242.83	138.81
243.064	127.81
243.298	142.81
243.531	138.81
243.765	139.81
243.998	143.81
244.232	147.81
244.465	143.81
244.699	126.81
244.932	133.81
245.166	135.81
245.399	152.81
245.633	130.81
245.866	147.81
246.099	142.81
246.333	140.81
246.566	129.81
246.8	138.81
247.033	154.81
247.266	140.81
247.5	146.81
247.733	155.81
247.966	158.81
248.2	144.81
248.433	165.81
248.666	153.81
248.899	154.81
249.133	164.81
249.366	163.81
249.599	176.81
249.832	158.81
250.066	160.81
250.299	161.81
250.532	161.81
250.765	156.81
250.998	165.81
251.231	156.81
251.465	158.81
251.698	158.81
251.931	159.81
252.164	159.81
252.397	180.81
252.63	164.81
252.863	167.81
253.096	189.81
253.329	164.81
253.562	164.81
253.795	175.81
254.028	187.81
254.261	184.81
254.494	177.81
254.727	191.81
254.96	164.81
255.193	187.81
255.426	177.81
255.659	170.81
255.892	182.81
256.124	177.81
256.357	188.81
256.59	169.81
256.823	168.81
257.056	188.81
257.289	176.81
257.521	193.81
257.754	171.81
257.987	178.81
258.22	193.81
258.452	179.81
258.685	183.81
258.918	168.81
259.151	189.81
259.383	185.81
259.616	186.81
259.849	208.81
260.081	182.81
260.314	185.81
260.547	202.81
260.779	191.81
261.012	186.81
261.244	211.81
261.477	199.81
261.71	203.81
261.942	212.81
262.175	190.81
262.407	213.81
262.64	201.81
262.872	198.81
263.105	208.81
263.337	202.81
263.57	188.81
263.802	196.81
264.035	205.81
264.267	206.81
264.499	214.81
264.732	204.81
264.964	203.81
265.197	200.81
265.429	219.81
265.661	202.81
265.894	223.81
266.126	228.81
266.358	222.81
266.591	220.81
266.823	232.81
267.055	232.81
267.287	222.81
267.52	223.81
267.752	224.81
267.984	220.81
268.216	220.81
268.448	213.81
268.681	210.81
268.913	241.81
269.145	227.81
269.377	230.81
269.609	222.81
269.841	214.81
270.073	217.81
270.306	232.81
270.538	227.81
270.77	225.81
271.002	222.81
271.234	238.81
271.466	232.81
271.698	235.81
271.93	225.81
272.162	214.81
272.394	252.81
272.626	230.81
272.858	227.81
273.09	232.81
273.322	244.81
273.553	244.81
273.785	225.81
274.017	240.81
274.249	250.81
274.481	248.81
274.713	258.81
274.945	255.81
275.176	251.81
275.408	258.81
275.64	252.81
275.872	239.81
276.104	248.81
276.335	248.81
276.567	244.81
276.799	254.81
277.031	241.81
277.262	239.81
277.494	252.81
277.726	271.81
277.957	245.81
278.189	240.81
278.421	245.81
278.652	264.81
278.884	260.81
279.115	259.81
279.347	259.81
279.579	270.81
279.81	260.81
280.042	266.81
280.273	259.81
280.505	258.81
280.736	258.81
280.968	289.81
281.199	259.81
281.431	272.81
281.662	272.81
281.894	262.81
282.125	280.81
282.356	258.81
282.588	266.81
282.819	268.81
283.051	280.81
283.282	275.81
283.513	270.81
283.745	266.81
283.976	284.81
284.207	278.81
284.439	283.81
284.67	278.81
284.901	282.81
285.132	296.81
285.364	276.81
285.595	273.81
285.826	266.81
286.057	276.81
286.288	266.81
286.52	279.81
286.751	285.81
286.982	290.81
287.213	287.81
287.444	279.81
287.675	283.81
287.906	283.81
288.138	286.81
288.369	299.81
288.6	289.81
288.831	293.81
289.062	281.81
289.293	298.81
289.524	295.81
289.755	299.81
289.986	276.81
290.217	272.81
290.448	299.81
290.679	294.81
290.91	301.81
291.141	305.81
291.371	287.81
291.602	296.81
291.833	288.81
292.064	272.81
292.295	292.81
292.526	291.81
292.757	301.81
292.987	290.81
293.218	287.81
293.449	308.81
293.68	298.81
293.91	306.81
294.141	310.81
294.372	297.81
294.603	298.81
294.833	298.81
295.064	302.81
295.295	303.81
295.525	310.81
295.756	307.81
295.987	294.81
296.217	322.81
296.448	297.81
296.679	315.81
296.909	310.81
297.14	329.81
297.37	303.81
297.601	315.81
297.831	330.81
298.062	331.81
298.292	315.81
298.523	325.81
298.753	326.81
298.984	337.81
299.214	320.81
299.445	306.81
299.675	324.81
299.905	326.81
300.136	326.81
300.366	326.81
300.597	330.81
300.827	322.81
301.057	315.81
301.288	329.81
301.518	329.81
301.748	349.81
301.979	344.81
302.209	338.81
302.439	334.81
302.669	327.81
302.9	322.81
303.13	330.81
303.36	324.81
303.59	344.81
303.82	332.81
304.051	337.81
304.281	339.81
304.511	327.81
304.741	316.81
304.971	336.81
305.201	353.81
305.431	318.81
305.661	325.81
305.891	326.81
306.121	336.81
306.352	329.81
306.582	327.81
306.812	323.81
307.042	341.81
307.272	321.81
307.502	322.81
307.731	314.81
307.961	324.81
308.191	352.81
308.421	321.81
308.651	324.81
308.881	326.81
309.111	332.81
309.341	333.81
309.571	320.81
309.8	310.81
310.03	320.81
310.26	320.81
310.49	325.81
310.72	328.81
310.949	326.81
311.179	321.81
311.409	331.81
311.639	337.81
311.868	352.81
312.098	343.81
312.328	339.81
312.557	337.81
312.787	334.81
313.017	332.81
313.246	346.81
313.476	344.81
313.706	332.81
313.935	369.81
314.165	359.81
314.394	362.81
314.624	341.81
314.853	330.81
315.083	343.81
315.312	370.81
315.542	347.81
315.771	361.81
316.001	360.81
316.23	357.81
316.46	364.81
316.689	342.81
316.919	345.81
317.148	350.81
317.377	364.81
317.607	353.81
317.836	367.81
318.065	345.81
318.295	352.81
318.524	340.81
318.753	341.81
318.983	352.81
319.212	353.81
319.441	332.81
319.67	350.81
319.9	336.81
320.129	346.81
320.358	351.81
320.587	361.81
320.816	331.81
321.046	344.81
321.275	343.81
321.504	332.81
321.733	344.81
321.962	350.81
322.191	348.81
322.42	355.81
322.649	349.81
322.878	355.81
323.108	350.81
323.337	344.81
323.566	356.81
323.795	368.81
324.024	374.81
324.253	371.81
324.482	379.81
324.71	377.81
324.939	362.81
325.168	376.81
325.397	370.81
325.626	369.81
325.855	383.81
326.084	396.81
326.313	379.81
326.542	380.81
326.77	370.81
326.999	397.81
327.228	371.81
327.457	375.81
327.686	390.81
327.914	384.81
328.143	372.81
328.372	379.81
328.6	377.81
328.829	375.81
329.058	382.81
329.287	385.81
329.515	393.81
329.744	401.81
329.972	380.81
330.201	404.81
330.43	386.81
330.658	404.81
330.887	406.81
331.115	400.81
331.344	401.81
331.572	410.81
331.801	400.81
332.03	404.81
332.258	400.81
332.486	432.81
332.715	451.81
332.943	445.81
333.172	452.81
333.4	474.81
333.629	477.81
333.857	509.81
334.085	476.81
334.314	472.81
334.542	459.81
334.771	451.81
334.999	473.81
335.227	474.81
335.455	481.81
335.684	467.81
335.912	461.81
336.14	475.81
336.369	440.81
336.597	457.81
336.825	468.81
337.053	446.81
337.281	442.81
337.51	451.81
337.738	432.81
337.966	440.81
338.194	417.81
338.422	412.81
338.65	416.81
338.878	398.81
339.106	427.81
339.334	411.81
339.562	408.81
339.79	399.81
340.018	406.81
340.246	413.81
340.474	388.81
340.702	404.81
340.93	412.81
341.158	410.81
341.386	402.81
341.614	402.81
341.842	409.81
342.07	400.81
342.298	425.81
342.526	400.81
342.754	390.81
342.981	392.81
343.209	396.81
343.437	396.81
343.665	444.81
343.893	433.81
344.12	493.81
344.348	454.81
344.576	434.81
344.804	435.81
345.031	441.81
345.259	418.81
345.487	401.81
345.714	399.81
345.942	376.81
346.17	405.81
346.397	396.81
346.625	388.81
346.853	379.81
347.08	376.81
347.308	396.81
347.535	392.81
347.763	374.81
347.99	384.81
348.218	393.81
348.445	389.81
348.673	369.81
348.9	398.81
349.128	394.81
349.355	381.81
349.583	378.81
349.81	392.81
350.037	385.81
350.265	371.81
350.492	352.81
350.72	375.81
350.947	360.81
351.174	386.81
351.402	373.81
351.629	371.81
351.856	380.81
352.083	376.81
352.311	381.81
352.538	362.81
352.765	377.81
352.992	363.81
353.22	342.81
353.447	381.81
353.674	366.81
353.901	390.81
354.128	369.81
354.355	369.81
354.583	372.81
354.81	389.81
355.037	372.81
355.264	404.81
355.491	366.81
355.718	375.81
355.945	394.81
356.172	405.81
356.399	403.81
356.626	393.81
356.853	381.81
357.08	396.81
357.307	387.81
357.534	387.81
357.761	374.81
357.988	397.81
358.215	372.81
358.441	365.81
358.668	394.81
358.895	396.81
359.122	370.81
359.349	360.81
359.576	390.81
359.802	364.81
360.029	364.81
360.256	372.81
360.483	386.81
360.709	354.81
360.936	388.81
361.163	393.81
361.39	387.81
361.616	377.81
361.843	394.81
362.07	382.81
362.296	367.81
362.523	377.81
362.749	383.81
362.976	386.81
363.203	387.81
363.429	387.81
363.656	390.81
363.882	382.81
364.109	392.81
364.335	384.81
364.562	399.81
364.788	374.81
365.015	374.81
365.241	387.81
365.468	400.81
365.694	393.81
365.92	393.81
366.147	398.81
366.373	386.81
366.599	380.81
366.826	396.81
367.052	391.81
367.278	390.81
367.505	384.81
367.731	383.81
367.957	383.81
368.184	392.81
368.41	386.81
368.636	391.81
368.862	388.81
369.089	389.81
369.315	418.81
369.541	392.81
369.767	405.81
369.993	418.81
370.219	402.81
370.445	412.81
370.672	396.81
370.898	393.81
371.124	411.81
371.35	431.81
371.576	434.81
371.802	396.81
372.028	414.81
372.254	439.81
372.48	404.81
372.706	440.81
372.932	427.81
373.158	418.81
373.384	424.81
373.61	426.81
373.835	412.81
374.061	439.81
374.287	419.81
374.513	449.81
374.739	451.81
374.965	456.81
375.191	456.81
375.416	443.81
375.642	468.81
375.868	427.81
376.094	446.81
376.319	438.81
376.545	439.81
376.771	433.81
376.997	417.81
377.222	421.81
377.448	422.81
377.674	430.81
377.899	435.81
378.125	409.81
378.35	426.81
378.576	405.81
378.802	407.81
379.027	417.81
379.253	427.81
379.478	403.81
379.704	426.81
379.929	444.81
380.155	433.81
380.38	409.81
380.606	436.81
380.831	427.81
381.057	415.81
381.282	427.81
381.507	419.81
381.733	439.81
381.958	412.81
382.184	420.81
382.409	418.81
382.634	417.81
382.86	437.81
383.085	420.81
383.31	428.81
383.535	455.81
383.761	439.81
383.986	472.81
384.211	460.81
384.436	472.81
384.662	472.81
384.887	507.81
385.112	484.81
385.337	494.81
385.562	482.81
385.787	504.81
386.013	494.81
386.238	492.81
386.463	490.81
386.688	482.81
386.913	487.81
387.138	504.81
387.363	518.81
387.588	489.81
387.813	508.81
388.038	504.81
388.263	509.81
388.488	480.81
388.713	509.81
388.938	514.81
389.163	487.81
389.387	510.81
389.612	499.81
389.837	502.81
390.062	498.81
390.287	508.81
390.512	499.81
390.736	524.81
390.961	508.81
391.186	516.81
391.411	506.81
391.636	551.81
391.86	566.81
392.085	538.81
392.31	553.81
392.534	554.81
392.759	555.81
392.984	535.81
393.208	524.81
393.433	538.81
393.658	539.81
393.882	533.81
394.107	531.81
394.331	528.81
394.556	524.81
394.78	531.81
395.005	553.81
395.229	544.81
395.454	559.81
395.678	552.81
395.903	552.81
396.127	563.81
396.352	547.81
396.576	536.81
396.801	552.81
397.025	564.81
397.249	552.81
397.474	592.81
397.698	556.81
397.922	559.81
398.147	587.81
398.371	586.81
398.595	591.81
398.82	630.81
399.044	648.81
399.268	678.81
399.492	776.81
399.717	835.81
399.941	808.81
400.165	766.81
400.389	724.81
400.613	683.81
400.837	635.81
401.062	622.81
401.286	635.81
401.51	603.81
401.734	628.81
401.958	624.81
402.182	637.81
402.406	640.81
402.63	650.81
402.854	630.81
403.078	640.81
403.302	635.81
403.526	652.81
403.75	676.81
403.974	665.81
404.198	656.81
404.422	679.81
404.645	679.81
404.869	666.81
405.093	672.81
405.317	638.81
405.541	694.81
405.765	664.81
405.988	656.81
406.212	661.81
406.436	665.81
406.66	715.81
406.883	701.81
407.107	735.81
407.331	757.81
407.555	771.81
407.778	767.81
408.002	753.81
408.226	737.81
408.449	743.81
408.673	713.81
408.896	718.81
409.12	717.81
409.344	694.81
409.567	696.81
409.791	704.81
410.014	728.81
410.238	697.81
410.461	711.81
410.685	679.81
410.908	696.81
411.132	679.81
411.355	665.81
411.578	658.81
411.802	629.81
412.025	642.81
412.249	666.81
412.472	661.81
412.695	672.81
412.919	633.81
413.142	659.81
413.365	642.81
413.589	661.81
413.812	627.81
414.035	632.81
414.258	638.81
414.482	631.81
414.705	636.81
414.928	647.81
415.151	638.81
415.374	628.81
415.597	654.81
415.821	635.81
416.044	627.81
416.267	617.81
416.49	610.81
416.713	613.81
416.936	627.81
417.159	624.81
417.382	623.81
417.605	603.81
417.828	595.81
418.051	636.81
418.274	609.81
418.497	626.81
418.72	613.81
418.943	626.81
419.166	674.81
419.389	694.81
419.611	704.81
419.834	674.81
420.057	634.81
420.28	636.81
420.503	607.81
420.726	635.81
420.948	614.81
421.171	626.81
421.394	626.81
421.617	619.81
421.839	644.81
422.062	607.81
422.285	640.81
422.507	633.81
422.73	622.81
422.953	630.81
423.175	640.81
423.398	644.81
423.621	624.81
423.843	642.81
424.066	635.81
424.288	635.81
424.511	627.81
424.733	632.81
424.956	628.81
425.178	607.81
425.401	631.81
425.623	635.81
425.846	596.81
426.068	590.81
426.291	585.81
426.513	591.81
426.735	599.81
426.958	596.81
427.18	590.81
427.402	590.81
427.625	590.81
427.847	578.81
428.069	574.81
428.292	577.81
428.514	566.81
428.736	577.81
428.958	594.81
429.181	544.81
429.403	564.81
429.625	566.81
429.847	577.81
430.069	552.81
430.292	560.81
430.514	542.81
430.736	567.81
430.958	551.81
431.18	572.81
431.402	572.81
431.624	561.81
431.846	572.81
432.068	588.81
432.29	582.81
432.512	588.81
432.734	589.81
432.956	566.81
433.178	584.81
433.4	598.81
433.622	587.81
433.844	568.81
434.066	587.81
434.287	597.81
434.509	597.81
434.731	628.81
434.953	630.81
435.175	638.81
435.397	639.81
435.618	623.81
435.84	579.81
436.062	584.81
436.284	587.81
436.505	579.81
436.727	574.81
436.949	588.81
437.17	565.81
437.392	576.81
437.614	568.81
437.835	544.81
438.057	562.81
438.278	554.81
438.5	546.81
438.721	567.81
438.943	564.81
439.165	553.81
439.386	573.81
439.608	611.81
439.829	569.81
440.05	563.81
440.272	570.81
440.493	606.81
440.715	613.81
440.936	608.81
441.158	588.81
441.379	596.81
441.6	598.81
441.822	632.81
442.043	639.81
442.264	640.81
442.486	609.81
442.707	608.81
442.928	609.81
443.149	617.81
443.371	632.81
443.592	623.81
443.813	621.81
444.034	639.81
444.255	651.81
444.476	652.81
444.698	705.81
444.919	702.81
445.14	762.81
445.361	673.81
445.582	634.81
445.803	620.81
446.024	594.81
446.245	612.81
446.466	582.81
446.687	567.81
446.908	600.81
447.129	587.81
447.35	583.81
447.571	578.81
447.792	566.81
448.013	567.81
448.234	557.81
448.455	547.81
448.675	546.81
448.896	554.81
449.117	547.81
449.338	554.81
449.559	550.81
449.779	512.81
450	540.81
450.221	559.81
450.442	555.81
450.662	536.81
450.883	560.81
451.104	553.81
451.324	544.81
451.545	523.81
451.766	550.81
451.986	523.81
452.207	552.81
452.428	523.81
452.648	533.81
452.869	530.81
453.089	512.81
453.31	527.81
453.53	508.81
453.751	498.81
453.971	531.81
454.192	530.81
454.412	502.81
454.633	488.81
454.853	475.81
455.073	511.81
455.294	499.81
455.514	507.81
455.734	476.81
455.955	502.81
456.175	531.81
456.395	488.81
456.616	490.81
456.836	501.81
457.056	518.81
457.276	497.81
457.497	481.81
457.717	495.81
457.937	512.81
458.157	525.81
458.377	522.81
458.598	528.81
458.818	538.81
459.038	539.81
459.258	557.81
459.478	574.81
459.698	581.81
459.918	569.81
460.138	634.81
460.358	614.81
460.578	630.81
460.798	646.81
461.018	655.81
461.238	644.81
461.458	644.81
461.678	646.81
461.898	655.81
462.118	649.81
462.338	708.81
462.558	704.81
462.777	747.81
462.997	755.81
463.217	801.81
463.437	781.81
463.657	759.81
463.876	766.81
464.096	746.81
464.316	724.81
464.536	729.81
464.755	715.81
464.975	714.81
465.195	662.81
465.414	662.81
465.634	612.81
465.854	611.81
466.073	591.81
466.293	582.81
466.512	590.81
466.732	566.81
466.951	594.81
467.171	569.81
467.391	558.81
467.61	555.81
467.829	553.81
468.049	549.81
468.268	550.81
468.488	541.81
468.707	559.81
468.927	534.81
469.146	531.81
469.365	531.81
469.585	529.81
469.804	544.81
470.023	551.81
470.243	555.81
470.462	578.81
470.681	552.81
470.901	546.81
471.12	554.81
471.339	549.81
471.558	539.81
471.777	577.81
471.997	534.81
472.216	510.81
472.435	516.81
472.654	499.81
472.873	495.81
473.092	528.81
473.311	541.81
473.53	525.81
473.749	508.81
473.968	531.81
474.187	522.81
474.406	522.81
474.625	546.81
474.844	500.81
475.063	511.81
475.282	525.81
475.501	523.81
475.72	530.81
475.939	542.81
476.158	520.81
476.377	559.81
476.596	535.81
476.814	540.81
477.033	556.81
477.252	547.81
477.471	564.81
477.69	574.81
477.908	614.81
478.127	610.81
478.346	594.81
478.564	598.81
478.783	606.81
479.002	629.81
479.22	608.81
479.439	631.81
479.658	630.81
479.876	614.81
480.095	630.81
480.313	633.81
480.532	637.81
480.751	637.81
480.969	601.81
481.188	620.81
481.406	623.81
481.624	611.81
481.843	605.81
482.061	587.81
482.28	624.81
482.498	570.81
482.717	596.81
482.935	582.81
483.153	579.81
483.372	579.81
483.59	594.81
483.808	600.81
484.027	592.81
484.245	580.81
484.463	609.81
484.681	600.81
484.9	611.81
485.118	607.81
485.336	618.81
485.554	616.81
485.772	627.81
485.99	617.81
486.209	598.81
486.427	609.81
486.645	638.81
486.863	608.81
487.081	596.81
487.299	608.81
487.517	604.81
487.735	616.81
487.953	604.81
488.171	612.81
488.389	610.81
488.607	597.81
488.825	593.81
489.043	585.81
489.261	598.81
489.479	579.81
489.696	604.81
489.914	611.81
490.132	604.81
490.35	613.81
490.568	606.81
490.786	611.81
491.003	590.81
491.221	608.81
491.439	608.81
491.657	621.81
491.874	625.81
492.092	603.81
492.31	636.81
492.527	615.81
492.745	642.81
492.963	631.81
493.18	664.81
493.398	633.81
493.615	648.81
493.833	650.81
494.05	657.81
494.268	638.81
494.485	660.81
494.703	640.81
494.92	663.81
495.138	645.81
495.355	633.81
495.573	643.81
495.79	659.81
496.008	657.81
496.225	674.81
496.442	682.81
496.66	662.81
496.877	681.81
497.094	730.81
497.312	703.81
497.529	730.81
497.746	722.81
497.963	742.81
498.181	761.81
498.398	803.81
498.615	833.81
498.832	908.81
499.049	946.81
499.267	985.81
499.484	1099.81
499.701	1158.81
499.918	1227.81
500.135	1356.81
500.352	1460.81
500.569	1530.81
500.786	1549.81
501.003	1462.81
501.22	1375.81
501.437	1214.81
501.654	1128.81
