Data from Fe(NO3)3@0.05M.TitratingCurve.Agarose3%dH2O.NegLispCup.LampEnergy10.LIBS07252019_HRD10591_16-47-18-334.txt Node
Date: Thu Jul 25 16:47:18 EDT 2019
User: cochatt
Spectrometer: HR+D1059
Trigger mode: 1
Integration Time (sec): 1.000000E-1
Scans to average: 1
Electric dark correction enabled: true
Nonlinearity correction enabled: false
Boxcar width: 0
XAxis mode: Wavelengths
Number of Pixels in Spectrum: 2048
>>>>>Begin Spectral Data<<<<<
223.165	-18.81
223.4	-18.81
223.635	-18.81
223.869	-7.81
224.104	-16.81
224.338	-11.81
224.573	-13.81
224.808	-9.81
225.042	-10.81
225.277	-14.81
225.511	-1.81
225.746	5.19
225.98	-4.81
226.215	16.19
226.449	15.19
226.683	33.19
226.918	20.19
227.152	21.19
227.387	31.19
227.621	45.19
227.856	44.19
228.09	50.19
228.324	64.19
228.559	52.19
228.793	51.19
229.027	87.19
229.262	98.19
229.496	92.19
229.73	97.19
229.964	87.19
230.199	102.19
230.433	99.19
230.667	117.19
230.901	106.19
231.136	114.19
231.37	93.19
231.604	109.19
231.838	108.19
232.072	105.19
232.306	113.19
232.541	104.19
232.775	106.19
233.009	115.19
233.243	129.19
233.477	131.19
233.711	122.19
233.945	122.19
234.179	133.19
234.413	124.19
234.647	124.19
234.881	121.19
235.115	130.19
235.349	121.19
235.583	121.19
235.817	119.19
236.051	134.19
236.285	118.19
236.519	128.19
236.753	109.19
236.987	121.19
237.221	115.19
237.455	130.19
237.689	118.19
237.922	136.19
238.156	126.19
238.39	117.19
238.624	135.19
238.858	133.19
239.091	123.19
239.325	122.19
239.559	131.19
239.793	138.19
240.027	147.19
240.26	148.19
240.494	134.19
240.728	148.19
240.961	143.19
241.195	136.19
241.429	134.19
241.662	127.19
241.896	150.19
242.13	135.19
242.363	146.19
242.597	132.19
242.83	134.19
243.064	136.19
243.298	148.19
243.531	134.19
243.765	145.19
243.998	134.19
244.232	130.19
244.465	140.19
244.699	142.19
244.932	151.19
245.166	163.19
245.399	149.19
245.633	147.19
245.866	145.19
246.099	157.19
246.333	160.19
246.566	163.19
246.8	151.19
247.033	148.19
247.266	151.19
247.5	164.19
247.733	173.19
247.966	149.19
248.2	157.19
248.433	158.19
248.666	172.19
248.899	152.19
249.133	161.19
249.366	166.19
249.599	153.19
249.832	162.19
250.066	168.19
250.299	175.19
250.532	164.19
250.765	170.19
250.998	168.19
251.231	182.19
251.465	182.19
251.698	189.19
251.931	176.19
252.164	158.19
252.397	171.19
252.63	165.19
252.863	190.19
253.096	172.19
253.329	190.19
253.562	168.19
253.795	178.19
254.028	175.19
254.261	165.19
254.494	179.19
254.727	188.19
254.96	187.19
255.193	194.19
255.426	209.19
255.659	188.19
255.892	194.19
256.124	180.19
256.357	189.19
256.59	200.19
256.823	188.19
257.056	172.19
257.289	189.19
257.521	182.19
257.754	183.19
257.987	183.19
258.22	186.19
258.452	188.19
258.685	196.19
258.918	192.19
259.151	216.19
259.383	186.19
259.616	189.19
259.849	214.19
260.081	211.19
260.314	235.19
260.547	203.19
260.779	205.19
261.012	208.19
261.244	224.19
261.477	211.19
261.71	211.19
261.942	207.19
262.175	207.19
262.407	199.19
262.64	212.19
262.872	199.19
263.105	212.19
263.337	212.19
263.57	211.19
263.802	199.19
264.035	211.19
264.267	207.19
264.499	205.19
264.732	199.19
264.964	214.19
265.197	204.19
265.429	199.19
265.661	222.19
265.894	207.19
266.126	226.19
266.358	209.19
266.591	238.19
266.823	202.19
267.055	227.19
267.287	208.19
267.52	214.19
267.752	228.19
267.984	217.19
268.216	227.19
268.448	233.19
268.681	221.19
268.913	222.19
269.145	215.19
269.377	217.19
269.609	228.19
269.841	233.19
270.073	229.19
270.306	236.19
270.538	223.19
270.77	227.19
271.002	227.19
271.234	227.19
271.466	238.19
271.698	237.19
271.93	239.19
272.162	230.19
272.394	243.19
272.626	238.19
272.858	236.19
273.09	239.19
273.322	245.19
273.553	269.19
273.785	260.19
274.017	248.19
274.249	253.19
274.481	258.19
274.713	271.19
274.945	287.19
275.176	279.19
275.408	248.19
275.64	259.19
275.872	272.19
276.104	257.19
276.335	270.19
276.567	275.19
276.799	275.19
277.031	247.19
277.262	263.19
277.494	253.19
277.726	263.19
277.957	272.19
278.189	265.19
278.421	260.19
278.652	246.19
278.884	273.19
279.115	264.19
279.347	272.19
279.579	264.19
279.81	272.19
280.042	273.19
280.273	250.19
280.505	267.19
280.736	274.19
280.968	272.19
281.199	268.19
281.431	255.19
281.662	272.19
281.894	279.19
282.125	281.19
282.356	285.19
282.588	272.19
282.819	291.19
283.051	251.19
283.282	281.19
283.513	287.19
283.745	262.19
283.976	284.19
284.207	276.19
284.439	279.19
284.67	299.19
284.901	292.19
285.132	296.19
285.364	292.19
285.595	273.19
285.826	278.19
286.057	276.19
286.288	291.19
286.52	291.19
286.751	286.19
286.982	293.19
287.213	291.19
287.444	303.19
287.675	307.19
287.906	299.19
288.138	298.19
288.369	295.19
288.6	298.19
288.831	296.19
289.062	303.19
289.293	308.19
289.524	299.19
289.755	286.19
289.986	321.19
290.217	295.19
290.448	323.19
290.679	313.19
290.91	307.19
291.141	314.19
291.371	307.19
291.602	283.19
291.833	286.19
292.064	311.19
292.295	299.19
292.526	300.19
292.757	309.19
292.987	312.19
293.218	295.19
293.449	308.19
293.68	317.19
293.91	304.19
294.141	304.19
294.372	305.19
294.603	302.19
294.833	304.19
295.064	326.19
295.295	308.19
295.525	299.19
295.756	319.19
295.987	301.19
296.217	322.19
296.448	303.19
296.679	314.19
296.909	323.19
297.14	331.19
297.37	302.19
297.601	316.19
297.831	318.19
298.062	333.19
298.292	341.19
298.523	332.19
298.753	330.19
298.984	334.19
299.214	328.19
299.445	331.19
299.675	329.19
299.905	347.19
300.136	332.19
300.366	327.19
300.597	335.19
300.827	340.19
301.057	341.19
301.288	343.19
301.518	329.19
301.748	347.19
301.979	351.19
302.209	344.19
302.439	351.19
302.669	348.19
302.9	342.19
303.13	335.19
303.36	330.19
303.59	345.19
303.82	336.19
304.051	348.19
304.281	328.19
304.511	353.19
304.741	347.19
304.971	333.19
305.201	334.19
305.431	336.19
305.661	342.19
305.891	336.19
306.121	362.19
306.352	336.19
306.582	326.19
306.812	352.19
307.042	359.19
307.272	341.19
307.502	340.19
307.731	323.19
307.961	342.19
308.191	323.19
308.421	346.19
308.651	348.19
308.881	332.19
309.111	348.19
309.341	348.19
309.571	339.19
309.8	338.19
310.03	336.19
310.26	342.19
310.49	340.19
310.72	339.19
310.949	341.19
311.179	344.19
311.409	348.19
311.639	351.19
311.868	365.19
312.098	352.19
312.328	365.19
312.557	361.19
312.787	341.19
313.017	344.19
313.246	374.19
313.476	353.19
313.706	347.19
313.935	358.19
314.165	354.19
314.394	340.19
314.624	363.19
314.853	351.19
315.083	351.19
315.312	370.19
315.542	370.19
315.771	381.19
316.001	352.19
316.23	366.19
316.46	385.19
316.689	360.19
316.919	368.19
317.148	364.19
317.377	359.19
317.607	356.19
317.836	365.19
318.065	355.19
318.295	366.19
318.524	355.19
318.753	359.19
318.983	358.19
319.212	364.19
319.441	371.19
319.67	348.19
319.9	378.19
320.129	358.19
320.358	364.19
320.587	369.19
320.816	370.19
321.046	355.19
321.275	370.19
321.504	374.19
321.733	382.19
321.962	378.19
322.191	366.19
322.42	376.19
322.649	380.19
322.878	366.19
323.108	370.19
323.337	373.19
323.566	346.19
323.795	378.19
324.024	371.19
324.253	377.19
324.482	382.19
324.71	384.19
324.939	388.19
325.168	379.19
325.397	379.19
325.626	391.19
325.855	389.19
326.084	393.19
326.313	380.19
326.542	403.19
326.77	409.19
326.999	414.19
327.228	395.19
327.457	376.19
327.686	390.19
327.914	395.19
328.143	413.19
328.372	388.19
328.6	400.19
328.829	385.19
329.058	390.19
329.287	405.19
329.515	395.19
329.744	406.19
329.972	398.19
330.201	394.19
330.43	400.19
330.658	407.19
330.887	382.19
331.115	386.19
331.344	428.19
331.572	413.19
331.801	429.19
332.03	428.19
332.258	409.19
332.486	432.19
332.715	456.19
332.943	448.19
333.172	488.19
333.4	477.19
333.629	472.19
333.857	488.19
334.085	482.19
334.314	508.19
334.542	489.19
334.771	483.19
334.999	480.19
335.227	473.19
335.455	498.19
335.684	492.19
335.912	489.19
336.14	485.19
336.369	476.19
336.597	464.19
336.825	465.19
337.053	466.19
337.281	445.19
337.51	451.19
337.738	474.19
337.966	450.19
338.194	441.19
338.422	442.19
338.65	439.19
338.878	427.19
339.106	418.19
339.334	456.19
339.562	448.19
339.79	426.19
340.018	412.19
340.246	410.19
340.474	427.19
340.702	415.19
340.93	420.19
341.158	401.19
341.386	444.19
341.614	414.19
341.842	390.19
342.07	411.19
342.298	431.19
342.526	428.19
342.754	426.19
342.981	417.19
343.209	435.19
343.437	434.19
343.665	480.19
343.893	490.19
344.12	488.19
344.348	480.19
344.576	457.19
344.804	446.19
345.031	425.19
345.259	405.19
345.487	420.19
345.714	442.19
345.942	402.19
346.17	422.19
346.397	411.19
346.625	446.19
346.853	397.19
347.08	409.19
347.308	404.19
347.535	406.19
347.763	413.19
347.99	415.19
348.218	411.19
348.445	400.19
348.673	413.19
348.9	419.19
349.128	419.19
349.355	415.19
349.583	398.19
349.81	405.19
350.037	401.19
350.265	434.19
350.492	402.19
350.72	416.19
350.947	389.19
351.174	408.19
351.402	377.19
351.629	402.19
351.856	393.19
352.083	395.19
352.311	395.19
352.538	379.19
352.765	365.19
352.992	394.19
353.22	378.19
353.447	381.19
353.674	393.19
353.901	393.19
354.128	413.19
354.355	379.19
354.583	382.19
354.81	393.19
355.037	402.19
355.264	388.19
355.491	387.19
355.718	396.19
355.945	407.19
356.172	402.19
356.399	398.19
356.626	414.19
356.853	401.19
357.08	392.19
357.307	436.19
357.534	396.19
357.761	419.19
357.988	430.19
358.215	396.19
358.441	417.19
358.668	402.19
358.895	410.19
359.122	414.19
359.349	380.19
359.576	408.19
359.802	406.19
360.029	404.19
360.256	392.19
360.483	400.19
360.709	428.19
360.936	407.19
361.163	434.19
361.39	410.19
361.616	389.19
361.843	421.19
362.07	410.19
362.296	406.19
362.523	384.19
362.749	388.19
362.976	387.19
363.203	405.19
363.429	407.19
363.656	391.19
363.882	401.19
364.109	397.19
364.335	391.19
364.562	398.19
364.788	401.19
365.015	410.19
365.241	411.19
365.468	398.19
365.694	401.19
365.92	408.19
366.147	405.19
366.373	407.19
366.599	410.19
366.826	387.19
367.052	410.19
367.278	396.19
367.505	399.19
367.731	426.19
367.957	422.19
368.184	445.19
368.41	407.19
368.636	425.19
368.862	417.19
369.089	435.19
369.315	407.19
369.541	409.19
369.767	425.19
369.993	436.19
370.219	429.19
370.445	440.19
370.672	433.19
370.898	434.19
371.124	443.19
371.35	426.19
371.576	444.19
371.802	447.19
372.028	438.19
372.254	440.19
372.48	456.19
372.706	440.19
372.932	463.19
373.158	464.19
373.384	447.19
373.61	439.19
373.835	464.19
374.061	468.19
374.287	463.19
374.513	463.19
374.739	481.19
374.965	501.19
375.191	494.19
375.416	494.19
375.642	463.19
375.868	468.19
376.094	490.19
376.319	465.19
376.545	452.19
376.771	459.19
376.997	477.19
377.222	456.19
377.448	451.19
377.674	463.19
377.899	443.19
378.125	462.19
378.35	470.19
378.576	436.19
378.802	446.19
379.027	428.19
379.253	452.19
379.478	457.19
379.704	451.19
379.929	436.19
380.155	432.19
380.38	436.19
380.606	436.19
380.831	450.19
381.057	471.19
381.282	450.19
381.507	465.19
381.733	485.19
381.958	470.19
382.184	479.19
382.409	487.19
382.634	476.19
382.86	470.19
383.085	467.19
383.31	469.19
383.535	473.19
383.761	492.19
383.986	491.19
384.211	496.19
384.436	518.19
384.662	500.19
384.887	514.19
385.112	512.19
385.337	526.19
385.562	519.19
385.787	496.19
386.013	529.19
386.238	550.19
386.463	536.19
386.688	550.19
386.913	525.19
387.138	527.19
387.363	522.19
387.588	523.19
387.813	538.19
388.038	516.19
388.263	540.19
388.488	538.19
388.713	540.19
388.938	529.19
389.163	516.19
389.387	533.19
389.612	518.19
389.837	540.19
390.062	536.19
390.287	549.19
390.512	541.19
390.736	530.19
390.961	536.19
391.186	541.19
391.411	566.19
391.636	570.19
391.86	572.19
392.085	578.19
392.31	579.19
392.534	570.19
392.759	571.19
392.984	584.19
393.208	554.19
393.433	558.19
393.658	600.19
393.882	555.19
394.107	563.19
394.331	547.19
394.556	583.19
394.78	562.19
395.005	590.19
395.229	582.19
395.454	581.19
395.678	584.19
395.903	632.19
396.127	609.19
396.352	578.19
396.576	579.19
396.801	579.19
397.025	595.19
397.249	612.19
397.474	618.19
397.698	602.19
397.922	599.19
398.147	622.19
398.371	610.19
398.595	631.19
398.82	654.19
399.044	682.19
399.268	723.19
399.492	810.19
399.717	887.19
399.941	878.19
400.165	809.19
400.389	772.19
400.613	728.19
400.837	703.19
401.062	685.19
401.286	669.19
401.51	672.19
401.734	657.19
401.958	637.19
402.182	662.19
402.406	642.19
402.63	684.19
402.854	697.19
403.078	669.19
403.302	682.19
403.526	700.19
403.75	677.19
403.974	714.19
404.198	705.19
404.422	724.19
404.645	723.19
404.869	725.19
405.093	734.19
405.317	707.19
405.541	702.19
405.765	703.19
405.988	747.19
406.212	732.19
406.436	739.19
406.66	741.19
406.883	722.19
407.107	772.19
407.331	824.19
407.555	825.19
407.778	808.19
408.002	799.19
408.226	801.19
408.449	770.19
408.673	790.19
408.896	784.19
409.12	775.19
409.344	758.19
409.567	736.19
409.791	724.19
410.014	727.19
410.238	727.19
410.461	732.19
410.685	728.19
410.908	710.19
411.132	715.19
411.355	712.19
411.578	711.19
411.802	692.19
412.025	684.19
412.249	706.19
412.472	710.19
412.695	692.19
412.919	669.19
413.142	692.19
413.365	677.19
413.589	670.19
413.812	681.19
414.035	691.19
414.258	674.19
414.482	654.19
414.705	701.19
414.928	688.19
415.151	668.19
415.374	690.19
415.597	666.19
415.821	660.19
416.044	652.19
416.267	632.19
416.49	687.19
416.713	629.19
416.936	680.19
417.159	665.19
417.382	654.19
417.605	646.19
417.828	652.19
418.051	659.19
418.274	665.19
418.497	662.19
418.72	663.19
418.943	666.19
419.166	705.19
419.389	746.19
419.611	746.19
419.834	710.19
420.057	696.19
420.28	679.19
420.503	660.19
420.726	641.19
420.948	630.19
421.171	672.19
421.394	648.19
421.617	646.19
421.839	688.19
422.062	679.19
422.285	634.19
422.507	685.19
422.73	678.19
422.953	639.19
423.175	682.19
423.398	685.19
423.621	690.19
423.843	662.19
424.066	698.19
424.288	684.19
424.511	657.19
424.733	646.19
424.956	669.19
425.178	684.19
425.401	642.19
425.623	677.19
425.846	657.19
426.068	653.19
426.291	650.19
426.513	649.19
426.735	649.19
426.958	634.19
427.18	626.19
427.402	645.19
427.625	626.19
427.847	635.19
428.069	632.19
428.292	637.19
428.514	636.19
428.736	619.19
428.958	618.19
429.181	614.19
429.403	588.19
429.625	594.19
429.847	628.19
430.069	602.19
430.292	600.19
430.514	603.19
430.736	607.19
430.958	600.19
431.18	611.19
431.402	610.19
431.624	611.19
431.846	616.19
432.068	614.19
432.29	641.19
432.512	611.19
432.734	632.19
432.956	629.19
433.178	620.19
433.4	619.19
433.622	641.19
433.844	621.19
434.066	623.19
434.287	610.19
434.509	631.19
434.731	672.19
434.953	640.19
435.175	672.19
435.397	667.19
435.618	629.19
435.84	656.19
436.062	643.19
436.284	627.19
436.505	614.19
436.727	633.19
436.949	628.19
437.17	622.19
437.392	633.19
437.614	632.19
437.835	613.19
438.057	588.19
438.278	592.19
438.5	611.19
438.721	591.19
438.943	601.19
439.165	603.19
439.386	589.19
439.608	620.19
439.829	613.19
440.05	629.19
440.272	617.19
440.493	626.19
440.715	601.19
440.936	623.19
441.158	642.19
441.379	653.19
441.6	668.19
441.822	694.19
442.043	686.19
442.264	663.19
442.486	665.19
442.707	672.19
442.928	644.19
443.149	668.19
443.371	649.19
443.592	669.19
443.813	691.19
444.034	705.19
444.255	709.19
444.476	733.19
444.698	736.19
444.919	746.19
445.14	796.19
445.361	760.19
445.582	710.19
445.803	690.19
446.024	647.19
446.245	644.19
446.466	666.19
446.687	621.19
446.908	648.19
447.129	632.19
447.35	618.19
447.571	610.19
447.792	595.19
448.013	616.19
448.234	586.19
448.455	608.19
448.675	584.19
448.896	570.19
449.117	570.19
449.338	591.19
449.559	592.19
449.779	588.19
450	607.19
450.221	592.19
450.442	583.19
450.662	575.19
450.883	594.19
451.104	589.19
451.324	572.19
451.545	568.19
451.766	566.19
451.986	582.19
452.207	570.19
452.428	578.19
452.648	584.19
452.869	564.19
453.089	544.19
453.31	571.19
453.53	550.19
453.751	557.19
453.971	552.19
454.192	549.19
454.412	540.19
454.633	558.19
454.853	528.19
455.073	535.19
455.294	564.19
455.514	556.19
455.734	549.19
455.955	571.19
456.175	524.19
456.395	546.19
456.616	557.19
456.836	546.19
457.056	562.19
457.276	549.19
457.497	559.19
457.717	546.19
457.937	547.19
458.157	541.19
458.377	572.19
458.598	543.19
458.818	568.19
459.038	593.19
459.258	599.19
459.478	610.19
459.698	629.19
459.918	650.19
460.138	663.19
460.358	681.19
460.578	687.19
460.798	702.19
461.018	686.19
461.238	695.19
461.458	717.19
461.678	706.19
461.898	695.19
462.118	731.19
462.338	727.19
462.558	744.19
462.777	774.19
462.997	818.19
463.217	876.19
463.437	856.19
463.657	837.19
463.876	798.19
464.096	799.19
464.316	794.19
464.536	811.19
464.755	760.19
464.975	764.19
465.195	746.19
465.414	670.19
465.634	685.19
465.854	638.19
466.073	655.19
466.293	611.19
466.512	630.19
466.732	620.19
466.951	633.19
467.171	602.19
467.391	604.19
467.61	602.19
467.829	597.19
468.049	585.19
468.268	585.19
468.488	594.19
468.707	596.19
468.927	592.19
469.146	599.19
469.365	584.19
469.585	567.19
469.804	615.19
470.023	611.19
470.243	616.19
470.462	622.19
470.681	638.19
470.901	602.19
471.12	595.19
471.339	638.19
471.558	594.19
471.777	622.19
471.997	584.19
472.216	595.19
472.435	559.19
472.654	576.19
472.873	586.19
473.092	568.19
473.311	585.19
473.53	568.19
473.749	566.19
473.968	574.19
474.187	546.19
474.406	584.19
474.625	580.19
474.844	570.19
475.063	606.19
475.282	572.19
475.501	568.19
475.72	553.19
475.939	567.19
476.158	588.19
476.377	624.19
476.596	621.19
476.814	614.19
477.033	598.19
477.252	593.19
477.471	619.19
477.69	649.19
477.908	632.19
478.127	666.19
478.346	661.19
478.564	651.19
478.783	695.19
479.002	688.19
479.22	702.19
479.439	693.19
479.658	674.19
479.876	658.19
480.095	698.19
480.313	714.19
480.532	736.19
480.751	705.19
480.969	705.19
481.188	698.19
481.406	684.19
481.624	657.19
481.843	661.19
482.061	663.19
482.28	649.19
482.498	639.19
482.717	639.19
482.935	662.19
483.153	663.19
483.372	646.19
483.59	656.19
483.808	630.19
484.027	636.19
484.245	675.19
484.463	652.19
484.681	649.19
484.9	642.19
485.118	679.19
485.336	661.19
485.554	657.19
485.772	650.19
485.99	652.19
486.209	662.19
486.427	640.19
486.645	680.19
486.863	690.19
487.081	651.19
487.299	660.19
487.517	685.19
487.735	666.19
487.953	671.19
488.171	693.19
488.389	653.19
488.607	682.19
488.825	659.19
489.043	659.19
489.261	655.19
489.479	673.19
489.696	656.19
489.914	672.19
490.132	663.19
490.35	673.19
490.568	665.19
490.786	672.19
491.003	670.19
491.221	685.19
491.439	679.19
491.657	692.19
491.874	684.19
492.092	706.19
492.31	688.19
492.527	701.19
492.745	704.19
492.963	708.19
493.18	714.19
493.398	716.19
493.615	699.19
493.833	681.19
494.05	719.19
494.268	719.19
494.485	691.19
494.703	722.19
494.92	748.19
495.138	737.19
495.355	733.19
495.573	736.19
495.79	731.19
496.008	726.19
496.225	737.19
496.442	745.19
496.66	776.19
496.877	761.19
497.094	788.19
497.312	775.19
497.529	790.19
497.746	832.19
497.963	840.19
498.181	860.19
498.398	891.19
498.615	938.19
498.832	971.19
499.049	1006.19
499.267	1069.19
499.484	1156.19
499.701	1234.19
499.918	1366.19
500.135	1483.19
500.352	1606.19
500.569	1667.19
500.786	1616.19
501.003	1556.19
501.22	1428.19
501.437	1332.19
