Data from Fe(NO3)3@0.0125M.TitratingCurve.Agarose3%dH2O.NegLispCup.LampEnergy10.LIBS07252019_HRD10591_16-58-54-336.txt Node
Date: Thu Jul 25 16:58:54 EDT 2019
User: cochatt
Spectrometer: HR+D1059
Trigger mode: 1
Integration Time (sec): 1.000000E-1
Scans to average: 1
Electric dark correction enabled: true
Nonlinearity correction enabled: false
Boxcar width: 0
XAxis mode: Wavelengths
Number of Pixels in Spectrum: 2048
>>>>>Begin Spectral Data<<<<<
223.165	-12.12
223.4	-12.12
223.635	-12.12
223.869	-30.12
224.104	-16.12
224.338	-5.12
224.573	-19.12
224.808	-16.12
225.042	5.88
225.277	-23.12
225.511	2.88
225.746	12.88
225.98	9.88
226.215	7.88
226.449	25.88
226.683	4.88
226.918	16.88
227.152	34.88
227.387	24.88
227.621	35.88
227.856	54.88
228.09	39.88
228.324	60.88
228.559	55.88
228.793	79.88
229.027	100.88
229.262	110.88
229.496	116.88
229.73	116.88
229.964	122.88
230.199	129.88
230.433	149.88
230.667	128.88
230.901	138.88
231.136	141.88
231.37	150.88
231.604	158.88
231.838	136.88
232.072	162.88
232.306	137.88
232.541	149.88
232.775	148.88
233.009	148.88
233.243	150.88
233.477	144.88
233.711	142.88
233.945	160.88
234.179	156.88
234.413	150.88
234.647	159.88
234.881	156.88
235.115	159.88
235.349	153.88
235.583	144.88
235.817	163.88
236.051	167.88
236.285	161.88
236.519	160.88
236.753	154.88
236.987	189.88
237.221	175.88
237.455	169.88
237.689	174.88
237.922	171.88
238.156	164.88
238.39	157.88
238.624	180.88
238.858	176.88
239.091	179.88
239.325	171.88
239.559	190.88
239.793	180.88
240.027	186.88
240.26	195.88
240.494	187.88
240.728	168.88
240.961	180.88
241.195	187.88
241.429	188.88
241.662	189.88
241.896	210.88
242.13	196.88
242.363	189.88
242.597	191.88
242.83	202.88
243.064	220.88
243.298	213.88
243.531	191.88
243.765	204.88
243.998	213.88
244.232	209.88
244.465	204.88
244.699	208.88
244.932	216.88
245.166	218.88
245.399	213.88
245.633	216.88
245.866	218.88
246.099	234.88
246.333	208.88
246.566	217.88
246.8	224.88
247.033	247.88
247.266	232.88
247.5	226.88
247.733	224.88
247.966	234.88
248.2	247.88
248.433	239.88
248.666	230.88
248.899	263.88
249.133	232.88
249.366	245.88
249.599	251.88
249.832	237.88
250.066	250.88
250.299	268.88
250.532	260.88
250.765	237.88
250.998	261.88
251.231	264.88
251.465	250.88
251.698	262.88
251.931	269.88
252.164	267.88
252.397	280.88
252.63	276.88
252.863	244.88
253.096	275.88
253.329	270.88
253.562	272.88
253.795	288.88
254.028	295.88
254.261	310.88
254.494	277.88
254.727	286.88
254.96	280.88
255.193	298.88
255.426	294.88
255.659	311.88
255.892	300.88
256.124	304.88
256.357	299.88
256.59	306.88
256.823	296.88
257.056	287.88
257.289	309.88
257.521	300.88
257.754	301.88
257.987	306.88
258.22	302.88
258.452	315.88
258.685	327.88
258.918	330.88
259.151	302.88
259.383	294.88
259.616	328.88
259.849	338.88
260.081	349.88
260.314	341.88
260.547	338.88
260.779	339.88
261.012	350.88
261.244	330.88
261.477	367.88
261.71	350.88
261.942	328.88
262.175	330.88
262.407	336.88
262.64	335.88
262.872	340.88
263.105	350.88
263.337	356.88
263.57	342.88
263.802	356.88
264.035	351.88
264.267	330.88
264.499	348.88
264.732	341.88
264.964	342.88
265.197	347.88
265.429	362.88
265.661	351.88
265.894	359.88
266.126	371.88
266.358	352.88
266.591	364.88
266.823	375.88
267.055	374.88
267.287	356.88
267.52	362.88
267.752	376.88
267.984	380.88
268.216	397.88
268.448	390.88
268.681	367.88
268.913	381.88
269.145	372.88
269.377	398.88
269.609	398.88
269.841	392.88
270.073	375.88
270.306	407.88
270.538	405.88
270.77	391.88
271.002	402.88
271.234	407.88
271.466	393.88
271.698	394.88
271.93	417.88
272.162	404.88
272.394	413.88
272.626	412.88
272.858	429.88
273.09	444.88
273.322	436.88
273.553	417.88
273.785	442.88
274.017	448.88
274.249	461.88
274.481	457.88
274.713	477.88
274.945	454.88
275.176	475.88
275.408	473.88
275.64	459.88
275.872	479.88
276.104	468.88
276.335	451.88
276.567	446.88
276.799	455.88
277.031	457.88
277.262	460.88
277.494	467.88
277.726	447.88
277.957	441.88
278.189	494.88
278.421	436.88
278.652	473.88
278.884	458.88
279.115	474.88
279.347	468.88
279.579	473.88
279.81	494.88
280.042	482.88
280.273	474.88
280.505	467.88
280.736	479.88
280.968	476.88
281.199	492.88
281.431	493.88
281.662	478.88
281.894	479.88
282.125	485.88
282.356	489.88
282.588	501.88
282.819	486.88
283.051	490.88
283.282	489.88
283.513	495.88
283.745	484.88
283.976	493.88
284.207	510.88
284.439	510.88
284.67	527.88
284.901	504.88
285.132	531.88
285.364	504.88
285.595	512.88
285.826	540.88
286.057	500.88
286.288	560.88
286.52	532.88
286.751	543.88
286.982	518.88
287.213	517.88
287.444	544.88
287.675	538.88
287.906	528.88
288.138	560.88
288.369	552.88
288.6	546.88
288.831	550.88
289.062	543.88
289.293	549.88
289.524	581.88
289.755	554.88
289.986	533.88
290.217	565.88
290.448	562.88
290.679	564.88
290.91	540.88
291.141	552.88
291.371	567.88
291.602	538.88
291.833	560.88
292.064	549.88
292.295	540.88
292.526	576.88
292.757	555.88
292.987	580.88
293.218	553.88
293.449	569.88
293.68	598.88
293.91	570.88
294.141	591.88
294.372	546.88
294.603	566.88
294.833	565.88
295.064	560.88
295.295	581.88
295.525	562.88
295.756	582.88
295.987	583.88
296.217	592.88
296.448	578.88
296.679	588.88
296.909	594.88
297.14	595.88
297.37	615.88
297.601	598.88
297.831	589.88
298.062	598.88
298.292	611.88
298.523	611.88
298.753	613.88
298.984	606.88
299.214	591.88
299.445	605.88
299.675	618.88
299.905	630.88
300.136	631.88
300.366	615.88
300.597	630.88
300.827	611.88
301.057	626.88
301.288	606.88
301.518	633.88
301.748	632.88
301.979	631.88
302.209	623.88
302.439	652.88
302.669	650.88
302.9	628.88
303.13	622.88
303.36	650.88
303.59	649.88
303.82	664.88
304.051	670.88
304.281	679.88
304.511	650.88
304.741	658.88
304.971	668.88
305.201	647.88
305.431	637.88
305.661	652.88
305.891	685.88
306.121	667.88
306.352	686.88
306.582	657.88
306.812	661.88
307.042	668.88
307.272	652.88
307.502	653.88
307.731	644.88
307.961	668.88
308.191	679.88
308.421	671.88
308.651	680.88
308.881	660.88
309.111	669.88
309.341	697.88
309.571	704.88
309.8	672.88
310.03	682.88
310.26	692.88
310.49	683.88
310.72	668.88
310.949	685.88
311.179	683.88
311.409	703.88
311.639	686.88
311.868	704.88
312.098	708.88
312.328	727.88
312.557	690.88
312.787	704.88
313.017	729.88
313.246	724.88
313.476	710.88
313.706	729.88
313.935	730.88
314.165	699.88
314.394	747.88
314.624	727.88
314.853	732.88
315.083	725.88
315.312	713.88
315.542	739.88
315.771	761.88
316.001	750.88
316.23	734.88
316.46	723.88
316.689	750.88
316.919	737.88
317.148	764.88
317.377	766.88
317.607	742.88
317.836	738.88
318.065	745.88
318.295	768.88
318.524	736.88
318.753	733.88
318.983	747.88
319.212	764.88
319.441	750.88
319.67	743.88
319.9	742.88
320.129	771.88
320.358	773.88
320.587	784.88
320.816	775.88
321.046	783.88
321.275	774.88
321.504	765.88
321.733	754.88
321.962	761.88
322.191	790.88
322.42	761.88
322.649	761.88
322.878	785.88
323.108	796.88
323.337	796.88
323.566	789.88
323.795	782.88
324.024	808.88
324.253	807.88
324.482	786.88
324.71	788.88
324.939	794.88
325.168	827.88
325.397	809.88
325.626	814.88
325.855	807.88
326.084	810.88
326.313	810.88
326.542	820.88
326.77	841.88
326.999	811.88
327.228	819.88
327.457	840.88
327.686	815.88
327.914	822.88
328.143	847.88
328.372	808.88
328.6	806.88
328.829	831.88
329.058	840.88
329.287	813.88
329.515	824.88
329.744	826.88
329.972	840.88
330.201	837.88
330.43	825.88
330.658	834.88
330.887	850.88
331.115	846.88
331.344	831.88
331.572	840.88
331.801	854.88
332.03	851.88
332.258	825.88
332.486	854.88
332.715	853.88
332.943	894.88
333.172	870.88
333.4	864.88
333.629	904.88
333.857	892.88
334.085	904.88
334.314	902.88
334.542	910.88
334.771	885.88
334.999	899.88
335.227	900.88
335.455	906.88
335.684	885.88
335.912	886.88
336.14	915.88
336.369	918.88
336.597	908.88
336.825	916.88
337.053	889.88
337.281	937.88
337.51	903.88
337.738	893.88
337.966	888.88
338.194	888.88
338.422	838.88
338.65	895.88
338.878	911.88
339.106	898.88
339.334	903.88
339.562	875.88
339.79	869.88
340.018	884.88
340.246	919.88
340.474	861.88
340.702	906.88
340.93	893.88
341.158	908.88
341.386	892.88
341.614	896.88
341.842	883.88
342.07	896.88
342.298	887.88
342.526	889.88
342.754	878.88
342.981	907.88
343.209	855.88
343.437	917.88
343.665	907.88
343.893	913.88
344.12	916.88
344.348	923.88
344.576	902.88
344.804	888.88
345.031	920.88
345.259	896.88
345.487	904.88
345.714	906.88
345.942	918.88
346.17	886.88
346.397	882.88
346.625	883.88
346.853	892.88
347.08	862.88
347.308	871.88
347.535	868.88
347.763	856.88
347.99	845.88
348.218	876.88
348.445	843.88
348.673	859.88
348.9	878.88
349.128	860.88
349.355	859.88
349.583	873.88
349.81	837.88
350.037	826.88
350.265	844.88
350.492	843.88
350.72	827.88
350.947	854.88
351.174	866.88
351.402	861.88
351.629	850.88
351.856	882.88
352.083	850.88
352.311	869.88
352.538	870.88
352.765	850.88
352.992	850.88
353.22	855.88
353.447	826.88
353.674	831.88
353.901	840.88
354.128	843.88
354.355	850.88
354.583	859.88
354.81	847.88
355.037	866.88
355.264	871.88
355.491	862.88
355.718	828.88
355.945	857.88
356.172	839.88
356.399	868.88
356.626	868.88
356.853	868.88
357.08	838.88
357.307	882.88
357.534	879.88
357.761	870.88
357.988	839.88
358.215	869.88
358.441	877.88
358.668	858.88
358.895	862.88
359.122	873.88
359.349	858.88
359.576	846.88
359.802	840.88
360.029	857.88
360.256	868.88
360.483	853.88
360.709	866.88
360.936	877.88
361.163	874.88
361.39	860.88
361.616	849.88
361.843	852.88
362.07	874.88
362.296	867.88
362.523	855.88
362.749	874.88
362.976	883.88
363.203	910.88
363.429	896.88
363.656	855.88
363.882	896.88
364.109	876.88
364.335	866.88
364.562	862.88
364.788	877.88
365.015	869.88
365.241	900.88
365.468	878.88
365.694	884.88
365.92	882.88
366.147	903.88
366.373	893.88
366.599	882.88
366.826	903.88
367.052	906.88
367.278	890.88
367.505	884.88
367.731	920.88
367.957	894.88
368.184	902.88
368.41	876.88
368.636	892.88
368.862	894.88
369.089	923.88
369.315	871.88
369.541	914.88
369.767	918.88
369.993	881.88
370.219	902.88
370.445	895.88
370.672	920.88
370.898	904.88
371.124	920.88
371.35	933.88
371.576	936.88
371.802	936.88
372.028	915.88
372.254	918.88
372.48	940.88
372.706	940.88
372.932	951.88
373.158	922.88
373.384	942.88
373.61	918.88
373.835	930.88
374.061	930.88
374.287	951.88
374.513	938.88
374.739	942.88
374.965	941.88
375.191	922.88
375.416	935.88
375.642	926.88
375.868	936.88
376.094	946.88
376.319	944.88
376.545	944.88
376.771	947.88
376.997	932.88
377.222	899.88
377.448	910.88
377.674	904.88
377.899	921.88
378.125	918.88
378.35	920.88
378.576	931.88
378.802	911.88
379.027	917.88
379.253	931.88
379.478	958.88
379.704	901.88
379.929	894.88
380.155	921.88
380.38	912.88
380.606	933.88
380.831	909.88
381.057	924.88
381.282	930.88
381.507	924.88
381.733	930.88
381.958	933.88
382.184	937.88
382.409	934.88
382.634	926.88
382.86	962.88
383.085	928.88
383.31	938.88
383.535	964.88
383.761	978.88
383.986	950.88
384.211	975.88
384.436	975.88
384.662	975.88
384.887	963.88
385.112	970.88
385.337	979.88
385.562	1000.88
385.787	975.88
386.013	990.88
386.238	988.88
386.463	979.88
386.688	1000.88
386.913	995.88
387.138	1026.88
387.363	1002.88
387.588	1026.88
387.813	1038.88
388.038	986.88
388.263	984.88
388.488	1014.88
388.713	1016.88
388.938	990.88
389.163	998.88
389.387	1016.88
389.612	986.88
389.837	1017.88
390.062	1024.88
390.287	1000.88
390.512	1023.88
390.736	1062.88
390.961	992.88
391.186	1010.88
391.411	1030.88
391.636	1043.88
391.86	1032.88
392.085	1056.88
392.31	1013.88
392.534	1043.88
392.759	1063.88
392.984	1036.88
393.208	1052.88
393.433	1047.88
393.658	1005.88
393.882	1014.88
394.107	1008.88
394.331	1059.88
394.556	1042.88
394.78	1030.88
395.005	1030.88
395.229	1011.88
395.454	1047.88
395.678	1056.88
395.903	1032.88
396.127	1040.88
396.352	1045.88
396.576	1040.88
396.801	1076.88
397.025	1061.88
397.249	1078.88
397.474	1053.88
397.698	1080.88
397.922	1109.88
398.147	1087.88
398.371	1103.88
398.595	1116.88
398.82	1097.88
399.044	1142.88
399.268	1143.88
399.492	1129.88
399.717	1184.88
399.941	1178.88
400.165	1188.88
400.389	1158.88
400.613	1176.88
400.837	1133.88
401.062	1164.88
401.286	1136.88
401.51	1120.88
401.734	1116.88
401.958	1114.88
402.182	1090.88
402.406	1125.88
402.63	1107.88
402.854	1116.88
403.078	1121.88
403.302	1131.88
403.526	1109.88
403.75	1124.88
403.974	1118.88
404.198	1123.88
404.422	1138.88
404.645	1160.88
404.869	1096.88
405.093	1122.88
405.317	1111.88
405.541	1114.88
405.765	1112.88
405.988	1131.88
406.212	1146.88
406.436	1148.88
406.66	1163.88
406.883	1153.88
407.107	1192.88
407.331	1216.88
407.555	1213.88
407.778	1245.88
408.002	1189.88
408.226	1191.88
408.449	1211.88
408.673	1180.88
408.896	1167.88
409.12	1184.88
409.344	1157.88
409.567	1168.88
409.791	1182.88
410.014	1160.88
410.238	1194.88
410.461	1162.88
410.685	1150.88
410.908	1147.88
411.132	1152.88
411.355	1126.88
411.578	1149.88
411.802	1133.88
412.025	1112.88
412.249	1127.88
412.472	1122.88
412.695	1123.88
412.919	1095.88
413.142	1114.88
413.365	1103.88
413.589	1098.88
413.812	1109.88
414.035	1104.88
414.258	1107.88
414.482	1098.88
414.705	1098.88
414.928	1104.88
415.151	1107.88
415.374	1096.88
415.597	1072.88
415.821	1088.88
416.044	1055.88
416.267	1066.88
416.49	1110.88
416.713	1058.88
416.936	1076.88
417.159	1086.88
417.382	1029.88
417.605	1076.88
417.828	1082.88
418.051	1047.88
418.274	1058.88
418.497	1049.88
418.72	1066.88
418.943	1055.88
419.166	1072.88
419.389	1160.88
419.611	1138.88
419.834	1102.88
420.057	1083.88
420.28	1044.88
420.503	1034.88
420.726	1053.88
420.948	1014.88
421.171	1054.88
421.394	1019.88
421.617	1031.88
421.839	1030.88
422.062	1038.88
422.285	1016.88
422.507	1066.88
422.73	1039.88
422.953	1050.88
423.175	1042.88
423.398	1040.88
423.621	1011.88
423.843	1014.88
424.066	1027.88
424.288	1024.88
424.511	1062.88
424.733	1038.88
424.956	1012.88
425.178	1057.88
425.401	1047.88
425.623	1054.88
425.846	1038.88
426.068	1053.88
426.291	1030.88
426.513	1040.88
426.735	1048.88
426.958	1028.88
427.18	1031.88
427.402	1034.88
427.625	1002.88
427.847	1028.88
428.069	1004.88
428.292	998.88
428.514	1012.88
428.736	1037.88
428.958	1032.88
429.181	1033.88
429.403	1039.88
429.625	989.88
429.847	999.88
430.069	1022.88
430.292	1010.88
430.514	990.88
430.736	1011.88
430.958	1016.88
431.18	1022.88
431.402	995.88
431.624	1007.88
431.846	1011.88
432.068	1006.88
432.29	1010.88
432.512	990.88
432.734	1038.88
432.956	1019.88
433.178	1029.88
433.4	1023.88
433.622	1034.88
433.844	1035.88
434.066	1015.88
434.287	1005.88
434.509	1002.88
434.731	1041.88
434.953	1053.88
435.175	1028.88
435.397	1022.88
435.618	1034.88
435.84	1018.88
436.062	1015.88
436.284	1025.88
436.505	1010.88
436.727	1019.88
436.949	981.88
437.17	998.88
437.392	998.88
437.614	972.88
437.835	984.88
438.057	1026.88
438.278	961.88
438.5	1015.88
438.721	982.88
438.943	993.88
439.165	970.88
439.386	984.88
439.608	998.88
439.829	990.88
440.05	984.88
440.272	1016.88
440.493	999.88
440.715	1024.88
440.936	995.88
441.158	1001.88
441.379	991.88
441.6	994.88
441.822	1013.88
442.043	987.88
442.264	990.88
442.486	1024.88
442.707	986.88
442.928	995.88
443.149	990.88
443.371	969.88
443.592	960.88
443.813	1010.88
444.034	1005.88
444.255	1010.88
444.476	972.88
444.698	1014.88
444.919	1034.88
445.14	1100.88
445.361	1024.88
445.582	996.88
445.803	1016.88
446.024	981.88
446.245	966.88
446.466	1016.88
446.687	974.88
446.908	996.88
447.129	990.88
447.35	977.88
447.571	964.88
447.792	961.88
448.013	927.88
448.234	966.88
448.455	940.88
448.675	952.88
448.896	964.88
449.117	920.88
449.338	940.88
449.559	937.88
449.779	931.88
450	922.88
450.221	939.88
450.442	925.88
450.662	907.88
450.883	898.88
451.104	923.88
451.324	949.88
451.545	942.88
451.766	900.88
451.986	923.88
452.207	894.88
452.428	909.88
452.648	888.88
452.869	883.88
453.089	896.88
453.31	913.88
453.53	926.88
453.751	910.88
453.971	915.88
454.192	884.88
454.412	895.88
454.633	891.88
454.853	902.88
455.073	904.88
455.294	885.88
455.514	918.88
455.734	913.88
455.955	896.88
456.175	910.88
456.395	904.88
456.616	889.88
456.836	901.88
457.056	893.88
457.276	890.88
457.497	905.88
457.717	909.88
457.937	900.88
458.157	902.88
458.377	930.88
458.598	929.88
458.818	924.88
459.038	959.88
459.258	954.88
459.478	942.88
459.698	944.88
459.918	974.88
460.138	956.88
460.358	989.88
460.578	1015.88
460.798	996.88
461.018	1006.88
461.238	1021.88
461.458	1014.88
461.678	998.88
461.898	1012.88
462.118	1006.88
462.338	1012.88
462.558	1047.88
462.777	1056.88
462.997	1087.88
463.217	1077.88
463.437	1076.88
463.657	1070.88
463.876	1076.88
464.096	1067.88
464.316	1045.88
464.536	1071.88
464.755	1031.88
464.975	1026.88
465.195	1047.88
465.414	1041.88
465.634	1024.88
465.854	1020.88
466.073	983.88
466.293	994.88
466.512	981.88
466.732	948.88
466.951	983.88
467.171	982.88
467.391	991.88
467.61	945.88
467.829	974.88
468.049	979.88
468.268	956.88
468.488	931.88
468.707	980.88
468.927	951.88
469.146	972.88
469.365	971.88
469.585	976.88
469.804	962.88
470.023	973.88
470.243	950.88
470.462	994.88
470.681	975.88
470.901	994.88
471.12	999.88
471.339	982.88
471.558	946.88
471.777	965.88
471.997	1002.88
472.216	1016.88
472.435	995.88
472.654	994.88
472.873	979.88
473.092	995.88
473.311	994.88
473.53	994.88
473.749	1010.88
473.968	1011.88
474.187	1002.88
474.406	1004.88
474.625	986.88
474.844	1027.88
475.063	1053.88
475.282	1017.88
475.501	1039.88
475.72	1043.88
475.939	1028.88
476.158	1048.88
476.377	1050.88
476.596	1067.88
476.814	1065.88
477.033	1064.88
477.252	1050.88
477.471	1083.88
477.69	1086.88
477.908	1084.88
478.127	1102.88
478.346	1132.88
478.564	1087.88
478.783	1125.88
479.002	1158.88
479.22	1145.88
479.439	1160.88
479.658	1158.88
479.876	1159.88
480.095	1187.88
480.313	1183.88
480.532	1195.88
480.751	1169.88
480.969	1178.88
481.188	1163.88
481.406	1170.88
481.624	1157.88
481.843	1164.88
482.061	1145.88
482.28	1187.88
482.498	1180.88
482.717	1194.88
482.935	1208.88
483.153	1216.88
483.372	1163.88
483.59	1179.88
483.808	1173.88
484.027	1184.88
484.245	1190.88
484.463	1197.88
484.681	1190.88
484.9	1211.88
485.118	1190.88
485.336	1209.88
485.554	1188.88
485.772	1242.88
485.99	1231.88
486.209	1270.88
486.427	1221.88
486.645	1214.88
486.863	1210.88
487.081	1238.88
487.299	1235.88
487.517	1215.88
487.735	1238.88
487.953	1255.88
488.171	1241.88
488.389	1231.88
488.607	1241.88
488.825	1218.88
489.043	1242.88
489.261	1212.88
489.479	1228.88
489.696	1217.88
489.914	1220.88
490.132	1246.88
490.35	1237.88
490.568	1250.88
490.786	1258.88
491.003	1225.88
491.221	1236.88
491.439	1250.88
491.657	1237.88
491.874	1235.88
492.092	1262.88
492.31	1261.88
492.527	1258.88
492.745	1227.88
492.963	1262.88
493.18	1280.88
493.398	1271.88
493.615	1272.88
493.833	1240.88
494.05	1268.88
494.268	1246.88
494.485	1264.88
494.703	1270.88
494.92	1288.88
495.138	1269.88
495.355	1292.88
495.573	1311.88
495.79	1273.88
496.008	1268.88
496.225	1296.88
496.442	1308.88
496.66	1312.88
