Data from Fe(NO3)3@0.1M.TitratingCurve.Agarose3%dH2O.NegLispCup.LampEnergy10.LIBS07252019_HRD10591_16-41-44-333.txt Node
Date: Thu Jul 25 16:41:44 EDT 2019
User: cochatt
Spectrometer: HR+D1059
Trigger mode: 1
Integration Time (sec): 1.000000E-1
Scans to average: 1
Electric dark correction enabled: true
Nonlinearity correction enabled: false
Boxcar width: 0
XAxis mode: Wavelengths
Number of Pixels in Spectrum: 2048
>>>>>Begin Spectral Data<<<<<
223.165	-9.75
223.4	-9.75
223.635	-9.75
223.869	-24.75
224.104	-21.75
224.338	-15.75
224.573	-10.75
224.808	-16.75
225.042	-3.75
225.277	-4.75
225.511	-10.75
225.746	-3.75
225.98	8.25
226.215	11.25
226.449	21.25
226.683	14.25
226.918	35.25
227.152	32.25
227.387	42.25
227.621	41.25
227.856	41.25
228.09	56.25
228.324	52.25
228.559	65.25
228.793	58.25
229.027	69.25
229.262	75.25
229.496	75.25
229.73	89.25
229.964	73.25
230.199	71.25
230.433	91.25
230.667	100.25
230.901	85.25
231.136	99.25
231.37	89.25
231.604	90.25
231.838	98.25
232.072	93.25
232.306	98.25
232.541	91.25
232.775	105.25
233.009	96.25
233.243	93.25
233.477	93.25
233.711	93.25
233.945	90.25
234.179	95.25
234.413	116.25
234.647	90.25
234.881	93.25
235.115	110.25
235.349	98.25
235.583	102.25
235.817	84.25
236.051	96.25
236.285	103.25
236.519	83.25
236.753	97.25
236.987	96.25
237.221	98.25
237.455	107.25
237.689	114.25
237.922	103.25
238.156	97.25
238.39	103.25
238.624	110.25
238.858	93.25
239.091	109.25
239.325	101.25
239.559	108.25
239.793	98.25
240.027	109.25
240.26	106.25
240.494	113.25
240.728	97.25
240.961	104.25
241.195	98.25
241.429	100.25
241.662	102.25
241.896	97.25
242.13	98.25
242.363	111.25
242.597	98.25
242.83	105.25
243.064	113.25
243.298	107.25
243.531	112.25
243.765	104.25
243.998	124.25
244.232	119.25
244.465	107.25
244.699	107.25
244.932	116.25
245.166	108.25
245.399	119.25
245.633	120.25
245.866	123.25
246.099	123.25
246.333	125.25
246.566	107.25
246.8	112.25
247.033	126.25
247.266	114.25
247.5	125.25
247.733	117.25
247.966	127.25
248.2	118.25
248.433	109.25
248.666	132.25
248.899	118.25
249.133	122.25
249.366	122.25
249.599	119.25
249.832	122.25
250.066	123.25
250.299	128.25
250.532	130.25
250.765	129.25
250.998	130.25
251.231	124.25
251.465	128.25
251.698	124.25
251.931	124.25
252.164	114.25
252.397	134.25
252.63	139.25
252.863	127.25
253.096	132.25
253.329	132.25
253.562	122.25
253.795	136.25
254.028	139.25
254.261	140.25
254.494	139.25
254.727	132.25
254.96	120.25
255.193	138.25
255.426	133.25
255.659	137.25
255.892	129.25
256.124	140.25
256.357	134.25
256.59	135.25
256.823	146.25
257.056	139.25
257.289	155.25
257.521	149.25
257.754	132.25
257.987	138.25
258.22	135.25
258.452	155.25
258.685	141.25
258.918	130.25
259.151	102.25
259.383	152.25
259.616	125.25
259.849	156.25
260.081	142.25
260.314	151.25
260.547	141.25
260.779	154.25
261.012	145.25
261.244	141.25
261.477	155.25
261.71	149.25
261.942	154.25
262.175	138.25
262.407	145.25
262.64	150.25
262.872	151.25
263.105	144.25
263.337	152.25
263.57	163.25
263.802	155.25
264.035	166.25
264.267	144.25
264.499	166.25
264.732	145.25
264.964	146.25
265.197	155.25
265.429	154.25
265.661	146.25
265.894	157.25
266.126	147.25
266.358	147.25
266.591	151.25
266.823	136.25
267.055	147.25
267.287	162.25
267.52	170.25
267.752	156.25
267.984	166.25
268.216	167.25
268.448	167.25
268.681	179.25
268.913	162.25
269.145	165.25
269.377	155.25
269.609	162.25
269.841	154.25
270.073	172.25
270.306	153.25
270.538	169.25
270.77	173.25
271.002	169.25
271.234	176.25
271.466	164.25
271.698	159.25
271.93	162.25
272.162	171.25
272.394	172.25
272.626	173.25
272.858	158.25
273.09	161.25
273.322	177.25
273.553	164.25
273.785	171.25
274.017	168.25
274.249	173.25
274.481	177.25
274.713	161.25
274.945	171.25
275.176	167.25
275.408	167.25
275.64	187.25
275.872	171.25
276.104	180.25
276.335	189.25
276.567	177.25
276.799	173.25
277.031	185.25
277.262	184.25
277.494	168.25
277.726	184.25
277.957	194.25
278.189	194.25
278.421	178.25
278.652	186.25
278.884	187.25
279.115	174.25
279.347	186.25
279.579	170.25
279.81	193.25
280.042	193.25
280.273	191.25
280.505	201.25
280.736	192.25
280.968	183.25
281.199	169.25
281.431	186.25
281.662	191.25
281.894	193.25
282.125	186.25
282.356	180.25
282.588	180.25
282.819	195.25
283.051	179.25
283.282	193.25
283.513	181.25
283.745	213.25
283.976	197.25
284.207	195.25
284.439	205.25
284.67	186.25
284.901	203.25
285.132	204.25
285.364	195.25
285.595	200.25
285.826	191.25
286.057	201.25
286.288	192.25
286.52	211.25
286.751	198.25
286.982	203.25
287.213	186.25
287.444	204.25
287.675	196.25
287.906	205.25
288.138	210.25
288.369	201.25
288.6	207.25
288.831	208.25
289.062	196.25
289.293	199.25
289.524	199.25
289.755	214.25
289.986	200.25
290.217	194.25
290.448	198.25
290.679	200.25
290.91	201.25
291.141	226.25
291.371	205.25
291.602	210.25
291.833	203.25
292.064	195.25
292.295	198.25
292.526	205.25
292.757	210.25
292.987	198.25
293.218	204.25
293.449	218.25
293.68	210.25
293.91	212.25
294.141	203.25
294.372	206.25
294.603	203.25
294.833	224.25
295.064	214.25
295.295	203.25
295.525	224.25
295.756	204.25
295.987	221.25
296.217	233.25
296.448	222.25
296.679	235.25
296.909	206.25
297.14	228.25
297.37	230.25
297.601	221.25
297.831	204.25
298.062	233.25
298.292	203.25
298.523	212.25
298.753	241.25
298.984	223.25
299.214	238.25
299.445	240.25
299.675	222.25
299.905	213.25
300.136	217.25
300.366	222.25
300.597	229.25
300.827	223.25
301.057	219.25
301.288	229.25
301.518	221.25
301.748	218.25
301.979	229.25
302.209	227.25
302.439	228.25
302.669	242.25
302.9	228.25
303.13	232.25
303.36	240.25
303.59	216.25
303.82	239.25
304.051	211.25
304.281	218.25
304.511	229.25
304.741	225.25
304.971	234.25
305.201	217.25
305.431	235.25
305.661	228.25
305.891	228.25
306.121	222.25
306.352	228.25
306.582	234.25
306.812	236.25
307.042	245.25
307.272	238.25
307.502	237.25
307.731	230.25
307.961	241.25
308.191	224.25
308.421	228.25
308.651	233.25
308.881	240.25
309.111	240.25
309.341	225.25
309.571	221.25
309.8	236.25
310.03	221.25
310.26	224.25
310.49	212.25
310.72	237.25
310.949	237.25
311.179	229.25
311.409	237.25
311.639	249.25
311.868	239.25
312.098	249.25
312.328	246.25
312.557	250.25
312.787	245.25
313.017	250.25
313.246	258.25
313.476	226.25
313.706	253.25
313.935	238.25
314.165	241.25
314.394	237.25
314.624	268.25
314.853	256.25
315.083	248.25
315.312	257.25
315.542	252.25
315.771	248.25
316.001	232.25
316.23	233.25
316.46	246.25
316.689	246.25
316.919	266.25
317.148	268.25
317.377	242.25
317.607	230.25
317.836	242.25
318.065	245.25
318.295	236.25
318.524	238.25
318.753	229.25
318.983	258.25
319.212	235.25
319.441	244.25
319.67	245.25
319.9	245.25
320.129	231.25
320.358	243.25
320.587	231.25
320.816	227.25
321.046	256.25
321.275	241.25
321.504	248.25
321.733	240.25
321.962	237.25
322.191	250.25
322.42	243.25
322.649	254.25
322.878	248.25
323.108	257.25
323.337	260.25
323.566	248.25
323.795	248.25
324.024	252.25
324.253	262.25
324.482	261.25
324.71	256.25
324.939	264.25
325.168	261.25
325.397	263.25
325.626	246.25
325.855	249.25
326.084	260.25
326.313	249.25
326.542	280.25
326.77	270.25
326.999	264.25
327.228	274.25
327.457	278.25
327.686	271.25
327.914	260.25
328.143	265.25
328.372	264.25
328.6	265.25
328.829	268.25
329.058	249.25
329.287	267.25
329.515	277.25
329.744	268.25
329.972	271.25
330.201	268.25
330.43	265.25
330.658	255.25
330.887	279.25
331.115	280.25
331.344	275.25
331.572	268.25
331.801	282.25
332.03	262.25
332.258	272.25
332.486	306.25
332.715	315.25
332.943	328.25
333.172	326.25
333.4	319.25
333.629	336.25
333.857	341.25
334.085	331.25
334.314	313.25
334.542	326.25
334.771	318.25
334.999	334.25
335.227	325.25
335.455	315.25
335.684	310.25
335.912	287.25
336.14	318.25
336.369	304.25
336.597	305.25
336.825	298.25
337.053	285.25
337.281	303.25
337.51	305.25
337.738	302.25
337.966	274.25
338.194	293.25
338.422	280.25
338.65	285.25
338.878	282.25
339.106	300.25
339.334	295.25
339.562	281.25
339.79	292.25
340.018	285.25
340.246	272.25
340.474	274.25
340.702	273.25
340.93	284.25
341.158	270.25
341.386	270.25
341.614	262.25
341.842	276.25
342.07	283.25
342.298	281.25
342.526	281.25
342.754	288.25
342.981	290.25
343.209	288.25
343.437	313.25
343.665	306.25
343.893	310.25
344.12	341.25
344.348	324.25
344.576	303.25
344.804	304.25
345.031	289.25
345.259	286.25
345.487	276.25
345.714	268.25
345.942	275.25
346.17	292.25
346.397	276.25
346.625	277.25
346.853	281.25
347.08	269.25
347.308	280.25
347.535	270.25
347.763	282.25
347.99	285.25
348.218	270.25
348.445	272.25
348.673	267.25
348.9	263.25
349.128	273.25
349.355	275.25
349.583	259.25
349.81	264.25
350.037	269.25
350.265	284.25
350.492	260.25
350.72	283.25
350.947	272.25
351.174	270.25
351.402	262.25
351.629	276.25
351.856	281.25
352.083	250.25
352.311	257.25
352.538	266.25
352.765	262.25
352.992	237.25
353.22	256.25
353.447	260.25
353.674	278.25
353.901	276.25
354.128	259.25
354.355	262.25
354.583	238.25
354.81	264.25
355.037	269.25
355.264	270.25
355.491	269.25
355.718	266.25
355.945	254.25
356.172	266.25
356.399	276.25
356.626	263.25
356.853	257.25
357.08	245.25
357.307	270.25
357.534	271.25
357.761	273.25
357.988	289.25
358.215	259.25
358.441	266.25
358.668	279.25
358.895	261.25
359.122	265.25
359.349	272.25
359.576	270.25
359.802	265.25
360.029	264.25
360.256	263.25
360.483	254.25
360.709	285.25
360.936	274.25
361.163	285.25
361.39	276.25
361.616	266.25
361.843	257.25
362.07	285.25
362.296	247.25
362.523	276.25
362.749	259.25
362.976	280.25
363.203	280.25
363.429	274.25
363.656	272.25
363.882	277.25
364.109	262.25
364.335	257.25
364.562	264.25
364.788	242.25
365.015	276.25
365.241	254.25
365.468	275.25
365.694	274.25
365.92	250.25
366.147	262.25
366.373	276.25
366.599	257.25
366.826	290.25
367.052	271.25
367.278	275.25
367.505	288.25
367.731	254.25
367.957	267.25
368.184	272.25
368.41	290.25
368.636	260.25
368.862	286.25
369.089	269.25
369.315	275.25
369.541	270.25
369.767	288.25
369.993	277.25
370.219	293.25
370.445	279.25
370.672	284.25
370.898	283.25
371.124	278.25
371.35	283.25
371.576	294.25
371.802	292.25
372.028	300.25
372.254	279.25
372.48	296.25
372.706	308.25
372.932	314.25
373.158	282.25
373.384	292.25
373.61	302.25
373.835	314.25
374.061	281.25
374.287	293.25
374.513	299.25
374.739	316.25
374.965	320.25
375.191	324.25
375.416	323.25
375.642	322.25
375.868	300.25
376.094	299.25
376.319	287.25
376.545	316.25
376.771	293.25
376.997	302.25
377.222	280.25
377.448	281.25
377.674	273.25
377.899	294.25
378.125	290.25
378.35	309.25
378.576	290.25
378.802	290.25
379.027	289.25
379.253	290.25
379.478	292.25
379.704	302.25
379.929	294.25
380.155	270.25
380.38	286.25
380.606	293.25
380.831	307.25
381.057	312.25
381.282	291.25
381.507	298.25
381.733	297.25
381.958	298.25
382.184	302.25
382.409	316.25
382.634	318.25
382.86	311.25
383.085	320.25
383.31	302.25
383.535	322.25
383.761	311.25
383.986	335.25
384.211	329.25
384.436	345.25
384.662	355.25
384.887	347.25
385.112	332.25
385.337	336.25
385.562	340.25
385.787	329.25
386.013	362.25
386.238	342.25
386.463	341.25
386.688	326.25
386.913	346.25
387.138	339.25
387.363	346.25
387.588	342.25
387.813	334.25
388.038	347.25
388.263	337.25
388.488	356.25
388.713	363.25
388.938	317.25
389.163	328.25
389.387	345.25
389.612	334.25
389.837	330.25
390.062	342.25
390.287	332.25
390.512	333.25
390.736	334.25
390.961	342.25
391.186	354.25
391.411	361.25
391.636	374.25
391.86	374.25
392.085	379.25
392.31	375.25
392.534	366.25
392.759	361.25
392.984	373.25
393.208	354.25
393.433	344.25
393.658	349.25
393.882	370.25
394.107	357.25
394.331	378.25
394.556	346.25
394.78	343.25
395.005	378.25
395.229	377.25
395.454	390.25
395.678	372.25
395.903	372.25
396.127	386.25
396.352	355.25
396.576	377.25
396.801	387.25
397.025	378.25
397.249	382.25
397.474	398.25
397.698	409.25
397.922	382.25
398.147	390.25
398.371	410.25
398.595	412.25
398.82	413.25
399.044	468.25
399.268	466.25
399.492	535.25
399.717	568.25
399.941	579.25
400.165	524.25
400.389	473.25
400.613	466.25
400.837	460.25
401.062	421.25
401.286	420.25
401.51	425.25
401.734	415.25
401.958	430.25
402.182	433.25
402.406	412.25
402.63	429.25
402.854	451.25
403.078	448.25
403.302	456.25
403.526	460.25
403.75	461.25
403.974	463.25
404.198	454.25
404.422	480.25
404.645	465.25
404.869	457.25
405.093	451.25
405.317	448.25
405.541	461.25
405.765	458.25
405.988	466.25
406.212	459.25
406.436	459.25
406.66	456.25
406.883	459.25
407.107	487.25
407.331	504.25
407.555	541.25
407.778	527.25
408.002	514.25
408.226	487.25
408.449	490.25
408.673	468.25
408.896	471.25
409.12	470.25
409.344	456.25
409.567	462.25
409.791	469.25
410.014	470.25
410.238	467.25
410.461	485.25
410.685	461.25
410.908	429.25
411.132	462.25
411.355	443.25
411.578	450.25
411.802	422.25
412.025	453.25
412.249	452.25
412.472	449.25
412.695	447.25
412.919	426.25
413.142	448.25
413.365	429.25
413.589	441.25
413.812	454.25
414.035	443.25
414.258	432.25
414.482	444.25
414.705	428.25
414.928	437.25
415.151	428.25
415.374	415.25
415.597	448.25
415.821	418.25
416.044	416.25
416.267	406.25
416.49	440.25
416.713	430.25
416.936	427.25
417.159	423.25
417.382	416.25
417.605	392.25
417.828	409.25
418.051	437.25
418.274	434.25
418.497	436.25
418.72	438.25
418.943	423.25
419.166	460.25
419.389	463.25
419.611	431.25
419.834	446.25
420.057	437.25
420.28	426.25
420.503	426.25
420.726	411.25
420.948	405.25
421.171	413.25
421.394	405.25
421.617	420.25
421.839	422.25
422.062	437.25
422.285	420.25
422.507	397.25
422.73	425.25
422.953	408.25
423.175	434.25
423.398	434.25
423.621	435.25
423.843	435.25
424.066	439.25
424.288	438.25
424.511	423.25
424.733	450.25
424.956	420.25
425.178	416.25
425.401	444.25
425.623	425.25
425.846	402.25
426.068	405.25
426.291	402.25
426.513	408.25
426.735	382.25
426.958	399.25
427.18	380.25
427.402	402.25
427.625	384.25
427.847	382.25
428.069	394.25
428.292	388.25
428.514	410.25
428.736	401.25
428.958	378.25
429.181	384.25
429.403	384.25
429.625	363.25
429.847	390.25
430.069	372.25
430.292	377.25
430.514	372.25
430.736	375.25
430.958	402.25
431.18	390.25
431.402	392.25
431.624	388.25
431.846	377.25
432.068	380.25
432.29	394.25
432.512	399.25
432.734	398.25
432.956	400.25
433.178	378.25
433.4	409.25
433.622	399.25
433.844	398.25
434.066	414.25
434.287	401.25
434.509	405.25
434.731	426.25
434.953	447.25
435.175	434.25
435.397	426.25
435.618	421.25
435.84	404.25
436.062	403.25
436.284	389.25
436.505	379.25
436.727	390.25
436.949	406.25
437.17	392.25
437.392	370.25
437.614	386.25
437.835	370.25
438.057	376.25
438.278	365.25
438.5	365.25
438.721	386.25
438.943	380.25
439.165	382.25
439.386	380.25
439.608	401.25
439.829	389.25
440.05	397.25
440.272	404.25
440.493	419.25
440.715	401.25
440.936	443.25
441.158	415.25
441.379	431.25
441.6	463.25
441.822	440.25
442.043	427.25
442.264	419.25
442.486	411.25
442.707	435.25
442.928	438.25
443.149	434.25
443.371	434.25
443.592	432.25
443.813	443.25
444.034	414.25
444.255	443.25
444.476	479.25
444.698	487.25
444.919	491.25
445.14	579.25
445.361	481.25
445.582	459.25
445.803	429.25
446.024	428.25
446.245	436.25
446.466	420.25
446.687	401.25
446.908	444.25
447.129	412.25
447.35	397.25
447.571	394.25
447.792	383.25
448.013	381.25
448.234	392.25
448.455	374.25
448.675	350.25
448.896	382.25
449.117	390.25
449.338	396.25
449.559	385.25
449.779	399.25
450	366.25
450.221	385.25
450.442	369.25
450.662	372.25
450.883	378.25
451.104	375.25
451.324	375.25
451.545	386.25
451.766	378.25
451.986	374.25
452.207	376.25
452.428	361.25
452.648	370.25
452.869	353.25
453.089	382.25
453.31	380.25
453.53	363.25
453.751	360.25
453.971	358.25
454.192	348.25
454.412	354.25
454.633	362.25
454.853	367.25
455.073	348.25
455.294	354.25
455.514	352.25
455.734	350.25
455.955	350.25
456.175	331.25
456.395	331.25
456.616	346.25
456.836	347.25
457.056	347.25
457.276	338.25
457.497	338.25
457.717	350.25
457.937	339.25
458.157	357.25
458.377	368.25
458.598	360.25
458.818	365.25
459.038	364.25
459.258	370.25
459.478	384.25
459.698	414.25
459.918	381.25
460.138	419.25
460.358	439.25
460.578	442.25
460.798	432.25
461.018	453.25
461.238	448.25
461.458	440.25
461.678	457.25
461.898	458.25
462.118	450.25
462.338	471.25
462.558	482.25
462.777	504.25
462.997	536.25
463.217	544.25
463.437	552.25
463.657	521.25
463.876	498.25
464.096	516.25
464.316	512.25
464.536	490.25
464.755	504.25
464.975	490.25
465.195	456.25
465.414	435.25
465.634	422.25
465.854	422.25
466.073	416.25
466.293	380.25
466.512	382.25
466.732	386.25
466.951	408.25
467.171	394.25
467.391	393.25
467.61	396.25
467.829	381.25
468.049	374.25
468.268	373.25
468.488	360.25
468.707	374.25
468.927	382.25
469.146	364.25
469.365	374.25
469.585	381.25
469.804	374.25
470.023	381.25
470.243	392.25
470.462	393.25
470.681	382.25
470.901	392.25
471.12	396.25
471.339	391.25
471.558	384.25
471.777	383.25
471.997	367.25
472.216	370.25
472.435	375.25
472.654	349.25
472.873	357.25
473.092	359.25
473.311	354.25
473.53	354.25
473.749	349.25
473.968	365.25
474.187	376.25
474.406	355.25
474.625	348.25
474.844	355.25
475.063	368.25
475.282	362.25
475.501	336.25
475.72	357.25
475.939	358.25
476.158	366.25
476.377	366.25
476.596	374.25
476.814	372.25
477.033	358.25
477.252	357.25
477.471	382.25
477.69	412.25
477.908	396.25
478.127	409.25
478.346	408.25
478.564	421.25
478.783	418.25
479.002	427.25
479.22	428.25
479.439	422.25
479.658	432.25
479.876	412.25
480.095	436.25
480.313	427.25
480.532	442.25
480.751	439.25
480.969	421.25
481.188	412.25
481.406	398.25
481.624	404.25
481.843	385.25
482.061	407.25
482.28	410.25
482.498	386.25
482.717	385.25
482.935	390.25
483.153	408.25
483.372	394.25
483.59	427.25
483.808	400.25
484.027	374.25
484.245	391.25
484.463	400.25
484.681	420.25
484.9	426.25
485.118	402.25
485.336	384.25
485.554	404.25
485.772	409.25
485.99	393.25
486.209	437.25
486.427	419.25
486.645	401.25
486.863	400.25
487.081	393.25
487.299	405.25
487.517	412.25
487.735	413.25
487.953	406.25
488.171	422.25
488.389	425.25
488.607	413.25
488.825	409.25
489.043	390.25
489.261	420.25
489.479	395.25
489.696	402.25
489.914	418.25
490.132	413.25
490.35	418.25
490.568	416.25
490.786	416.25
491.003	411.25
491.221	407.25
491.439	417.25
491.657	430.25
491.874	437.25
492.092	439.25
492.31	459.25
492.527	442.25
492.745	425.25
492.963	422.25
493.18	439.25
493.398	438.25
493.615	419.25
493.833	432.25
494.05	435.25
494.268	413.25
494.485	434.25
494.703	440.25
494.92	439.25
495.138	445.25
495.355	443.25
495.573	462.25
495.79	448.25
496.008	428.25
496.225	432.25
496.442	435.25
496.66	458.25
496.877	461.25
497.094	465.25
497.312	473.25
497.529	484.25
497.746	485.25
497.963	497.25
498.181	524.25
498.398	539.25
498.615	553.25
498.832	586.25
499.049	652.25
499.267	663.25
499.484	743.25
499.701	785.25
499.918	807.25
500.135	936.25
500.352	1057.25
500.569	1106.25
500.786	1070.25
501.003	995.25
501.22	918.25
501.437	802.25
501.654	738.25
501.871	694.25
502.088	628.25
