Data from Fe(NO3)3@0.1M.TitratingCurve.Agarose3%dH2O.NegLispCup.LampEnergy10.LIBS07252019_HRD10591_16-39-19-332.txt Node
Date: Thu Jul 25 16:39:19 EDT 2019
User: cochatt
Spectrometer: HR+D1059
Trigger mode: 1
Integration Time (sec): 1.000000E-1
Scans to average: 1
Electric dark correction enabled: true
Nonlinearity correction enabled: false
Boxcar width: 0
XAxis mode: Wavelengths
Number of Pixels in Spectrum: 2048
>>>>>Begin Spectral Data<<<<<
223.165	-8.62
223.4	-8.62
223.635	-8.62
223.869	-20.62
224.104	-35.62
224.338	-30.62
224.573	-10.62
224.808	-8.62
225.042	-7.62
225.277	3.38
225.511	-10.62
225.746	-2.62
225.98	17.38
226.215	7.38
226.449	9.38
226.683	28.38
226.918	31.38
227.152	38.38
227.387	38.38
227.621	46.38
227.856	48.38
228.09	40.38
228.324	50.38
228.559	61.38
228.793	55.38
229.027	90.38
229.262	80.38
229.496	87.38
229.73	105.38
229.964	99.38
230.199	92.38
230.433	98.38
230.667	86.38
230.901	88.38
231.136	103.38
231.37	108.38
231.604	115.38
231.838	99.38
232.072	103.38
232.306	118.38
232.541	91.38
232.775	104.38
233.009	113.38
233.243	110.38
233.477	109.38
233.711	105.38
233.945	120.38
234.179	121.38
234.413	112.38
234.647	128.38
234.881	116.38
235.115	113.38
235.349	118.38
235.583	121.38
235.817	102.38
236.051	120.38
236.285	100.38
236.519	111.38
236.753	116.38
236.987	116.38
237.221	118.38
237.455	121.38
237.689	114.38
237.922	117.38
238.156	130.38
238.39	132.38
238.624	129.38
238.858	112.38
239.091	112.38
239.325	113.38
239.559	130.38
239.793	133.38
240.027	135.38
240.26	122.38
240.494	121.38
240.728	107.38
240.961	123.38
241.195	130.38
241.429	121.38
241.662	130.38
241.896	144.38
242.13	124.38
242.363	123.38
242.597	134.38
242.83	133.38
243.064	126.38
243.298	138.38
243.531	139.38
243.765	150.38
243.998	143.38
244.232	138.38
244.465	139.38
244.699	144.38
244.932	142.38
245.166	143.38
245.399	143.38
245.633	151.38
245.866	149.38
246.099	142.38
246.333	148.38
246.566	139.38
246.8	132.38
247.033	154.38
247.266	143.38
247.5	163.38
247.733	150.38
247.966	139.38
248.2	153.38
248.433	144.38
248.666	147.38
248.899	155.38
249.133	149.38
249.366	144.38
249.599	150.38
249.832	171.38
250.066	160.38
250.299	157.38
250.532	153.38
250.765	164.38
250.998	148.38
251.231	155.38
251.465	180.38
251.698	171.38
251.931	148.38
252.164	157.38
252.397	161.38
252.63	156.38
252.863	153.38
253.096	187.38
253.329	171.38
253.562	159.38
253.795	173.38
254.028	181.38
254.261	176.38
254.494	180.38
254.727	168.38
254.96	174.38
255.193	170.38
255.426	165.38
255.659	171.38
255.892	166.38
256.124	172.38
256.357	180.38
256.59	163.38
256.823	180.38
257.056	194.38
257.289	180.38
257.521	168.38
257.754	182.38
257.987	184.38
258.22	181.38
258.452	177.38
258.685	177.38
258.918	174.38
259.151	192.38
259.383	176.38
259.616	183.38
259.849	183.38
260.081	195.38
260.314	190.38
260.547	196.38
260.779	194.38
261.012	209.38
261.244	205.38
261.477	192.38
261.71	201.38
261.942	195.38
262.175	182.38
262.407	202.38
262.64	185.38
262.872	213.38
263.105	211.38
263.337	204.38
263.57	221.38
263.802	185.38
264.035	200.38
264.267	196.38
264.499	205.38
264.732	203.38
264.964	205.38
265.197	212.38
265.429	206.38
265.661	204.38
265.894	196.38
266.126	184.38
266.358	215.38
266.591	216.38
266.823	200.38
267.055	207.38
267.287	222.38
267.52	203.38
267.752	220.38
267.984	213.38
268.216	223.38
268.448	214.38
268.681	211.38
268.913	223.38
269.145	205.38
269.377	227.38
269.609	219.38
269.841	207.38
270.073	216.38
270.306	218.38
270.538	214.38
270.77	210.38
271.002	211.38
271.234	225.38
271.466	220.38
271.698	230.38
271.93	213.38
272.162	228.38
272.394	241.38
272.626	242.38
272.858	242.38
273.09	237.38
273.322	235.38
273.553	230.38
273.785	230.38
274.017	228.38
274.249	235.38
274.481	233.38
274.713	263.38
274.945	249.38
275.176	260.38
275.408	247.38
275.64	248.38
275.872	258.38
276.104	234.38
276.335	229.38
276.567	247.38
276.799	245.38
277.031	234.38
277.262	237.38
277.494	259.38
277.726	247.38
277.957	232.38
278.189	262.38
278.421	238.38
278.652	237.38
278.884	265.38
279.115	246.38
279.347	240.38
279.579	266.38
279.81	268.38
280.042	257.38
280.273	268.38
280.505	269.38
280.736	266.38
280.968	283.38
281.199	257.38
281.431	266.38
281.662	260.38
281.894	279.38
282.125	266.38
282.356	260.38
282.588	264.38
282.819	270.38
283.051	271.38
283.282	260.38
283.513	277.38
283.745	276.38
283.976	269.38
284.207	268.38
284.439	263.38
284.67	265.38
284.901	276.38
285.132	256.38
285.364	280.38
285.595	282.38
285.826	282.38
286.057	272.38
286.288	287.38
286.52	281.38
286.751	279.38
286.982	283.38
287.213	273.38
287.444	284.38
287.675	292.38
287.906	286.38
288.138	293.38
288.369	304.38
288.6	281.38
288.831	270.38
289.062	286.38
289.293	280.38
289.524	276.38
289.755	301.38
289.986	268.38
290.217	270.38
290.448	286.38
290.679	289.38
290.91	284.38
291.141	287.38
291.371	309.38
291.602	291.38
291.833	309.38
292.064	295.38
292.295	295.38
292.526	288.38
292.757	289.38
292.987	296.38
293.218	290.38
293.449	304.38
293.68	307.38
293.91	293.38
294.141	302.38
294.372	291.38
294.603	288.38
294.833	294.38
295.064	319.38
295.295	293.38
295.525	288.38
295.756	306.38
295.987	301.38
296.217	300.38
296.448	298.38
296.679	307.38
296.909	316.38
297.14	306.38
297.37	308.38
297.601	316.38
297.831	320.38
298.062	316.38
298.292	316.38
298.523	312.38
298.753	329.38
298.984	316.38
299.214	295.38
299.445	323.38
299.675	314.38
299.905	331.38
300.136	333.38
300.366	313.38
300.597	316.38
300.827	320.38
301.057	340.38
301.288	319.38
301.518	328.38
301.748	333.38
301.979	346.38
302.209	328.38
302.439	318.38
302.669	326.38
302.9	322.38
303.13	352.38
303.36	336.38
303.59	331.38
303.82	316.38
304.051	342.38
304.281	328.38
304.511	337.38
304.741	346.38
304.971	334.38
305.201	320.38
305.431	333.38
305.661	331.38
305.891	331.38
306.121	315.38
306.352	328.38
306.582	345.38
306.812	333.38
307.042	340.38
307.272	345.38
307.502	320.38
307.731	336.38
307.961	333.38
308.191	331.38
308.421	317.38
308.651	336.38
308.881	318.38
309.111	325.38
309.341	360.38
309.571	339.38
309.8	346.38
310.03	320.38
310.26	340.38
310.49	338.38
310.72	345.38
310.949	340.38
311.179	316.38
311.409	328.38
311.639	336.38
311.868	346.38
312.098	345.38
312.328	337.38
312.557	350.38
312.787	346.38
313.017	345.38
313.246	352.38
313.476	360.38
313.706	363.38
313.935	349.38
314.165	359.38
314.394	357.38
314.624	348.38
314.853	347.38
315.083	352.38
315.312	345.38
315.542	346.38
315.771	363.38
316.001	357.38
316.23	358.38
316.46	357.38
316.689	353.38
316.919	356.38
317.148	355.38
317.377	354.38
317.607	345.38
317.836	358.38
318.065	364.38
318.295	353.38
318.524	340.38
318.753	352.38
318.983	354.38
319.212	345.38
319.441	369.38
319.67	370.38
319.9	360.38
320.129	342.38
320.358	341.38
320.587	356.38
320.816	345.38
321.046	329.38
321.275	362.38
321.504	376.38
321.733	363.38
321.962	377.38
322.191	361.38
322.42	368.38
322.649	352.38
322.878	380.38
323.108	368.38
323.337	349.38
323.566	354.38
323.795	352.38
324.024	364.38
324.253	377.38
324.482	345.38
324.71	335.38
324.939	360.38
325.168	376.38
325.397	357.38
325.626	363.38
325.855	373.38
326.084	392.38
326.313	376.38
326.542	404.38
326.77	392.38
326.999	385.38
327.228	358.38
327.457	382.38
327.686	390.38
327.914	388.38
328.143	369.38
328.372	370.38
328.6	384.38
328.829	385.38
329.058	369.38
329.287	376.38
329.515	372.38
329.744	389.38
329.972	391.38
330.201	386.38
330.43	402.38
330.658	413.38
330.887	393.38
331.115	422.38
331.344	402.38
331.572	400.38
331.801	400.38
332.03	399.38
332.258	417.38
332.486	445.38
332.715	436.38
332.943	464.38
333.172	462.38
333.4	486.38
333.629	476.38
333.857	496.38
334.085	487.38
334.314	510.38
334.542	478.38
334.771	491.38
334.999	467.38
335.227	478.38
335.455	471.38
335.684	477.38
335.912	474.38
336.14	470.38
336.369	461.38
336.597	458.38
336.825	475.38
337.053	472.38
337.281	449.38
337.51	442.38
337.738	444.38
337.966	421.38
338.194	440.38
338.422	426.38
338.65	421.38
338.878	419.38
339.106	413.38
339.334	433.38
339.562	420.38
339.79	392.38
340.018	385.38
340.246	400.38
340.474	423.38
340.702	409.38
340.93	404.38
341.158	400.38
341.386	401.38
341.614	411.38
341.842	399.38
342.07	391.38
342.298	404.38
342.526	397.38
342.754	406.38
342.981	403.38
343.209	406.38
343.437	415.38
343.665	445.38
343.893	465.38
344.12	483.38
344.348	445.38
344.576	428.38
344.804	450.38
345.031	424.38
345.259	404.38
345.487	405.38
345.714	396.38
345.942	414.38
346.17	406.38
346.397	401.38
346.625	403.38
346.853	399.38
347.08	397.38
347.308	390.38
347.535	388.38
347.763	397.38
347.99	399.38
348.218	404.38
348.445	407.38
348.673	382.38
348.9	390.38
349.128	396.38
349.355	404.38
349.583	408.38
349.81	392.38
350.037	392.38
350.265	379.38
350.492	377.38
350.72	391.38
350.947	362.38
351.174	397.38
351.402	382.38
351.629	393.38
351.856	385.38
352.083	404.38
352.311	378.38
352.538	373.38
352.765	377.38
352.992	403.38
353.22	378.38
353.447	390.38
353.674	388.38
353.901	391.38
354.128	387.38
354.355	358.38
354.583	364.38
354.81	388.38
355.037	380.38
355.264	398.38
355.491	379.38
355.718	395.38
355.945	381.38
356.172	382.38
356.399	385.38
356.626	388.38
356.853	395.38
357.08	393.38
357.307	398.38
357.534	374.38
357.761	385.38
357.988	410.38
358.215	388.38
358.441	377.38
358.668	378.38
358.895	377.38
359.122	370.38
359.349	387.38
359.576	392.38
359.802	380.38
360.029	374.38
360.256	374.38
360.483	391.38
360.709	360.38
360.936	378.38
361.163	393.38
361.39	397.38
361.616	386.38
361.843	384.38
362.07	383.38
362.296	380.38
362.523	382.38
362.749	390.38
362.976	377.38
363.203	380.38
363.429	382.38
363.656	379.38
363.882	399.38
364.109	393.38
364.335	373.38
364.562	382.38
364.788	396.38
365.015	379.38
365.241	397.38
365.468	407.38
365.694	401.38
365.92	375.38
366.147	386.38
366.373	383.38
366.599	396.38
366.826	409.38
367.052	400.38
367.278	382.38
367.505	379.38
367.731	387.38
367.957	397.38
368.184	401.38
368.41	397.38
368.636	415.38
368.862	408.38
369.089	405.38
369.315	404.38
369.541	411.38
369.767	413.38
369.993	410.38
370.219	393.38
370.445	402.38
370.672	417.38
370.898	409.38
371.124	442.38
371.35	425.38
371.576	420.38
371.802	428.38
372.028	432.38
372.254	427.38
372.48	437.38
372.706	455.38
372.932	459.38
373.158	436.38
373.384	437.38
373.61	423.38
373.835	447.38
374.061	436.38
374.287	450.38
374.513	441.38
374.739	454.38
374.965	446.38
375.191	471.38
375.416	488.38
375.642	461.38
375.868	474.38
376.094	458.38
376.319	435.38
376.545	428.38
376.771	424.38
376.997	419.38
377.222	407.38
377.448	424.38
377.674	421.38
377.899	422.38
378.125	432.38
378.35	421.38
378.576	429.38
378.802	432.38
379.027	432.38
379.253	438.38
379.478	429.38
379.704	435.38
379.929	422.38
380.155	424.38
380.38	434.38
380.606	447.38
380.831	419.38
381.057	425.38
381.282	446.38
381.507	435.38
381.733	434.38
381.958	430.38
382.184	434.38
382.409	438.38
382.634	454.38
382.86	453.38
383.085	463.38
383.31	456.38
383.535	489.38
383.761	472.38
383.986	501.38
384.211	507.38
384.436	498.38
384.662	487.38
384.887	534.38
385.112	486.38
385.337	516.38
385.562	501.38
385.787	510.38
386.013	505.38
386.238	516.38
386.463	499.38
386.688	509.38
386.913	512.38
387.138	520.38
387.363	506.38
387.588	525.38
387.813	509.38
388.038	508.38
388.263	520.38
388.488	508.38
388.713	503.38
388.938	515.38
389.163	496.38
389.387	487.38
389.612	503.38
389.837	509.38
390.062	505.38
390.287	532.38
390.512	512.38
390.736	523.38
390.961	529.38
391.186	544.38
391.411	548.38
391.636	549.38
391.86	572.38
392.085	578.38
392.31	585.38
392.534	548.38
392.759	568.38
392.984	543.38
393.208	533.38
393.433	555.38
393.658	535.38
393.882	551.38
394.107	556.38
394.331	578.38
394.556	563.38
394.78	563.38
395.005	555.38
395.229	549.38
395.454	581.38
395.678	578.38
395.903	577.38
396.127	561.38
396.352	553.38
396.576	561.38
396.801	567.38
397.025	539.38
397.249	551.38
397.474	573.38
397.698	596.38
397.922	591.38
398.147	579.38
398.371	625.38
398.595	627.38
398.82	646.38
399.044	677.38
399.268	723.38
399.492	796.38
399.717	859.38
399.941	860.38
400.165	809.38
400.389	772.38
400.613	695.38
400.837	680.38
401.062	659.38
401.286	676.38
401.51	647.38
401.734	674.38
401.958	654.38
402.182	658.38
402.406	646.38
402.63	676.38
402.854	672.38
403.078	691.38
403.302	679.38
403.526	679.38
403.75	710.38
403.974	708.38
404.198	699.38
404.422	728.38
404.645	716.38
404.869	703.38
405.093	712.38
405.317	696.38
405.541	697.38
405.765	694.38
405.988	682.38
406.212	694.38
406.436	707.38
406.66	747.38
406.883	709.38
407.107	776.38
407.331	808.38
407.555	831.38
407.778	792.38
408.002	783.38
408.226	777.38
408.449	769.38
408.673	754.38
408.896	733.38
409.12	723.38
409.344	746.38
409.567	725.38
409.791	758.38
410.014	737.38
410.238	733.38
410.461	720.38
410.685	710.38
410.908	710.38
411.132	693.38
411.355	651.38
411.578	676.38
411.802	683.38
412.025	660.38
412.249	719.38
412.472	689.38
412.695	672.38
412.919	667.38
413.142	675.38
413.365	667.38
413.589	670.38
413.812	663.38
414.035	661.38
414.258	664.38
414.482	653.38
414.705	670.38
414.928	690.38
415.151	662.38
415.374	661.38
415.597	660.38
415.821	624.38
416.044	628.38
416.267	628.38
416.49	639.38
416.713	622.38
416.936	653.38
417.159	628.38
417.382	621.38
417.605	646.38
417.828	634.38
418.051	663.38
418.274	649.38
418.497	668.38
418.72	667.38
418.943	635.38
419.166	677.38
419.389	717.38
419.611	704.38
419.834	698.38
420.057	680.38
420.28	663.38
420.503	664.38
420.726	640.38
420.948	630.38
421.171	634.38
421.394	653.38
421.617	648.38
421.839	649.38
422.062	677.38
422.285	611.38
422.507	646.38
422.73	658.38
422.953	630.38
423.175	641.38
423.398	685.38
423.621	628.38
423.843	654.38
424.066	673.38
424.288	644.38
424.511	657.38
424.733	665.38
424.956	655.38
425.178	647.38
425.401	648.38
425.623	667.38
425.846	630.38
426.068	618.38
426.291	620.38
426.513	594.38
426.735	632.38
426.958	626.38
427.18	582.38
427.402	612.38
427.625	625.38
427.847	584.38
428.069	605.38
428.292	601.38
428.514	595.38
428.736	586.38
428.958	600.38
429.181	606.38
429.403	585.38
429.625	577.38
429.847	582.38
430.069	590.38
430.292	606.38
430.514	594.38
430.736	584.38
430.958	578.38
431.18	585.38
431.402	583.38
431.624	580.38
431.846	605.38
432.068	589.38
432.29	601.38
432.512	593.38
432.734	586.38
432.956	596.38
433.178	602.38
433.4	597.38
433.622	620.38
433.844	627.38
434.066	616.38
434.287	609.38
434.509	628.38
434.731	635.38
434.953	666.38
435.175	675.38
435.397	650.38
435.618	632.38
435.84	609.38
436.062	611.38
436.284	608.38
436.505	616.38
436.727	606.38
436.949	603.38
437.17	583.38
437.392	593.38
437.614	600.38
437.835	573.38
438.057	579.38
438.278	580.38
438.5	546.38
438.721	595.38
438.943	601.38
439.165	565.38
439.386	578.38
439.608	612.38
439.829	611.38
440.05	621.38
440.272	598.38
440.493	593.38
440.715	582.38
440.936	600.38
441.158	603.38
441.379	632.38
441.6	666.38
441.822	674.38
442.043	652.38
442.264	654.38
442.486	629.38
442.707	637.38
442.928	637.38
443.149	655.38
443.371	654.38
443.592	659.38
443.813	647.38
444.034	648.38
444.255	670.38
444.476	690.38
444.698	743.38
444.919	756.38
445.14	855.38
445.361	754.38
445.582	681.38
445.803	662.38
446.024	621.38
446.245	652.38
446.466	647.38
446.687	624.38
446.908	628.38
447.129	593.38
447.35	626.38
447.571	605.38
447.792	582.38
448.013	567.38
448.234	611.38
448.455	549.38
448.675	563.38
448.896	555.38
449.117	562.38
449.338	582.38
449.559	564.38
449.779	576.38
450	564.38
450.221	565.38
450.442	550.38
450.662	576.38
450.883	556.38
451.104	571.38
451.324	577.38
451.545	562.38
451.766	553.38
451.986	548.38
452.207	547.38
452.428	548.38
452.648	561.38
452.869	541.38
453.089	538.38
453.31	532.38
453.53	530.38
453.751	532.38
453.971	523.38
454.192	507.38
454.412	515.38
454.633	566.38
454.853	547.38
455.073	527.38
455.294	527.38
455.514	529.38
455.734	495.38
455.955	532.38
456.175	511.38
456.395	523.38
456.616	531.38
456.836	543.38
457.056	508.38
457.276	518.38
457.497	516.38
457.717	509.38
457.937	523.38
458.157	532.38
458.377	535.38
458.598	543.38
458.818	538.38
459.038	583.38
459.258	570.38
459.478	586.38
459.698	617.38
459.918	618.38
460.138	644.38
460.358	674.38
460.578	663.38
460.798	654.38
461.018	702.38
461.238	665.38
461.458	668.38
461.678	706.38
461.898	688.38
462.118	736.38
462.338	716.38
462.558	745.38
462.777	772.38
462.997	808.38
463.217	859.38
463.437	837.38
463.657	795.38
463.876	790.38
464.096	782.38
464.316	779.38
464.536	752.38
464.755	771.38
464.975	728.38
465.195	694.38
465.414	681.38
465.634	642.38
465.854	609.38
466.073	631.38
466.293	606.38
466.512	569.38
466.732	578.38
466.951	577.38
467.171	579.38
467.391	562.38
467.61	554.38
467.829	573.38
468.049	568.38
468.268	570.38
468.488	539.38
468.707	546.38
468.927	575.38
469.146	566.38
469.365	564.38
469.585	584.38
469.804	582.38
470.023	588.38
470.243	557.38
470.462	603.38
470.681	583.38
470.901	596.38
471.12	578.38
471.339	571.38
471.558	544.38
471.777	554.38
471.997	549.38
472.216	563.38
472.435	565.38
472.654	547.38
472.873	550.38
473.092	536.38
473.311	532.38
473.53	539.38
473.749	517.38
473.968	555.38
474.187	533.38
474.406	522.38
474.625	572.38
474.844	536.38
475.063	542.38
475.282	551.38
475.501	525.38
475.72	561.38
475.939	556.38
476.158	560.38
476.377	541.38
476.596	552.38
476.814	564.38
477.033	548.38
477.252	570.38
477.471	586.38
477.69	595.38
477.908	615.38
478.127	608.38
478.346	611.38
478.564	625.38
478.783	635.38
479.002	667.38
479.22	654.38
479.439	645.38
479.658	632.38
479.876	643.38
480.095	657.38
480.313	684.38
480.532	669.38
480.751	665.38
480.969	635.38
481.188	634.38
481.406	622.38
481.624	605.38
481.843	596.38
482.061	615.38
482.28	599.38
482.498	605.38
482.717	594.38
482.935	606.38
483.153	614.38
483.372	605.38
483.59	632.38
483.808	633.38
484.027	608.38
484.245	604.38
484.463	615.38
484.681	609.38
484.9	632.38
485.118	615.38
485.336	613.38
485.554	640.38
485.772	619.38
485.99	622.38
486.209	589.38
486.427	614.38
486.645	610.38
486.863	631.38
487.081	619.38
487.299	620.38
487.517	634.38
487.735	636.38
487.953	631.38
488.171	657.38
488.389	624.38
488.607	625.38
488.825	621.38
489.043	628.38
489.261	608.38
489.479	609.38
489.696	630.38
489.914	620.38
490.132	622.38
490.35	627.38
490.568	607.38
490.786	654.38
491.003	636.38
491.221	626.38
491.439	652.38
491.657	634.38
491.874	640.38
492.092	654.38
492.31	638.38
492.527	638.38
492.745	640.38
492.963	646.38
493.18	672.38
493.398	655.38
493.615	650.38
493.833	672.38
494.05	674.38
494.268	665.38
494.485	661.38
494.703	663.38
494.92	682.38
495.138	666.38
495.355	695.38
495.573	681.38
495.79	679.38
496.008	692.38
496.225	683.38
496.442	692.38
496.66	716.38
496.877	691.38
497.094	713.38
497.312	738.38
497.529	729.38
497.746	774.38
497.963	772.38
498.181	820.38
498.398	834.38
498.615	854.38
498.832	911.38
499.049	968.38
499.267	1038.38
499.484	1117.38
499.701	1262.38
499.918	1311.38
500.135	1493.38
500.352	1622.38
500.569	1634.38
500.786	1626.38
501.003	1565.38
501.22	1444.38
501.437	1308.38
501.654	1172.38
