Data from Fe(NO3)3@0.1M.TitratingCurve.Agarose3%dH2O.NegLispCup.LampEnergy10.LIBS07252019_HRD10591_16-40-47-333.txt Node
Date: Thu Jul 25 16:40:47 EDT 2019
User: cochatt
Spectrometer: HR+D1059
Trigger mode: 1
Integration Time (sec): 1.000000E-1
Scans to average: 1
Electric dark correction enabled: true
Nonlinearity correction enabled: false
Boxcar width: 0
XAxis mode: Wavelengths
Number of Pixels in Spectrum: 2048
>>>>>Begin Spectral Data<<<<<
223.165	-11.19
223.4	-11.19
223.635	-11.19
223.869	-22.19
224.104	-22.19
224.338	-8.19
224.573	-19.19
224.808	-5.19
225.042	-17.19
225.277	-8.19
225.511	2.81
225.746	-1.19
225.98	3.81
226.215	21.81
226.449	22.81
226.683	13.81
226.918	19.81
227.152	29.81
227.387	43.81
227.621	16.81
227.856	52.81
228.09	54.81
228.324	48.81
228.559	72.81
228.793	60.81
229.027	72.81
229.262	68.81
229.496	74.81
229.73	65.81
229.964	79.81
230.199	82.81
230.433	91.81
230.667	92.81
230.901	83.81
231.136	90.81
231.37	80.81
231.604	86.81
231.838	73.81
232.072	100.81
232.306	84.81
232.541	80.81
232.775	82.81
233.009	84.81
233.243	101.81
233.477	93.81
233.711	90.81
233.945	84.81
234.179	91.81
234.413	82.81
234.647	92.81
234.881	102.81
235.115	89.81
235.349	74.81
235.583	80.81
235.817	90.81
236.051	90.81
236.285	92.81
236.519	91.81
236.753	90.81
236.987	99.81
237.221	88.81
237.455	104.81
237.689	82.81
237.922	88.81
238.156	78.81
238.39	95.81
238.624	84.81
238.858	83.81
239.091	81.81
239.325	97.81
239.559	95.81
239.793	103.81
240.027	84.81
240.26	85.81
240.494	96.81
240.728	108.81
240.961	92.81
241.195	92.81
241.429	94.81
241.662	90.81
241.896	85.81
242.13	96.81
242.363	81.81
242.597	80.81
242.83	97.81
243.064	91.81
243.298	80.81
243.531	98.81
243.765	89.81
243.998	95.81
244.232	96.81
244.465	116.81
244.699	107.81
244.932	99.81
245.166	91.81
245.399	108.81
245.633	101.81
245.866	88.81
246.099	100.81
246.333	87.81
246.566	94.81
246.8	108.81
247.033	95.81
247.266	86.81
247.5	93.81
247.733	93.81
247.966	109.81
248.2	95.81
248.433	112.81
248.666	102.81
248.899	94.81
249.133	81.81
249.366	100.81
249.599	103.81
249.832	106.81
250.066	107.81
250.299	101.81
250.532	107.81
250.765	93.81
250.998	106.81
251.231	99.81
251.465	95.81
251.698	115.81
251.931	103.81
252.164	106.81
252.397	107.81
252.63	118.81
252.863	101.81
253.096	100.81
253.329	124.81
253.562	122.81
253.795	124.81
254.028	99.81
254.261	100.81
254.494	94.81
254.727	115.81
254.96	104.81
255.193	106.81
255.426	112.81
255.659	110.81
255.892	114.81
256.124	99.81
256.357	112.81
256.59	117.81
256.823	108.81
257.056	102.81
257.289	111.81
257.521	111.81
257.754	116.81
257.987	118.81
258.22	95.81
258.452	108.81
258.685	106.81
258.918	127.81
259.151	111.81
259.383	111.81
259.616	119.81
259.849	108.81
260.081	114.81
260.314	117.81
260.547	108.81
260.779	114.81
261.012	104.81
261.244	109.81
261.477	102.81
261.71	112.81
261.942	134.81
262.175	124.81
262.407	124.81
262.64	121.81
262.872	125.81
263.105	136.81
263.337	118.81
263.57	116.81
263.802	113.81
264.035	136.81
264.267	124.81
264.499	104.81
264.732	120.81
264.964	130.81
265.197	115.81
265.429	118.81
265.661	128.81
265.894	119.81
266.126	129.81
266.358	138.81
266.591	135.81
266.823	122.81
267.055	109.81
267.287	118.81
267.52	130.81
267.752	131.81
267.984	138.81
268.216	119.81
268.448	123.81
268.681	112.81
268.913	138.81
269.145	124.81
269.377	118.81
269.609	123.81
269.841	123.81
270.073	116.81
270.306	121.81
270.538	128.81
270.77	123.81
271.002	133.81
271.234	133.81
271.466	122.81
271.698	141.81
271.93	134.81
272.162	122.81
272.394	139.81
272.626	127.81
272.858	105.81
273.09	136.81
273.322	140.81
273.553	124.81
273.785	142.81
274.017	124.81
274.249	125.81
274.481	119.81
274.713	129.81
274.945	122.81
275.176	143.81
275.408	134.81
275.64	125.81
275.872	120.81
276.104	145.81
276.335	124.81
276.567	141.81
276.799	135.81
277.031	147.81
277.262	132.81
277.494	127.81
277.726	139.81
277.957	135.81
278.189	134.81
278.421	131.81
278.652	119.81
278.884	144.81
279.115	134.81
279.347	132.81
279.579	132.81
279.81	140.81
280.042	135.81
280.273	124.81
280.505	127.81
280.736	129.81
280.968	139.81
281.199	135.81
281.431	138.81
281.662	142.81
281.894	136.81
282.125	143.81
282.356	141.81
282.588	134.81
282.819	140.81
283.051	144.81
283.282	132.81
283.513	140.81
283.745	140.81
283.976	131.81
284.207	134.81
284.439	154.81
284.67	147.81
284.901	151.81
285.132	154.81
285.364	143.81
285.595	147.81
285.826	160.81
286.057	135.81
286.288	139.81
286.52	142.81
286.751	147.81
286.982	142.81
287.213	145.81
287.444	123.81
287.675	155.81
287.906	157.81
288.138	150.81
288.369	155.81
288.6	137.81
288.831	165.81
289.062	157.81
289.293	145.81
289.524	152.81
289.755	154.81
289.986	148.81
290.217	140.81
290.448	144.81
290.679	150.81
290.91	136.81
291.141	144.81
291.371	139.81
291.602	148.81
291.833	150.81
292.064	164.81
292.295	158.81
292.526	150.81
292.757	162.81
292.987	148.81
293.218	142.81
293.449	143.81
293.68	151.81
293.91	127.81
294.141	153.81
294.372	137.81
294.603	152.81
294.833	142.81
295.064	144.81
295.295	149.81
295.525	137.81
295.756	142.81
295.987	150.81
296.217	143.81
296.448	154.81
296.679	139.81
296.909	140.81
297.14	162.81
297.37	163.81
297.601	149.81
297.831	146.81
298.062	160.81
298.292	151.81
298.523	160.81
298.753	143.81
298.984	167.81
299.214	165.81
299.445	165.81
299.675	163.81
299.905	138.81
300.136	165.81
300.366	163.81
300.597	172.81
300.827	147.81
301.057	146.81
301.288	157.81
301.518	163.81
301.748	162.81
301.979	156.81
302.209	168.81
302.439	161.81
302.669	168.81
302.9	156.81
303.13	159.81
303.36	151.81
303.59	157.81
303.82	152.81
304.051	168.81
304.281	166.81
304.511	175.81
304.741	162.81
304.971	166.81
305.201	150.81
305.431	171.81
305.661	159.81
305.891	174.81
306.121	165.81
306.352	168.81
306.582	163.81
306.812	169.81
307.042	184.81
307.272	172.81
307.502	161.81
307.731	167.81
307.961	157.81
308.191	173.81
308.421	166.81
308.651	176.81
308.881	170.81
309.111	156.81
309.341	175.81
309.571	169.81
309.8	148.81
310.03	162.81
310.26	180.81
310.49	161.81
310.72	166.81
310.949	167.81
311.179	168.81
311.409	173.81
311.639	181.81
311.868	164.81
312.098	180.81
312.328	167.81
312.557	159.81
312.787	176.81
313.017	166.81
313.246	179.81
313.476	164.81
313.706	175.81
313.935	174.81
314.165	170.81
314.394	164.81
314.624	166.81
314.853	170.81
315.083	172.81
315.312	178.81
315.542	186.81
315.771	167.81
316.001	169.81
316.23	173.81
316.46	172.81
316.689	162.81
316.919	174.81
317.148	173.81
317.377	184.81
317.607	172.81
317.836	166.81
318.065	163.81
318.295	178.81
318.524	168.81
318.753	159.81
318.983	170.81
319.212	181.81
319.441	186.81
319.67	173.81
319.9	180.81
320.129	167.81
320.358	171.81
320.587	166.81
320.816	190.81
321.046	176.81
321.275	166.81
321.504	174.81
321.733	179.81
321.962	188.81
322.191	184.81
322.42	181.81
322.649	176.81
322.878	168.81
323.108	187.81
323.337	181.81
323.566	182.81
323.795	180.81
324.024	181.81
324.253	174.81
324.482	163.81
324.71	182.81
324.939	167.81
325.168	170.81
325.397	169.81
325.626	167.81
325.855	172.81
326.084	184.81
326.313	192.81
326.542	171.81
326.77	172.81
326.999	188.81
327.228	201.81
327.457	194.81
327.686	181.81
327.914	180.81
328.143	170.81
328.372	193.81
328.6	200.81
328.829	176.81
329.058	171.81
329.287	188.81
329.515	182.81
329.744	190.81
329.972	182.81
330.201	194.81
330.43	200.81
330.658	189.81
330.887	200.81
331.115	191.81
331.344	184.81
331.572	190.81
331.801	194.81
332.03	205.81
332.258	187.81
332.486	199.81
332.715	214.81
332.943	223.81
333.172	231.81
333.4	223.81
333.629	231.81
333.857	223.81
334.085	236.81
334.314	225.81
334.542	230.81
334.771	216.81
334.999	226.81
335.227	220.81
335.455	212.81
335.684	203.81
335.912	212.81
336.14	193.81
336.369	228.81
336.597	215.81
336.825	219.81
337.053	200.81
337.281	196.81
337.51	197.81
337.738	206.81
337.966	191.81
338.194	200.81
338.422	192.81
338.65	199.81
338.878	187.81
339.106	204.81
339.334	204.81
339.562	196.81
339.79	184.81
340.018	206.81
340.246	203.81
340.474	200.81
340.702	189.81
340.93	212.81
341.158	190.81
341.386	182.81
341.614	198.81
341.842	199.81
342.07	192.81
342.298	184.81
342.526	197.81
342.754	195.81
342.981	206.81
343.209	192.81
343.437	224.81
343.665	226.81
343.893	208.81
344.12	221.81
344.348	199.81
344.576	204.81
344.804	203.81
345.031	198.81
345.259	182.81
345.487	201.81
345.714	195.81
345.942	180.81
346.17	215.81
346.397	189.81
346.625	196.81
346.853	194.81
347.08	194.81
347.308	202.81
347.535	209.81
347.763	203.81
347.99	194.81
348.218	192.81
348.445	190.81
348.673	174.81
348.9	178.81
349.128	206.81
349.355	180.81
349.583	186.81
349.81	187.81
350.037	167.81
350.265	187.81
350.492	198.81
350.72	185.81
350.947	185.81
351.174	186.81
351.402	171.81
351.629	190.81
351.856	189.81
352.083	183.81
352.311	205.81
352.538	188.81
352.765	184.81
352.992	180.81
353.22	182.81
353.447	202.81
353.674	206.81
353.901	195.81
354.128	193.81
354.355	192.81
354.583	205.81
354.81	205.81
355.037	201.81
355.264	170.81
355.491	183.81
355.718	184.81
355.945	185.81
356.172	206.81
356.399	198.81
356.626	192.81
356.853	185.81
357.08	188.81
357.307	205.81
357.534	201.81
357.761	197.81
357.988	186.81
358.215	194.81
358.441	195.81
358.668	176.81
358.895	191.81
359.122	186.81
359.349	194.81
359.576	191.81
359.802	200.81
360.029	182.81
360.256	182.81
360.483	191.81
360.709	207.81
360.936	198.81
361.163	186.81
361.39	193.81
361.616	182.81
361.843	176.81
362.07	214.81
362.296	173.81
362.523	198.81
362.749	206.81
362.976	185.81
363.203	195.81
363.429	192.81
363.656	204.81
363.882	190.81
364.109	215.81
364.335	195.81
364.562	199.81
364.788	183.81
365.015	210.81
365.241	202.81
365.468	188.81
365.694	175.81
365.92	192.81
366.147	172.81
366.373	182.81
366.599	196.81
366.826	190.81
367.052	202.81
367.278	191.81
367.505	202.81
367.731	190.81
367.957	188.81
368.184	187.81
368.41	196.81
368.636	200.81
368.862	205.81
369.089	210.81
369.315	194.81
369.541	191.81
369.767	208.81
369.993	192.81
370.219	197.81
370.445	200.81
370.672	199.81
370.898	204.81
371.124	199.81
371.35	203.81
371.576	208.81
371.802	200.81
372.028	203.81
372.254	217.81
372.48	196.81
372.706	196.81
372.932	211.81
373.158	215.81
373.384	221.81
373.61	199.81
373.835	213.81
374.061	191.81
374.287	222.81
374.513	219.81
374.739	213.81
374.965	242.81
375.191	219.81
375.416	207.81
375.642	232.81
375.868	227.81
376.094	201.81
376.319	205.81
376.545	212.81
376.771	212.81
376.997	215.81
377.222	208.81
377.448	218.81
377.674	218.81
377.899	198.81
378.125	196.81
378.35	211.81
378.576	198.81
378.802	206.81
379.027	196.81
379.253	204.81
379.478	220.81
379.704	213.81
379.929	200.81
380.155	206.81
380.38	201.81
380.606	213.81
380.831	191.81
381.057	212.81
381.282	209.81
381.507	198.81
381.733	208.81
381.958	211.81
382.184	205.81
382.409	213.81
382.634	224.81
382.86	210.81
383.085	216.81
383.31	213.81
383.535	219.81
383.761	225.81
383.986	232.81
384.211	225.81
384.436	222.81
384.662	234.81
384.887	231.81
385.112	231.81
385.337	217.81
385.562	231.81
385.787	235.81
386.013	250.81
386.238	227.81
386.463	253.81
386.688	243.81
386.913	232.81
387.138	229.81
387.363	248.81
387.588	237.81
387.813	231.81
388.038	229.81
388.263	233.81
388.488	244.81
388.713	238.81
388.938	246.81
389.163	232.81
389.387	240.81
389.612	236.81
389.837	233.81
390.062	239.81
390.287	225.81
390.512	242.81
390.736	237.81
390.961	254.81
391.186	261.81
391.411	246.81
391.636	254.81
391.86	252.81
392.085	253.81
392.31	254.81
392.534	266.81
392.759	257.81
392.984	256.81
393.208	246.81
393.433	248.81
393.658	232.81
393.882	252.81
394.107	260.81
394.331	251.81
394.556	247.81
394.78	263.81
395.005	244.81
395.229	262.81
395.454	266.81
395.678	273.81
395.903	234.81
396.127	257.81
396.352	258.81
396.576	247.81
396.801	267.81
397.025	261.81
397.249	263.81
397.474	264.81
397.698	267.81
397.922	266.81
398.147	248.81
398.371	267.81
398.595	260.81
398.82	290.81
399.044	317.81
399.268	324.81
399.492	348.81
399.717	383.81
399.941	378.81
400.165	330.81
400.389	303.81
400.613	303.81
400.837	290.81
401.062	294.81
401.286	283.81
401.51	268.81
401.734	268.81
401.958	299.81
402.182	277.81
402.406	284.81
402.63	294.81
402.854	289.81
403.078	298.81
403.302	296.81
403.526	300.81
403.75	315.81
403.974	314.81
404.198	329.81
404.422	322.81
404.645	319.81
404.869	315.81
405.093	298.81
405.317	293.81
405.541	296.81
405.765	308.81
405.988	299.81
406.212	298.81
406.436	307.81
406.66	321.81
406.883	320.81
407.107	332.81
407.331	328.81
407.555	342.81
407.778	326.81
408.002	341.81
408.226	320.81
408.449	327.81
408.673	309.81
408.896	318.81
409.12	310.81
409.344	336.81
409.567	296.81
409.791	314.81
410.014	321.81
410.238	330.81
410.461	328.81
410.685	336.81
410.908	312.81
411.132	319.81
411.355	298.81
411.578	305.81
411.802	292.81
412.025	306.81
412.249	287.81
412.472	298.81
412.695	316.81
412.919	298.81
413.142	269.81
413.365	271.81
413.589	292.81
413.812	294.81
414.035	302.81
414.258	297.81
414.482	309.81
414.705	302.81
414.928	290.81
415.151	288.81
415.374	277.81
415.597	265.81
415.821	271.81
416.044	279.81
416.267	290.81
416.49	277.81
416.713	307.81
416.936	278.81
417.159	292.81
417.382	278.81
417.605	266.81
417.828	303.81
418.051	291.81
418.274	297.81
418.497	306.81
418.72	291.81
418.943	299.81
419.166	310.81
419.389	306.81
419.611	303.81
419.834	299.81
420.057	302.81
420.28	303.81
420.503	290.81
420.726	286.81
420.948	283.81
421.171	285.81
421.394	292.81
421.617	299.81
421.839	299.81
422.062	278.81
422.285	277.81
422.507	304.81
422.73	275.81
422.953	302.81
423.175	296.81
423.398	312.81
423.621	311.81
423.843	323.81
424.066	303.81
424.288	289.81
424.511	272.81
424.733	306.81
424.956	294.81
425.178	294.81
425.401	300.81
425.623	283.81
425.846	271.81
426.068	279.81
426.291	290.81
426.513	277.81
426.735	287.81
426.958	277.81
427.18	264.81
427.402	292.81
427.625	247.81
427.847	268.81
428.069	283.81
428.292	293.81
428.514	274.81
428.736	277.81
428.958	254.81
429.181	252.81
429.403	259.81
429.625	283.81
429.847	273.81
430.069	276.81
430.292	272.81
430.514	260.81
430.736	267.81
430.958	263.81
431.18	270.81
431.402	269.81
431.624	279.81
431.846	266.81
432.068	257.81
432.29	277.81
432.512	275.81
432.734	282.81
432.956	286.81
433.178	279.81
433.4	269.81
433.622	280.81
433.844	285.81
434.066	278.81
434.287	286.81
434.509	285.81
434.731	278.81
434.953	288.81
435.175	292.81
435.397	299.81
435.618	280.81
435.84	279.81
436.062	274.81
436.284	287.81
436.505	279.81
436.727	280.81
436.949	284.81
437.17	272.81
437.392	269.81
437.614	249.81
437.835	239.81
438.057	270.81
438.278	258.81
438.5	288.81
438.721	285.81
438.943	291.81
439.165	249.81
439.386	295.81
439.608	275.81
439.829	294.81
440.05	299.81
440.272	292.81
440.493	297.81
440.715	278.81
440.936	291.81
441.158	311.81
441.379	288.81
441.6	297.81
441.822	302.81
442.043	319.81
442.264	311.81
442.486	311.81
442.707	304.81
442.928	302.81
443.149	293.81
443.371	313.81
443.592	307.81
443.813	291.81
444.034	321.81
444.255	316.81
444.476	333.81
444.698	328.81
444.919	351.81
445.14	420.81
445.361	351.81
445.582	318.81
445.803	306.81
446.024	310.81
446.245	310.81
446.466	298.81
446.687	300.81
446.908	278.81
447.129	286.81
447.35	301.81
447.571	307.81
447.792	278.81
448.013	274.81
448.234	271.81
448.455	293.81
448.675	262.81
448.896	276.81
449.117	286.81
449.338	257.81
449.559	272.81
449.779	261.81
450	262.81
450.221	276.81
450.442	258.81
450.662	284.81
450.883	278.81
451.104	276.81
451.324	276.81
451.545	279.81
451.766	294.81
451.986	276.81
452.207	268.81
452.428	275.81
452.648	246.81
452.869	269.81
453.089	261.81
453.31	249.81
453.53	243.81
453.751	244.81
453.971	255.81
454.192	242.81
454.412	225.81
454.633	262.81
454.853	260.81
455.073	243.81
455.294	245.81
455.514	251.81
455.734	255.81
455.955	260.81
456.175	260.81
456.395	243.81
456.616	243.81
456.836	266.81
457.056	251.81
457.276	245.81
457.497	246.81
457.717	225.81
457.937	259.81
458.157	273.81
458.377	260.81
458.598	260.81
458.818	261.81
459.038	276.81
459.258	254.81
459.478	268.81
459.698	269.81
459.918	282.81
460.138	295.81
460.358	303.81
460.578	292.81
460.798	313.81
461.018	312.81
461.238	297.81
461.458	323.81
461.678	297.81
461.898	305.81
462.118	304.81
462.338	334.81
462.558	346.81
462.777	327.81
462.997	384.81
463.217	371.81
463.437	370.81
463.657	349.81
463.876	341.81
464.096	339.81
464.316	339.81
464.536	340.81
464.755	334.81
464.975	307.81
465.195	320.81
465.414	306.81
465.634	295.81
465.854	276.81
466.073	288.81
466.293	272.81
466.512	277.81
466.732	276.81
466.951	268.81
467.171	274.81
467.391	251.81
467.61	263.81
467.829	277.81
468.049	284.81
468.268	263.81
468.488	277.81
468.707	262.81
468.927	247.81
469.146	261.81
469.365	263.81
469.585	260.81
469.804	276.81
470.023	259.81
470.243	267.81
470.462	281.81
470.681	266.81
470.901	272.81
471.12	286.81
471.339	278.81
471.558	259.81
471.777	278.81
471.997	282.81
472.216	263.81
472.435	279.81
472.654	260.81
472.873	232.81
473.092	237.81
473.311	264.81
473.53	252.81
473.749	275.81
473.968	251.81
474.187	252.81
474.406	258.81
474.625	272.81
474.844	266.81
475.063	231.81
475.282	260.81
475.501	238.81
475.72	262.81
475.939	247.81
476.158	269.81
476.377	248.81
476.596	259.81
476.814	256.81
477.033	258.81
477.252	285.81
477.471	280.81
477.69	287.81
477.908	294.81
478.127	278.81
478.346	295.81
478.564	286.81
478.783	301.81
479.002	299.81
479.22	295.81
479.439	302.81
479.658	283.81
479.876	298.81
480.095	288.81
480.313	304.81
480.532	303.81
480.751	309.81
480.969	282.81
481.188	285.81
481.406	275.81
481.624	291.81
481.843	280.81
482.061	266.81
482.28	258.81
482.498	269.81
482.717	279.81
482.935	266.81
483.153	274.81
483.372	278.81
483.59	295.81
483.808	277.81
484.027	296.81
484.245	285.81
484.463	282.81
484.681	284.81
484.9	304.81
485.118	293.81
485.336	286.81
485.554	280.81
485.772	271.81
485.99	287.81
486.209	276.81
486.427	279.81
486.645	288.81
486.863	292.81
487.081	280.81
487.299	286.81
487.517	278.81
487.735	302.81
487.953	308.81
488.171	303.81
488.389	282.81
488.607	296.81
488.825	276.81
489.043	280.81
489.261	286.81
489.479	284.81
489.696	287.81
489.914	291.81
490.132	287.81
490.35	291.81
490.568	283.81
490.786	307.81
491.003	322.81
491.221	306.81
491.439	291.81
491.657	294.81
491.874	306.81
492.092	316.81
492.31	317.81
492.527	302.81
492.745	323.81
492.963	319.81
493.18	311.81
493.398	314.81
493.615	289.81
493.833	317.81
494.05	310.81
494.268	312.81
494.485	311.81
494.703	314.81
494.92	322.81
495.138	286.81
495.355	292.81
495.573	295.81
495.79	290.81
496.008	316.81
496.225	320.81
496.442	322.81
496.66	326.81
496.877	316.81
497.094	320.81
497.312	332.81
497.529	327.81
497.746	342.81
497.963	346.81
498.181	333.81
498.398	364.81
498.615	370.81
498.832	398.81
499.049	412.81
499.267	450.81
499.484	472.81
499.701	504.81
499.918	580.81
500.135	601.81
500.352	668.81
500.569	674.81
500.786	690.81
501.003	622.81
501.22	560.81
501.437	500.81
501.654	464.81
501.871	429.81
502.088	416.81
502.305	399.81
502.522	401.81
502.739	376.81
