Data from Fe(NO3)3@0.1M.TitratingCurve.Agarose3%dH2O.NegLispCup.LampEnergy10.LIBS07252019_HRD10591_16-39-33-332.txt Node
Date: Thu Jul 25 16:39:33 EDT 2019
User: cochatt
Spectrometer: HR+D1059
Trigger mode: 1
Integration Time (sec): 1.000000E-1
Scans to average: 1
Electric dark correction enabled: true
Nonlinearity correction enabled: false
Boxcar width: 0
XAxis mode: Wavelengths
Number of Pixels in Spectrum: 2048
>>>>>Begin Spectral Data<<<<<
223.165	-23.81
223.4	-23.81
223.635	-23.81
223.869	-27.81
224.104	-15.81
224.338	-13.81
224.573	1.19
224.808	-5.81
225.042	-0.81
225.277	3.19
225.511	-7.81
225.746	10.19
225.98	-2.81
226.215	7.19
226.449	14.19
226.683	9.19
226.918	19.19
227.152	34.19
227.387	32.19
227.621	44.19
227.856	42.19
228.09	39.19
228.324	54.19
228.559	56.19
228.793	51.19
229.027	71.19
229.262	58.19
229.496	82.19
229.73	84.19
229.964	85.19
230.199	92.19
230.433	76.19
230.667	89.19
230.901	78.19
231.136	92.19
231.37	93.19
231.604	95.19
231.838	105.19
232.072	80.19
232.306	84.19
232.541	77.19
232.775	101.19
233.009	84.19
233.243	121.19
233.477	107.19
233.711	90.19
233.945	107.19
234.179	91.19
234.413	90.19
234.647	97.19
234.881	113.19
235.115	95.19
235.349	105.19
235.583	87.19
235.817	102.19
236.051	108.19
236.285	103.19
236.519	120.19
236.753	110.19
236.987	85.19
237.221	104.19
237.455	101.19
237.689	101.19
237.922	92.19
238.156	90.19
238.39	113.19
238.624	108.19
238.858	95.19
239.091	114.19
239.325	100.19
239.559	114.19
239.793	107.19
240.027	107.19
240.26	115.19
240.494	121.19
240.728	109.19
240.961	97.19
241.195	103.19
241.429	119.19
241.662	116.19
241.896	101.19
242.13	93.19
242.363	107.19
242.597	108.19
242.83	105.19
243.064	106.19
243.298	115.19
243.531	106.19
243.765	101.19
243.998	103.19
244.232	106.19
244.465	112.19
244.699	123.19
244.932	116.19
245.166	93.19
245.399	104.19
245.633	118.19
245.866	115.19
246.099	105.19
246.333	117.19
246.566	124.19
246.8	113.19
247.033	119.19
247.266	125.19
247.5	126.19
247.733	114.19
247.966	121.19
248.2	118.19
248.433	105.19
248.666	115.19
248.899	134.19
249.133	119.19
249.366	115.19
249.599	134.19
249.832	118.19
250.066	141.19
250.299	126.19
250.532	128.19
250.765	128.19
250.998	130.19
251.231	118.19
251.465	126.19
251.698	134.19
251.931	120.19
252.164	127.19
252.397	123.19
252.63	131.19
252.863	129.19
253.096	139.19
253.329	140.19
253.562	141.19
253.795	128.19
254.028	139.19
254.261	113.19
254.494	127.19
254.727	123.19
254.96	128.19
255.193	132.19
255.426	144.19
255.659	139.19
255.892	145.19
256.124	131.19
256.357	144.19
256.59	146.19
256.823	139.19
257.056	133.19
257.289	136.19
257.521	129.19
257.754	150.19
257.987	144.19
258.22	140.19
258.452	144.19
258.685	136.19
258.918	131.19
259.151	140.19
259.383	128.19
259.616	138.19
259.849	135.19
260.081	145.19
260.314	135.19
260.547	141.19
260.779	132.19
261.012	150.19
261.244	140.19
261.477	158.19
261.71	159.19
261.942	147.19
262.175	157.19
262.407	158.19
262.64	156.19
262.872	159.19
263.105	151.19
263.337	146.19
263.57	160.19
263.802	166.19
264.035	157.19
264.267	156.19
264.499	147.19
264.732	149.19
264.964	156.19
265.197	167.19
265.429	163.19
265.661	165.19
265.894	145.19
266.126	145.19
266.358	144.19
266.591	155.19
266.823	136.19
267.055	154.19
267.287	146.19
267.52	161.19
267.752	159.19
267.984	161.19
268.216	164.19
268.448	172.19
268.681	160.19
268.913	170.19
269.145	161.19
269.377	165.19
269.609	172.19
269.841	166.19
270.073	171.19
270.306	154.19
270.538	165.19
270.77	161.19
271.002	162.19
271.234	169.19
271.466	179.19
271.698	165.19
271.93	168.19
272.162	170.19
272.394	169.19
272.626	173.19
272.858	164.19
273.09	156.19
273.322	169.19
273.553	180.19
273.785	155.19
274.017	173.19
274.249	173.19
274.481	167.19
274.713	178.19
274.945	173.19
275.176	164.19
275.408	186.19
275.64	197.19
275.872	188.19
276.104	192.19
276.335	182.19
276.567	181.19
276.799	175.19
277.031	179.19
277.262	160.19
277.494	185.19
277.726	191.19
277.957	189.19
278.189	181.19
278.421	175.19
278.652	169.19
278.884	175.19
279.115	171.19
279.347	178.19
279.579	183.19
279.81	192.19
280.042	178.19
280.273	178.19
280.505	196.19
280.736	185.19
280.968	184.19
281.199	184.19
281.431	195.19
281.662	180.19
281.894	185.19
282.125	202.19
282.356	188.19
282.588	182.19
282.819	189.19
283.051	196.19
283.282	183.19
283.513	195.19
283.745	197.19
283.976	187.19
284.207	195.19
284.439	202.19
284.67	198.19
284.901	198.19
285.132	191.19
285.364	204.19
285.595	197.19
285.826	196.19
286.057	207.19
286.288	200.19
286.52	197.19
286.751	207.19
286.982	200.19
287.213	196.19
287.444	188.19
287.675	198.19
287.906	192.19
288.138	205.19
288.369	206.19
288.6	211.19
288.831	206.19
289.062	219.19
289.293	196.19
289.524	211.19
289.755	204.19
289.986	200.19
290.217	216.19
290.448	212.19
290.679	211.19
290.91	214.19
291.141	197.19
291.371	195.19
291.602	199.19
291.833	209.19
292.064	203.19
292.295	200.19
292.526	198.19
292.757	215.19
292.987	225.19
293.218	205.19
293.449	209.19
293.68	195.19
293.91	205.19
294.141	204.19
294.372	211.19
294.603	211.19
294.833	224.19
295.064	205.19
295.295	205.19
295.525	212.19
295.756	220.19
295.987	202.19
296.217	209.19
296.448	217.19
296.679	220.19
296.909	209.19
297.14	225.19
297.37	222.19
297.601	220.19
297.831	227.19
298.062	221.19
298.292	244.19
298.523	230.19
298.753	228.19
298.984	221.19
299.214	231.19
299.445	229.19
299.675	224.19
299.905	224.19
300.136	209.19
300.366	229.19
300.597	242.19
300.827	243.19
301.057	228.19
301.288	245.19
301.518	220.19
301.748	240.19
301.979	255.19
302.209	240.19
302.439	240.19
302.669	235.19
302.9	243.19
303.13	219.19
303.36	223.19
303.59	223.19
303.82	242.19
304.051	241.19
304.281	228.19
304.511	241.19
304.741	248.19
304.971	236.19
305.201	230.19
305.431	213.19
305.661	237.19
305.891	207.19
306.121	231.19
306.352	213.19
306.582	217.19
306.812	247.19
307.042	244.19
307.272	229.19
307.502	219.19
307.731	228.19
307.961	226.19
308.191	220.19
308.421	217.19
308.651	251.19
308.881	231.19
309.111	230.19
309.341	221.19
309.571	214.19
309.8	211.19
310.03	236.19
310.26	258.19
310.49	241.19
310.72	233.19
310.949	239.19
311.179	240.19
311.409	242.19
311.639	254.19
311.868	244.19
312.098	241.19
312.328	237.19
312.557	244.19
312.787	253.19
313.017	245.19
313.246	251.19
313.476	252.19
313.706	241.19
313.935	239.19
314.165	265.19
314.394	255.19
314.624	255.19
314.853	256.19
315.083	249.19
315.312	242.19
315.542	241.19
315.771	245.19
316.001	245.19
316.23	257.19
316.46	245.19
316.689	230.19
316.919	259.19
317.148	243.19
317.377	249.19
317.607	229.19
317.836	237.19
318.065	229.19
318.295	245.19
318.524	248.19
318.753	245.19
318.983	242.19
319.212	234.19
319.441	231.19
319.67	228.19
319.9	246.19
320.129	243.19
320.358	275.19
320.587	255.19
320.816	249.19
321.046	271.19
321.275	247.19
321.504	236.19
321.733	242.19
321.962	257.19
322.191	243.19
322.42	264.19
322.649	267.19
322.878	247.19
323.108	248.19
323.337	244.19
323.566	243.19
323.795	252.19
324.024	257.19
324.253	241.19
324.482	265.19
324.71	256.19
324.939	259.19
325.168	250.19
325.397	256.19
325.626	266.19
325.855	254.19
326.084	268.19
326.313	277.19
326.542	241.19
326.77	267.19
326.999	257.19
327.228	268.19
327.457	262.19
327.686	259.19
327.914	259.19
328.143	266.19
328.372	269.19
328.6	265.19
328.829	261.19
329.058	273.19
329.287	301.19
329.515	269.19
329.744	267.19
329.972	264.19
330.201	259.19
330.43	280.19
330.658	281.19
330.887	268.19
331.115	285.19
331.344	287.19
331.572	290.19
331.801	281.19
332.03	299.19
332.258	310.19
332.486	301.19
332.715	330.19
332.943	336.19
333.172	331.19
333.4	337.19
333.629	355.19
333.857	337.19
334.085	338.19
334.314	331.19
334.542	353.19
334.771	329.19
334.999	318.19
335.227	327.19
335.455	328.19
335.684	326.19
335.912	325.19
336.14	326.19
336.369	319.19
336.597	320.19
336.825	313.19
337.053	328.19
337.281	317.19
337.51	303.19
337.738	306.19
337.966	300.19
338.194	298.19
338.422	296.19
338.65	304.19
338.878	292.19
339.106	288.19
339.334	300.19
339.562	288.19
339.79	281.19
340.018	292.19
340.246	279.19
340.474	291.19
340.702	270.19
340.93	290.19
341.158	289.19
341.386	281.19
341.614	278.19
341.842	277.19
342.07	264.19
342.298	290.19
342.526	281.19
342.754	272.19
342.981	283.19
343.209	274.19
343.437	306.19
343.665	313.19
343.893	352.19
344.12	332.19
344.348	341.19
344.576	315.19
344.804	283.19
345.031	289.19
345.259	303.19
345.487	269.19
345.714	280.19
345.942	278.19
346.17	287.19
346.397	279.19
346.625	283.19
346.853	273.19
347.08	291.19
347.308	272.19
347.535	287.19
347.763	280.19
347.99	286.19
348.218	280.19
348.445	272.19
348.673	275.19
348.9	274.19
349.128	263.19
349.355	261.19
349.583	277.19
349.81	256.19
350.037	279.19
350.265	284.19
350.492	284.19
350.72	259.19
350.947	279.19
351.174	264.19
351.402	275.19
351.629	289.19
351.856	271.19
352.083	262.19
352.311	257.19
352.538	259.19
352.765	264.19
352.992	260.19
353.22	276.19
353.447	282.19
353.674	266.19
353.901	270.19
354.128	275.19
354.355	275.19
354.583	270.19
354.81	272.19
355.037	281.19
355.264	275.19
355.491	280.19
355.718	277.19
355.945	277.19
356.172	296.19
356.399	273.19
356.626	272.19
356.853	277.19
357.08	292.19
357.307	281.19
357.534	268.19
357.761	267.19
357.988	268.19
358.215	259.19
358.441	263.19
358.668	263.19
358.895	267.19
359.122	247.19
359.349	268.19
359.576	271.19
359.802	270.19
360.029	262.19
360.256	287.19
360.483	267.19
360.709	279.19
360.936	277.19
361.163	278.19
361.39	290.19
361.616	272.19
361.843	277.19
362.07	264.19
362.296	268.19
362.523	270.19
362.749	263.19
362.976	284.19
363.203	275.19
363.429	257.19
363.656	261.19
363.882	275.19
364.109	273.19
364.335	281.19
364.562	262.19
364.788	275.19
365.015	269.19
365.241	271.19
365.468	267.19
365.694	259.19
365.92	283.19
366.147	268.19
366.373	287.19
366.599	289.19
366.826	262.19
367.052	292.19
367.278	276.19
367.505	277.19
367.731	282.19
367.957	296.19
368.184	269.19
368.41	288.19
368.636	285.19
368.862	279.19
369.089	280.19
369.315	274.19
369.541	287.19
369.767	291.19
369.993	276.19
370.219	285.19
370.445	274.19
370.672	271.19
370.898	297.19
371.124	317.19
371.35	303.19
371.576	287.19
371.802	291.19
372.028	289.19
372.254	290.19
372.48	288.19
372.706	293.19
372.932	294.19
373.158	288.19
373.384	295.19
373.61	313.19
373.835	288.19
374.061	303.19
374.287	303.19
374.513	301.19
374.739	311.19
374.965	327.19
375.191	312.19
375.416	313.19
375.642	324.19
375.868	324.19
376.094	298.19
376.319	299.19
376.545	306.19
376.771	299.19
376.997	309.19
377.222	295.19
377.448	323.19
377.674	298.19
377.899	293.19
378.125	327.19
378.35	278.19
378.576	292.19
378.802	292.19
379.027	296.19
379.253	313.19
379.478	284.19
379.704	293.19
379.929	284.19
380.155	282.19
380.38	290.19
380.606	304.19
380.831	285.19
381.057	305.19
381.282	300.19
381.507	292.19
381.733	307.19
381.958	313.19
382.184	293.19
382.409	317.19
382.634	325.19
382.86	330.19
383.085	322.19
383.31	321.19
383.535	337.19
383.761	321.19
383.986	338.19
384.211	343.19
384.436	336.19
384.662	355.19
384.887	358.19
385.112	359.19
385.337	362.19
385.562	353.19
385.787	354.19
386.013	350.19
386.238	355.19
386.463	348.19
386.688	354.19
386.913	342.19
387.138	344.19
387.363	349.19
387.588	337.19
387.813	361.19
388.038	362.19
388.263	353.19
388.488	327.19
388.713	346.19
388.938	349.19
389.163	352.19
389.387	357.19
389.612	323.19
389.837	341.19
390.062	350.19
390.287	332.19
390.512	343.19
390.736	349.19
390.961	362.19
391.186	362.19
391.411	390.19
391.636	371.19
391.86	371.19
392.085	395.19
392.31	413.19
392.534	379.19
392.759	408.19
392.984	374.19
393.208	377.19
393.433	364.19
393.658	373.19
393.882	375.19
394.107	380.19
394.331	367.19
394.556	381.19
394.78	372.19
395.005	372.19
395.229	384.19
395.454	385.19
395.678	393.19
395.903	387.19
396.127	395.19
396.352	373.19
396.576	369.19
396.801	368.19
397.025	397.19
397.249	387.19
397.474	397.19
397.698	374.19
397.922	395.19
398.147	392.19
398.371	410.19
398.595	433.19
398.82	420.19
399.044	465.19
399.268	503.19
399.492	573.19
399.717	629.19
399.941	589.19
400.165	535.19
400.389	506.19
400.613	472.19
400.837	450.19
401.062	450.19
401.286	454.19
401.51	432.19
401.734	420.19
401.958	454.19
402.182	440.19
402.406	458.19
402.63	450.19
402.854	452.19
403.078	467.19
403.302	495.19
403.526	499.19
403.75	477.19
403.974	504.19
404.198	479.19
404.422	496.19
404.645	505.19
404.869	488.19
405.093	487.19
405.317	476.19
405.541	475.19
405.765	458.19
405.988	480.19
406.212	465.19
406.436	489.19
406.66	486.19
406.883	490.19
407.107	517.19
407.331	525.19
407.555	555.19
407.778	544.19
408.002	521.19
408.226	520.19
408.449	508.19
408.673	499.19
408.896	496.19
409.12	482.19
409.344	481.19
409.567	469.19
409.791	483.19
410.014	477.19
410.238	451.19
410.461	469.19
410.685	489.19
410.908	468.19
411.132	462.19
411.355	470.19
411.578	445.19
411.802	455.19
412.025	460.19
412.249	448.19
412.472	475.19
412.695	455.19
412.919	450.19
413.142	450.19
413.365	447.19
413.589	435.19
413.812	437.19
414.035	450.19
414.258	435.19
414.482	446.19
414.705	447.19
414.928	447.19
415.151	450.19
415.374	427.19
415.597	444.19
415.821	441.19
416.044	438.19
416.267	425.19
416.49	434.19
416.713	420.19
416.936	445.19
417.159	428.19
417.382	419.19
417.605	428.19
417.828	417.19
418.051	436.19
418.274	452.19
418.497	446.19
418.72	456.19
418.943	439.19
419.166	480.19
419.389	494.19
419.611	461.19
419.834	461.19
420.057	467.19
420.28	449.19
420.503	437.19
420.726	428.19
420.948	458.19
421.171	425.19
421.394	428.19
421.617	444.19
421.839	418.19
422.062	420.19
422.285	453.19
422.507	458.19
422.73	421.19
422.953	418.19
423.175	455.19
423.398	456.19
423.621	484.19
423.843	475.19
424.066	457.19
424.288	457.19
424.511	450.19
424.733	444.19
424.956	429.19
425.178	466.19
425.401	447.19
425.623	440.19
425.846	419.19
426.068	429.19
426.291	428.19
426.513	432.19
426.735	415.19
426.958	422.19
427.18	402.19
427.402	417.19
427.625	388.19
427.847	413.19
428.069	395.19
428.292	418.19
428.514	388.19
428.736	394.19
428.958	402.19
429.181	404.19
429.403	399.19
429.625	413.19
429.847	411.19
430.069	395.19
430.292	393.19
430.514	401.19
430.736	397.19
430.958	412.19
431.18	395.19
431.402	399.19
431.624	426.19
431.846	402.19
432.068	401.19
432.29	402.19
432.512	395.19
432.734	407.19
432.956	405.19
433.178	410.19
433.4	419.19
433.622	427.19
433.844	408.19
434.066	409.19
434.287	415.19
434.509	411.19
434.731	434.19
434.953	433.19
435.175	433.19
435.397	451.19
435.618	421.19
435.84	436.19
436.062	412.19
436.284	413.19
436.505	408.19
436.727	406.19
436.949	425.19
437.17	402.19
437.392	409.19
437.614	398.19
437.835	391.19
438.057	403.19
438.278	396.19
438.5	375.19
438.721	399.19
438.943	415.19
439.165	393.19
439.386	403.19
439.608	404.19
439.829	408.19
440.05	414.19
440.272	403.19
440.493	408.19
440.715	397.19
440.936	425.19
441.158	423.19
441.379	432.19
441.6	460.19
441.822	444.19
442.043	469.19
442.264	447.19
442.486	442.19
442.707	443.19
442.928	426.19
443.149	445.19
443.371	437.19
443.592	449.19
443.813	437.19
444.034	461.19
444.255	451.19
444.476	505.19
444.698	501.19
444.919	525.19
445.14	614.19
445.361	531.19
445.582	441.19
445.803	448.19
446.024	439.19
446.245	436.19
446.466	415.19
446.687	411.19
446.908	425.19
447.129	397.19
447.35	403.19
447.571	387.19
447.792	394.19
448.013	406.19
448.234	395.19
448.455	400.19
448.675	389.19
448.896	389.19
449.117	389.19
449.338	390.19
449.559	381.19
449.779	396.19
450	371.19
450.221	395.19
450.442	381.19
450.662	393.19
450.883	381.19
451.104	382.19
451.324	387.19
451.545	389.19
451.766	397.19
451.986	391.19
452.207	380.19
452.428	381.19
452.648	392.19
452.869	374.19
453.089	362.19
453.31	371.19
453.53	353.19
453.751	375.19
453.971	379.19
454.192	325.19
454.412	375.19
454.633	345.19
454.853	357.19
455.073	371.19
455.294	356.19
455.514	383.19
455.734	373.19
455.955	362.19
456.175	349.19
456.395	355.19
456.616	362.19
456.836	347.19
457.056	356.19
457.276	341.19
457.497	339.19
457.717	361.19
457.937	360.19
458.157	362.19
458.377	351.19
458.598	367.19
458.818	372.19
459.038	396.19
459.258	384.19
459.478	394.19
459.698	409.19
459.918	423.19
460.138	438.19
460.358	474.19
460.578	461.19
460.798	443.19
461.018	459.19
461.238	462.19
461.458	473.19
461.678	472.19
461.898	455.19
462.118	471.19
462.338	477.19
462.558	504.19
462.777	523.19
462.997	570.19
463.217	597.19
463.437	582.19
463.657	553.19
463.876	517.19
464.096	507.19
464.316	532.19
464.536	528.19
464.755	488.19
464.975	490.19
465.195	468.19
465.414	434.19
465.634	426.19
465.854	413.19
466.073	413.19
466.293	420.19
466.512	405.19
466.732	400.19
466.951	410.19
467.171	400.19
467.391	413.19
467.61	407.19
467.829	385.19
468.049	381.19
468.268	379.19
468.488	384.19
468.707	377.19
468.927	393.19
469.146	381.19
469.365	383.19
469.585	401.19
469.804	388.19
470.023	403.19
470.243	392.19
470.462	404.19
470.681	394.19
470.901	391.19
471.12	373.19
471.339	403.19
471.558	387.19
471.777	379.19
471.997	390.19
472.216	388.19
472.435	359.19
472.654	373.19
472.873	352.19
473.092	372.19
473.311	379.19
473.53	372.19
473.749	372.19
473.968	361.19
474.187	350.19
474.406	358.19
474.625	365.19
474.844	381.19
475.063	370.19
475.282	382.19
475.501	367.19
475.72	369.19
475.939	382.19
476.158	373.19
476.377	364.19
476.596	367.19
476.814	373.19
477.033	383.19
477.252	379.19
477.471	396.19
477.69	415.19
477.908	434.19
478.127	414.19
478.346	429.19
478.564	427.19
478.783	443.19
479.002	455.19
479.22	453.19
479.439	447.19
479.658	422.19
479.876	428.19
480.095	415.19
480.313	475.19
480.532	475.19
480.751	473.19
480.969	449.19
481.188	441.19
481.406	425.19
481.624	413.19
481.843	421.19
482.061	406.19
482.28	405.19
482.498	405.19
482.717	398.19
482.935	393.19
483.153	412.19
483.372	405.19
483.59	395.19
483.808	412.19
484.027	433.19
484.245	417.19
484.463	414.19
484.681	421.19
484.9	431.19
485.118	431.19
485.336	416.19
485.554	424.19
485.772	421.19
485.99	420.19
486.209	417.19
486.427	409.19
486.645	419.19
486.863	425.19
487.081	415.19
487.299	421.19
487.517	427.19
487.735	429.19
487.953	440.19
488.171	427.19
488.389	428.19
488.607	428.19
488.825	392.19
489.043	413.19
489.261	414.19
489.479	426.19
489.696	435.19
489.914	423.19
490.132	429.19
490.35	414.19
490.568	431.19
490.786	407.19
491.003	422.19
491.221	424.19
491.439	428.19
491.657	429.19
491.874	440.19
492.092	457.19
492.31	422.19
492.527	443.19
492.745	447.19
492.963	452.19
493.18	444.19
493.398	448.19
493.615	453.19
493.833	435.19
494.05	459.19
494.268	450.19
494.485	434.19
494.703	440.19
494.92	441.19
495.138	436.19
495.355	417.19
495.573	421.19
495.79	432.19
496.008	463.19
496.225	473.19
496.442	472.19
496.66	472.19
496.877	498.19
497.094	474.19
497.312	475.19
497.529	491.19
497.746	509.19
497.963	505.19
498.181	512.19
498.398	546.19
498.615	587.19
498.832	629.19
499.049	661.19
499.267	696.19
499.484	758.19
499.701	815.19
499.918	916.19
500.135	1003.19
500.352	1158.19
500.569	1183.19
500.786	1170.19
501.003	1095.19
501.22	968.19
501.437	866.19
501.654	777.19
501.871	730.19
