Data from Fe(NO3)3@0.025M.TitratingCurve.Agarose3%dH2O.NegLispCup.LampEnergy10.LIBS07252019_HRD10591_16-56-52-336.txt Node
Date: Thu Jul 25 16:56:52 EDT 2019
User: cochatt
Spectrometer: HR+D1059
Trigger mode: 1
Integration Time (sec): 1.000000E-1
Scans to average: 1
Electric dark correction enabled: true
Nonlinearity correction enabled: false
Boxcar width: 0
XAxis mode: Wavelengths
Number of Pixels in Spectrum: 2048
>>>>>Begin Spectral Data<<<<<
223.165	-17.31
223.4	-17.31
223.635	-17.31
223.869	-18.31
224.104	-12.31
224.338	-5.31
224.573	-8.31
224.808	-6.31
225.042	-23.31
225.277	-2.31
225.511	-17.31
225.746	1.69
225.98	3.69
226.215	13.69
226.449	20.69
226.683	16.69
226.918	20.69
227.152	33.69
227.387	39.69
227.621	39.69
227.856	40.69
228.09	53.69
228.324	56.69
228.559	62.69
228.793	68.69
229.027	82.69
229.262	80.69
229.496	64.69
229.73	81.69
229.964	91.69
230.199	100.69
230.433	93.69
230.667	71.69
230.901	95.69
231.136	88.69
231.37	104.69
231.604	90.69
231.838	91.69
232.072	107.69
232.306	98.69
232.541	102.69
232.775	98.69
233.009	105.69
233.243	95.69
233.477	80.69
233.711	115.69
233.945	105.69
234.179	103.69
234.413	98.69
234.647	87.69
234.881	99.69
235.115	102.69
235.349	89.69
235.583	87.69
235.817	100.69
236.051	103.69
236.285	94.69
236.519	116.69
236.753	111.69
236.987	93.69
237.221	118.69
237.455	99.69
237.689	95.69
237.922	117.69
238.156	95.69
238.39	86.69
238.624	115.69
238.858	113.69
239.091	107.69
239.325	108.69
239.559	103.69
239.793	109.69
240.027	101.69
240.26	102.69
240.494	105.69
240.728	108.69
240.961	106.69
241.195	107.69
241.429	99.69
241.662	94.69
241.896	124.69
242.13	98.69
242.363	93.69
242.597	125.69
242.83	96.69
243.064	107.69
243.298	107.69
243.531	117.69
243.765	105.69
243.998	98.69
244.232	118.69
244.465	99.69
244.699	101.69
244.932	111.69
245.166	110.69
245.399	107.69
245.633	119.69
245.866	104.69
246.099	118.69
246.333	110.69
246.566	115.69
246.8	104.69
247.033	115.69
247.266	112.69
247.5	119.69
247.733	104.69
247.966	118.69
248.2	105.69
248.433	102.69
248.666	113.69
248.899	128.69
249.133	119.69
249.366	122.69
249.599	121.69
249.832	123.69
250.066	121.69
250.299	104.69
250.532	120.69
250.765	118.69
250.998	123.69
251.231	111.69
251.465	123.69
251.698	109.69
251.931	111.69
252.164	120.69
252.397	123.69
252.63	115.69
252.863	105.69
253.096	119.69
253.329	124.69
253.562	127.69
253.795	132.69
254.028	128.69
254.261	125.69
254.494	132.69
254.727	141.69
254.96	125.69
255.193	130.69
255.426	119.69
255.659	125.69
255.892	126.69
256.124	124.69
256.357	122.69
256.59	130.69
256.823	116.69
257.056	127.69
257.289	132.69
257.521	142.69
257.754	120.69
257.987	139.69
258.22	129.69
258.452	134.69
258.685	134.69
258.918	121.69
259.151	130.69
259.383	136.69
259.616	134.69
259.849	125.69
260.081	143.69
260.314	131.69
260.547	137.69
260.779	131.69
261.012	137.69
261.244	133.69
261.477	137.69
261.71	141.69
261.942	132.69
262.175	136.69
262.407	132.69
262.64	148.69
262.872	149.69
263.105	139.69
263.337	137.69
263.57	140.69
263.802	143.69
264.035	136.69
264.267	151.69
264.499	145.69
264.732	141.69
264.964	150.69
265.197	144.69
265.429	142.69
265.661	149.69
265.894	125.69
266.126	152.69
266.358	147.69
266.591	136.69
266.823	146.69
267.055	145.69
267.287	140.69
267.52	142.69
267.752	151.69
267.984	151.69
268.216	135.69
268.448	149.69
268.681	151.69
268.913	136.69
269.145	147.69
269.377	151.69
269.609	166.69
269.841	157.69
270.073	154.69
270.306	153.69
270.538	144.69
270.77	141.69
271.002	142.69
271.234	172.69
271.466	155.69
271.698	155.69
271.93	163.69
272.162	165.69
272.394	160.69
272.626	152.69
272.858	167.69
273.09	150.69
273.322	145.69
273.553	160.69
273.785	149.69
274.017	152.69
274.249	143.69
274.481	155.69
274.713	157.69
274.945	154.69
275.176	162.69
275.408	160.69
275.64	147.69
275.872	158.69
276.104	158.69
276.335	152.69
276.567	158.69
276.799	151.69
277.031	156.69
277.262	168.69
277.494	163.69
277.726	170.69
277.957	157.69
278.189	164.69
278.421	160.69
278.652	171.69
278.884	171.69
279.115	171.69
279.347	156.69
279.579	174.69
279.81	174.69
280.042	173.69
280.273	177.69
280.505	169.69
280.736	188.69
280.968	158.69
281.199	180.69
281.431	164.69
281.662	176.69
281.894	183.69
282.125	170.69
282.356	185.69
282.588	172.69
282.819	181.69
283.051	180.69
283.282	169.69
283.513	180.69
283.745	173.69
283.976	190.69
284.207	179.69
284.439	186.69
284.67	181.69
284.901	179.69
285.132	173.69
285.364	187.69
285.595	183.69
285.826	165.69
286.057	178.69
286.288	183.69
286.52	190.69
286.751	171.69
286.982	176.69
287.213	186.69
287.444	187.69
287.675	199.69
287.906	183.69
288.138	188.69
288.369	176.69
288.6	192.69
288.831	199.69
289.062	183.69
289.293	195.69
289.524	193.69
289.755	175.69
289.986	191.69
290.217	199.69
290.448	203.69
290.679	182.69
290.91	183.69
291.141	181.69
291.371	185.69
291.602	192.69
291.833	205.69
292.064	188.69
292.295	197.69
292.526	188.69
292.757	175.69
292.987	192.69
293.218	189.69
293.449	185.69
293.68	203.69
293.91	199.69
294.141	186.69
294.372	183.69
294.603	210.69
294.833	207.69
295.064	196.69
295.295	208.69
295.525	184.69
295.756	193.69
295.987	194.69
296.217	197.69
296.448	204.69
296.679	195.69
296.909	206.69
297.14	202.69
297.37	196.69
297.601	211.69
297.831	190.69
298.062	219.69
298.292	211.69
298.523	200.69
298.753	215.69
298.984	203.69
299.214	213.69
299.445	223.69
299.675	202.69
299.905	212.69
300.136	199.69
300.366	223.69
300.597	228.69
300.827	204.69
301.057	184.69
301.288	208.69
301.518	207.69
301.748	196.69
301.979	218.69
302.209	213.69
302.439	219.69
302.669	220.69
302.9	228.69
303.13	209.69
303.36	233.69
303.59	204.69
303.82	215.69
304.051	203.69
304.281	218.69
304.511	221.69
304.741	215.69
304.971	216.69
305.201	215.69
305.431	242.69
305.661	231.69
305.891	222.69
306.121	227.69
306.352	229.69
306.582	227.69
306.812	214.69
307.042	219.69
307.272	236.69
307.502	212.69
307.731	226.69
307.961	236.69
308.191	207.69
308.421	208.69
308.651	209.69
308.881	217.69
309.111	214.69
309.341	199.69
309.571	217.69
309.8	218.69
310.03	224.69
310.26	223.69
310.49	221.69
310.72	201.69
310.949	223.69
311.179	221.69
311.409	248.69
311.639	231.69
311.868	237.69
312.098	217.69
312.328	222.69
312.557	219.69
312.787	227.69
313.017	225.69
313.246	226.69
313.476	221.69
313.706	250.69
313.935	232.69
314.165	233.69
314.394	237.69
314.624	242.69
314.853	227.69
315.083	226.69
315.312	207.69
315.542	217.69
315.771	231.69
316.001	221.69
316.23	222.69
316.46	245.69
316.689	243.69
316.919	241.69
317.148	254.69
317.377	238.69
317.607	230.69
317.836	219.69
318.065	243.69
318.295	220.69
318.524	261.69
318.753	245.69
318.983	229.69
319.212	228.69
319.441	230.69
319.67	227.69
319.9	223.69
320.129	245.69
320.358	247.69
320.587	252.69
320.816	242.69
321.046	248.69
321.275	250.69
321.504	234.69
321.733	231.69
321.962	238.69
322.191	248.69
322.42	239.69
322.649	244.69
322.878	235.69
323.108	243.69
323.337	224.69
323.566	248.69
323.795	241.69
324.024	251.69
324.253	238.69
324.482	244.69
324.71	247.69
324.939	264.69
325.168	251.69
325.397	254.69
325.626	268.69
325.855	244.69
326.084	251.69
326.313	249.69
326.542	267.69
326.77	257.69
326.999	250.69
327.228	256.69
327.457	244.69
327.686	250.69
327.914	266.69
328.143	259.69
328.372	245.69
328.6	264.69
328.829	261.69
329.058	265.69
329.287	241.69
329.515	264.69
329.744	259.69
329.972	272.69
330.201	266.69
330.43	256.69
330.658	268.69
330.887	265.69
331.115	273.69
331.344	286.69
331.572	261.69
331.801	269.69
332.03	270.69
332.258	271.69
332.486	261.69
332.715	259.69
332.943	292.69
333.172	301.69
333.4	301.69
333.629	279.69
333.857	299.69
334.085	304.69
334.314	318.69
334.542	281.69
334.771	306.69
334.999	297.69
335.227	299.69
335.455	286.69
335.684	295.69
335.912	308.69
336.14	288.69
336.369	285.69
336.597	276.69
336.825	291.69
337.053	299.69
337.281	268.69
337.51	282.69
337.738	276.69
337.966	269.69
338.194	273.69
338.422	280.69
338.65	279.69
338.878	291.69
339.106	281.69
339.334	270.69
339.562	291.69
339.79	266.69
340.018	274.69
340.246	276.69
340.474	266.69
340.702	275.69
340.93	293.69
341.158	278.69
341.386	279.69
341.614	265.69
341.842	267.69
342.07	278.69
342.298	263.69
342.526	268.69
342.754	269.69
342.981	268.69
343.209	279.69
343.437	278.69
343.665	279.69
343.893	292.69
344.12	310.69
344.348	302.69
344.576	293.69
344.804	289.69
345.031	286.69
345.259	273.69
345.487	273.69
345.714	268.69
345.942	259.69
346.17	282.69
346.397	291.69
346.625	279.69
346.853	270.69
347.08	269.69
347.308	268.69
347.535	253.69
347.763	264.69
347.99	264.69
348.218	247.69
348.445	272.69
348.673	263.69
348.9	264.69
349.128	260.69
349.355	252.69
349.583	253.69
349.81	255.69
350.037	261.69
350.265	248.69
350.492	256.69
350.72	252.69
350.947	246.69
351.174	261.69
351.402	265.69
351.629	258.69
351.856	252.69
352.083	248.69
352.311	271.69
352.538	258.69
352.765	263.69
352.992	268.69
353.22	261.69
353.447	262.69
353.674	257.69
353.901	228.69
354.128	265.69
354.355	243.69
354.583	268.69
354.81	247.69
355.037	267.69
355.264	271.69
355.491	252.69
355.718	261.69
355.945	248.69
356.172	283.69
356.399	269.69
356.626	270.69
356.853	278.69
357.08	264.69
357.307	269.69
357.534	267.69
357.761	258.69
357.988	267.69
358.215	264.69
358.441	270.69
358.668	254.69
358.895	245.69
359.122	256.69
359.349	281.69
359.576	259.69
359.802	263.69
360.029	263.69
360.256	273.69
360.483	280.69
360.709	263.69
360.936	267.69
361.163	265.69
361.39	261.69
361.616	264.69
361.843	256.69
362.07	294.69
362.296	267.69
362.523	273.69
362.749	263.69
362.976	265.69
363.203	269.69
363.429	253.69
363.656	267.69
363.882	264.69
364.109	288.69
364.335	259.69
364.562	261.69
364.788	269.69
365.015	276.69
365.241	276.69
365.468	263.69
365.694	288.69
365.92	259.69
366.147	273.69
366.373	281.69
366.599	283.69
366.826	263.69
367.052	257.69
367.278	270.69
367.505	281.69
367.731	267.69
367.957	269.69
368.184	258.69
368.41	274.69
368.636	268.69
368.862	282.69
369.089	263.69
369.315	267.69
369.541	269.69
369.767	283.69
369.993	278.69
370.219	275.69
370.445	271.69
370.672	278.69
370.898	287.69
371.124	268.69
371.35	287.69
371.576	293.69
371.802	269.69
372.028	267.69
372.254	283.69
372.48	301.69
372.706	277.69
372.932	295.69
373.158	286.69
373.384	280.69
373.61	282.69
373.835	284.69
374.061	284.69
374.287	282.69
374.513	282.69
374.739	290.69
374.965	282.69
375.191	288.69
375.416	303.69
375.642	309.69
375.868	291.69
376.094	297.69
376.319	275.69
376.545	278.69
376.771	291.69
376.997	280.69
377.222	281.69
377.448	259.69
377.674	297.69
377.899	280.69
378.125	280.69
378.35	272.69
378.576	280.69
378.802	279.69
379.027	294.69
379.253	294.69
379.478	285.69
379.704	277.69
379.929	301.69
380.155	285.69
380.38	286.69
380.606	287.69
380.831	289.69
381.057	295.69
381.282	278.69
381.507	301.69
381.733	290.69
381.958	301.69
382.184	292.69
382.409	297.69
382.634	271.69
382.86	298.69
383.085	303.69
383.31	283.69
383.535	303.69
383.761	307.69
383.986	296.69
384.211	321.69
384.436	312.69
384.662	308.69
384.887	310.69
385.112	314.69
385.337	321.69
385.562	307.69
385.787	329.69
386.013	310.69
386.238	324.69
386.463	323.69
386.688	335.69
386.913	316.69
387.138	314.69
387.363	323.69
387.588	329.69
387.813	326.69
388.038	330.69
388.263	327.69
388.488	320.69
388.713	340.69
388.938	341.69
389.163	318.69
389.387	330.69
389.612	299.69
389.837	315.69
390.062	339.69
390.287	336.69
390.512	314.69
390.736	323.69
390.961	343.69
391.186	327.69
391.411	337.69
391.636	335.69
391.86	354.69
392.085	357.69
392.31	330.69
392.534	333.69
392.759	357.69
392.984	319.69
393.208	349.69
393.433	334.69
393.658	344.69
393.882	330.69
394.107	342.69
394.331	320.69
394.556	340.69
394.78	337.69
395.005	330.69
395.229	337.69
395.454	355.69
395.678	353.69
395.903	350.69
396.127	346.69
396.352	356.69
396.576	346.69
396.801	363.69
397.025	340.69
397.249	348.69
397.474	358.69
397.698	376.69
397.922	375.69
398.147	364.69
398.371	364.69
398.595	360.69
398.82	386.69
399.044	397.69
399.268	422.69
399.492	435.69
399.717	465.69
399.941	446.69
400.165	453.69
400.389	443.69
400.613	413.69
400.837	395.69
401.062	396.69
401.286	379.69
401.51	366.69
401.734	385.69
401.958	403.69
402.182	378.69
402.406	378.69
402.63	389.69
402.854	383.69
403.078	374.69
403.302	384.69
403.526	386.69
403.75	396.69
403.974	399.69
404.198	400.69
404.422	395.69
404.645	383.69
404.869	405.69
405.093	383.69
405.317	409.69
405.541	398.69
405.765	400.69
405.988	419.69
406.212	399.69
406.436	410.69
406.66	412.69
406.883	401.69
407.107	417.69
407.331	420.69
407.555	436.69
407.778	429.69
408.002	423.69
408.226	446.69
408.449	413.69
408.673	416.69
408.896	411.69
409.12	415.69
409.344	394.69
409.567	416.69
409.791	398.69
410.014	396.69
410.238	405.69
410.461	406.69
410.685	400.69
410.908	380.69
411.132	393.69
411.355	380.69
411.578	393.69
411.802	395.69
412.025	387.69
412.249	393.69
412.472	394.69
412.695	383.69
412.919	379.69
413.142	379.69
413.365	384.69
413.589	379.69
413.812	379.69
414.035	379.69
414.258	379.69
414.482	389.69
414.705	399.69
414.928	385.69
415.151	384.69
415.374	379.69
415.597	358.69
415.821	355.69
416.044	363.69
416.267	380.69
416.49	380.69
416.713	371.69
416.936	375.69
417.159	380.69
417.382	376.69
417.605	391.69
417.828	364.69
418.051	376.69
418.274	368.69
418.497	383.69
418.72	371.69
418.943	388.69
419.166	388.69
419.389	386.69
419.611	384.69
419.834	380.69
420.057	366.69
420.28	368.69
420.503	359.69
420.726	371.69
420.948	343.69
421.171	371.69
421.394	369.69
421.617	371.69
421.839	374.69
422.062	379.69
422.285	343.69
422.507	350.69
422.73	368.69
422.953	360.69
423.175	345.69
423.398	361.69
423.621	374.69
423.843	371.69
424.066	353.69
424.288	367.69
424.511	372.69
424.733	344.69
424.956	369.69
425.178	368.69
425.401	356.69
425.623	360.69
425.846	344.69
426.068	343.69
426.291	365.69
426.513	346.69
426.735	354.69
426.958	360.69
427.18	353.69
427.402	336.69
427.625	345.69
427.847	332.69
428.069	341.69
428.292	345.69
428.514	347.69
428.736	338.69
428.958	329.69
429.181	352.69
429.403	344.69
429.625	333.69
429.847	340.69
430.069	335.69
430.292	336.69
430.514	335.69
430.736	320.69
430.958	326.69
431.18	339.69
431.402	332.69
431.624	339.69
431.846	329.69
432.068	347.69
432.29	341.69
432.512	337.69
432.734	343.69
432.956	320.69
433.178	337.69
433.4	330.69
433.622	360.69
433.844	371.69
434.066	352.69
434.287	363.69
434.509	340.69
434.731	363.69
434.953	363.69
435.175	358.69
435.397	373.69
435.618	348.69
435.84	355.69
436.062	345.69
436.284	329.69
436.505	329.69
436.727	333.69
436.949	360.69
437.17	348.69
437.392	327.69
437.614	354.69
437.835	317.69
438.057	330.69
438.278	334.69
438.5	338.69
438.721	324.69
438.943	346.69
439.165	312.69
439.386	337.69
439.608	333.69
439.829	334.69
440.05	335.69
440.272	328.69
440.493	342.69
440.715	346.69
440.936	337.69
441.158	345.69
441.379	355.69
441.6	353.69
441.822	362.69
442.043	344.69
442.264	349.69
442.486	348.69
442.707	343.69
442.928	363.69
443.149	370.69
443.371	371.69
443.592	355.69
443.813	337.69
444.034	368.69
444.255	364.69
444.476	366.69
444.698	389.69
444.919	371.69
445.14	500.69
445.361	429.69
445.582	359.69
445.803	352.69
446.024	346.69
446.245	371.69
446.466	331.69
446.687	337.69
446.908	337.69
447.129	334.69
447.35	315.69
447.571	333.69
447.792	334.69
448.013	320.69
448.234	313.69
448.455	319.69
448.675	310.69
448.896	311.69
449.117	314.69
449.338	315.69
449.559	328.69
449.779	325.69
450	307.69
450.221	308.69
450.442	324.69
450.662	306.69
450.883	325.69
451.104	345.69
451.324	288.69
451.545	301.69
451.766	303.69
451.986	311.69
452.207	297.69
452.428	313.69
452.648	310.69
452.869	304.69
453.089	296.69
453.31	307.69
453.53	312.69
453.751	285.69
453.971	303.69
454.192	295.69
454.412	307.69
454.633	285.69
454.853	291.69
455.073	279.69
455.294	298.69
455.514	303.69
455.734	297.69
455.955	274.69
456.175	294.69
456.395	302.69
456.616	304.69
456.836	288.69
457.056	281.69
457.276	289.69
457.497	308.69
457.717	306.69
457.937	303.69
458.157	307.69
458.377	307.69
458.598	318.69
458.818	334.69
459.038	344.69
459.258	332.69
459.478	342.69
459.698	352.69
459.918	321.69
460.138	332.69
460.358	359.69
460.578	366.69
460.798	361.69
461.018	362.69
461.238	366.69
461.458	382.69
461.678	399.69
461.898	362.69
462.118	375.69
462.338	381.69
462.558	400.69
462.777	397.69
462.997	432.69
463.217	443.69
463.437	440.69
463.657	413.69
463.876	400.69
464.096	401.69
464.316	407.69
464.536	391.69
464.755	414.69
464.975	382.69
465.195	366.69
465.414	355.69
465.634	363.69
465.854	345.69
466.073	350.69
466.293	346.69
466.512	335.69
466.732	336.69
466.951	339.69
467.171	335.69
467.391	321.69
467.61	320.69
467.829	324.69
468.049	320.69
468.268	310.69
468.488	315.69
468.707	315.69
468.927	318.69
469.146	315.69
469.365	319.69
469.585	324.69
469.804	340.69
470.023	334.69
470.243	312.69
470.462	327.69
470.681	349.69
470.901	325.69
471.12	321.69
471.339	335.69
471.558	335.69
471.777	330.69
471.997	325.69
472.216	324.69
472.435	342.69
472.654	326.69
472.873	322.69
473.092	321.69
473.311	299.69
473.53	343.69
473.749	318.69
473.968	325.69
474.187	317.69
474.406	315.69
474.625	334.69
474.844	331.69
475.063	336.69
475.282	343.69
475.501	315.69
475.72	320.69
475.939	337.69
476.158	325.69
476.377	358.69
476.596	348.69
476.814	337.69
477.033	337.69
477.252	351.69
477.471	348.69
477.69	352.69
477.908	352.69
478.127	382.69
478.346	352.69
478.564	361.69
478.783	383.69
479.002	382.69
479.22	356.69
479.439	375.69
479.658	377.69
479.876	380.69
480.095	385.69
480.313	402.69
480.532	393.69
480.751	378.69
480.969	399.69
481.188	371.69
481.406	385.69
481.624	385.69
481.843	385.69
482.061	350.69
482.28	373.69
482.498	361.69
482.717	379.69
482.935	365.69
483.153	379.69
483.372	375.69
483.59	376.69
483.808	385.69
484.027	376.69
484.245	376.69
484.463	383.69
484.681	376.69
484.9	377.69
485.118	383.69
485.336	379.69
485.554	388.69
485.772	395.69
485.99	388.69
486.209	376.69
486.427	383.69
486.645	388.69
486.863	400.69
487.081	384.69
487.299	369.69
487.517	401.69
487.735	398.69
487.953	413.69
488.171	391.69
488.389	392.69
488.607	404.69
488.825	369.69
489.043	397.69
489.261	388.69
489.479	382.69
489.696	397.69
489.914	391.69
490.132	395.69
490.35	385.69
490.568	379.69
490.786	394.69
491.003	381.69
491.221	388.69
491.439	381.69
491.657	376.69
491.874	407.69
492.092	382.69
492.31	394.69
492.527	388.69
492.745	382.69
492.963	411.69
493.18	387.69
493.398	381.69
493.615	410.69
493.833	392.69
494.05	400.69
494.268	384.69
494.485	412.69
494.703	406.69
494.92	378.69
495.138	407.69
495.355	405.69
495.573	408.69
495.79	404.69
496.008	427.69
496.225	426.69
496.442	424.69
496.66	443.69
496.877	427.69
497.094	436.69
497.312	428.69
497.529	440.69
497.746	458.69
497.963	460.69
498.181	473.69
498.398	501.69
498.615	482.69
498.832	515.69
499.049	541.69
499.267	579.69
499.484	595.69
499.701	629.69
499.918	687.69
500.135	706.69
500.352	744.69
500.569	770.69
500.786	730.69
501.003	717.69
501.22	694.69
501.437	646.69
501.654	600.69
501.871	581.69
502.088	553.69
