Data from Fe(NO3)3@0.0125M.TitratingCurve.Agarose3%dH2O.NegLispCup.LampEnergy10.LIBS07252019_HRD10591_17-00-45-336.txt Node
Date: Thu Jul 25 17:00:45 EDT 2019
User: cochatt
Spectrometer: HR+D1059
Trigger mode: 1
Integration Time (sec): 1.000000E-1
Scans to average: 1
Electric dark correction enabled: true
Nonlinearity correction enabled: false
Boxcar width: 0
XAxis mode: Wavelengths
Number of Pixels in Spectrum: 2048
>>>>>Begin Spectral Data<<<<<
223.165	-10.62
223.4	-10.62
223.635	-10.62
223.869	-11.62
224.104	-17.62
224.338	-20.62
224.573	-20.62
224.808	-11.62
225.042	-9.62
225.277	-5.62
225.511	3.38
225.746	7.38
225.98	10.38
226.215	22.38
226.449	-2.62
226.683	16.38
226.918	27.38
227.152	23.38
227.387	38.38
227.621	29.38
227.856	46.38
228.09	38.38
228.324	57.38
228.559	55.38
228.793	66.38
229.027	76.38
229.262	79.38
229.496	82.38
229.73	95.38
229.964	85.38
230.199	103.38
230.433	106.38
230.667	93.38
230.901	90.38
231.136	97.38
231.37	96.38
231.604	89.38
231.838	110.38
232.072	90.38
232.306	113.38
232.541	100.38
232.775	110.38
233.009	88.38
233.243	120.38
233.477	122.38
233.711	117.38
233.945	99.38
234.179	107.38
234.413	113.38
234.647	97.38
234.881	104.38
235.115	105.38
235.349	105.38
235.583	113.38
235.817	114.38
236.051	113.38
236.285	105.38
236.519	103.38
236.753	102.38
236.987	112.38
237.221	106.38
237.455	111.38
237.689	108.38
237.922	122.38
238.156	109.38
238.39	115.38
238.624	111.38
238.858	106.38
239.091	112.38
239.325	112.38
239.559	115.38
239.793	111.38
240.027	110.38
240.26	118.38
240.494	113.38
240.728	113.38
240.961	112.38
241.195	122.38
241.429	119.38
241.662	128.38
241.896	120.38
242.13	119.38
242.363	113.38
242.597	114.38
242.83	131.38
243.064	118.38
243.298	144.38
243.531	128.38
243.765	126.38
243.998	125.38
244.232	128.38
244.465	127.38
244.699	136.38
244.932	140.38
245.166	141.38
245.399	133.38
245.633	134.38
245.866	133.38
246.099	138.38
246.333	128.38
246.566	138.38
246.8	119.38
247.033	131.38
247.266	148.38
247.5	138.38
247.733	144.38
247.966	146.38
248.2	148.38
248.433	144.38
248.666	140.38
248.899	158.38
249.133	150.38
249.366	151.38
249.599	158.38
249.832	159.38
250.066	158.38
250.299	147.38
250.532	136.38
250.765	137.38
250.998	146.38
251.231	142.38
251.465	163.38
251.698	150.38
251.931	162.38
252.164	143.38
252.397	169.38
252.63	155.38
252.863	156.38
253.096	159.38
253.329	151.38
253.562	154.38
253.795	163.38
254.028	167.38
254.261	148.38
254.494	171.38
254.727	136.38
254.96	167.38
255.193	152.38
255.426	164.38
255.659	156.38
255.892	174.38
256.124	152.38
256.357	160.38
256.59	148.38
256.823	171.38
257.056	170.38
257.289	175.38
257.521	166.38
257.754	174.38
257.987	174.38
258.22	152.38
258.452	170.38
258.685	171.38
258.918	150.38
259.151	182.38
259.383	164.38
259.616	192.38
259.849	176.38
260.081	197.38
260.314	194.38
260.547	171.38
260.779	161.38
261.012	178.38
261.244	188.38
261.477	204.38
261.71	197.38
261.942	178.38
262.175	184.38
262.407	183.38
262.64	186.38
262.872	190.38
263.105	209.38
263.337	206.38
263.57	198.38
263.802	182.38
264.035	187.38
264.267	187.38
264.499	175.38
264.732	192.38
264.964	202.38
265.197	199.38
265.429	190.38
265.661	191.38
265.894	179.38
266.126	190.38
266.358	198.38
266.591	195.38
266.823	186.38
267.055	188.38
267.287	183.38
267.52	195.38
267.752	198.38
267.984	190.38
268.216	191.38
268.448	200.38
268.681	193.38
268.913	200.38
269.145	197.38
269.377	181.38
269.609	191.38
269.841	201.38
270.073	199.38
270.306	198.38
270.538	191.38
270.77	204.38
271.002	207.38
271.234	199.38
271.466	210.38
271.698	208.38
271.93	190.38
272.162	206.38
272.394	222.38
272.626	208.38
272.858	211.38
273.09	203.38
273.322	210.38
273.553	216.38
273.785	213.38
274.017	231.38
274.249	239.38
274.481	239.38
274.713	238.38
274.945	245.38
275.176	245.38
275.408	236.38
275.64	238.38
275.872	242.38
276.104	226.38
276.335	225.38
276.567	226.38
276.799	220.38
277.031	240.38
277.262	227.38
277.494	223.38
277.726	232.38
277.957	228.38
278.189	238.38
278.421	238.38
278.652	231.38
278.884	229.38
279.115	220.38
279.347	232.38
279.579	226.38
279.81	230.38
280.042	222.38
280.273	240.38
280.505	246.38
280.736	228.38
280.968	244.38
281.199	234.38
281.431	220.38
281.662	242.38
281.894	240.38
282.125	239.38
282.356	239.38
282.588	259.38
282.819	251.38
283.051	245.38
283.282	251.38
283.513	255.38
283.745	262.38
283.976	238.38
284.207	248.38
284.439	253.38
284.67	264.38
284.901	262.38
285.132	261.38
285.364	282.38
285.595	264.38
285.826	258.38
286.057	265.38
286.288	240.38
286.52	263.38
286.751	245.38
286.982	263.38
287.213	264.38
287.444	270.38
287.675	257.38
287.906	269.38
288.138	278.38
288.369	274.38
288.6	274.38
288.831	275.38
289.062	267.38
289.293	261.38
289.524	278.38
289.755	269.38
289.986	281.38
290.217	270.38
290.448	266.38
290.679	265.38
290.91	249.38
291.141	262.38
291.371	271.38
291.602	276.38
291.833	280.38
292.064	279.38
292.295	282.38
292.526	259.38
292.757	273.38
292.987	279.38
293.218	275.38
293.449	278.38
293.68	288.38
293.91	278.38
294.141	274.38
294.372	300.38
294.603	277.38
294.833	304.38
295.064	276.38
295.295	267.38
295.525	277.38
295.756	278.38
295.987	274.38
296.217	288.38
296.448	279.38
296.679	290.38
296.909	295.38
297.14	272.38
297.37	286.38
297.601	275.38
297.831	312.38
298.062	286.38
298.292	299.38
298.523	309.38
298.753	318.38
298.984	281.38
299.214	313.38
299.445	318.38
299.675	293.38
299.905	287.38
300.136	288.38
300.366	313.38
300.597	301.38
300.827	296.38
301.057	294.38
301.288	310.38
301.518	288.38
301.748	300.38
301.979	304.38
302.209	301.38
302.439	309.38
302.669	312.38
302.9	316.38
303.13	320.38
303.36	325.38
303.59	310.38
303.82	297.38
304.051	299.38
304.281	288.38
304.511	306.38
304.741	320.38
304.971	319.38
305.201	307.38
305.431	318.38
305.661	311.38
305.891	297.38
306.121	287.38
306.352	323.38
306.582	299.38
306.812	297.38
307.042	318.38
307.272	320.38
307.502	295.38
307.731	308.38
307.961	324.38
308.191	311.38
308.421	308.38
308.651	295.38
308.881	299.38
309.111	314.38
309.341	306.38
309.571	300.38
309.8	304.38
310.03	312.38
310.26	290.38
310.49	322.38
310.72	319.38
310.949	338.38
311.179	318.38
311.409	312.38
311.639	319.38
311.868	311.38
312.098	315.38
312.328	321.38
312.557	323.38
312.787	322.38
313.017	316.38
313.246	341.38
313.476	327.38
313.706	342.38
313.935	334.38
314.165	322.38
314.394	328.38
314.624	343.38
314.853	355.38
315.083	341.38
315.312	322.38
315.542	315.38
315.771	343.38
316.001	340.38
316.23	337.38
316.46	331.38
316.689	353.38
316.919	329.38
317.148	342.38
317.377	346.38
317.607	319.38
317.836	340.38
318.065	342.38
318.295	337.38
318.524	347.38
318.753	323.38
318.983	331.38
319.212	337.38
319.441	333.38
319.67	346.38
319.9	332.38
320.129	334.38
320.358	339.38
320.587	360.38
320.816	343.38
321.046	330.38
321.275	344.38
321.504	363.38
321.733	349.38
321.962	346.38
322.191	324.38
322.42	333.38
322.649	349.38
322.878	345.38
323.108	362.38
323.337	352.38
323.566	362.38
323.795	344.38
324.024	355.38
324.253	366.38
324.482	358.38
324.71	369.38
324.939	359.38
325.168	350.38
325.397	356.38
325.626	356.38
325.855	359.38
326.084	360.38
326.313	389.38
326.542	374.38
326.77	382.38
326.999	375.38
327.228	362.38
327.457	376.38
327.686	374.38
327.914	374.38
328.143	377.38
328.372	366.38
328.6	370.38
328.829	383.38
329.058	370.38
329.287	360.38
329.515	382.38
329.744	390.38
329.972	370.38
330.201	394.38
330.43	379.38
330.658	382.38
330.887	376.38
331.115	373.38
331.344	392.38
331.572	384.38
331.801	378.38
332.03	375.38
332.258	402.38
332.486	396.38
332.715	395.38
332.943	425.38
333.172	423.38
333.4	423.38
333.629	442.38
333.857	460.38
334.085	435.38
334.314	437.38
334.542	420.38
334.771	448.38
334.999	426.38
335.227	441.38
335.455	434.38
335.684	449.38
335.912	432.38
336.14	417.38
336.369	414.38
336.597	412.38
336.825	404.38
337.053	424.38
337.281	409.38
337.51	409.38
337.738	414.38
337.966	422.38
338.194	397.38
338.422	403.38
338.65	419.38
338.878	392.38
339.106	404.38
339.334	409.38
339.562	401.38
339.79	383.38
340.018	395.38
340.246	394.38
340.474	389.38
340.702	397.38
340.93	400.38
341.158	402.38
341.386	394.38
341.614	405.38
341.842	386.38
342.07	404.38
342.298	419.38
342.526	381.38
342.754	386.38
342.981	389.38
343.209	384.38
343.437	414.38
343.665	427.38
343.893	419.38
344.12	447.38
344.348	424.38
344.576	401.38
344.804	423.38
345.031	421.38
345.259	404.38
345.487	393.38
345.714	396.38
345.942	383.38
346.17	393.38
346.397	406.38
346.625	368.38
346.853	385.38
347.08	388.38
347.308	396.38
347.535	374.38
347.763	369.38
347.99	364.38
348.218	384.38
348.445	387.38
348.673	365.38
348.9	395.38
349.128	380.38
349.355	375.38
349.583	380.38
349.81	364.38
350.037	378.38
350.265	371.38
350.492	389.38
350.72	360.38
350.947	392.38
351.174	374.38
351.402	376.38
351.629	359.38
351.856	390.38
352.083	370.38
352.311	366.38
352.538	354.38
352.765	380.38
352.992	376.38
353.22	374.38
353.447	368.38
353.674	356.38
353.901	377.38
354.128	384.38
354.355	349.38
354.583	364.38
354.81	384.38
355.037	380.38
355.264	376.38
355.491	372.38
355.718	367.38
355.945	395.38
356.172	386.38
356.399	370.38
356.626	387.38
356.853	395.38
357.08	385.38
357.307	382.38
357.534	363.38
357.761	367.38
357.988	388.38
358.215	398.38
358.441	380.38
358.668	385.38
358.895	382.38
359.122	381.38
359.349	380.38
359.576	384.38
359.802	377.38
360.029	347.38
360.256	388.38
360.483	381.38
360.709	391.38
360.936	367.38
361.163	369.38
361.39	368.38
361.616	378.38
361.843	386.38
362.07	390.38
362.296	382.38
362.523	391.38
362.749	387.38
362.976	368.38
363.203	394.38
363.429	386.38
363.656	387.38
363.882	368.38
364.109	392.38
364.335	379.38
364.562	381.38
364.788	363.38
365.015	380.38
365.241	376.38
365.468	388.38
365.694	379.38
365.92	393.38
366.147	391.38
366.373	386.38
366.599	367.38
366.826	384.38
367.052	380.38
367.278	390.38
367.505	395.38
367.731	401.38
367.957	403.38
368.184	394.38
368.41	408.38
368.636	380.38
368.862	383.38
369.089	361.38
369.315	402.38
369.541	389.38
369.767	409.38
369.993	410.38
370.219	392.38
370.445	397.38
370.672	387.38
370.898	400.38
371.124	402.38
371.35	423.38
371.576	420.38
371.802	425.38
372.028	424.38
372.254	432.38
372.48	430.38
372.706	403.38
372.932	412.38
373.158	406.38
373.384	439.38
373.61	432.38
373.835	416.38
374.061	424.38
374.287	402.38
374.513	411.38
374.739	433.38
374.965	449.38
375.191	438.38
375.416	442.38
375.642	425.38
375.868	439.38
376.094	414.38
376.319	428.38
376.545	423.38
376.771	424.38
376.997	422.38
377.222	416.38
377.448	410.38
377.674	403.38
377.899	402.38
378.125	399.38
378.35	398.38
378.576	410.38
378.802	399.38
379.027	419.38
379.253	412.38
379.478	404.38
379.704	396.38
379.929	421.38
380.155	414.38
380.38	437.38
380.606	430.38
380.831	409.38
381.057	424.38
381.282	406.38
381.507	425.38
381.733	407.38
381.958	419.38
382.184	444.38
382.409	421.38
382.634	437.38
382.86	414.38
383.085	408.38
383.31	420.38
383.535	425.38
383.761	447.38
383.986	444.38
384.211	450.38
384.436	440.38
384.662	444.38
384.887	451.38
385.112	455.38
385.337	456.38
385.562	453.38
385.787	446.38
386.013	486.38
386.238	483.38
386.463	474.38
386.688	472.38
386.913	459.38
387.138	467.38
387.363	471.38
387.588	468.38
387.813	458.38
388.038	448.38
388.263	474.38
388.488	471.38
388.713	465.38
388.938	448.38
389.163	458.38
389.387	467.38
389.612	460.38
389.837	462.38
390.062	486.38
390.287	483.38
390.512	476.38
390.736	477.38
390.961	490.38
391.186	488.38
391.411	515.38
391.636	501.38
391.86	511.38
392.085	518.38
392.31	502.38
392.534	488.38
392.759	492.38
392.984	508.38
393.208	502.38
393.433	507.38
393.658	508.38
393.882	498.38
394.107	498.38
394.331	490.38
394.556	486.38
394.78	495.38
395.005	510.38
395.229	484.38
395.454	533.38
395.678	519.38
395.903	517.38
396.127	514.38
396.352	499.38
396.576	489.38
396.801	514.38
397.025	516.38
397.249	535.38
397.474	540.38
397.698	533.38
397.922	522.38
398.147	520.38
398.371	513.38
398.595	547.38
398.82	553.38
399.044	587.38
399.268	599.38
399.492	630.38
399.717	690.38
399.941	677.38
400.165	658.38
400.389	624.38
400.613	598.38
400.837	586.38
401.062	546.38
401.286	589.38
401.51	562.38
401.734	566.38
401.958	598.38
402.182	566.38
402.406	567.38
402.63	572.38
402.854	578.38
403.078	578.38
403.302	563.38
403.526	590.38
403.75	586.38
403.974	605.38
404.198	580.38
404.422	591.38
404.645	594.38
404.869	569.38
405.093	600.38
405.317	590.38
405.541	593.38
405.765	602.38
405.988	573.38
406.212	601.38
406.436	614.38
406.66	611.38
406.883	625.38
407.107	623.38
407.331	650.38
407.555	644.38
407.778	667.38
408.002	652.38
408.226	636.38
408.449	655.38
408.673	625.38
408.896	622.38
409.12	597.38
409.344	619.38
409.567	605.38
409.791	620.38
410.014	611.38
410.238	611.38
410.461	609.38
410.685	604.38
410.908	596.38
411.132	580.38
411.355	579.38
411.578	577.38
411.802	571.38
412.025	583.38
412.249	583.38
412.472	581.38
412.695	600.38
412.919	580.38
413.142	597.38
413.365	581.38
413.589	594.38
413.812	566.38
414.035	547.38
414.258	556.38
414.482	587.38
414.705	560.38
414.928	576.38
415.151	568.38
415.374	566.38
415.597	541.38
415.821	545.38
416.044	562.38
416.267	559.38
416.49	554.38
416.713	546.38
416.936	572.38
417.159	528.38
417.382	554.38
417.605	559.38
417.828	555.38
418.051	547.38
418.274	549.38
418.497	517.38
418.72	589.38
418.943	546.38
419.166	573.38
419.389	598.38
419.611	582.38
419.834	571.38
420.057	584.38
420.28	549.38
420.503	544.38
420.726	536.38
420.948	517.38
421.171	554.38
421.394	531.38
421.617	522.38
421.839	545.38
422.062	557.38
422.285	532.38
422.507	538.38
422.73	542.38
422.953	554.38
423.175	539.38
423.398	554.38
423.621	555.38
423.843	536.38
424.066	560.38
424.288	563.38
424.511	543.38
424.733	544.38
424.956	566.38
425.178	540.38
425.401	549.38
425.623	557.38
425.846	523.38
426.068	531.38
426.291	536.38
426.513	537.38
426.735	523.38
426.958	546.38
427.18	519.38
427.402	535.38
427.625	522.38
427.847	502.38
428.069	512.38
428.292	535.38
428.514	516.38
428.736	522.38
428.958	543.38
429.181	496.38
429.403	520.38
429.625	514.38
429.847	490.38
430.069	500.38
430.292	530.38
430.514	519.38
430.736	514.38
430.958	495.38
431.18	469.38
431.402	506.38
431.624	488.38
431.846	498.38
432.068	520.38
432.29	496.38
432.512	525.38
432.734	534.38
432.956	496.38
433.178	513.38
433.4	523.38
433.622	488.38
433.844	509.38
434.066	545.38
434.287	525.38
434.509	513.38
434.731	533.38
434.953	540.38
435.175	558.38
435.397	532.38
435.618	508.38
435.84	515.38
436.062	518.38
436.284	522.38
436.505	499.38
436.727	498.38
436.949	516.38
437.17	491.38
437.392	519.38
437.614	490.38
437.835	479.38
438.057	494.38
438.278	488.38
438.5	494.38
438.721	485.38
438.943	486.38
439.165	476.38
439.386	505.38
439.608	514.38
439.829	498.38
440.05	511.38
440.272	502.38
440.493	507.38
440.715	506.38
440.936	508.38
441.158	504.38
441.379	498.38
441.6	546.38
441.822	534.38
442.043	537.38
442.264	546.38
442.486	526.38
442.707	518.38
442.928	537.38
443.149	544.38
443.371	502.38
443.592	530.38
443.813	534.38
444.034	549.38
444.255	535.38
444.476	540.38
444.698	571.38
444.919	596.38
445.14	607.38
445.361	584.38
445.582	549.38
445.803	525.38
446.024	542.38
446.245	531.38
446.466	520.38
446.687	519.38
446.908	511.38
447.129	511.38
447.35	522.38
447.571	512.38
447.792	484.38
448.013	484.38
448.234	463.38
448.455	476.38
448.675	479.38
448.896	470.38
449.117	467.38
449.338	483.38
449.559	471.38
449.779	461.38
450	464.38
450.221	483.38
450.442	461.38
450.662	466.38
450.883	470.38
451.104	486.38
451.324	470.38
451.545	469.38
451.766	468.38
451.986	451.38
452.207	457.38
452.428	456.38
452.648	456.38
452.869	468.38
453.089	450.38
453.31	442.38
453.53	457.38
453.751	449.38
453.971	454.38
454.192	455.38
454.412	417.38
454.633	445.38
454.853	456.38
455.073	447.38
455.294	440.38
455.514	454.38
455.734	444.38
455.955	418.38
456.175	451.38
456.395	452.38
456.616	447.38
456.836	450.38
457.056	437.38
457.276	422.38
457.497	420.38
457.717	451.38
457.937	451.38
458.157	456.38
458.377	464.38
458.598	467.38
458.818	471.38
459.038	470.38
459.258	494.38
459.478	530.38
459.698	507.38
459.918	507.38
460.138	550.38
460.358	560.38
460.578	547.38
460.798	530.38
461.018	546.38
461.238	550.38
461.458	564.38
461.678	541.38
461.898	566.38
462.118	579.38
462.338	594.38
462.558	586.38
462.777	594.38
462.997	613.38
463.217	664.38
463.437	628.38
463.657	596.38
463.876	610.38
464.096	624.38
464.316	596.38
464.536	604.38
464.755	603.38
464.975	575.38
465.195	578.38
465.414	532.38
465.634	556.38
465.854	519.38
466.073	538.38
466.293	491.38
466.512	508.38
466.732	490.38
466.951	508.38
467.171	492.38
467.391	481.38
467.61	483.38
467.829	484.38
468.049	498.38
468.268	496.38
468.488	505.38
468.707	492.38
468.927	481.38
469.146	476.38
469.365	505.38
469.585	491.38
469.804	497.38
470.023	499.38
470.243	491.38
470.462	490.38
470.681	499.38
470.901	490.38
471.12	486.38
471.339	507.38
471.558	520.38
471.777	491.38
471.997	472.38
472.216	497.38
472.435	478.38
472.654	487.38
472.873	497.38
473.092	466.38
473.311	482.38
473.53	499.38
473.749	478.38
473.968	480.38
474.187	482.38
474.406	467.38
474.625	501.38
474.844	494.38
475.063	495.38
475.282	518.38
475.501	500.38
475.72	508.38
475.939	508.38
476.158	512.38
476.377	512.38
476.596	518.38
476.814	517.38
477.033	523.38
477.252	534.38
477.471	552.38
477.69	544.38
477.908	559.38
478.127	553.38
478.346	550.38
478.564	582.38
478.783	584.38
479.002	578.38
479.22	586.38
479.439	578.38
479.658	600.38
479.876	594.38
480.095	603.38
480.313	586.38
480.532	599.38
480.751	593.38
480.969	581.38
481.188	600.38
481.406	582.38
481.624	575.38
481.843	578.38
482.061	571.38
482.28	581.38
482.498	550.38
482.717	550.38
482.935	571.38
483.153	562.38
483.372	574.38
483.59	543.38
483.808	581.38
484.027	588.38
484.245	568.38
484.463	576.38
484.681	584.38
484.9	569.38
485.118	588.38
485.336	585.38
485.554	607.38
485.772	600.38
485.99	603.38
486.209	585.38
486.427	598.38
486.645	614.38
486.863	601.38
487.081	597.38
487.299	619.38
487.517	587.38
487.735	605.38
487.953	610.38
488.171	600.38
488.389	612.38
488.607	623.38
488.825	601.38
489.043	593.38
489.261	590.38
489.479	615.38
489.696	595.38
489.914	583.38
490.132	589.38
490.35	606.38
490.568	596.38
490.786	626.38
491.003	594.38
491.221	607.38
491.439	617.38
491.657	613.38
491.874	593.38
492.092	617.38
492.31	606.38
492.527	592.38
492.745	626.38
492.963	594.38
493.18	594.38
493.398	632.38
493.615	617.38
493.833	590.38
494.05	623.38
494.268	580.38
494.485	622.38
494.703	636.38
494.92	626.38
495.138	625.38
495.355	618.38
495.573	639.38
495.79	638.38
496.008	649.38
496.225	642.38
496.442	624.38
496.66	636.38
496.877	660.38
497.094	683.38
497.312	680.38
497.529	690.38
497.746	672.38
497.963	713.38
498.181	711.38
498.398	747.38
498.615	781.38
498.832	787.38
499.049	832.38
499.267	860.38
499.484	890.38
499.701	960.38
499.918	1001.38
500.135	1070.38
500.352	1142.38
500.569	1186.38
500.786	1185.38
501.003	1135.38
501.22	1062.38
501.437	1039.38
501.654	933.38
