Data from Fe(NO3)3@0.1M.TitratingCurve.Agarose3%dH2O.NegLispCup.LampEnergy10.LIBS07252019_HRD10591_16-42-04-333.txt Node
Date: Thu Jul 25 16:42:04 EDT 2019
User: cochatt
Spectrometer: HR+D1059
Trigger mode: 1
Integration Time (sec): 1.000000E-1
Scans to average: 1
Electric dark correction enabled: true
Nonlinearity correction enabled: false
Boxcar width: 0
XAxis mode: Wavelengths
Number of Pixels in Spectrum: 2048
>>>>>Begin Spectral Data<<<<<
223.165	-13.81
223.4	-13.81
223.635	-13.81
223.869	-9.81
224.104	-16.81
224.338	-20.81
224.573	-19.81
224.808	-19.81
225.042	-2.81
225.277	-11.81
225.511	5.19
225.746	17.19
225.98	11.19
226.215	9.19
226.449	21.19
226.683	8.19
226.918	20.19
227.152	23.19
227.387	31.19
227.621	34.19
227.856	37.19
228.09	39.19
228.324	52.19
228.559	55.19
228.793	68.19
229.027	68.19
229.262	74.19
229.496	74.19
229.73	81.19
229.964	82.19
230.199	92.19
230.433	102.19
230.667	90.19
230.901	106.19
231.136	101.19
231.37	106.19
231.604	96.19
231.838	96.19
232.072	103.19
232.306	103.19
232.541	100.19
232.775	99.19
233.009	106.19
233.243	107.19
233.477	101.19
233.711	97.19
233.945	103.19
234.179	90.19
234.413	104.19
234.647	96.19
234.881	93.19
235.115	100.19
235.349	98.19
235.583	126.19
235.817	104.19
236.051	116.19
236.285	109.19
236.519	91.19
236.753	111.19
236.987	114.19
237.221	103.19
237.455	108.19
237.689	105.19
237.922	107.19
238.156	104.19
238.39	114.19
238.624	117.19
238.858	115.19
239.091	113.19
239.325	110.19
239.559	115.19
239.793	106.19
240.027	107.19
240.26	102.19
240.494	119.19
240.728	105.19
240.961	124.19
241.195	129.19
241.429	121.19
241.662	110.19
241.896	115.19
242.13	96.19
242.363	116.19
242.597	115.19
242.83	134.19
243.064	116.19
243.298	105.19
243.531	126.19
243.765	126.19
243.998	127.19
244.232	124.19
244.465	122.19
244.699	119.19
244.932	121.19
245.166	120.19
245.399	118.19
245.633	122.19
245.866	136.19
246.099	134.19
246.333	126.19
246.566	112.19
246.8	134.19
247.033	116.19
247.266	120.19
247.5	138.19
247.733	138.19
247.966	122.19
248.2	126.19
248.433	133.19
248.666	136.19
248.899	143.19
249.133	137.19
249.366	129.19
249.599	138.19
249.832	133.19
250.066	130.19
250.299	123.19
250.532	134.19
250.765	118.19
250.998	128.19
251.231	124.19
251.465	145.19
251.698	136.19
251.931	144.19
252.164	140.19
252.397	148.19
252.63	150.19
252.863	139.19
253.096	138.19
253.329	147.19
253.562	159.19
253.795	161.19
254.028	143.19
254.261	140.19
254.494	147.19
254.727	159.19
254.96	134.19
255.193	154.19
255.426	159.19
255.659	153.19
255.892	163.19
256.124	132.19
256.357	149.19
256.59	171.19
256.823	153.19
257.056	157.19
257.289	151.19
257.521	162.19
257.754	158.19
257.987	167.19
258.22	155.19
258.452	160.19
258.685	169.19
258.918	153.19
259.151	143.19
259.383	154.19
259.616	149.19
259.849	147.19
260.081	172.19
260.314	168.19
260.547	167.19
260.779	151.19
261.012	169.19
261.244	142.19
261.477	174.19
261.71	169.19
261.942	162.19
262.175	183.19
262.407	182.19
262.64	161.19
262.872	156.19
263.105	174.19
263.337	176.19
263.57	171.19
263.802	169.19
264.035	171.19
264.267	171.19
264.499	168.19
264.732	168.19
264.964	182.19
265.197	167.19
265.429	164.19
265.661	180.19
265.894	167.19
266.126	169.19
266.358	183.19
266.591	175.19
266.823	185.19
267.055	163.19
267.287	168.19
267.52	164.19
267.752	175.19
267.984	195.19
268.216	183.19
268.448	189.19
268.681	170.19
268.913	191.19
269.145	175.19
269.377	179.19
269.609	178.19
269.841	189.19
270.073	183.19
270.306	195.19
270.538	189.19
270.77	191.19
271.002	189.19
271.234	187.19
271.466	200.19
271.698	196.19
271.93	193.19
272.162	190.19
272.394	203.19
272.626	187.19
272.858	190.19
273.09	194.19
273.322	197.19
273.553	187.19
273.785	184.19
274.017	198.19
274.249	192.19
274.481	192.19
274.713	196.19
274.945	190.19
275.176	204.19
275.408	194.19
275.64	193.19
275.872	204.19
276.104	190.19
276.335	205.19
276.567	216.19
276.799	201.19
277.031	196.19
277.262	199.19
277.494	195.19
277.726	200.19
277.957	231.19
278.189	215.19
278.421	194.19
278.652	212.19
278.884	214.19
279.115	237.19
279.347	228.19
279.579	213.19
279.81	210.19
280.042	207.19
280.273	197.19
280.505	208.19
280.736	215.19
280.968	210.19
281.199	214.19
281.431	214.19
281.662	203.19
281.894	203.19
282.125	225.19
282.356	236.19
282.588	214.19
282.819	216.19
283.051	211.19
283.282	212.19
283.513	219.19
283.745	228.19
283.976	203.19
284.207	215.19
284.439	235.19
284.67	235.19
284.901	236.19
285.132	227.19
285.364	222.19
285.595	217.19
285.826	219.19
286.057	240.19
286.288	235.19
286.52	224.19
286.751	239.19
286.982	236.19
287.213	238.19
287.444	230.19
287.675	226.19
287.906	241.19
288.138	235.19
288.369	254.19
288.6	254.19
288.831	227.19
289.062	258.19
289.293	246.19
289.524	231.19
289.755	240.19
289.986	224.19
290.217	241.19
290.448	230.19
290.679	256.19
290.91	238.19
291.141	241.19
291.371	242.19
291.602	247.19
291.833	242.19
292.064	249.19
292.295	233.19
292.526	262.19
292.757	240.19
292.987	222.19
293.218	231.19
293.449	257.19
293.68	225.19
293.91	243.19
294.141	256.19
294.372	234.19
294.603	265.19
294.833	243.19
295.064	256.19
295.295	238.19
295.525	248.19
295.756	241.19
295.987	239.19
296.217	252.19
296.448	266.19
296.679	259.19
296.909	260.19
297.14	257.19
297.37	273.19
297.601	260.19
297.831	276.19
298.062	261.19
298.292	265.19
298.523	281.19
298.753	267.19
298.984	264.19
299.214	269.19
299.445	273.19
299.675	262.19
299.905	261.19
300.136	280.19
300.366	254.19
300.597	270.19
300.827	281.19
301.057	275.19
301.288	282.19
301.518	284.19
301.748	276.19
301.979	282.19
302.209	276.19
302.439	266.19
302.669	270.19
302.9	274.19
303.13	274.19
303.36	274.19
303.59	269.19
303.82	287.19
304.051	283.19
304.281	268.19
304.511	272.19
304.741	289.19
304.971	273.19
305.201	274.19
305.431	257.19
305.661	285.19
305.891	275.19
306.121	268.19
306.352	274.19
306.582	265.19
306.812	273.19
307.042	283.19
307.272	282.19
307.502	283.19
307.731	269.19
307.961	266.19
308.191	252.19
308.421	279.19
308.651	298.19
308.881	283.19
309.111	284.19
309.341	275.19
309.571	284.19
309.8	282.19
310.03	273.19
310.26	273.19
310.49	272.19
310.72	272.19
310.949	287.19
311.179	291.19
311.409	274.19
311.639	280.19
311.868	274.19
312.098	294.19
312.328	295.19
312.557	271.19
312.787	277.19
313.017	304.19
313.246	279.19
313.476	291.19
313.706	299.19
313.935	289.19
314.165	296.19
314.394	294.19
314.624	287.19
314.853	262.19
315.083	294.19
315.312	289.19
315.542	294.19
315.771	290.19
316.001	305.19
316.23	276.19
316.46	306.19
316.689	291.19
316.919	293.19
317.148	281.19
317.377	280.19
317.607	292.19
317.836	289.19
318.065	290.19
318.295	293.19
318.524	291.19
318.753	290.19
318.983	282.19
319.212	287.19
319.441	289.19
319.67	277.19
319.9	291.19
320.129	300.19
320.358	312.19
320.587	304.19
320.816	283.19
321.046	278.19
321.275	292.19
321.504	293.19
321.733	292.19
321.962	295.19
322.191	293.19
322.42	283.19
322.649	279.19
322.878	312.19
323.108	298.19
323.337	300.19
323.566	301.19
323.795	299.19
324.024	289.19
324.253	310.19
324.482	315.19
324.71	307.19
324.939	313.19
325.168	304.19
325.397	303.19
325.626	309.19
325.855	301.19
326.084	309.19
326.313	314.19
326.542	322.19
326.77	303.19
326.999	329.19
327.228	316.19
327.457	320.19
327.686	321.19
327.914	318.19
328.143	327.19
328.372	331.19
328.6	327.19
328.829	334.19
329.058	336.19
329.287	304.19
329.515	326.19
329.744	318.19
329.972	328.19
330.201	321.19
330.43	337.19
330.658	334.19
330.887	343.19
331.115	352.19
331.344	323.19
331.572	339.19
331.801	339.19
332.03	342.19
332.258	365.19
332.486	363.19
332.715	374.19
332.943	382.19
333.172	406.19
333.4	411.19
333.629	411.19
333.857	435.19
334.085	397.19
334.314	409.19
334.542	404.19
334.771	406.19
334.999	393.19
335.227	398.19
335.455	379.19
335.684	378.19
335.912	395.19
336.14	384.19
336.369	373.19
336.597	387.19
336.825	377.19
337.053	372.19
337.281	363.19
337.51	350.19
337.738	369.19
337.966	368.19
338.194	350.19
338.422	358.19
338.65	345.19
338.878	358.19
339.106	341.19
339.334	338.19
339.562	341.19
339.79	342.19
340.018	343.19
340.246	348.19
340.474	325.19
340.702	327.19
340.93	344.19
341.158	348.19
341.386	341.19
341.614	336.19
341.842	339.19
342.07	337.19
342.298	338.19
342.526	330.19
342.754	319.19
342.981	330.19
343.209	354.19
343.437	360.19
343.665	375.19
343.893	396.19
344.12	409.19
344.348	394.19
344.576	367.19
344.804	346.19
345.031	342.19
345.259	354.19
345.487	347.19
345.714	330.19
345.942	329.19
346.17	354.19
346.397	348.19
346.625	324.19
346.853	328.19
347.08	337.19
347.308	318.19
347.535	338.19
347.763	334.19
347.99	321.19
348.218	324.19
348.445	345.19
348.673	320.19
348.9	336.19
349.128	329.19
349.355	332.19
349.583	340.19
349.81	330.19
350.037	324.19
350.265	319.19
350.492	320.19
350.72	325.19
350.947	330.19
351.174	323.19
351.402	294.19
351.629	315.19
351.856	302.19
352.083	311.19
352.311	324.19
352.538	321.19
352.765	326.19
352.992	313.19
353.22	319.19
353.447	316.19
353.674	313.19
353.901	337.19
354.128	302.19
354.355	337.19
354.583	302.19
354.81	332.19
355.037	309.19
355.264	317.19
355.491	321.19
355.718	325.19
355.945	321.19
356.172	330.19
356.399	331.19
356.626	338.19
356.853	324.19
357.08	310.19
357.307	336.19
357.534	328.19
357.761	337.19
357.988	336.19
358.215	315.19
358.441	321.19
358.668	305.19
358.895	321.19
359.122	322.19
359.349	335.19
359.576	338.19
359.802	319.19
360.029	322.19
360.256	328.19
360.483	315.19
360.709	317.19
360.936	343.19
361.163	332.19
361.39	314.19
361.616	311.19
361.843	348.19
362.07	322.19
362.296	335.19
362.523	325.19
362.749	314.19
362.976	313.19
363.203	328.19
363.429	330.19
363.656	330.19
363.882	312.19
364.109	327.19
364.335	319.19
364.562	324.19
364.788	313.19
365.015	307.19
365.241	328.19
365.468	339.19
365.694	331.19
365.92	339.19
366.147	311.19
366.373	336.19
366.599	340.19
366.826	346.19
367.052	332.19
367.278	340.19
367.505	332.19
367.731	327.19
367.957	317.19
368.184	322.19
368.41	326.19
368.636	318.19
368.862	332.19
369.089	340.19
369.315	340.19
369.541	343.19
369.767	343.19
369.993	341.19
370.219	342.19
370.445	347.19
370.672	337.19
370.898	346.19
371.124	343.19
371.35	368.19
371.576	334.19
371.802	366.19
372.028	361.19
372.254	362.19
372.48	340.19
372.706	364.19
372.932	362.19
373.158	347.19
373.384	374.19
373.61	378.19
373.835	362.19
374.061	374.19
374.287	359.19
374.513	346.19
374.739	372.19
374.965	394.19
375.191	393.19
375.416	391.19
375.642	383.19
375.868	356.19
376.094	371.19
376.319	358.19
376.545	368.19
376.771	371.19
376.997	353.19
377.222	382.19
377.448	362.19
377.674	358.19
377.899	346.19
378.125	352.19
378.35	350.19
378.576	344.19
378.802	348.19
379.027	361.19
379.253	357.19
379.478	352.19
379.704	356.19
379.929	344.19
380.155	354.19
380.38	332.19
380.606	363.19
380.831	387.19
381.057	358.19
381.282	346.19
381.507	356.19
381.733	358.19
381.958	374.19
382.184	369.19
382.409	372.19
382.634	376.19
382.86	361.19
383.085	382.19
383.31	382.19
383.535	379.19
383.761	392.19
383.986	384.19
384.211	391.19
384.436	402.19
384.662	398.19
384.887	404.19
385.112	404.19
385.337	423.19
385.562	427.19
385.787	425.19
386.013	431.19
386.238	438.19
386.463	419.19
386.688	423.19
386.913	403.19
387.138	403.19
387.363	396.19
387.588	403.19
387.813	440.19
388.038	406.19
388.263	426.19
388.488	424.19
388.713	409.19
388.938	420.19
389.163	422.19
389.387	399.19
389.612	403.19
389.837	408.19
390.062	406.19
390.287	417.19
390.512	408.19
390.736	422.19
390.961	423.19
391.186	434.19
391.411	436.19
391.636	447.19
391.86	466.19
392.085	470.19
392.31	459.19
392.534	464.19
392.759	448.19
392.984	420.19
393.208	443.19
393.433	450.19
393.658	436.19
393.882	415.19
394.107	452.19
394.331	451.19
394.556	435.19
394.78	447.19
395.005	449.19
395.229	460.19
395.454	455.19
395.678	452.19
395.903	459.19
396.127	463.19
396.352	445.19
396.576	434.19
396.801	452.19
397.025	448.19
397.249	476.19
397.474	451.19
397.698	461.19
397.922	459.19
398.147	458.19
398.371	479.19
398.595	514.19
398.82	516.19
399.044	534.19
399.268	598.19
399.492	674.19
399.717	722.19
399.941	720.19
400.165	645.19
400.389	592.19
400.613	558.19
400.837	546.19
401.062	516.19
401.286	504.19
401.51	502.19
401.734	526.19
401.958	516.19
402.182	509.19
402.406	533.19
402.63	535.19
402.854	535.19
403.078	539.19
403.302	574.19
403.526	566.19
403.75	552.19
403.974	582.19
404.198	561.19
404.422	592.19
404.645	575.19
404.869	578.19
405.093	547.19
405.317	549.19
405.541	554.19
405.765	555.19
405.988	564.19
406.212	575.19
406.436	582.19
406.66	587.19
406.883	561.19
407.107	613.19
407.331	619.19
407.555	634.19
407.778	623.19
408.002	595.19
408.226	595.19
408.449	601.19
408.673	599.19
408.896	588.19
409.12	551.19
409.344	592.19
409.567	571.19
409.791	568.19
410.014	550.19
410.238	558.19
410.461	564.19
410.685	574.19
410.908	547.19
411.132	538.19
411.355	532.19
411.578	560.19
411.802	538.19
412.025	539.19
412.249	556.19
412.472	550.19
412.695	530.19
412.919	524.19
413.142	514.19
413.365	532.19
413.589	527.19
413.812	506.19
414.035	527.19
414.258	514.19
414.482	521.19
414.705	514.19
414.928	515.19
415.151	517.19
415.374	510.19
415.597	525.19
415.821	504.19
416.044	510.19
416.267	532.19
416.49	507.19
416.713	534.19
416.936	518.19
417.159	519.19
417.382	509.19
417.605	499.19
417.828	525.19
418.051	509.19
418.274	527.19
418.497	520.19
418.72	533.19
418.943	525.19
419.166	533.19
419.389	592.19
419.611	555.19
419.834	517.19
420.057	531.19
420.28	533.19
420.503	512.19
420.726	520.19
420.948	523.19
421.171	476.19
421.394	518.19
421.617	498.19
421.839	523.19
422.062	490.19
422.285	503.19
422.507	523.19
422.73	505.19
422.953	542.19
423.175	531.19
423.398	528.19
423.621	540.19
423.843	538.19
424.066	572.19
424.288	539.19
424.511	528.19
424.733	546.19
424.956	532.19
425.178	524.19
425.401	508.19
425.623	498.19
425.846	510.19
426.068	498.19
426.291	489.19
426.513	490.19
426.735	499.19
426.958	503.19
427.18	453.19
427.402	471.19
427.625	488.19
427.847	452.19
428.069	478.19
428.292	471.19
428.514	468.19
428.736	442.19
428.958	481.19
429.181	445.19
429.403	469.19
429.625	457.19
429.847	469.19
430.069	463.19
430.292	436.19
430.514	455.19
430.736	465.19
430.958	481.19
431.18	456.19
431.402	478.19
431.624	474.19
431.846	486.19
432.068	451.19
432.29	474.19
432.512	462.19
432.734	471.19
432.956	467.19
433.178	486.19
433.4	466.19
433.622	474.19
433.844	489.19
434.066	471.19
434.287	465.19
434.509	492.19
434.731	516.19
434.953	495.19
435.175	532.19
435.397	492.19
435.618	498.19
435.84	480.19
436.062	490.19
436.284	495.19
436.505	473.19
436.727	484.19
436.949	466.19
437.17	483.19
437.392	452.19
437.614	455.19
437.835	458.19
438.057	448.19
438.278	454.19
438.5	444.19
438.721	435.19
438.943	469.19
439.165	452.19
439.386	468.19
439.608	471.19
439.829	470.19
440.05	488.19
440.272	476.19
440.493	489.19
440.715	484.19
440.936	484.19
441.158	497.19
441.379	520.19
441.6	545.19
441.822	538.19
442.043	516.19
442.264	512.19
442.486	522.19
442.707	525.19
442.928	521.19
443.149	531.19
443.371	512.19
443.592	552.19
443.813	518.19
444.034	529.19
444.255	542.19
444.476	571.19
444.698	586.19
444.919	611.19
445.14	680.19
445.361	593.19
445.582	556.19
445.803	506.19
446.024	481.19
446.245	512.19
446.466	502.19
446.687	494.19
446.908	491.19
447.129	475.19
447.35	482.19
447.571	473.19
447.792	462.19
448.013	425.19
448.234	472.19
448.455	464.19
448.675	454.19
448.896	442.19
449.117	462.19
449.338	452.19
449.559	452.19
449.779	437.19
450	452.19
450.221	454.19
450.442	453.19
450.662	461.19
450.883	458.19
451.104	467.19
451.324	450.19
451.545	442.19
451.766	463.19
451.986	436.19
452.207	451.19
452.428	438.19
452.648	464.19
452.869	428.19
453.089	402.19
453.31	418.19
453.53	422.19
453.751	414.19
453.971	433.19
454.192	441.19
454.412	423.19
454.633	417.19
454.853	419.19
455.073	415.19
455.294	415.19
455.514	416.19
455.734	424.19
455.955	422.19
456.175	418.19
456.395	405.19
456.616	415.19
456.836	406.19
457.056	428.19
457.276	404.19
457.497	417.19
457.717	422.19
457.937	418.19
458.157	406.19
458.377	412.19
458.598	400.19
458.818	423.19
459.038	450.19
459.258	472.19
459.478	461.19
459.698	450.19
459.918	491.19
460.138	501.19
460.358	545.19
460.578	567.19
460.798	542.19
461.018	544.19
461.238	521.19
461.458	558.19
461.678	552.19
461.898	550.19
462.118	567.19
462.338	592.19
462.558	577.19
462.777	633.19
462.997	654.19
463.217	682.19
463.437	688.19
463.657	632.19
463.876	615.19
464.096	615.19
464.316	606.19
464.536	604.19
464.755	597.19
464.975	592.19
465.195	556.19
465.414	521.19
465.634	519.19
465.854	485.19
466.073	476.19
466.293	487.19
466.512	476.19
466.732	478.19
466.951	480.19
467.171	450.19
467.391	441.19
467.61	456.19
467.829	459.19
468.049	476.19
468.268	466.19
468.488	440.19
468.707	449.19
468.927	429.19
469.146	425.19
469.365	472.19
469.585	454.19
469.804	456.19
470.023	466.19
470.243	455.19
470.462	440.19
470.681	464.19
470.901	478.19
471.12	481.19
471.339	447.19
471.558	448.19
471.777	445.19
471.997	434.19
472.216	455.19
472.435	419.19
472.654	434.19
472.873	431.19
473.092	407.19
473.311	426.19
473.53	397.19
473.749	428.19
473.968	441.19
474.187	411.19
474.406	420.19
474.625	423.19
474.844	449.19
475.063	441.19
475.282	426.19
475.501	434.19
475.72	446.19
475.939	417.19
476.158	443.19
476.377	449.19
476.596	449.19
476.814	463.19
477.033	448.19
477.252	466.19
477.471	454.19
477.69	470.19
477.908	478.19
478.127	485.19
478.346	513.19
478.564	506.19
478.783	514.19
479.002	518.19
479.22	516.19
479.439	516.19
479.658	520.19
479.876	501.19
480.095	524.19
480.313	560.19
480.532	538.19
480.751	536.19
480.969	500.19
481.188	497.19
481.406	484.19
481.624	480.19
481.843	483.19
482.061	479.19
482.28	476.19
482.498	481.19
482.717	460.19
482.935	486.19
483.153	462.19
483.372	469.19
483.59	479.19
483.808	480.19
484.027	469.19
484.245	460.19
484.463	470.19
484.681	491.19
484.9	504.19
485.118	482.19
485.336	491.19
485.554	473.19
485.772	484.19
485.99	478.19
486.209	487.19
486.427	520.19
486.645	472.19
486.863	495.19
487.081	469.19
487.299	520.19
487.517	502.19
487.735	479.19
487.953	522.19
488.171	481.19
488.389	498.19
488.607	501.19
488.825	485.19
489.043	471.19
489.261	475.19
489.479	476.19
489.696	509.19
489.914	499.19
490.132	506.19
490.35	489.19
490.568	507.19
490.786	500.19
491.003	526.19
491.221	506.19
491.439	504.19
491.657	511.19
491.874	510.19
492.092	499.19
492.31	515.19
492.527	524.19
492.745	503.19
492.963	538.19
493.18	507.19
493.398	514.19
493.615	514.19
493.833	498.19
494.05	515.19
494.268	523.19
494.485	525.19
494.703	558.19
494.92	532.19
495.138	550.19
495.355	533.19
495.573	525.19
495.79	522.19
496.008	513.19
496.225	534.19
496.442	541.19
496.66	559.19
496.877	542.19
497.094	547.19
497.312	562.19
497.529	566.19
497.746	592.19
497.963	604.19
498.181	619.19
498.398	657.19
498.615	666.19
498.832	739.19
499.049	769.19
499.267	850.19
499.484	894.19
499.701	995.19
499.918	1075.19
500.135	1206.19
500.352	1324.19
500.569	1373.19
500.786	1344.19
501.003	1227.19
501.22	1114.19
501.437	1034.19
501.654	897.19
