Data from Fe(NO3)3@0.1M.TitratingCurve.Agarose3%dH2O.NegLispCup.LampEnergy10.LIBS07252019_HRD10591_16-39-43-332.txt Node
Date: Thu Jul 25 16:39:43 EDT 2019
User: cochatt
Spectrometer: HR+D1059
Trigger mode: 1
Integration Time (sec): 1.000000E-1
Scans to average: 1
Electric dark correction enabled: true
Nonlinearity correction enabled: false
Boxcar width: 0
XAxis mode: Wavelengths
Number of Pixels in Spectrum: 2048
>>>>>Begin Spectral Data<<<<<
223.165	-9.81
223.4	-9.81
223.635	-9.81
223.869	-24.81
224.104	-18.81
224.338	-15.81
224.573	0.19
224.808	-8.81
225.042	-1.81
225.277	-8.81
225.511	-0.81
225.746	5.19
225.98	-2.81
226.215	21.19
226.449	18.19
226.683	13.19
226.918	17.19
227.152	17.19
227.387	31.19
227.621	23.19
227.856	49.19
228.09	32.19
228.324	46.19
228.559	62.19
228.793	58.19
229.027	67.19
229.262	78.19
229.496	70.19
229.73	73.19
229.964	86.19
230.199	74.19
230.433	77.19
230.667	84.19
230.901	86.19
231.136	83.19
231.37	81.19
231.604	82.19
231.838	97.19
232.072	83.19
232.306	82.19
232.541	92.19
232.775	91.19
233.009	95.19
233.243	81.19
233.477	88.19
233.711	95.19
233.945	86.19
234.179	90.19
234.413	81.19
234.647	101.19
234.881	86.19
235.115	92.19
235.349	92.19
235.583	110.19
235.817	94.19
236.051	96.19
236.285	85.19
236.519	90.19
236.753	86.19
236.987	101.19
237.221	86.19
237.455	88.19
237.689	89.19
237.922	89.19
238.156	108.19
238.39	81.19
238.624	74.19
238.858	96.19
239.091	102.19
239.325	88.19
239.559	79.19
239.793	97.19
240.027	97.19
240.26	77.19
240.494	92.19
240.728	88.19
240.961	88.19
241.195	98.19
241.429	98.19
241.662	93.19
241.896	93.19
242.13	96.19
242.363	104.19
242.597	96.19
242.83	98.19
243.064	91.19
243.298	99.19
243.531	101.19
243.765	100.19
243.998	101.19
244.232	86.19
244.465	84.19
244.699	92.19
244.932	79.19
245.166	100.19
245.399	88.19
245.633	101.19
245.866	100.19
246.099	96.19
246.333	96.19
246.566	90.19
246.8	98.19
247.033	91.19
247.266	86.19
247.5	93.19
247.733	103.19
247.966	102.19
248.2	90.19
248.433	110.19
248.666	111.19
248.899	106.19
249.133	102.19
249.366	92.19
249.599	108.19
249.832	108.19
250.066	118.19
250.299	97.19
250.532	92.19
250.765	104.19
250.998	103.19
251.231	113.19
251.465	109.19
251.698	116.19
251.931	116.19
252.164	109.19
252.397	93.19
252.63	103.19
252.863	93.19
253.096	98.19
253.329	117.19
253.562	94.19
253.795	101.19
254.028	122.19
254.261	113.19
254.494	95.19
254.727	97.19
254.96	115.19
255.193	106.19
255.426	107.19
255.659	107.19
255.892	103.19
256.124	110.19
256.357	121.19
256.59	110.19
256.823	112.19
257.056	110.19
257.289	101.19
257.521	115.19
257.754	115.19
257.987	115.19
258.22	110.19
258.452	109.19
258.685	111.19
258.918	102.19
259.151	114.19
259.383	119.19
259.616	106.19
259.849	107.19
260.081	120.19
260.314	117.19
260.547	133.19
260.779	116.19
261.012	125.19
261.244	115.19
261.477	109.19
261.71	115.19
261.942	125.19
262.175	114.19
262.407	109.19
262.64	108.19
262.872	101.19
263.105	115.19
263.337	125.19
263.57	125.19
263.802	131.19
264.035	120.19
264.267	110.19
264.499	113.19
264.732	123.19
264.964	118.19
265.197	127.19
265.429	119.19
265.661	114.19
265.894	131.19
266.126	120.19
266.358	113.19
266.591	123.19
266.823	113.19
267.055	131.19
267.287	120.19
267.52	125.19
267.752	127.19
267.984	104.19
268.216	111.19
268.448	122.19
268.681	105.19
268.913	121.19
269.145	105.19
269.377	119.19
269.609	117.19
269.841	115.19
270.073	113.19
270.306	137.19
270.538	132.19
270.77	130.19
271.002	123.19
271.234	122.19
271.466	125.19
271.698	118.19
271.93	125.19
272.162	127.19
272.394	120.19
272.626	133.19
272.858	131.19
273.09	124.19
273.322	136.19
273.553	134.19
273.785	136.19
274.017	126.19
274.249	133.19
274.481	126.19
274.713	129.19
274.945	140.19
275.176	133.19
275.408	129.19
275.64	140.19
275.872	118.19
276.104	126.19
276.335	123.19
276.567	129.19
276.799	135.19
277.031	132.19
277.262	133.19
277.494	131.19
277.726	121.19
277.957	118.19
278.189	123.19
278.421	115.19
278.652	136.19
278.884	141.19
279.115	126.19
279.347	121.19
279.579	127.19
279.81	141.19
280.042	128.19
280.273	138.19
280.505	125.19
280.736	135.19
280.968	134.19
281.199	134.19
281.431	141.19
281.662	142.19
281.894	145.19
282.125	136.19
282.356	144.19
282.588	156.19
282.819	130.19
283.051	127.19
283.282	133.19
283.513	157.19
283.745	142.19
283.976	140.19
284.207	149.19
284.439	139.19
284.67	154.19
284.901	134.19
285.132	139.19
285.364	139.19
285.595	133.19
285.826	147.19
286.057	144.19
286.288	136.19
286.52	132.19
286.751	142.19
286.982	141.19
287.213	154.19
287.444	131.19
287.675	137.19
287.906	141.19
288.138	149.19
288.369	150.19
288.6	154.19
288.831	142.19
289.062	161.19
289.293	138.19
289.524	141.19
289.755	131.19
289.986	135.19
290.217	164.19
290.448	146.19
290.679	144.19
290.91	153.19
291.141	142.19
291.371	151.19
291.602	140.19
291.833	150.19
292.064	154.19
292.295	152.19
292.526	159.19
292.757	147.19
292.987	157.19
293.218	157.19
293.449	141.19
293.68	131.19
293.91	152.19
294.141	153.19
294.372	155.19
294.603	140.19
294.833	143.19
295.064	123.19
295.295	142.19
295.525	139.19
295.756	168.19
295.987	171.19
296.217	144.19
296.448	151.19
296.679	144.19
296.909	139.19
297.14	164.19
297.37	157.19
297.601	139.19
297.831	152.19
298.062	159.19
298.292	157.19
298.523	163.19
298.753	160.19
298.984	162.19
299.214	151.19
299.445	159.19
299.675	161.19
299.905	151.19
300.136	156.19
300.366	178.19
300.597	166.19
300.827	158.19
301.057	172.19
301.288	169.19
301.518	162.19
301.748	163.19
301.979	165.19
302.209	157.19
302.439	163.19
302.669	156.19
302.9	147.19
303.13	170.19
303.36	142.19
303.59	168.19
303.82	170.19
304.051	160.19
304.281	156.19
304.511	158.19
304.741	175.19
304.971	163.19
305.201	169.19
305.431	156.19
305.661	165.19
305.891	169.19
306.121	155.19
306.352	161.19
306.582	162.19
306.812	166.19
307.042	173.19
307.272	162.19
307.502	169.19
307.731	161.19
307.961	167.19
308.191	167.19
308.421	170.19
308.651	166.19
308.881	171.19
309.111	171.19
309.341	164.19
309.571	163.19
309.8	167.19
310.03	161.19
310.26	173.19
310.49	172.19
310.72	173.19
310.949	183.19
311.179	169.19
311.409	165.19
311.639	162.19
311.868	182.19
312.098	159.19
312.328	166.19
312.557	155.19
312.787	161.19
313.017	169.19
313.246	169.19
313.476	167.19
313.706	158.19
313.935	160.19
314.165	185.19
314.394	174.19
314.624	174.19
314.853	180.19
315.083	177.19
315.312	167.19
315.542	180.19
315.771	177.19
316.001	162.19
316.23	166.19
316.46	171.19
316.689	164.19
316.919	172.19
317.148	168.19
317.377	167.19
317.607	163.19
317.836	175.19
318.065	189.19
318.295	170.19
318.524	183.19
318.753	170.19
318.983	174.19
319.212	173.19
319.441	182.19
319.67	160.19
319.9	161.19
320.129	161.19
320.358	163.19
320.587	175.19
320.816	177.19
321.046	167.19
321.275	194.19
321.504	165.19
321.733	174.19
321.962	172.19
322.191	171.19
322.42	171.19
322.649	165.19
322.878	170.19
323.108	187.19
323.337	181.19
323.566	175.19
323.795	191.19
324.024	187.19
324.253	192.19
324.482	166.19
324.71	172.19
324.939	183.19
325.168	177.19
325.397	183.19
325.626	187.19
325.855	183.19
326.084	195.19
326.313	185.19
326.542	199.19
326.77	191.19
326.999	189.19
327.228	174.19
327.457	195.19
327.686	180.19
327.914	172.19
328.143	184.19
328.372	178.19
328.6	190.19
328.829	188.19
329.058	182.19
329.287	187.19
329.515	186.19
329.744	202.19
329.972	188.19
330.201	168.19
330.43	173.19
330.658	189.19
330.887	174.19
331.115	198.19
331.344	188.19
331.572	185.19
331.801	197.19
332.03	198.19
332.258	194.19
332.486	188.19
332.715	201.19
332.943	210.19
333.172	205.19
333.4	220.19
333.629	226.19
333.857	222.19
334.085	213.19
334.314	213.19
334.542	222.19
334.771	204.19
334.999	205.19
335.227	228.19
335.455	202.19
335.684	213.19
335.912	213.19
336.14	211.19
336.369	199.19
336.597	215.19
336.825	219.19
337.053	213.19
337.281	215.19
337.51	197.19
337.738	202.19
337.966	200.19
338.194	212.19
338.422	206.19
338.65	206.19
338.878	211.19
339.106	206.19
339.334	201.19
339.562	190.19
339.79	179.19
340.018	191.19
340.246	181.19
340.474	189.19
340.702	174.19
340.93	205.19
341.158	203.19
341.386	186.19
341.614	194.19
341.842	187.19
342.07	189.19
342.298	179.19
342.526	183.19
342.754	171.19
342.981	188.19
343.209	189.19
343.437	219.19
343.665	216.19
343.893	213.19
344.12	209.19
344.348	208.19
344.576	207.19
344.804	188.19
345.031	196.19
345.259	209.19
345.487	213.19
345.714	195.19
345.942	196.19
346.17	189.19
346.397	174.19
346.625	194.19
346.853	193.19
347.08	181.19
347.308	189.19
347.535	200.19
347.763	194.19
347.99	187.19
348.218	187.19
348.445	185.19
348.673	181.19
348.9	191.19
349.128	199.19
349.355	192.19
349.583	188.19
349.81	207.19
350.037	196.19
350.265	183.19
350.492	190.19
350.72	179.19
350.947	183.19
351.174	194.19
351.402	190.19
351.629	199.19
351.856	183.19
352.083	181.19
352.311	180.19
352.538	179.19
352.765	197.19
352.992	202.19
353.22	177.19
353.447	182.19
353.674	194.19
353.901	195.19
354.128	172.19
354.355	177.19
354.583	195.19
354.81	191.19
355.037	184.19
355.264	177.19
355.491	175.19
355.718	198.19
355.945	186.19
356.172	186.19
356.399	188.19
356.626	210.19
356.853	187.19
357.08	203.19
357.307	183.19
357.534	211.19
357.761	191.19
357.988	210.19
358.215	197.19
358.441	195.19
358.668	192.19
358.895	192.19
359.122	186.19
359.349	187.19
359.576	194.19
359.802	187.19
360.029	181.19
360.256	194.19
360.483	193.19
360.709	196.19
360.936	195.19
361.163	190.19
361.39	197.19
361.616	190.19
361.843	199.19
362.07	183.19
362.296	185.19
362.523	174.19
362.749	183.19
362.976	192.19
363.203	195.19
363.429	192.19
363.656	194.19
363.882	177.19
364.109	204.19
364.335	193.19
364.562	188.19
364.788	198.19
365.015	194.19
365.241	198.19
365.468	191.19
365.694	179.19
365.92	197.19
366.147	196.19
366.373	181.19
366.599	203.19
366.826	202.19
367.052	180.19
367.278	199.19
367.505	205.19
367.731	183.19
367.957	191.19
368.184	173.19
368.41	193.19
368.636	217.19
368.862	196.19
369.089	195.19
369.315	205.19
369.541	195.19
369.767	205.19
369.993	193.19
370.219	199.19
370.445	179.19
370.672	207.19
370.898	207.19
371.124	204.19
371.35	209.19
371.576	226.19
371.802	193.19
372.028	193.19
372.254	217.19
372.48	191.19
372.706	193.19
372.932	205.19
373.158	214.19
373.384	212.19
373.61	201.19
373.835	209.19
374.061	212.19
374.287	221.19
374.513	209.19
374.739	221.19
374.965	217.19
375.191	222.19
375.416	219.19
375.642	209.19
375.868	212.19
376.094	219.19
376.319	197.19
376.545	213.19
376.771	211.19
376.997	196.19
377.222	208.19
377.448	202.19
377.674	214.19
377.899	198.19
378.125	206.19
378.35	218.19
378.576	204.19
378.802	214.19
379.027	206.19
379.253	191.19
379.478	209.19
379.704	203.19
379.929	212.19
380.155	202.19
380.38	207.19
380.606	209.19
380.831	218.19
381.057	221.19
381.282	202.19
381.507	206.19
381.733	214.19
381.958	206.19
382.184	200.19
382.409	209.19
382.634	213.19
382.86	207.19
383.085	197.19
383.31	211.19
383.535	211.19
383.761	237.19
383.986	214.19
384.211	230.19
384.436	232.19
384.662	205.19
384.887	235.19
385.112	232.19
385.337	235.19
385.562	238.19
385.787	243.19
386.013	253.19
386.238	234.19
386.463	231.19
386.688	250.19
386.913	243.19
387.138	235.19
387.363	238.19
387.588	225.19
387.813	222.19
388.038	239.19
388.263	254.19
388.488	248.19
388.713	238.19
388.938	223.19
389.163	248.19
389.387	244.19
389.612	228.19
389.837	221.19
390.062	221.19
390.287	233.19
390.512	237.19
390.736	246.19
390.961	228.19
391.186	245.19
391.411	242.19
391.636	247.19
391.86	257.19
392.085	271.19
392.31	266.19
392.534	252.19
392.759	246.19
392.984	266.19
393.208	271.19
393.433	250.19
393.658	248.19
393.882	247.19
394.107	253.19
394.331	241.19
394.556	243.19
394.78	249.19
395.005	258.19
395.229	261.19
395.454	241.19
395.678	257.19
395.903	257.19
396.127	261.19
396.352	247.19
396.576	250.19
396.801	231.19
397.025	244.19
397.249	265.19
397.474	264.19
397.698	268.19
397.922	268.19
398.147	274.19
398.371	267.19
398.595	267.19
398.82	299.19
399.044	297.19
399.268	325.19
399.492	376.19
399.717	378.19
399.941	373.19
400.165	329.19
400.389	305.19
400.613	308.19
400.837	309.19
401.062	285.19
401.286	295.19
401.51	284.19
401.734	289.19
401.958	288.19
402.182	286.19
402.406	278.19
402.63	301.19
402.854	276.19
403.078	306.19
403.302	318.19
403.526	313.19
403.75	311.19
403.974	297.19
404.198	298.19
404.422	319.19
404.645	315.19
404.869	321.19
405.093	312.19
405.317	309.19
405.541	310.19
405.765	302.19
405.988	306.19
406.212	312.19
406.436	318.19
406.66	315.19
406.883	324.19
407.107	333.19
407.331	338.19
407.555	333.19
407.778	311.19
408.002	331.19
408.226	345.19
408.449	347.19
408.673	333.19
408.896	345.19
409.12	319.19
409.344	328.19
409.567	322.19
409.791	322.19
410.014	333.19
410.238	329.19
410.461	316.19
410.685	295.19
410.908	317.19
411.132	309.19
411.355	302.19
411.578	305.19
411.802	301.19
412.025	300.19
412.249	275.19
412.472	294.19
412.695	288.19
412.919	307.19
413.142	297.19
413.365	300.19
413.589	302.19
413.812	280.19
414.035	296.19
414.258	284.19
414.482	296.19
414.705	297.19
414.928	291.19
415.151	313.19
415.374	307.19
415.597	291.19
415.821	288.19
416.044	279.19
416.267	289.19
416.49	282.19
416.713	284.19
416.936	291.19
417.159	286.19
417.382	296.19
417.605	277.19
417.828	288.19
418.051	289.19
418.274	290.19
418.497	297.19
418.72	295.19
418.943	306.19
419.166	323.19
419.389	306.19
419.611	314.19
419.834	289.19
420.057	297.19
420.28	298.19
420.503	299.19
420.726	297.19
420.948	294.19
421.171	283.19
421.394	303.19
421.617	321.19
421.839	302.19
422.062	289.19
422.285	291.19
422.507	301.19
422.73	294.19
422.953	287.19
423.175	299.19
423.398	293.19
423.621	283.19
423.843	287.19
424.066	298.19
424.288	296.19
424.511	293.19
424.733	300.19
424.956	310.19
425.178	296.19
425.401	291.19
425.623	289.19
425.846	287.19
426.068	283.19
426.291	299.19
426.513	281.19
426.735	290.19
426.958	285.19
427.18	268.19
427.402	293.19
427.625	275.19
427.847	264.19
428.069	259.19
428.292	273.19
428.514	279.19
428.736	262.19
428.958	288.19
429.181	288.19
429.403	276.19
429.625	261.19
429.847	261.19
430.069	278.19
430.292	247.19
430.514	274.19
430.736	237.19
430.958	280.19
431.18	271.19
431.402	278.19
431.624	275.19
431.846	279.19
432.068	263.19
432.29	261.19
432.512	259.19
432.734	278.19
432.956	294.19
433.178	294.19
433.4	275.19
433.622	273.19
433.844	275.19
434.066	283.19
434.287	278.19
434.509	291.19
434.731	294.19
434.953	289.19
435.175	302.19
435.397	291.19
435.618	274.19
435.84	277.19
436.062	289.19
436.284	269.19
436.505	288.19
436.727	284.19
436.949	269.19
437.17	262.19
437.392	282.19
437.614	271.19
437.835	252.19
438.057	269.19
438.278	266.19
438.5	273.19
438.721	283.19
438.943	281.19
439.165	268.19
439.386	270.19
439.608	287.19
439.829	285.19
440.05	291.19
440.272	287.19
440.493	282.19
440.715	283.19
440.936	290.19
441.158	289.19
441.379	312.19
441.6	315.19
441.822	312.19
442.043	307.19
442.264	291.19
442.486	312.19
442.707	307.19
442.928	298.19
443.149	308.19
443.371	310.19
443.592	313.19
443.813	309.19
444.034	305.19
444.255	322.19
444.476	334.19
444.698	354.19
444.919	347.19
445.14	430.19
445.361	390.19
445.582	318.19
445.803	315.19
446.024	304.19
446.245	290.19
446.466	300.19
446.687	295.19
446.908	293.19
447.129	287.19
447.35	302.19
447.571	301.19
447.792	287.19
448.013	284.19
448.234	279.19
448.455	281.19
448.675	266.19
448.896	283.19
449.117	271.19
449.338	279.19
449.559	287.19
449.779	264.19
450	256.19
450.221	261.19
450.442	264.19
450.662	279.19
450.883	273.19
451.104	274.19
451.324	276.19
451.545	268.19
451.766	254.19
451.986	268.19
452.207	269.19
452.428	273.19
452.648	269.19
452.869	258.19
453.089	270.19
453.31	253.19
453.53	253.19
453.751	231.19
453.971	243.19
454.192	250.19
454.412	268.19
454.633	271.19
454.853	258.19
455.073	241.19
455.294	246.19
455.514	243.19
455.734	264.19
455.955	257.19
456.175	247.19
456.395	243.19
456.616	246.19
456.836	262.19
457.056	248.19
457.276	237.19
457.497	230.19
457.717	234.19
457.937	257.19
458.157	270.19
458.377	260.19
458.598	271.19
458.818	258.19
459.038	259.19
459.258	266.19
459.478	262.19
459.698	274.19
459.918	296.19
460.138	296.19
460.358	292.19
460.578	298.19
460.798	318.19
461.018	321.19
461.238	336.19
461.458	305.19
461.678	326.19
461.898	323.19
462.118	322.19
462.338	334.19
462.558	336.19
462.777	358.19
462.997	360.19
463.217	365.19
463.437	377.19
463.657	357.19
463.876	343.19
464.096	354.19
464.316	358.19
464.536	340.19
464.755	331.19
464.975	323.19
465.195	308.19
465.414	308.19
465.634	311.19
465.854	277.19
466.073	282.19
466.293	289.19
466.512	277.19
466.732	295.19
466.951	307.19
467.171	275.19
467.391	270.19
467.61	278.19
467.829	290.19
468.049	265.19
468.268	270.19
468.488	255.19
468.707	278.19
468.927	255.19
469.146	274.19
469.365	255.19
469.585	277.19
469.804	271.19
470.023	286.19
470.243	278.19
470.462	294.19
470.681	276.19
470.901	273.19
471.12	271.19
471.339	275.19
471.558	263.19
471.777	269.19
471.997	266.19
472.216	274.19
472.435	247.19
472.654	249.19
472.873	241.19
473.092	266.19
473.311	252.19
473.53	265.19
473.749	237.19
473.968	274.19
474.187	247.19
474.406	243.19
474.625	248.19
474.844	268.19
475.063	258.19
475.282	247.19
475.501	260.19
475.72	265.19
475.939	274.19
476.158	254.19
476.377	277.19
476.596	279.19
476.814	268.19
477.033	269.19
477.252	271.19
477.471	284.19
477.69	287.19
477.908	297.19
478.127	285.19
478.346	285.19
478.564	307.19
478.783	287.19
479.002	318.19
479.22	307.19
479.439	321.19
479.658	301.19
479.876	298.19
480.095	309.19
480.313	323.19
480.532	317.19
480.751	312.19
480.969	300.19
481.188	306.19
481.406	285.19
481.624	279.19
481.843	247.19
482.061	267.19
482.28	281.19
482.498	287.19
482.717	279.19
482.935	287.19
483.153	295.19
483.372	283.19
483.59	293.19
483.808	286.19
484.027	295.19
484.245	288.19
484.463	302.19
484.681	292.19
484.9	287.19
485.118	282.19
485.336	293.19
485.554	289.19
485.772	293.19
485.99	293.19
486.209	298.19
486.427	287.19
486.645	311.19
486.863	286.19
487.081	296.19
487.299	302.19
487.517	315.19
487.735	290.19
487.953	315.19
488.171	299.19
488.389	283.19
488.607	306.19
488.825	308.19
489.043	272.19
489.261	293.19
489.479	294.19
489.696	287.19
489.914	303.19
490.132	284.19
490.35	311.19
490.568	288.19
490.786	301.19
491.003	294.19
491.221	302.19
491.439	294.19
491.657	293.19
491.874	297.19
492.092	318.19
492.31	336.19
492.527	309.19
492.745	313.19
492.963	317.19
493.18	311.19
493.398	298.19
493.615	300.19
493.833	307.19
494.05	296.19
494.268	294.19
494.485	306.19
494.703	301.19
494.92	307.19
495.138	337.19
495.355	310.19
495.573	319.19
495.79	316.19
496.008	307.19
496.225	315.19
496.442	322.19
496.66	330.19
496.877	335.19
497.094	330.19
497.312	328.19
497.529	346.19
497.746	358.19
497.963	343.19
498.181	359.19
498.398	362.19
498.615	381.19
498.832	412.19
499.049	416.19
499.267	432.19
499.484	483.19
499.701	528.19
499.918	567.19
500.135	620.19
500.352	705.19
500.569	709.19
500.786	687.19
501.003	646.19
501.22	606.19
501.437	511.19
501.654	493.19
501.871	440.19
502.088	423.19
502.305	417.19
502.522	399.19
502.739	398.19
