Data from Fe(NO3)3@0.05M.TitratingCurve.Agarose3%dH2O.NegLispCup.LampEnergy10.LIBS07252019_HRD10591_16-46-25-334.txt Node
Date: Thu Jul 25 16:46:25 EDT 2019
User: cochatt
Spectrometer: HR+D1059
Trigger mode: 1
Integration Time (sec): 1.000000E-1
Scans to average: 1
Electric dark correction enabled: true
Nonlinearity correction enabled: false
Boxcar width: 0
XAxis mode: Wavelengths
Number of Pixels in Spectrum: 2048
>>>>>Begin Spectral Data<<<<<
223.165	-22.44
223.4	-22.44
223.635	-22.44
223.869	-20.44
224.104	-13.44
224.338	-2.44
224.573	-6.44
224.808	-6.44
225.042	-7.44
225.277	2.56
225.511	-4.44
225.746	-10.44
225.98	10.56
226.215	9.56
226.449	12.56
226.683	29.56
226.918	15.56
227.152	13.56
227.387	22.56
227.621	36.56
227.856	34.56
228.09	35.56
228.324	48.56
228.559	45.56
228.793	75.56
229.027	141.56
229.262	151.56
229.496	164.56
229.73	154.56
229.964	157.56
230.199	144.56
230.433	175.56
230.667	155.56
230.901	181.56
231.136	185.56
231.37	183.56
231.604	187.56
231.838	179.56
232.072	192.56
232.306	193.56
232.541	186.56
232.775	180.56
233.009	174.56
233.243	207.56
233.477	203.56
233.711	215.56
233.945	222.56
234.179	192.56
234.413	215.56
234.647	225.56
234.881	248.56
235.115	225.56
235.349	230.56
235.583	217.56
235.817	210.56
236.051	219.56
236.285	219.56
236.519	218.56
236.753	229.56
236.987	254.56
237.221	233.56
237.455	225.56
237.689	239.56
237.922	258.56
238.156	252.56
238.39	257.56
238.624	306.56
238.858	285.56
239.091	272.56
239.325	286.56
239.559	264.56
239.793	278.56
240.027	303.56
240.26	296.56
240.494	295.56
240.728	301.56
240.961	317.56
241.195	295.56
241.429	302.56
241.662	299.56
241.896	293.56
242.13	292.56
242.363	287.56
242.597	287.56
242.83	287.56
243.064	310.56
243.298	321.56
243.531	305.56
243.765	314.56
243.998	329.56
244.232	315.56
244.465	312.56
244.699	346.56
244.932	329.56
245.166	309.56
245.399	316.56
245.633	318.56
245.866	330.56
246.099	358.56
246.333	341.56
246.566	333.56
246.8	353.56
247.033	349.56
247.266	349.56
247.5	342.56
247.733	348.56
247.966	345.56
248.2	371.56
248.433	371.56
248.666	369.56
248.899	406.56
249.133	391.56
249.366	402.56
249.599	417.56
249.832	397.56
250.066	390.56
250.299	365.56
250.532	394.56
250.765	383.56
250.998	403.56
251.231	406.56
251.465	411.56
251.698	414.56
251.931	412.56
252.164	415.56
252.397	413.56
252.63	429.56
252.863	448.56
253.096	457.56
253.329	456.56
253.562	443.56
253.795	459.56
254.028	507.56
254.261	510.56
254.494	483.56
254.727	457.56
254.96	454.56
255.193	472.56
255.426	478.56
255.659	445.56
255.892	466.56
256.124	455.56
256.357	472.56
256.59	505.56
256.823	474.56
257.056	472.56
257.289	446.56
257.521	478.56
257.754	458.56
257.987	479.56
258.22	454.56
258.452	474.56
258.685	499.56
258.918	531.56
259.151	519.56
259.383	496.56
259.616	509.56
259.849	541.56
260.081	588.56
260.314	649.56
260.547	565.56
260.779	533.56
261.012	581.56
261.244	579.56
261.477	602.56
261.71	604.56
261.942	561.56
262.175	546.56
262.407	527.56
262.64	535.56
262.872	562.56
263.105	601.56
263.337	626.56
263.57	614.56
263.802	539.56
264.035	518.56
264.267	526.56
264.499	514.56
264.732	545.56
264.964	542.56
265.197	542.56
265.429	563.56
265.661	527.56
265.894	549.56
266.126	557.56
266.358	555.56
266.591	536.56
266.823	573.56
267.055	572.56
267.287	574.56
267.52	551.56
267.752	579.56
267.984	559.56
268.216	561.56
268.448	585.56
268.681	576.56
268.913	582.56
269.145	568.56
269.377	583.56
269.609	588.56
269.841	605.56
270.073	600.56
270.306	606.56
270.538	619.56
270.77	611.56
271.002	608.56
271.234	618.56
271.466	635.56
271.698	631.56
271.93	625.56
272.162	633.56
272.394	625.56
272.626	627.56
272.858	640.56
273.09	672.56
273.322	679.56
273.553	646.56
273.785	665.56
274.017	731.56
274.249	770.56
274.481	771.56
274.713	780.56
274.945	845.56
275.176	861.56
275.408	810.56
275.64	789.56
275.872	801.56
276.104	768.56
276.335	691.56
276.567	677.56
276.799	689.56
277.031	710.56
277.262	703.56
277.494	687.56
277.726	678.56
277.957	697.56
278.189	719.56
278.421	706.56
278.652	707.56
278.884	727.56
279.115	712.56
279.347	708.56
279.579	716.56
279.81	717.56
280.042	691.56
280.273	711.56
280.505	724.56
280.736	696.56
280.968	733.56
281.199	719.56
281.431	722.56
281.662	730.56
281.894	736.56
282.125	740.56
282.356	742.56
282.588	726.56
282.819	741.56
283.051	745.56
283.282	766.56
283.513	794.56
283.745	766.56
283.976	757.56
284.207	754.56
284.439	804.56
284.67	773.56
284.901	780.56
285.132	788.56
285.364	782.56
285.595	788.56
285.826	787.56
286.057	793.56
286.288	781.56
286.52	792.56
286.751	780.56
286.982	794.56
287.213	791.56
287.444	781.56
287.675	791.56
287.906	816.56
288.138	816.56
288.369	820.56
288.6	808.56
288.831	823.56
289.062	792.56
289.293	811.56
289.524	828.56
289.755	800.56
289.986	787.56
290.217	797.56
290.448	823.56
290.679	843.56
290.91	838.56
291.141	813.56
291.371	807.56
291.602	830.56
291.833	833.56
292.064	825.56
292.295	831.56
292.526	843.56
292.757	837.56
292.987	799.56
293.218	785.56
293.449	813.56
293.68	833.56
293.91	827.56
294.141	830.56
294.372	801.56
294.603	849.56
294.833	815.56
295.064	851.56
295.295	831.56
295.525	838.56
295.756	831.56
295.987	828.56
296.217	858.56
296.448	865.56
296.679	851.56
296.909	887.56
297.14	850.56
297.37	895.56
297.601	901.56
297.831	841.56
298.062	867.56
298.292	851.56
298.523	880.56
298.753	906.56
298.984	878.56
299.214	897.56
299.445	886.56
299.675	888.56
299.905	915.56
300.136	886.56
300.366	907.56
300.597	904.56
300.827	919.56
301.057	911.56
301.288	934.56
301.518	900.56
301.748	932.56
301.979	928.56
302.209	926.56
302.439	955.56
302.669	956.56
302.9	947.56
303.13	932.56
303.36	963.56
303.59	953.56
303.82	935.56
304.051	965.56
304.281	967.56
304.511	951.56
304.741	928.56
304.971	983.56
305.201	951.56
305.431	935.56
305.661	931.56
305.891	927.56
306.121	942.56
306.352	947.56
306.582	953.56
306.812	929.56
307.042	942.56
307.272	948.56
307.502	928.56
307.731	926.56
307.961	977.56
308.191	970.56
308.421	947.56
308.651	966.56
308.881	941.56
309.111	942.56
309.341	947.56
309.571	951.56
309.8	959.56
310.03	965.56
310.26	966.56
310.49	977.56
310.72	989.56
310.949	975.56
311.179	976.56
311.409	969.56
311.639	1010.56
311.868	972.56
312.098	980.56
312.328	1009.56
312.557	1023.56
312.787	997.56
313.017	1024.56
313.246	1031.56
313.476	1001.56
313.706	1019.56
313.935	1003.56
314.165	1037.56
314.394	1026.56
314.624	1031.56
314.853	1010.56
315.083	1022.56
315.312	1061.56
315.542	1039.56
315.771	1039.56
316.001	1047.56
316.23	1012.56
316.46	1003.56
316.689	1043.56
316.919	1048.56
317.148	1046.56
317.377	1057.56
317.607	1032.56
317.836	1053.56
318.065	1025.56
318.295	1042.56
318.524	1074.56
318.753	1059.56
318.983	1063.56
319.212	1069.56
319.441	1062.56
319.67	1047.56
319.9	1043.56
320.129	1046.56
320.358	1042.56
320.587	1045.56
320.816	1067.56
321.046	1076.56
321.275	1073.56
321.504	1065.56
321.733	1027.56
321.962	1088.56
322.191	1088.56
322.42	1062.56
322.649	1073.56
322.878	1075.56
323.108	1069.56
323.337	1088.56
323.566	1086.56
323.795	1073.56
324.024	1106.56
324.253	1089.56
324.482	1090.56
324.71	1100.56
324.939	1129.56
325.168	1101.56
325.397	1118.56
325.626	1100.56
325.855	1114.56
326.084	1114.56
326.313	1123.56
326.542	1106.56
326.77	1114.56
326.999	1106.56
327.228	1143.56
327.457	1133.56
327.686	1112.56
327.914	1129.56
328.143	1135.56
328.372	1145.56
328.6	1143.56
328.829	1152.56
329.058	1156.56
329.287	1137.56
329.515	1110.56
329.744	1125.56
329.972	1180.56
330.201	1179.56
330.43	1170.56
330.658	1166.56
330.887	1158.56
331.115	1167.56
331.344	1180.56
331.572	1180.56
331.801	1216.56
332.03	1208.56
332.258	1197.56
332.486	1206.56
332.715	1221.56
332.943	1272.56
333.172	1273.56
333.4	1302.56
333.629	1313.56
333.857	1313.56
334.085	1312.56
334.314	1318.56
334.542	1308.56
334.771	1341.56
334.999	1300.56
335.227	1344.56
335.455	1340.56
335.684	1318.56
335.912	1339.56
336.14	1290.56
336.369	1346.56
336.597	1317.56
336.825	1329.56
337.053	1285.56
337.281	1311.56
337.51	1266.56
337.738	1317.56
337.966	1253.56
338.194	1264.56
338.422	1261.56
338.65	1285.56
338.878	1275.56
339.106	1237.56
339.334	1279.56
339.562	1234.56
339.79	1223.56
340.018	1211.56
340.246	1201.56
340.474	1235.56
340.702	1233.56
340.93	1218.56
341.158	1234.56
341.386	1222.56
341.614	1263.56
341.842	1231.56
342.07	1233.56
342.298	1215.56
342.526	1214.56
342.754	1249.56
342.981	1244.56
343.209	1226.56
343.437	1263.56
343.665	1256.56
343.893	1301.56
344.12	1339.56
344.348	1338.56
344.576	1305.56
344.804	1272.56
345.031	1219.56
345.259	1283.56
345.487	1265.56
345.714	1230.56
345.942	1216.56
346.17	1215.56
346.397	1225.56
346.625	1216.56
346.853	1195.56
347.08	1176.56
347.308	1152.56
347.535	1170.56
347.763	1197.56
347.99	1186.56
348.218	1172.56
348.445	1176.56
348.673	1164.56
348.9	1169.56
349.128	1145.56
349.355	1159.56
349.583	1155.56
349.81	1117.56
350.037	1147.56
350.265	1176.56
350.492	1161.56
350.72	1152.56
350.947	1141.56
351.174	1125.56
351.402	1171.56
351.629	1181.56
351.856	1163.56
352.083	1145.56
352.311	1150.56
352.538	1199.56
352.765	1180.56
352.992	1145.56
353.22	1163.56
353.447	1171.56
353.674	1157.56
353.901	1149.56
354.128	1155.56
354.355	1149.56
354.583	1173.56
354.81	1153.56
355.037	1143.56
355.264	1128.56
355.491	1162.56
355.718	1158.56
355.945	1152.56
356.172	1145.56
356.399	1184.56
356.626	1162.56
356.853	1171.56
357.08	1169.56
357.307	1213.56
357.534	1155.56
357.761	1180.56
357.988	1199.56
358.215	1190.56
358.441	1210.56
358.668	1199.56
358.895	1183.56
359.122	1174.56
359.349	1175.56
359.576	1161.56
359.802	1163.56
360.029	1135.56
360.256	1149.56
360.483	1179.56
360.709	1173.56
360.936	1198.56
361.163	1211.56
361.39	1178.56
361.616	1166.56
361.843	1185.56
362.07	1193.56
362.296	1213.56
362.523	1173.56
362.749	1205.56
362.976	1206.56
363.203	1207.56
363.429	1216.56
363.656	1198.56
363.882	1173.56
364.109	1158.56
364.335	1155.56
364.562	1178.56
364.788	1201.56
365.015	1209.56
365.241	1164.56
365.468	1183.56
365.694	1200.56
365.92	1191.56
366.147	1205.56
366.373	1185.56
366.599	1178.56
366.826	1205.56
367.052	1185.56
367.278	1176.56
367.505	1220.56
367.731	1202.56
367.957	1197.56
368.184	1193.56
368.41	1230.56
368.636	1231.56
368.862	1231.56
369.089	1250.56
369.315	1213.56
369.541	1238.56
369.767	1255.56
369.993	1280.56
370.219	1235.56
370.445	1247.56
370.672	1269.56
370.898	1258.56
371.124	1247.56
371.35	1269.56
371.576	1282.56
371.802	1267.56
372.028	1301.56
372.254	1304.56
372.48	1307.56
372.706	1333.56
372.932	1302.56
373.158	1321.56
373.384	1351.56
373.61	1375.56
373.835	1362.56
374.061	1299.56
374.287	1325.56
374.513	1309.56
374.739	1345.56
374.965	1378.56
375.191	1390.56
375.416	1373.56
375.642	1321.56
375.868	1343.56
376.094	1347.56
376.319	1325.56
376.545	1354.56
376.771	1317.56
376.997	1303.56
377.222	1265.56
377.448	1282.56
377.674	1296.56
377.899	1303.56
378.125	1286.56
378.35	1287.56
378.576	1301.56
378.802	1280.56
379.027	1328.56
379.253	1287.56
379.478	1258.56
379.704	1295.56
379.929	1327.56
380.155	1272.56
380.38	1326.56
380.606	1289.56
380.831	1251.56
381.057	1328.56
381.282	1305.56
381.507	1343.56
381.733	1324.56
381.958	1322.56
382.184	1374.56
382.409	1384.56
382.634	1422.56
382.86	1379.56
383.085	1385.56
383.31	1390.56
383.535	1375.56
383.761	1413.56
383.986	1400.56
384.211	1404.56
384.436	1445.56
384.662	1420.56
384.887	1450.56
385.112	1451.56
385.337	1489.56
385.562	1437.56
385.787	1498.56
386.013	1498.56
386.238	1495.56
386.463	1493.56
386.688	1538.56
386.913	1508.56
387.138	1499.56
387.363	1535.56
387.588	1532.56
387.813	1557.56
388.038	1535.56
388.263	1481.56
388.488	1533.56
388.713	1541.56
388.938	1500.56
389.163	1524.56
389.387	1550.56
389.612	1520.56
389.837	1546.56
390.062	1524.56
390.287	1496.56
390.512	1548.56
390.736	1526.56
390.961	1543.56
391.186	1546.56
391.411	1554.56
391.636	1587.56
391.86	1619.56
392.085	1637.56
392.31	1618.56
392.534	1609.56
392.759	1641.56
392.984	1614.56
393.208	1610.56
393.433	1614.56
393.658	1605.56
393.882	1613.56
394.107	1600.56
394.331	1611.56
394.556	1565.56
394.78	1617.56
395.005	1624.56
395.229	1614.56
395.454	1616.56
395.678	1615.56
395.903	1614.56
396.127	1679.56
396.352	1652.56
396.576	1650.56
396.801	1626.56
397.025	1681.56
397.249	1681.56
397.474	1726.56
397.698	1687.56
397.922	1689.56
398.147	1758.56
398.371	1779.56
398.595	1773.56
398.82	1822.56
399.044	1882.56
399.268	1960.56
399.492	2035.56
399.717	2135.56
399.941	2155.56
400.165	2143.56
400.389	2060.56
400.613	2025.56
400.837	1945.56
401.062	1896.56
401.286	1907.56
401.51	1849.56
401.734	1827.56
401.958	1861.56
402.182	1816.56
402.406	1851.56
402.63	1837.56
402.854	1835.56
403.078	1819.56
403.302	1879.56
403.526	1865.56
403.75	1877.56
403.974	1874.56
404.198	1864.56
404.422	1893.56
404.645	1919.56
404.869	1923.56
405.093	1917.56
405.317	1911.56
405.541	1969.56
405.765	1923.56
405.988	1892.56
406.212	1952.56
406.436	1937.56
406.66	2011.56
406.883	1939.56
407.107	2051.56
407.331	2077.56
407.555	2132.56
407.778	2112.56
408.002	2110.56
408.226	2127.56
408.449	2085.56
408.673	2121.56
408.896	2045.56
409.12	2011.56
409.344	1996.56
409.567	1967.56
409.791	1964.56
410.014	1930.56
410.238	1916.56
410.461	1946.56
410.685	1945.56
410.908	1925.56
411.132	1887.56
411.355	1855.56
411.578	1878.56
411.802	1893.56
412.025	1863.56
412.249	1923.56
412.472	1918.56
412.695	1847.56
412.919	1880.56
413.142	1874.56
413.365	1833.56
413.589	1885.56
413.812	1856.56
414.035	1882.56
414.258	1844.56
414.482	1815.56
414.705	1850.56
414.928	1871.56
415.151	1815.56
415.374	1861.56
415.597	1820.56
415.821	1811.56
416.044	1780.56
416.267	1732.56
416.49	1754.56
416.713	1777.56
416.936	1782.56
417.159	1774.56
417.382	1751.56
417.605	1723.56
417.828	1745.56
418.051	1769.56
418.274	1753.56
418.497	1703.56
418.72	1770.56
418.943	1740.56
419.166	1874.56
419.389	1967.56
419.611	1929.56
419.834	1894.56
420.057	1830.56
420.28	1769.56
420.503	1727.56
420.726	1715.56
420.948	1736.56
421.171	1752.56
421.394	1762.56
421.617	1739.56
421.839	1734.56
422.062	1735.56
422.285	1685.56
422.507	1747.56
422.73	1727.56
422.953	1718.56
423.175	1758.56
423.398	1755.56
423.621	1748.56
423.843	1767.56
424.066	1765.56
424.288	1739.56
424.511	1705.56
424.733	1767.56
424.956	1701.56
425.178	1748.56
425.401	1759.56
425.623	1746.56
425.846	1711.56
426.068	1713.56
426.291	1721.56
426.513	1700.56
426.735	1692.56
426.958	1699.56
427.18	1707.56
427.402	1721.56
427.625	1693.56
427.847	1661.56
428.069	1675.56
428.292	1727.56
428.514	1641.56
428.736	1680.56
428.958	1725.56
429.181	1682.56
429.403	1634.56
429.625	1637.56
429.847	1634.56
430.069	1630.56
430.292	1673.56
430.514	1614.56
430.736	1665.56
430.958	1689.56
431.18	1664.56
431.402	1653.56
431.624	1607.56
431.846	1656.56
432.068	1667.56
432.29	1712.56
432.512	1654.56
432.734	1710.56
432.956	1709.56
433.178	1726.56
433.4	1693.56
433.622	1694.56
433.844	1718.56
434.066	1695.56
434.287	1705.56
434.509	1707.56
434.731	1751.56
434.953	1777.56
435.175	1727.56
435.397	1751.56
435.618	1729.56
435.84	1706.56
436.062	1706.56
436.284	1675.56
436.505	1641.56
436.727	1661.56
436.949	1673.56
437.17	1651.56
437.392	1648.56
437.614	1592.56
437.835	1594.56
438.057	1636.56
438.278	1611.56
438.5	1598.56
438.721	1648.56
438.943	1637.56
439.165	1591.56
439.386	1606.56
439.608	1661.56
439.829	1630.56
440.05	1640.56
440.272	1667.56
440.493	1649.56
440.715	1662.56
440.936	1656.56
441.158	1676.56
441.379	1691.56
441.6	1715.56
441.822	1728.56
442.043	1750.56
442.264	1723.56
442.486	1702.56
442.707	1720.56
442.928	1742.56
443.149	1729.56
443.371	1703.56
443.592	1752.56
443.813	1731.56
444.034	1722.56
444.255	1737.56
444.476	1814.56
444.698	1829.56
444.919	1833.56
445.14	1954.56
445.361	1841.56
445.582	1764.56
445.803	1745.56
446.024	1711.56
446.245	1704.56
446.466	1697.56
446.687	1658.56
446.908	1712.56
447.129	1610.56
447.35	1596.56
447.571	1597.56
447.792	1556.56
448.013	1535.56
448.234	1563.56
448.455	1528.56
448.675	1539.56
448.896	1536.56
449.117	1518.56
449.338	1553.56
449.559	1497.56
449.779	1471.56
450	1512.56
450.221	1504.56
450.442	1493.56
450.662	1512.56
450.883	1460.56
451.104	1489.56
451.324	1473.56
451.545	1465.56
451.766	1497.56
451.986	1445.56
452.207	1480.56
452.428	1470.56
452.648	1487.56
452.869	1434.56
453.089	1453.56
453.31	1459.56
453.53	1453.56
453.751	1407.56
453.971	1419.56
454.192	1469.56
454.412	1402.56
454.633	1422.56
454.853	1444.56
455.073	1412.56
455.294	1436.56
455.514	1419.56
455.734	1467.56
455.955	1445.56
456.175	1417.56
456.395	1458.56
456.616	1445.56
456.836	1469.56
457.056	1444.56
457.276	1448.56
457.497	1489.56
457.717	1468.56
457.937	1459.56
458.157	1482.56
458.377	1471.56
458.598	1552.56
458.818	1547.56
459.038	1521.56
459.258	1595.56
459.478	1588.56
459.698	1626.56
459.918	1665.56
460.138	1673.56
460.358	1737.56
460.578	1718.56
460.798	1741.56
461.018	1729.56
461.238	1775.56
461.458	1766.56
461.678	1797.56
461.898	1844.56
462.118	1815.56
462.338	1864.56
462.558	1911.56
462.777	1945.56
462.997	1993.56
463.217	2012.56
463.437	2059.56
463.657	1981.56
463.876	1978.56
464.096	1981.56
464.316	1947.56
464.536	1929.56
464.755	1920.56
464.975	1868.56
465.195	1832.56
465.414	1774.56
465.634	1765.56
465.854	1715.56
466.073	1705.56
466.293	1662.56
466.512	1663.56
466.732	1625.56
466.951	1610.56
467.171	1611.56
467.391	1606.56
467.61	1592.56
467.829	1600.56
468.049	1617.56
468.268	1615.56
468.488	1581.56
468.707	1593.56
468.927	1609.56
469.146	1607.56
469.365	1565.56
469.585	1586.56
469.804	1594.56
470.023	1634.56
470.243	1614.56
470.462	1624.56
470.681	1639.56
470.901	1607.56
471.12	1613.56
471.339	1584.56
471.558	1597.56
471.777	1647.56
471.997	1605.56
472.216	1609.56
472.435	1633.56
472.654	1605.56
472.873	1567.56
473.092	1617.56
473.311	1629.56
473.53	1607.56
473.749	1611.56
473.968	1583.56
474.187	1617.56
474.406	1589.56
474.625	1638.56
474.844	1658.56
475.063	1622.56
475.282	1623.56
475.501	1657.56
475.72	1655.56
475.939	1658.56
476.158	1712.56
476.377	1705.56
476.596	1750.56
476.814	1803.56
477.033	1706.56
477.252	1733.56
477.471	1745.56
477.69	1757.56
477.908	1821.56
478.127	1869.56
478.346	1857.56
478.564	1894.56
478.783	1908.56
479.002	1926.56
479.22	1926.56
479.439	2025.56
479.658	1971.56
479.876	1997.56
480.095	1971.56
480.313	2009.56
480.532	2013.56
480.751	1994.56
480.969	1986.56
481.188	1992.56
481.406	1993.56
481.624	1982.56
481.843	1973.56
482.061	1914.56
482.28	1917.56
482.498	1992.56
482.717	1939.56
482.935	1943.56
483.153	1955.56
483.372	1934.56
483.59	1955.56
483.808	1907.56
484.027	1889.56
484.245	1992.56
484.463	1994.56
484.681	1969.56
484.9	1935.56
485.118	2047.56
485.336	1984.56
485.554	2033.56
485.772	1978.56
485.99	2003.56
486.209	1978.56
486.427	2034.56
486.645	1984.56
486.863	2038.56
487.081	1956.56
487.299	1993.56
487.517	1993.56
487.735	2009.56
487.953	2020.56
488.171	2039.56
488.389	2035.56
488.607	1985.56
488.825	2042.56
489.043	1951.56
489.261	2060.56
489.479	2025.56
489.696	2010.56
489.914	2017.56
490.132	1966.56
490.35	2011.56
490.568	1967.56
