Data from Fe(NO3)3@0.0125M.TitratingCurve.Agarose3%dH2O.NegLispCup.LampEnergy10.LIBS07252019_HRD10591_16-59-43-336.txt Node
Date: Thu Jul 25 16:59:43 EDT 2019
User: cochatt
Spectrometer: HR+D1059
Trigger mode: 1
Integration Time (sec): 1.000000E-1
Scans to average: 1
Electric dark correction enabled: true
Nonlinearity correction enabled: false
Boxcar width: 0
XAxis mode: Wavelengths
Number of Pixels in Spectrum: 2048
>>>>>Begin Spectral Data<<<<<
223.165	-17.38
223.4	-17.38
223.635	-17.38
223.869	-18.38
224.104	-16.38
224.338	-14.38
224.573	-10.38
224.808	-4.38
225.042	-11.38
225.277	3.62
225.511	-17.38
225.746	-0.38
225.98	21.62
226.215	1.62
226.449	18.62
226.683	19.62
226.918	21.62
227.152	23.62
227.387	34.62
227.621	37.62
227.856	35.62
228.09	55.62
228.324	49.62
228.559	54.62
228.793	69.62
229.027	86.62
229.262	66.62
229.496	76.62
229.73	93.62
229.964	70.62
230.199	89.62
230.433	90.62
230.667	92.62
230.901	89.62
231.136	92.62
231.37	97.62
231.604	89.62
231.838	103.62
232.072	92.62
232.306	97.62
232.541	101.62
232.775	95.62
233.009	98.62
233.243	87.62
233.477	103.62
233.711	97.62
233.945	89.62
234.179	85.62
234.413	108.62
234.647	98.62
234.881	104.62
235.115	102.62
235.349	114.62
235.583	99.62
235.817	106.62
236.051	86.62
236.285	101.62
236.519	102.62
236.753	92.62
236.987	100.62
237.221	102.62
237.455	87.62
237.689	82.62
237.922	97.62
238.156	113.62
238.39	97.62
238.624	86.62
238.858	111.62
239.091	106.62
239.325	98.62
239.559	103.62
239.793	94.62
240.027	104.62
240.26	105.62
240.494	125.62
240.728	93.62
240.961	89.62
241.195	98.62
241.429	113.62
241.662	106.62
241.896	106.62
242.13	109.62
242.363	101.62
242.597	103.62
242.83	96.62
243.064	103.62
243.298	102.62
243.531	100.62
243.765	104.62
243.998	127.62
244.232	116.62
244.465	100.62
244.699	124.62
244.932	111.62
245.166	115.62
245.399	121.62
245.633	115.62
245.866	118.62
246.099	108.62
246.333	125.62
246.566	128.62
246.8	121.62
247.033	127.62
247.266	126.62
247.5	104.62
247.733	122.62
247.966	123.62
248.2	111.62
248.433	131.62
248.666	137.62
248.899	108.62
249.133	140.62
249.366	109.62
249.599	133.62
249.832	115.62
250.066	127.62
250.299	129.62
250.532	121.62
250.765	126.62
250.998	118.62
251.231	126.62
251.465	122.62
251.698	136.62
251.931	129.62
252.164	127.62
252.397	127.62
252.63	130.62
252.863	134.62
253.096	115.62
253.329	138.62
253.562	131.62
253.795	129.62
254.028	131.62
254.261	130.62
254.494	125.62
254.727	124.62
254.96	119.62
255.193	133.62
255.426	136.62
255.659	135.62
255.892	123.62
256.124	130.62
256.357	137.62
256.59	142.62
256.823	141.62
257.056	133.62
257.289	143.62
257.521	145.62
257.754	138.62
257.987	131.62
258.22	137.62
258.452	140.62
258.685	121.62
258.918	133.62
259.151	143.62
259.383	145.62
259.616	133.62
259.849	151.62
260.081	164.62
260.314	157.62
260.547	141.62
260.779	140.62
261.012	150.62
261.244	145.62
261.477	159.62
261.71	153.62
261.942	143.62
262.175	133.62
262.407	138.62
262.64	148.62
262.872	154.62
263.105	162.62
263.337	148.62
263.57	154.62
263.802	147.62
264.035	124.62
264.267	147.62
264.499	135.62
264.732	147.62
264.964	140.62
265.197	157.62
265.429	146.62
265.661	143.62
265.894	155.62
266.126	159.62
266.358	158.62
266.591	162.62
266.823	163.62
267.055	165.62
267.287	164.62
267.52	158.62
267.752	158.62
267.984	147.62
268.216	157.62
268.448	161.62
268.681	163.62
268.913	160.62
269.145	170.62
269.377	173.62
269.609	163.62
269.841	156.62
270.073	171.62
270.306	158.62
270.538	171.62
270.77	169.62
271.002	180.62
271.234	185.62
271.466	186.62
271.698	175.62
271.93	167.62
272.162	172.62
272.394	174.62
272.626	179.62
272.858	169.62
273.09	191.62
273.322	189.62
273.553	178.62
273.785	189.62
274.017	196.62
274.249	181.62
274.481	183.62
274.713	213.62
274.945	202.62
275.176	204.62
275.408	204.62
275.64	193.62
275.872	201.62
276.104	200.62
276.335	193.62
276.567	171.62
276.799	183.62
277.031	197.62
277.262	208.62
277.494	200.62
277.726	218.62
277.957	185.62
278.189	194.62
278.421	197.62
278.652	198.62
278.884	200.62
279.115	216.62
279.347	186.62
279.579	196.62
279.81	222.62
280.042	233.62
280.273	217.62
280.505	209.62
280.736	185.62
280.968	200.62
281.199	208.62
281.431	211.62
281.662	226.62
281.894	228.62
282.125	214.62
282.356	237.62
282.588	228.62
282.819	227.62
283.051	227.62
283.282	209.62
283.513	228.62
283.745	224.62
283.976	237.62
284.207	225.62
284.439	239.62
284.67	252.62
284.901	234.62
285.132	220.62
285.364	229.62
285.595	233.62
285.826	243.62
286.057	246.62
286.288	232.62
286.52	238.62
286.751	228.62
286.982	235.62
287.213	242.62
287.444	253.62
287.675	244.62
287.906	263.62
288.138	261.62
288.369	238.62
288.6	270.62
288.831	267.62
289.062	243.62
289.293	261.62
289.524	249.62
289.755	264.62
289.986	253.62
290.217	269.62
290.448	266.62
290.679	262.62
290.91	257.62
291.141	265.62
291.371	272.62
291.602	284.62
291.833	242.62
292.064	272.62
292.295	281.62
292.526	280.62
292.757	254.62
292.987	283.62
293.218	266.62
293.449	265.62
293.68	293.62
293.91	280.62
294.141	278.62
294.372	281.62
294.603	291.62
294.833	279.62
295.064	266.62
295.295	281.62
295.525	270.62
295.756	280.62
295.987	270.62
296.217	277.62
296.448	288.62
296.679	288.62
296.909	276.62
297.14	293.62
297.37	283.62
297.601	299.62
297.831	296.62
298.062	292.62
298.292	321.62
298.523	295.62
298.753	299.62
298.984	304.62
299.214	302.62
299.445	307.62
299.675	313.62
299.905	318.62
300.136	307.62
300.366	308.62
300.597	324.62
300.827	318.62
301.057	305.62
301.288	321.62
301.518	314.62
301.748	298.62
301.979	319.62
302.209	327.62
302.439	319.62
302.669	320.62
302.9	303.62
303.13	325.62
303.36	329.62
303.59	332.62
303.82	347.62
304.051	346.62
304.281	340.62
304.511	335.62
304.741	341.62
304.971	326.62
305.201	331.62
305.431	341.62
305.661	334.62
305.891	332.62
306.121	347.62
306.352	332.62
306.582	326.62
306.812	333.62
307.042	338.62
307.272	341.62
307.502	340.62
307.731	343.62
307.961	360.62
308.191	341.62
308.421	346.62
308.651	353.62
308.881	351.62
309.111	366.62
309.341	349.62
309.571	367.62
309.8	354.62
310.03	362.62
310.26	366.62
310.49	362.62
310.72	362.62
310.949	357.62
311.179	369.62
311.409	347.62
311.639	365.62
311.868	397.62
312.098	369.62
312.328	381.62
312.557	386.62
312.787	365.62
313.017	381.62
313.246	369.62
313.476	382.62
313.706	377.62
313.935	388.62
314.165	394.62
314.394	382.62
314.624	386.62
314.853	375.62
315.083	379.62
315.312	387.62
315.542	383.62
315.771	413.62
316.001	398.62
316.23	397.62
316.46	401.62
316.689	397.62
316.919	392.62
317.148	395.62
317.377	398.62
317.607	410.62
317.836	403.62
318.065	400.62
318.295	409.62
318.524	423.62
318.753	429.62
318.983	406.62
319.212	407.62
319.441	424.62
319.67	405.62
319.9	421.62
320.129	375.62
320.358	409.62
320.587	407.62
320.816	413.62
321.046	406.62
321.275	419.62
321.504	415.62
321.733	409.62
321.962	445.62
322.191	430.62
322.42	420.62
322.649	438.62
322.878	420.62
323.108	435.62
323.337	423.62
323.566	412.62
323.795	439.62
324.024	423.62
324.253	428.62
324.482	443.62
324.71	441.62
324.939	443.62
325.168	430.62
325.397	423.62
325.626	436.62
325.855	443.62
326.084	452.62
326.313	425.62
326.542	427.62
326.77	449.62
326.999	450.62
327.228	446.62
327.457	439.62
327.686	450.62
327.914	438.62
328.143	445.62
328.372	450.62
328.6	446.62
328.829	425.62
329.058	429.62
329.287	456.62
329.515	448.62
329.744	431.62
329.972	445.62
330.201	446.62
330.43	440.62
330.658	466.62
330.887	436.62
331.115	444.62
331.344	478.62
331.572	469.62
331.801	450.62
332.03	482.62
332.258	453.62
332.486	483.62
332.715	478.62
332.943	458.62
333.172	474.62
333.4	477.62
333.629	476.62
333.857	480.62
334.085	486.62
334.314	481.62
334.542	476.62
334.771	493.62
334.999	483.62
335.227	499.62
335.455	506.62
335.684	506.62
335.912	482.62
336.14	490.62
336.369	463.62
336.597	481.62
336.825	498.62
337.053	467.62
337.281	472.62
337.51	460.62
337.738	477.62
337.966	471.62
338.194	495.62
338.422	484.62
338.65	502.62
338.878	466.62
339.106	489.62
339.334	485.62
339.562	496.62
339.79	481.62
340.018	475.62
340.246	479.62
340.474	472.62
340.702	486.62
340.93	489.62
341.158	488.62
341.386	491.62
341.614	502.62
341.842	495.62
342.07	495.62
342.298	482.62
342.526	503.62
342.754	475.62
342.981	490.62
343.209	485.62
343.437	489.62
343.665	498.62
343.893	503.62
344.12	533.62
344.348	512.62
344.576	506.62
344.804	482.62
345.031	486.62
345.259	509.62
345.487	501.62
345.714	481.62
345.942	478.62
346.17	504.62
346.397	501.62
346.625	501.62
346.853	501.62
347.08	508.62
347.308	489.62
347.535	477.62
347.763	478.62
347.99	508.62
348.218	490.62
348.445	494.62
348.673	507.62
348.9	491.62
349.128	508.62
349.355	487.62
349.583	476.62
349.81	490.62
350.037	491.62
350.265	486.62
350.492	477.62
350.72	489.62
350.947	490.62
351.174	492.62
351.402	470.62
351.629	469.62
351.856	486.62
352.083	497.62
352.311	490.62
352.538	481.62
352.765	506.62
352.992	487.62
353.22	483.62
353.447	489.62
353.674	479.62
353.901	486.62
354.128	488.62
354.355	501.62
354.583	503.62
354.81	491.62
355.037	501.62
355.264	481.62
355.491	491.62
355.718	487.62
355.945	513.62
356.172	506.62
356.399	540.62
356.626	508.62
356.853	502.62
357.08	507.62
357.307	501.62
357.534	511.62
357.761	513.62
357.988	503.62
358.215	504.62
358.441	483.62
358.668	495.62
358.895	492.62
359.122	516.62
359.349	501.62
359.576	473.62
359.802	507.62
360.029	486.62
360.256	515.62
360.483	509.62
360.709	499.62
360.936	523.62
361.163	523.62
361.39	501.62
361.616	484.62
361.843	498.62
362.07	504.62
362.296	503.62
362.523	492.62
362.749	506.62
362.976	505.62
363.203	540.62
363.429	514.62
363.656	538.62
363.882	502.62
364.109	528.62
364.335	500.62
364.562	514.62
364.788	516.62
365.015	525.62
365.241	498.62
365.468	533.62
365.694	526.62
365.92	539.62
366.147	554.62
366.373	538.62
366.599	520.62
366.826	515.62
367.052	510.62
367.278	549.62
367.505	514.62
367.731	526.62
367.957	502.62
368.184	529.62
368.41	521.62
368.636	532.62
368.862	533.62
369.089	530.62
369.315	554.62
369.541	544.62
369.767	553.62
369.993	552.62
370.219	536.62
370.445	539.62
370.672	556.62
370.898	527.62
371.124	540.62
371.35	543.62
371.576	550.62
371.802	556.62
372.028	541.62
372.254	535.62
372.48	571.62
372.706	556.62
372.932	554.62
373.158	556.62
373.384	575.62
373.61	573.62
373.835	552.62
374.061	542.62
374.287	543.62
374.513	551.62
374.739	563.62
374.965	552.62
375.191	564.62
375.416	553.62
375.642	562.62
375.868	567.62
376.094	553.62
376.319	532.62
376.545	573.62
376.771	528.62
376.997	542.62
377.222	549.62
377.448	563.62
377.674	544.62
377.899	541.62
378.125	531.62
378.35	544.62
378.576	555.62
378.802	561.62
379.027	561.62
379.253	536.62
379.478	551.62
379.704	561.62
379.929	548.62
380.155	555.62
380.38	550.62
380.606	558.62
380.831	557.62
381.057	549.62
381.282	557.62
381.507	569.62
381.733	563.62
381.958	566.62
382.184	583.62
382.409	564.62
382.634	564.62
382.86	575.62
383.085	566.62
383.31	566.62
383.535	586.62
383.761	598.62
383.986	585.62
384.211	599.62
384.436	581.62
384.662	586.62
384.887	581.62
385.112	581.62
385.337	591.62
385.562	591.62
385.787	567.62
386.013	598.62
386.238	601.62
386.463	583.62
386.688	614.62
386.913	588.62
387.138	609.62
387.363	567.62
387.588	607.62
387.813	587.62
388.038	599.62
388.263	599.62
388.488	599.62
388.713	592.62
388.938	598.62
389.163	574.62
389.387	607.62
389.612	592.62
389.837	597.62
390.062	589.62
390.287	595.62
390.512	610.62
390.736	604.62
390.961	618.62
391.186	600.62
391.411	573.62
391.636	628.62
391.86	606.62
392.085	610.62
392.31	589.62
392.534	603.62
392.759	601.62
392.984	622.62
393.208	621.62
393.433	610.62
393.658	602.62
393.882	619.62
394.107	609.62
394.331	624.62
394.556	591.62
394.78	604.62
395.005	614.62
395.229	598.62
395.454	626.62
395.678	612.62
395.903	622.62
396.127	617.62
396.352	601.62
396.576	628.62
396.801	635.62
397.025	639.62
397.249	611.62
397.474	613.62
397.698	610.62
397.922	657.62
398.147	623.62
398.371	630.62
398.595	639.62
398.82	618.62
399.044	643.62
399.268	651.62
399.492	654.62
399.717	670.62
399.941	668.62
400.165	634.62
400.389	651.62
400.613	658.62
400.837	646.62
401.062	661.62
401.286	639.62
401.51	655.62
401.734	630.62
401.958	648.62
402.182	661.62
402.406	649.62
402.63	645.62
402.854	662.62
403.078	637.62
403.302	645.62
403.526	648.62
403.75	649.62
403.974	665.62
404.198	647.62
404.422	659.62
404.645	653.62
404.869	645.62
405.093	663.62
405.317	659.62
405.541	671.62
405.765	668.62
405.988	658.62
406.212	692.62
406.436	649.62
406.66	681.62
406.883	670.62
407.107	687.62
407.331	675.62
407.555	694.62
407.778	671.62
408.002	682.62
408.226	702.62
408.449	680.62
408.673	675.62
408.896	658.62
409.12	662.62
409.344	677.62
409.567	680.62
409.791	657.62
410.014	667.62
410.238	674.62
410.461	657.62
410.685	685.62
410.908	671.62
411.132	683.62
411.355	669.62
411.578	634.62
411.802	669.62
412.025	652.62
412.249	644.62
412.472	650.62
412.695	661.62
412.919	647.62
413.142	645.62
413.365	648.62
413.589	654.62
413.812	657.62
414.035	651.62
414.258	662.62
414.482	667.62
414.705	651.62
414.928	661.62
415.151	652.62
415.374	662.62
415.597	630.62
415.821	642.62
416.044	611.62
416.267	643.62
416.49	650.62
416.713	662.62
416.936	654.62
417.159	622.62
417.382	619.62
417.605	637.62
417.828	638.62
418.051	640.62
418.274	628.62
418.497	613.62
418.72	645.62
418.943	641.62
419.166	652.62
419.389	683.62
419.611	677.62
419.834	666.62
420.057	637.62
420.28	644.62
420.503	617.62
420.726	617.62
420.948	611.62
421.171	638.62
421.394	633.62
421.617	637.62
421.839	638.62
422.062	600.62
422.285	594.62
422.507	634.62
422.73	633.62
422.953	623.62
423.175	630.62
423.398	634.62
423.621	603.62
423.843	621.62
424.066	626.62
424.288	641.62
424.511	643.62
424.733	642.62
424.956	599.62
425.178	643.62
425.401	622.62
425.623	639.62
425.846	645.62
426.068	620.62
426.291	622.62
426.513	612.62
426.735	650.62
426.958	628.62
427.18	639.62
427.402	625.62
427.625	606.62
427.847	583.62
428.069	610.62
428.292	639.62
428.514	635.62
428.736	634.62
428.958	642.62
429.181	617.62
429.403	601.62
429.625	612.62
429.847	607.62
430.069	605.62
430.292	631.62
430.514	581.62
430.736	627.62
430.958	637.62
431.18	653.62
431.402	627.62
431.624	629.62
431.846	614.62
432.068	615.62
432.29	638.62
432.512	613.62
432.734	621.62
432.956	623.62
433.178	641.62
433.4	604.62
433.622	623.62
433.844	642.62
434.066	638.62
434.287	617.62
434.509	615.62
434.731	612.62
434.953	621.62
435.175	644.62
435.397	627.62
435.618	647.62
435.84	629.62
436.062	635.62
436.284	618.62
436.505	621.62
436.727	607.62
436.949	622.62
437.17	612.62
437.392	625.62
437.614	607.62
437.835	619.62
438.057	599.62
438.278	579.62
438.5	622.62
438.721	611.62
438.943	602.62
439.165	608.62
439.386	610.62
439.608	594.62
439.829	603.62
440.05	618.62
440.272	634.62
440.493	585.62
440.715	614.62
440.936	607.62
441.158	621.62
441.379	659.62
441.6	632.62
441.822	617.62
442.043	596.62
442.264	619.62
442.486	616.62
442.707	623.62
442.928	610.62
443.149	627.62
443.371	647.62
443.592	615.62
443.813	622.62
444.034	615.62
444.255	607.62
444.476	605.62
444.698	623.62
444.919	648.62
445.14	733.62
445.361	643.62
445.582	619.62
445.803	633.62
446.024	605.62
446.245	621.62
446.466	618.62
446.687	620.62
446.908	624.62
447.129	611.62
447.35	601.62
447.571	602.62
447.792	585.62
448.013	608.62
448.234	599.62
448.455	589.62
448.675	587.62
448.896	591.62
449.117	583.62
449.338	573.62
449.559	586.62
449.779	583.62
450	587.62
450.221	582.62
450.442	567.62
450.662	596.62
450.883	563.62
451.104	573.62
451.324	577.62
451.545	596.62
451.766	589.62
451.986	585.62
452.207	584.62
452.428	601.62
452.648	584.62
452.869	582.62
453.089	571.62
453.31	582.62
453.53	576.62
453.751	571.62
453.971	578.62
454.192	612.62
454.412	572.62
454.633	586.62
454.853	582.62
455.073	575.62
455.294	584.62
455.514	562.62
455.734	591.62
455.955	589.62
456.175	579.62
456.395	572.62
456.616	573.62
456.836	590.62
457.056	587.62
457.276	555.62
457.497	598.62
457.717	571.62
457.937	584.62
458.157	568.62
458.377	577.62
458.598	571.62
458.818	601.62
459.038	583.62
459.258	571.62
459.478	588.62
459.698	607.62
459.918	611.62
460.138	591.62
460.358	595.62
460.578	609.62
460.798	601.62
461.018	629.62
461.238	630.62
461.458	626.62
461.678	647.62
461.898	640.62
462.118	615.62
462.338	637.62
462.558	630.62
462.777	644.62
462.997	659.62
463.217	662.62
463.437	670.62
463.657	669.62
463.876	662.62
464.096	659.62
464.316	645.62
464.536	655.62
464.755	646.62
464.975	661.62
465.195	629.62
465.414	622.62
465.634	629.62
465.854	640.62
466.073	637.62
466.293	614.62
466.512	630.62
466.732	625.62
466.951	618.62
467.171	647.62
467.391	670.62
467.61	648.62
467.829	608.62
468.049	621.62
468.268	630.62
468.488	613.62
468.707	612.62
468.927	633.62
469.146	631.62
469.365	633.62
469.585	636.62
469.804	633.62
470.023	637.62
470.243	635.62
470.462	639.62
470.681	638.62
470.901	635.62
471.12	636.62
471.339	651.62
471.558	610.62
471.777	634.62
471.997	631.62
472.216	644.62
472.435	651.62
472.654	624.62
472.873	641.62
473.092	662.62
473.311	655.62
473.53	671.62
473.749	650.62
473.968	653.62
474.187	663.62
474.406	658.62
474.625	658.62
474.844	655.62
475.063	665.62
475.282	668.62
475.501	678.62
475.72	677.62
475.939	675.62
476.158	704.62
476.377	697.62
476.596	693.62
476.814	717.62
477.033	711.62
477.252	717.62
477.471	693.62
477.69	730.62
477.908	713.62
478.127	735.62
478.346	725.62
478.564	738.62
478.783	724.62
479.002	746.62
479.22	742.62
479.439	754.62
479.658	743.62
479.876	762.62
480.095	742.62
480.313	754.62
480.532	745.62
480.751	753.62
480.969	771.62
481.188	762.62
481.406	774.62
481.624	777.62
481.843	772.62
482.061	791.62
482.28	750.62
482.498	757.62
482.717	786.62
482.935	789.62
483.153	764.62
483.372	791.62
483.59	809.62
483.808	813.62
484.027	783.62
484.245	793.62
484.463	819.62
484.681	810.62
484.9	817.62
485.118	821.62
485.336	805.62
485.554	808.62
485.772	804.62
485.99	816.62
486.209	790.62
486.427	832.62
486.645	803.62
486.863	828.62
487.081	823.62
487.299	810.62
487.517	799.62
487.735	811.62
487.953	801.62
488.171	795.62
488.389	811.62
488.607	830.62
488.825	820.62
489.043	819.62
489.261	847.62
489.479	819.62
489.696	828.62
489.914	819.62
490.132	796.62
490.35	815.62
490.568	823.62
490.786	809.62
491.003	814.62
491.221	847.62
491.439	845.62
491.657	855.62
491.874	845.62
492.092	843.62
492.31	849.62
492.527	854.62
492.745	870.62
492.963	838.62
493.18	842.62
493.398	835.62
493.615	861.62
493.833	834.62
494.05	864.62
494.268	855.62
494.485	850.62
494.703	865.62
494.92	868.62
495.138	844.62
495.355	851.62
495.573	863.62
495.79	867.62
496.008	895.62
496.225	865.62
496.442	853.62
496.66	882.62
496.877	881.62
497.094	883.62
497.312	897.62
497.529	888.62
497.746	869.62
497.963	871.62
498.181	905.62
498.398	889.62
498.615	922.62
498.832	915.62
499.049	918.62
499.267	930.62
499.484	948.62
499.701	950.62
499.918	970.62
500.135	991.62
500.352	994.62
500.569	982.62
500.786	1000.62
501.003	995.62
501.22	971.62
501.437	953.62
501.654	932.62
501.871	946.62
502.088	929.62
