Data from Fe(NO3)3@0.0125M.TitratingCurve.Agarose3%dH2O.NegLispCup.LampEnergy10.LIBS07252019_HRD10591_17-00-25-336.txt Node
Date: Thu Jul 25 17:00:25 EDT 2019
User: cochatt
Spectrometer: HR+D1059
Trigger mode: 1
Integration Time (sec): 1.000000E-1
Scans to average: 1
Electric dark correction enabled: true
Nonlinearity correction enabled: false
Boxcar width: 0
XAxis mode: Wavelengths
Number of Pixels in Spectrum: 2048
>>>>>Begin Spectral Data<<<<<
223.165	-21.06
223.4	-21.06
223.635	-21.06
223.869	-22.06
224.104	-6.06
224.338	-20.06
224.573	-22.06
224.808	-13.06
225.042	-3.06
225.277	-14.06
225.511	0.94
225.746	9.94
225.98	0.94
226.215	-1.06
226.449	25.94
226.683	19.94
226.918	30.94
227.152	33.94
227.387	43.94
227.621	37.94
227.856	35.94
228.09	50.94
228.324	38.94
228.559	50.94
228.793	79.94
229.027	72.94
229.262	74.94
229.496	84.94
229.73	91.94
229.964	95.94
230.199	100.94
230.433	107.94
230.667	102.94
230.901	97.94
231.136	98.94
231.37	121.94
231.604	99.94
231.838	107.94
232.072	94.94
232.306	104.94
232.541	110.94
232.775	104.94
233.009	104.94
233.243	113.94
233.477	109.94
233.711	118.94
233.945	110.94
234.179	104.94
234.413	120.94
234.647	128.94
234.881	122.94
235.115	114.94
235.349	121.94
235.583	125.94
235.817	118.94
236.051	125.94
236.285	109.94
236.519	101.94
236.753	88.94
236.987	103.94
237.221	110.94
237.455	124.94
237.689	132.94
237.922	118.94
238.156	113.94
238.39	108.94
238.624	135.94
238.858	126.94
239.091	133.94
239.325	135.94
239.559	114.94
239.793	126.94
240.027	120.94
240.26	126.94
240.494	143.94
240.728	124.94
240.961	110.94
241.195	132.94
241.429	126.94
241.662	134.94
241.896	107.94
242.13	113.94
242.363	122.94
242.597	131.94
242.83	134.94
243.064	124.94
243.298	118.94
243.531	124.94
243.765	129.94
243.998	126.94
244.232	134.94
244.465	145.94
244.699	136.94
244.932	142.94
245.166	134.94
245.399	135.94
245.633	147.94
245.866	160.94
246.099	135.94
246.333	142.94
246.566	143.94
246.8	152.94
247.033	147.94
247.266	151.94
247.5	144.94
247.733	144.94
247.966	127.94
248.2	138.94
248.433	150.94
248.666	148.94
248.899	150.94
249.133	144.94
249.366	153.94
249.599	153.94
249.832	171.94
250.066	161.94
250.299	154.94
250.532	164.94
250.765	160.94
250.998	165.94
251.231	164.94
251.465	161.94
251.698	161.94
251.931	154.94
252.164	165.94
252.397	169.94
252.63	170.94
252.863	161.94
253.096	190.94
253.329	162.94
253.562	176.94
253.795	181.94
254.028	170.94
254.261	180.94
254.494	177.94
254.727	188.94
254.96	181.94
255.193	173.94
255.426	166.94
255.659	179.94
255.892	177.94
256.124	187.94
256.357	177.94
256.59	185.94
256.823	174.94
257.056	181.94
257.289	158.94
257.521	175.94
257.754	174.94
257.987	176.94
258.22	196.94
258.452	185.94
258.685	194.94
258.918	186.94
259.151	174.94
259.383	168.94
259.616	190.94
259.849	218.94
260.081	215.94
260.314	221.94
260.547	202.94
260.779	193.94
261.012	202.94
261.244	208.94
261.477	212.94
261.71	212.94
261.942	192.94
262.175	187.94
262.407	194.94
262.64	209.94
262.872	203.94
263.105	214.94
263.337	214.94
263.57	207.94
263.802	210.94
264.035	202.94
264.267	179.94
264.499	194.94
264.732	203.94
264.964	211.94
265.197	204.94
265.429	216.94
265.661	201.94
265.894	211.94
266.126	209.94
266.358	189.94
266.591	219.94
266.823	224.94
267.055	221.94
267.287	218.94
267.52	198.94
267.752	213.94
267.984	219.94
268.216	214.94
268.448	228.94
268.681	219.94
268.913	234.94
269.145	220.94
269.377	243.94
269.609	210.94
269.841	209.94
270.073	221.94
270.306	235.94
270.538	218.94
270.77	214.94
271.002	214.94
271.234	222.94
271.466	236.94
271.698	239.94
271.93	235.94
272.162	249.94
272.394	222.94
272.626	235.94
272.858	240.94
273.09	221.94
273.322	239.94
273.553	229.94
273.785	246.94
274.017	256.94
274.249	276.94
274.481	263.94
274.713	276.94
274.945	276.94
275.176	281.94
275.408	267.94
275.64	272.94
275.872	262.94
276.104	246.94
276.335	274.94
276.567	220.94
276.799	235.94
277.031	254.94
277.262	245.94
277.494	260.94
277.726	242.94
277.957	263.94
278.189	240.94
278.421	244.94
278.652	260.94
278.884	250.94
279.115	269.94
279.347	266.94
279.579	257.94
279.81	251.94
280.042	248.94
280.273	264.94
280.505	264.94
280.736	258.94
280.968	260.94
281.199	278.94
281.431	278.94
281.662	259.94
281.894	268.94
282.125	243.94
282.356	259.94
282.588	266.94
282.819	271.94
283.051	274.94
283.282	270.94
283.513	263.94
283.745	274.94
283.976	282.94
284.207	280.94
284.439	286.94
284.67	284.94
284.901	265.94
285.132	276.94
285.364	267.94
285.595	282.94
285.826	276.94
286.057	290.94
286.288	278.94
286.52	284.94
286.751	268.94
286.982	287.94
287.213	274.94
287.444	302.94
287.675	292.94
287.906	291.94
288.138	288.94
288.369	311.94
288.6	283.94
288.831	308.94
289.062	296.94
289.293	293.94
289.524	318.94
289.755	273.94
289.986	295.94
290.217	297.94
290.448	289.94
290.679	282.94
290.91	295.94
291.141	295.94
291.371	309.94
291.602	306.94
291.833	289.94
292.064	301.94
292.295	295.94
292.526	300.94
292.757	284.94
292.987	289.94
293.218	290.94
293.449	303.94
293.68	316.94
293.91	310.94
294.141	314.94
294.372	295.94
294.603	300.94
294.833	309.94
295.064	306.94
295.295	324.94
295.525	307.94
295.756	309.94
295.987	300.94
296.217	310.94
296.448	320.94
296.679	315.94
296.909	318.94
297.14	302.94
297.37	315.94
297.601	320.94
297.831	338.94
298.062	313.94
298.292	315.94
298.523	321.94
298.753	314.94
298.984	339.94
299.214	319.94
299.445	318.94
299.675	324.94
299.905	336.94
300.136	347.94
300.366	347.94
300.597	335.94
300.827	327.94
301.057	348.94
301.288	332.94
301.518	329.94
301.748	332.94
301.979	343.94
302.209	343.94
302.439	345.94
302.669	328.94
302.9	338.94
303.13	346.94
303.36	355.94
303.59	355.94
303.82	348.94
304.051	352.94
304.281	367.94
304.511	337.94
304.741	337.94
304.971	336.94
305.201	354.94
305.431	342.94
305.661	357.94
305.891	358.94
306.121	375.94
306.352	355.94
306.582	365.94
306.812	337.94
307.042	338.94
307.272	358.94
307.502	363.94
307.731	372.94
307.961	342.94
308.191	341.94
308.421	335.94
308.651	340.94
308.881	350.94
309.111	341.94
309.341	352.94
309.571	364.94
309.8	337.94
310.03	352.94
310.26	355.94
310.49	349.94
310.72	351.94
310.949	366.94
311.179	372.94
311.409	373.94
311.639	361.94
311.868	357.94
312.098	362.94
312.328	375.94
312.557	353.94
312.787	366.94
313.017	371.94
313.246	379.94
313.476	368.94
313.706	361.94
313.935	391.94
314.165	382.94
314.394	363.94
314.624	386.94
314.853	372.94
315.083	361.94
315.312	380.94
315.542	374.94
315.771	372.94
316.001	371.94
316.23	367.94
316.46	367.94
316.689	394.94
316.919	394.94
317.148	388.94
317.377	402.94
317.607	380.94
317.836	377.94
318.065	386.94
318.295	371.94
318.524	399.94
318.753	392.94
318.983	384.94
319.212	399.94
319.441	389.94
319.67	391.94
319.9	384.94
320.129	386.94
320.358	407.94
320.587	375.94
320.816	398.94
321.046	390.94
321.275	396.94
321.504	399.94
321.733	388.94
321.962	390.94
322.191	404.94
322.42	411.94
322.649	400.94
322.878	401.94
323.108	412.94
323.337	418.94
323.566	418.94
323.795	409.94
324.024	411.94
324.253	391.94
324.482	403.94
324.71	414.94
324.939	424.94
325.168	424.94
325.397	414.94
325.626	392.94
325.855	410.94
326.084	395.94
326.313	405.94
326.542	392.94
326.77	425.94
326.999	431.94
327.228	418.94
327.457	418.94
327.686	417.94
327.914	434.94
328.143	437.94
328.372	435.94
328.6	423.94
328.829	431.94
329.058	419.94
329.287	412.94
329.515	428.94
329.744	435.94
329.972	424.94
330.201	424.94
330.43	441.94
330.658	433.94
330.887	404.94
331.115	426.94
331.344	446.94
331.572	419.94
331.801	452.94
332.03	442.94
332.258	439.94
332.486	446.94
332.715	459.94
332.943	462.94
333.172	465.94
333.4	474.94
333.629	484.94
333.857	469.94
334.085	480.94
334.314	478.94
334.542	473.94
334.771	465.94
334.999	479.94
335.227	486.94
335.455	487.94
335.684	472.94
335.912	464.94
336.14	470.94
336.369	483.94
336.597	477.94
336.825	455.94
337.053	469.94
337.281	476.94
337.51	466.94
337.738	457.94
337.966	474.94
338.194	460.94
338.422	472.94
338.65	452.94
338.878	442.94
339.106	468.94
339.334	475.94
339.562	463.94
339.79	463.94
340.018	452.94
340.246	471.94
340.474	445.94
340.702	439.94
340.93	451.94
341.158	436.94
341.386	442.94
341.614	451.94
341.842	464.94
342.07	451.94
342.298	447.94
342.526	443.94
342.754	460.94
342.981	446.94
343.209	446.94
343.437	432.94
343.665	473.94
343.893	489.94
344.12	498.94
344.348	471.94
344.576	473.94
344.804	455.94
345.031	467.94
345.259	464.94
345.487	458.94
345.714	454.94
345.942	447.94
346.17	448.94
346.397	453.94
346.625	459.94
346.853	463.94
347.08	446.94
347.308	444.94
347.535	428.94
347.763	464.94
347.99	442.94
348.218	444.94
348.445	450.94
348.673	443.94
348.9	448.94
349.128	451.94
349.355	433.94
349.583	439.94
349.81	447.94
350.037	414.94
350.265	450.94
350.492	441.94
350.72	452.94
350.947	434.94
351.174	434.94
351.402	454.94
351.629	425.94
351.856	444.94
352.083	452.94
352.311	451.94
352.538	436.94
352.765	452.94
352.992	438.94
353.22	436.94
353.447	443.94
353.674	433.94
353.901	453.94
354.128	437.94
354.355	437.94
354.583	427.94
354.81	438.94
355.037	446.94
355.264	446.94
355.491	441.94
355.718	443.94
355.945	450.94
356.172	459.94
356.399	443.94
356.626	443.94
356.853	437.94
357.08	447.94
357.307	457.94
357.534	446.94
357.761	467.94
357.988	458.94
358.215	459.94
358.441	448.94
358.668	452.94
358.895	468.94
359.122	439.94
359.349	442.94
359.576	432.94
359.802	441.94
360.029	445.94
360.256	449.94
360.483	425.94
360.709	429.94
360.936	434.94
361.163	462.94
361.39	438.94
361.616	416.94
361.843	446.94
362.07	452.94
362.296	458.94
362.523	442.94
362.749	449.94
362.976	447.94
363.203	451.94
363.429	451.94
363.656	458.94
363.882	427.94
364.109	448.94
364.335	449.94
364.562	446.94
364.788	442.94
365.015	458.94
365.241	458.94
365.468	443.94
365.694	456.94
365.92	443.94
366.147	444.94
366.373	453.94
366.599	460.94
366.826	449.94
367.052	446.94
367.278	459.94
367.505	465.94
367.731	464.94
367.957	464.94
368.184	487.94
368.41	473.94
368.636	464.94
368.862	463.94
369.089	459.94
369.315	463.94
369.541	469.94
369.767	454.94
369.993	482.94
370.219	483.94
370.445	489.94
370.672	482.94
370.898	494.94
371.124	467.94
371.35	475.94
371.576	491.94
371.802	494.94
372.028	480.94
372.254	486.94
372.48	494.94
372.706	476.94
372.932	483.94
373.158	506.94
373.384	481.94
373.61	483.94
373.835	513.94
374.061	483.94
374.287	492.94
374.513	481.94
374.739	511.94
374.965	514.94
375.191	523.94
375.416	491.94
375.642	490.94
375.868	483.94
376.094	482.94
376.319	476.94
376.545	478.94
376.771	489.94
376.997	503.94
377.222	490.94
377.448	487.94
377.674	494.94
377.899	485.94
378.125	455.94
378.35	464.94
378.576	483.94
378.802	458.94
379.027	483.94
379.253	467.94
379.478	481.94
379.704	470.94
379.929	492.94
380.155	499.94
380.38	488.94
380.606	463.94
380.831	463.94
381.057	501.94
381.282	479.94
381.507	507.94
381.733	488.94
381.958	504.94
382.184	520.94
382.409	523.94
382.634	507.94
382.86	516.94
383.085	514.94
383.31	520.94
383.535	513.94
383.761	508.94
383.986	510.94
384.211	517.94
384.436	505.94
384.662	520.94
384.887	517.94
385.112	516.94
385.337	531.94
385.562	528.94
385.787	542.94
386.013	542.94
386.238	545.94
386.463	555.94
386.688	548.94
386.913	511.94
387.138	539.94
387.363	551.94
387.588	536.94
387.813	539.94
388.038	560.94
388.263	530.94
388.488	542.94
388.713	551.94
388.938	542.94
389.163	539.94
389.387	543.94
389.612	563.94
389.837	544.94
390.062	543.94
390.287	570.94
390.512	553.94
390.736	570.94
390.961	563.94
391.186	563.94
391.411	565.94
391.636	553.94
391.86	579.94
392.085	570.94
392.31	598.94
392.534	571.94
392.759	579.94
392.984	562.94
393.208	580.94
393.433	597.94
393.658	611.94
393.882	580.94
394.107	570.94
394.331	567.94
394.556	581.94
394.78	577.94
395.005	588.94
395.229	583.94
395.454	581.94
395.678	588.94
395.903	587.94
396.127	601.94
396.352	582.94
396.576	593.94
396.801	592.94
397.025	642.94
397.249	614.94
397.474	611.94
397.698	606.94
397.922	616.94
398.147	619.94
398.371	644.94
398.595	616.94
398.82	624.94
399.044	640.94
399.268	690.94
399.492	702.94
399.717	713.94
399.941	741.94
400.165	719.94
400.389	707.94
400.613	664.94
400.837	628.94
401.062	644.94
401.286	640.94
401.51	646.94
401.734	625.94
401.958	638.94
402.182	653.94
402.406	659.94
402.63	634.94
402.854	625.94
403.078	641.94
403.302	638.94
403.526	638.94
403.75	643.94
403.974	656.94
404.198	651.94
404.422	657.94
404.645	648.94
404.869	632.94
405.093	640.94
405.317	665.94
405.541	682.94
405.765	651.94
405.988	656.94
406.212	681.94
406.436	662.94
406.66	709.94
406.883	692.94
407.107	703.94
407.331	715.94
407.555	722.94
407.778	730.94
408.002	709.94
408.226	708.94
408.449	704.94
408.673	699.94
408.896	695.94
409.12	688.94
409.344	683.94
409.567	674.94
409.791	704.94
410.014	689.94
410.238	681.94
410.461	665.94
410.685	667.94
410.908	696.94
411.132	678.94
411.355	660.94
411.578	670.94
411.802	661.94
412.025	651.94
412.249	656.94
412.472	671.94
412.695	648.94
412.919	662.94
413.142	634.94
413.365	633.94
413.589	650.94
413.812	634.94
414.035	644.94
414.258	619.94
414.482	639.94
414.705	649.94
414.928	642.94
415.151	645.94
415.374	633.94
415.597	656.94
415.821	654.94
416.044	637.94
416.267	619.94
416.49	634.94
416.713	618.94
416.936	636.94
417.159	617.94
417.382	608.94
417.605	623.94
417.828	613.94
418.051	631.94
418.274	653.94
418.497	633.94
418.72	636.94
418.943	598.94
419.166	645.94
419.389	664.94
419.611	660.94
419.834	638.94
420.057	656.94
420.28	604.94
420.503	614.94
420.726	610.94
420.948	602.94
421.171	622.94
421.394	626.94
421.617	625.94
421.839	603.94
422.062	630.94
422.285	594.94
422.507	619.94
422.73	631.94
422.953	629.94
423.175	632.94
423.398	608.94
423.621	607.94
423.843	632.94
424.066	647.94
424.288	598.94
424.511	606.94
424.733	606.94
424.956	610.94
425.178	621.94
425.401	590.94
425.623	617.94
425.846	592.94
426.068	610.94
426.291	596.94
426.513	584.94
426.735	590.94
426.958	617.94
427.18	590.94
427.402	590.94
427.625	609.94
427.847	610.94
428.069	585.94
428.292	596.94
428.514	589.94
428.736	575.94
428.958	624.94
429.181	594.94
429.403	586.94
429.625	572.94
429.847	586.94
430.069	611.94
430.292	580.94
430.514	572.94
430.736	611.94
430.958	624.94
431.18	615.94
431.402	617.94
431.624	572.94
431.846	598.94
432.068	577.94
432.29	605.94
432.512	587.94
432.734	578.94
432.956	587.94
433.178	593.94
433.4	611.94
433.622	600.94
433.844	599.94
434.066	594.94
434.287	613.94
434.509	625.94
434.731	610.94
434.953	624.94
435.175	611.94
435.397	609.94
435.618	616.94
435.84	627.94
436.062	580.94
436.284	566.94
436.505	598.94
436.727	602.94
436.949	588.94
437.17	575.94
437.392	565.94
437.614	582.94
437.835	562.94
438.057	611.94
438.278	578.94
438.5	576.94
438.721	601.94
438.943	592.94
439.165	561.94
439.386	574.94
439.608	565.94
439.829	585.94
440.05	587.94
440.272	580.94
440.493	578.94
440.715	601.94
440.936	570.94
441.158	567.94
441.379	608.94
441.6	598.94
441.822	598.94
442.043	605.94
442.264	611.94
442.486	568.94
442.707	600.94
442.928	592.94
443.149	589.94
443.371	614.94
443.592	606.94
443.813	585.94
444.034	596.94
444.255	617.94
444.476	604.94
444.698	638.94
444.919	631.94
445.14	716.94
445.361	663.94
445.582	616.94
445.803	620.94
446.024	604.94
446.245	622.94
446.466	586.94
446.687	603.94
446.908	577.94
447.129	586.94
447.35	571.94
447.571	579.94
447.792	543.94
448.013	556.94
448.234	561.94
448.455	560.94
448.675	560.94
448.896	546.94
449.117	565.94
449.338	545.94
449.559	549.94
449.779	559.94
450	527.94
450.221	560.94
450.442	558.94
450.662	559.94
450.883	534.94
451.104	541.94
451.324	504.94
451.545	538.94
451.766	552.94
451.986	536.94
452.207	537.94
452.428	552.94
452.648	528.94
452.869	525.94
453.089	522.94
453.31	527.94
453.53	544.94
453.751	530.94
453.971	530.94
454.192	510.94
454.412	530.94
454.633	518.94
454.853	530.94
455.073	527.94
455.294	526.94
455.514	546.94
455.734	524.94
455.955	513.94
456.175	523.94
456.395	536.94
456.616	514.94
456.836	545.94
457.056	535.94
457.276	538.94
457.497	559.94
457.717	524.94
457.937	522.94
458.157	558.94
458.377	539.94
458.598	554.94
458.818	554.94
459.038	568.94
459.258	581.94
459.478	576.94
459.698	586.94
459.918	576.94
460.138	588.94
460.358	607.94
460.578	606.94
460.798	619.94
461.018	622.94
461.238	616.94
461.458	620.94
461.678	628.94
461.898	629.94
462.118	651.94
462.338	677.94
462.558	639.94
462.777	669.94
462.997	681.94
463.217	671.94
463.437	697.94
463.657	696.94
463.876	698.94
464.096	677.94
464.316	664.94
464.536	679.94
464.755	659.94
464.975	637.94
465.195	664.94
465.414	637.94
465.634	585.94
465.854	618.94
466.073	612.94
466.293	596.94
466.512	618.94
466.732	599.94
466.951	586.94
467.171	575.94
467.391	604.94
467.61	579.94
467.829	583.94
468.049	582.94
468.268	584.94
468.488	580.94
468.707	566.94
468.927	586.94
469.146	568.94
469.365	560.94
469.585	566.94
469.804	580.94
470.023	586.94
470.243	577.94
470.462	593.94
470.681	609.94
470.901	579.94
471.12	597.94
471.339	604.94
471.558	617.94
471.777	592.94
471.997	598.94
472.216	576.94
472.435	588.94
472.654	585.94
472.873	585.94
473.092	574.94
473.311	594.94
473.53	594.94
473.749	582.94
473.968	585.94
474.187	573.94
474.406	583.94
474.625	607.94
474.844	580.94
475.063	602.94
475.282	607.94
475.501	624.94
475.72	634.94
475.939	636.94
476.158	624.94
476.377	620.94
476.596	614.94
476.814	627.94
477.033	645.94
477.252	628.94
477.471	647.94
477.69	653.94
477.908	652.94
478.127	653.94
478.346	657.94
478.564	675.94
478.783	683.94
479.002	692.94
479.22	676.94
479.439	702.94
479.658	672.94
479.876	671.94
480.095	679.94
480.313	707.94
480.532	682.94
480.751	698.94
480.969	674.94
481.188	688.94
481.406	704.94
481.624	697.94
481.843	688.94
482.061	710.94
482.28	706.94
482.498	719.94
482.717	722.94
482.935	735.94
483.153	692.94
483.372	701.94
483.59	702.94
483.808	694.94
484.027	706.94
484.245	739.94
484.463	730.94
484.681	712.94
484.9	699.94
485.118	704.94
485.336	733.94
485.554	714.94
485.772	730.94
485.99	724.94
486.209	718.94
486.427	708.94
486.645	744.94
486.863	718.94
487.081	725.94
487.299	734.94
487.517	704.94
487.735	731.94
487.953	731.94
488.171	725.94
488.389	735.94
488.607	766.94
488.825	738.94
489.043	727.94
489.261	725.94
489.479	741.94
489.696	750.94
489.914	732.94
490.132	728.94
490.35	738.94
490.568	730.94
490.786	740.94
491.003	734.94
491.221	734.94
491.439	733.94
491.657	745.94
491.874	754.94
492.092	766.94
492.31	747.94
492.527	747.94
492.745	755.94
492.963	744.94
493.18	734.94
493.398	761.94
493.615	768.94
493.833	739.94
494.05	738.94
494.268	753.94
494.485	774.94
494.703	734.94
494.92	769.94
495.138	746.94
495.355	776.94
495.573	765.94
495.79	758.94
496.008	771.94
496.225	789.94
496.442	783.94
496.66	772.94
496.877	829.94
497.094	807.94
497.312	822.94
497.529	839.94
497.746	821.94
497.963	836.94
498.181	850.94
498.398	911.94
498.615	932.94
498.832	930.94
499.049	971.94
499.267	985.94
499.484	1009.94
499.701	1025.94
499.918	1079.94
500.135	1113.94
500.352	1163.94
500.569	1159.94
500.786	1171.94
501.003	1150.94
501.22	1125.94
501.437	1072.94
