Data from Fe(NO3)3@0.0125M.TitratingCurve.Agarose3%dH2O.NegLispCup.LampEnergy10.LIBS07252019_HRD10591_16-59-06-337.txt Node
Date: Thu Jul 25 16:59:06 EDT 2019
User: cochatt
Spectrometer: HR+D1059
Trigger mode: 1
Integration Time (sec): 1.000000E-1
Scans to average: 1
Electric dark correction enabled: true
Nonlinearity correction enabled: false
Boxcar width: 0
XAxis mode: Wavelengths
Number of Pixels in Spectrum: 2048
>>>>>Begin Spectral Data<<<<<
223.165	-28.12
223.4	-28.12
223.635	-28.12
223.869	-16.12
224.104	-19.12
224.338	-13.12
224.573	-6.12
224.808	-13.12
225.042	-13.12
225.277	-5.12
225.511	-7.12
225.746	8.88
225.98	11.88
226.215	10.88
226.449	4.88
226.683	20.88
226.918	24.88
227.152	38.88
227.387	36.88
227.621	26.88
227.856	32.88
228.09	52.88
228.324	47.88
228.559	59.88
228.793	65.88
229.027	100.88
229.262	106.88
229.496	93.88
229.73	106.88
229.964	109.88
230.199	125.88
230.433	114.88
230.667	116.88
230.901	119.88
231.136	107.88
231.37	118.88
231.604	112.88
231.838	125.88
232.072	121.88
232.306	118.88
232.541	114.88
232.775	124.88
233.009	122.88
233.243	135.88
233.477	146.88
233.711	138.88
233.945	132.88
234.179	132.88
234.413	132.88
234.647	120.88
234.881	134.88
235.115	132.88
235.349	138.88
235.583	144.88
235.817	139.88
236.051	130.88
236.285	129.88
236.519	119.88
236.753	121.88
236.987	132.88
237.221	133.88
237.455	161.88
237.689	126.88
237.922	138.88
238.156	137.88
238.39	134.88
238.624	138.88
238.858	153.88
239.091	161.88
239.325	140.88
239.559	134.88
239.793	135.88
240.027	137.88
240.26	132.88
240.494	151.88
240.728	144.88
240.961	155.88
241.195	152.88
241.429	146.88
241.662	159.88
241.896	162.88
242.13	169.88
242.363	162.88
242.597	164.88
242.83	147.88
243.064	162.88
243.298	158.88
243.531	157.88
243.765	162.88
243.998	144.88
244.232	151.88
244.465	167.88
244.699	185.88
244.932	184.88
245.166	180.88
245.399	182.88
245.633	161.88
245.866	165.88
246.099	182.88
246.333	168.88
246.566	174.88
246.8	179.88
247.033	184.88
247.266	195.88
247.5	199.88
247.733	182.88
247.966	174.88
248.2	197.88
248.433	191.88
248.666	192.88
248.899	191.88
249.133	193.88
249.366	194.88
249.599	218.88
249.832	206.88
250.066	196.88
250.299	199.88
250.532	212.88
250.765	201.88
250.998	208.88
251.231	210.88
251.465	195.88
251.698	213.88
251.931	192.88
252.164	219.88
252.397	211.88
252.63	216.88
252.863	221.88
253.096	213.88
253.329	215.88
253.562	230.88
253.795	227.88
254.028	232.88
254.261	229.88
254.494	216.88
254.727	232.88
254.96	230.88
255.193	244.88
255.426	201.88
255.659	225.88
255.892	238.88
256.124	224.88
256.357	240.88
256.59	236.88
256.823	220.88
257.056	241.88
257.289	243.88
257.521	240.88
257.754	238.88
257.987	230.88
258.22	233.88
258.452	247.88
258.685	246.88
258.918	255.88
259.151	254.88
259.383	254.88
259.616	260.88
259.849	269.88
260.081	275.88
260.314	269.88
260.547	263.88
260.779	257.88
261.012	282.88
261.244	276.88
261.477	272.88
261.71	263.88
261.942	255.88
262.175	263.88
262.407	258.88
262.64	250.88
262.872	268.88
263.105	268.88
263.337	272.88
263.57	284.88
263.802	272.88
264.035	278.88
264.267	271.88
264.499	264.88
264.732	282.88
264.964	278.88
265.197	269.88
265.429	274.88
265.661	291.88
265.894	270.88
266.126	282.88
266.358	281.88
266.591	287.88
266.823	297.88
267.055	281.88
267.287	293.88
267.52	285.88
267.752	283.88
267.984	296.88
268.216	286.88
268.448	292.88
268.681	305.88
268.913	320.88
269.145	304.88
269.377	298.88
269.609	307.88
269.841	280.88
270.073	290.88
270.306	290.88
270.538	312.88
270.77	298.88
271.002	315.88
271.234	327.88
271.466	319.88
271.698	306.88
271.93	329.88
272.162	299.88
272.394	321.88
272.626	321.88
272.858	327.88
273.09	318.88
273.322	336.88
273.553	325.88
273.785	338.88
274.017	331.88
274.249	368.88
274.481	371.88
274.713	357.88
274.945	383.88
275.176	366.88
275.408	375.88
275.64	331.88
275.872	357.88
276.104	364.88
276.335	344.88
276.567	363.88
276.799	370.88
277.031	358.88
277.262	346.88
277.494	361.88
277.726	371.88
277.957	377.88
278.189	362.88
278.421	363.88
278.652	379.88
278.884	370.88
279.115	370.88
279.347	375.88
279.579	351.88
279.81	370.88
280.042	384.88
280.273	388.88
280.505	375.88
280.736	364.88
280.968	370.88
281.199	382.88
281.431	375.88
281.662	391.88
281.894	388.88
282.125	378.88
282.356	379.88
282.588	377.88
282.819	388.88
283.051	398.88
283.282	408.88
283.513	394.88
283.745	369.88
283.976	378.88
284.207	403.88
284.439	403.88
284.67	393.88
284.901	411.88
285.132	399.88
285.364	391.88
285.595	410.88
285.826	386.88
286.057	401.88
286.288	401.88
286.52	407.88
286.751	426.88
286.982	427.88
287.213	394.88
287.444	418.88
287.675	420.88
287.906	426.88
288.138	420.88
288.369	432.88
288.6	424.88
288.831	419.88
289.062	430.88
289.293	414.88
289.524	411.88
289.755	445.88
289.986	426.88
290.217	451.88
290.448	435.88
290.679	427.88
290.91	447.88
291.141	441.88
291.371	438.88
291.602	440.88
291.833	441.88
292.064	440.88
292.295	431.88
292.526	413.88
292.757	443.88
292.987	440.88
293.218	427.88
293.449	449.88
293.68	441.88
293.91	433.88
294.141	436.88
294.372	434.88
294.603	448.88
294.833	449.88
295.064	448.88
295.295	475.88
295.525	451.88
295.756	457.88
295.987	455.88
296.217	455.88
296.448	441.88
296.679	473.88
296.909	474.88
297.14	484.88
297.37	482.88
297.601	470.88
297.831	464.88
298.062	455.88
298.292	474.88
298.523	496.88
298.753	491.88
298.984	453.88
299.214	475.88
299.445	469.88
299.675	486.88
299.905	475.88
300.136	489.88
300.366	491.88
300.597	478.88
300.827	481.88
301.057	494.88
301.288	482.88
301.518	483.88
301.748	484.88
301.979	502.88
302.209	504.88
302.439	497.88
302.669	489.88
302.9	503.88
303.13	488.88
303.36	516.88
303.59	504.88
303.82	516.88
304.051	517.88
304.281	538.88
304.511	519.88
304.741	514.88
304.971	534.88
305.201	514.88
305.431	523.88
305.661	548.88
305.891	525.88
306.121	536.88
306.352	524.88
306.582	536.88
306.812	511.88
307.042	502.88
307.272	513.88
307.502	552.88
307.731	542.88
307.961	522.88
308.191	541.88
308.421	535.88
308.651	492.88
308.881	524.88
309.111	532.88
309.341	531.88
309.571	541.88
309.8	529.88
310.03	540.88
310.26	549.88
310.49	534.88
310.72	560.88
310.949	533.88
311.179	528.88
311.409	553.88
311.639	572.88
311.868	554.88
312.098	542.88
312.328	541.88
312.557	559.88
312.787	552.88
313.017	553.88
313.246	574.88
313.476	556.88
313.706	583.88
313.935	558.88
314.165	573.88
314.394	586.88
314.624	577.88
314.853	567.88
315.083	588.88
315.312	573.88
315.542	584.88
315.771	603.88
316.001	596.88
316.23	575.88
316.46	593.88
316.689	597.88
316.919	590.88
317.148	598.88
317.377	605.88
317.607	596.88
317.836	601.88
318.065	585.88
318.295	622.88
318.524	592.88
318.753	572.88
318.983	566.88
319.212	602.88
319.441	589.88
319.67	603.88
319.9	602.88
320.129	596.88
320.358	612.88
320.587	605.88
320.816	628.88
321.046	622.88
321.275	623.88
321.504	627.88
321.733	605.88
321.962	622.88
322.191	610.88
322.42	611.88
322.649	627.88
322.878	618.88
323.108	630.88
323.337	622.88
323.566	626.88
323.795	645.88
324.024	639.88
324.253	631.88
324.482	650.88
324.71	624.88
324.939	615.88
325.168	629.88
325.397	642.88
325.626	647.88
325.855	634.88
326.084	641.88
326.313	644.88
326.542	632.88
326.77	619.88
326.999	644.88
327.228	658.88
327.457	640.88
327.686	632.88
327.914	628.88
328.143	657.88
328.372	649.88
328.6	641.88
328.829	638.88
329.058	630.88
329.287	645.88
329.515	659.88
329.744	656.88
329.972	655.88
330.201	660.88
330.43	668.88
330.658	662.88
330.887	686.88
331.115	636.88
331.344	654.88
331.572	673.88
331.801	687.88
332.03	686.88
332.258	657.88
332.486	666.88
332.715	670.88
332.943	680.88
333.172	687.88
333.4	687.88
333.629	669.88
333.857	706.88
334.085	704.88
334.314	710.88
334.542	716.88
334.771	715.88
334.999	699.88
335.227	722.88
335.455	719.88
335.684	733.88
335.912	704.88
336.14	702.88
336.369	713.88
336.597	726.88
336.825	721.88
337.053	712.88
337.281	714.88
337.51	703.88
337.738	696.88
337.966	706.88
338.194	711.88
338.422	703.88
338.65	706.88
338.878	699.88
339.106	683.88
339.334	720.88
339.562	673.88
339.79	718.88
340.018	708.88
340.246	704.88
340.474	726.88
340.702	697.88
340.93	686.88
341.158	720.88
341.386	703.88
341.614	708.88
341.842	692.88
342.07	716.88
342.298	706.88
342.526	688.88
342.754	670.88
342.981	712.88
343.209	678.88
343.437	706.88
343.665	694.88
343.893	731.88
344.12	722.88
344.348	733.88
344.576	732.88
344.804	710.88
345.031	699.88
345.259	682.88
345.487	715.88
345.714	693.88
345.942	711.88
346.17	713.88
346.397	706.88
346.625	695.88
346.853	704.88
347.08	708.88
347.308	674.88
347.535	689.88
347.763	667.88
347.99	689.88
348.218	672.88
348.445	669.88
348.673	652.88
348.9	658.88
349.128	691.88
349.355	678.88
349.583	660.88
349.81	683.88
350.037	678.88
350.265	675.88
350.492	702.88
350.72	694.88
350.947	690.88
351.174	670.88
351.402	679.88
351.629	667.88
351.856	670.88
352.083	696.88
352.311	696.88
352.538	663.88
352.765	684.88
352.992	680.88
353.22	658.88
353.447	663.88
353.674	683.88
353.901	672.88
354.128	701.88
354.355	667.88
354.583	666.88
354.81	667.88
355.037	695.88
355.264	672.88
355.491	678.88
355.718	656.88
355.945	696.88
356.172	690.88
356.399	689.88
356.626	660.88
356.853	676.88
357.08	690.88
357.307	688.88
357.534	666.88
357.761	684.88
357.988	667.88
358.215	670.88
358.441	714.88
358.668	702.88
358.895	682.88
359.122	658.88
359.349	686.88
359.576	669.88
359.802	687.88
360.029	688.88
360.256	688.88
360.483	699.88
360.709	710.88
360.936	699.88
361.163	692.88
361.39	695.88
361.616	689.88
361.843	662.88
362.07	708.88
362.296	700.88
362.523	678.88
362.749	705.88
362.976	677.88
363.203	697.88
363.429	711.88
363.656	713.88
363.882	693.88
364.109	705.88
364.335	691.88
364.562	697.88
364.788	705.88
365.015	710.88
365.241	692.88
365.468	699.88
365.694	716.88
365.92	700.88
366.147	687.88
366.373	712.88
366.599	699.88
366.826	698.88
367.052	691.88
367.278	704.88
367.505	715.88
367.731	704.88
367.957	744.88
368.184	739.88
368.41	726.88
368.636	706.88
368.862	712.88
369.089	693.88
369.315	697.88
369.541	728.88
369.767	724.88
369.993	713.88
370.219	719.88
370.445	725.88
370.672	734.88
370.898	698.88
371.124	728.88
371.35	738.88
371.576	752.88
371.802	736.88
372.028	729.88
372.254	759.88
372.48	742.88
372.706	732.88
372.932	724.88
373.158	735.88
373.384	735.88
373.61	745.88
373.835	732.88
374.061	731.88
374.287	745.88
374.513	744.88
374.739	770.88
374.965	764.88
375.191	738.88
375.416	747.88
375.642	748.88
375.868	748.88
376.094	731.88
376.319	728.88
376.545	740.88
376.771	742.88
376.997	736.88
377.222	722.88
377.448	739.88
377.674	715.88
377.899	744.88
378.125	711.88
378.35	720.88
378.576	739.88
378.802	757.88
379.027	730.88
379.253	725.88
379.478	721.88
379.704	728.88
379.929	758.88
380.155	730.88
380.38	751.88
380.606	721.88
380.831	727.88
381.057	736.88
381.282	737.88
381.507	729.88
381.733	776.88
381.958	752.88
382.184	767.88
382.409	752.88
382.634	788.88
382.86	779.88
383.085	758.88
383.31	770.88
383.535	746.88
383.761	742.88
383.986	764.88
384.211	771.88
384.436	763.88
384.662	772.88
384.887	769.88
385.112	798.88
385.337	768.88
385.562	776.88
385.787	796.88
386.013	818.88
386.238	795.88
386.463	794.88
386.688	788.88
386.913	780.88
387.138	808.88
387.363	792.88
387.588	815.88
387.813	809.88
388.038	780.88
388.263	799.88
388.488	816.88
388.713	799.88
388.938	809.88
389.163	792.88
389.387	833.88
389.612	802.88
389.837	799.88
390.062	790.88
390.287	777.88
390.512	802.88
390.736	795.88
390.961	816.88
391.186	817.88
391.411	824.88
391.636	827.88
391.86	814.88
392.085	831.88
392.31	798.88
392.534	824.88
392.759	810.88
392.984	835.88
393.208	822.88
393.433	828.88
393.658	839.88
393.882	814.88
394.107	819.88
394.331	804.88
394.556	806.88
394.78	836.88
395.005	814.88
395.229	830.88
395.454	815.88
395.678	831.88
395.903	858.88
396.127	854.88
396.352	836.88
396.576	846.88
396.801	833.88
397.025	814.88
397.249	853.88
397.474	839.88
397.698	835.88
397.922	855.88
398.147	862.88
398.371	842.88
398.595	871.88
398.82	891.88
399.044	886.88
399.268	895.88
399.492	907.88
399.717	921.88
399.941	936.88
400.165	945.88
400.389	934.88
400.613	928.88
400.837	926.88
401.062	905.88
401.286	885.88
401.51	882.88
401.734	905.88
401.958	909.88
402.182	895.88
402.406	870.88
402.63	896.88
402.854	914.88
403.078	866.88
403.302	896.88
403.526	880.88
403.75	907.88
403.974	895.88
404.198	878.88
404.422	889.88
404.645	889.88
404.869	936.88
405.093	923.88
405.317	884.88
405.541	901.88
405.765	891.88
405.988	903.88
406.212	897.88
406.436	906.88
406.66	905.88
406.883	905.88
407.107	948.88
407.331	940.88
407.555	970.88
407.778	934.88
408.002	930.88
408.226	936.88
408.449	944.88
408.673	919.88
408.896	942.88
409.12	929.88
409.344	941.88
409.567	921.88
409.791	914.88
410.014	875.88
410.238	908.88
410.461	921.88
410.685	909.88
410.908	916.88
411.132	892.88
411.355	907.88
411.578	876.88
411.802	896.88
412.025	896.88
412.249	907.88
412.472	908.88
412.695	902.88
412.919	872.88
413.142	881.88
413.365	870.88
413.589	888.88
413.812	880.88
414.035	858.88
414.258	872.88
414.482	883.88
414.705	866.88
414.928	868.88
415.151	866.88
415.374	872.88
415.597	882.88
415.821	871.88
416.044	852.88
416.267	856.88
416.49	848.88
416.713	850.88
416.936	855.88
417.159	880.88
417.382	867.88
417.605	826.88
417.828	848.88
418.051	855.88
418.274	828.88
418.497	805.88
418.72	838.88
418.943	816.88
419.166	871.88
419.389	888.88
419.611	898.88
419.834	862.88
420.057	855.88
420.28	828.88
420.503	822.88
420.726	818.88
420.948	823.88
421.171	807.88
421.394	838.88
421.617	836.88
421.839	835.88
422.062	828.88
422.285	803.88
422.507	827.88
422.73	821.88
422.953	818.88
423.175	839.88
423.398	832.88
423.621	809.88
423.843	845.88
424.066	833.88
424.288	851.88
424.511	838.88
424.733	843.88
424.956	803.88
425.178	833.88
425.401	836.88
425.623	827.88
425.846	795.88
426.068	819.88
426.291	837.88
426.513	836.88
426.735	829.88
426.958	841.88
427.18	758.88
427.402	801.88
427.625	827.88
427.847	800.88
428.069	804.88
428.292	817.88
428.514	796.88
428.736	810.88
428.958	838.88
429.181	823.88
429.403	801.88
429.625	826.88
429.847	833.88
430.069	794.88
430.292	807.88
430.514	795.88
430.736	802.88
430.958	806.88
431.18	808.88
431.402	822.88
431.624	821.88
431.846	827.88
432.068	800.88
432.29	811.88
432.512	826.88
432.734	817.88
432.956	790.88
433.178	800.88
433.4	819.88
433.622	799.88
433.844	814.88
434.066	796.88
434.287	799.88
434.509	837.88
434.731	830.88
434.953	829.88
435.175	819.88
435.397	829.88
435.618	804.88
435.84	794.88
436.062	794.88
436.284	795.88
436.505	799.88
436.727	788.88
436.949	799.88
437.17	795.88
437.392	794.88
437.614	802.88
437.835	773.88
438.057	792.88
438.278	796.88
438.5	776.88
438.721	775.88
438.943	778.88
439.165	811.88
439.386	795.88
439.608	807.88
439.829	799.88
440.05	819.88
440.272	804.88
440.493	787.88
440.715	791.88
440.936	792.88
441.158	780.88
441.379	801.88
441.6	808.88
441.822	804.88
442.043	828.88
442.264	817.88
442.486	820.88
442.707	843.88
442.928	815.88
443.149	818.88
443.371	806.88
443.592	778.88
443.813	797.88
444.034	801.88
444.255	829.88
444.476	814.88
444.698	796.88
444.919	784.88
445.14	952.88
445.361	858.88
445.582	814.88
445.803	810.88
446.024	802.88
446.245	789.88
446.466	786.88
446.687	771.88
446.908	809.88
447.129	778.88
447.35	772.88
447.571	784.88
447.792	758.88
448.013	753.88
448.234	748.88
448.455	758.88
448.675	754.88
448.896	756.88
449.117	744.88
449.338	736.88
449.559	731.88
449.779	760.88
450	740.88
450.221	758.88
450.442	756.88
450.662	713.88
450.883	722.88
451.104	751.88
451.324	766.88
451.545	724.88
451.766	732.88
451.986	716.88
452.207	739.88
452.428	757.88
452.648	730.88
452.869	731.88
453.089	714.88
453.31	736.88
453.53	739.88
453.751	719.88
453.971	731.88
454.192	737.88
454.412	735.88
454.633	730.88
454.853	728.88
455.073	718.88
455.294	716.88
455.514	715.88
455.734	730.88
455.955	728.88
456.175	720.88
456.395	736.88
456.616	738.88
456.836	767.88
457.056	731.88
457.276	724.88
457.497	744.88
457.717	728.88
457.937	731.88
458.157	732.88
458.377	728.88
458.598	726.88
458.818	748.88
459.038	779.88
459.258	742.88
459.478	766.88
459.698	777.88
459.918	783.88
460.138	773.88
460.358	794.88
460.578	790.88
460.798	805.88
461.018	797.88
461.238	805.88
461.458	778.88
461.678	800.88
461.898	812.88
462.118	823.88
462.338	840.88
462.558	827.88
462.777	830.88
462.997	843.88
463.217	876.88
463.437	891.88
463.657	848.88
463.876	817.88
464.096	846.88
464.316	815.88
464.536	836.88
464.755	833.88
464.975	825.88
465.195	819.88
465.414	810.88
465.634	784.88
465.854	825.88
466.073	807.88
466.293	780.88
466.512	763.88
466.732	767.88
466.951	801.88
467.171	793.88
467.391	805.88
467.61	793.88
467.829	768.88
468.049	796.88
468.268	770.88
468.488	767.88
468.707	778.88
468.927	762.88
469.146	762.88
469.365	802.88
469.585	777.88
469.804	774.88
470.023	780.88
470.243	791.88
470.462	784.88
470.681	783.88
470.901	776.88
471.12	785.88
471.339	770.88
471.558	780.88
471.777	802.88
471.997	796.88
472.216	779.88
472.435	804.88
472.654	806.88
472.873	795.88
473.092	806.88
473.311	795.88
473.53	811.88
473.749	788.88
473.968	824.88
474.187	819.88
474.406	807.88
474.625	826.88
474.844	820.88
475.063	825.88
475.282	810.88
475.501	843.88
475.72	822.88
475.939	841.88
476.158	846.88
476.377	844.88
476.596	850.88
476.814	889.88
477.033	869.88
477.252	895.88
477.471	872.88
477.69	877.88
477.908	898.88
478.127	893.88
478.346	922.88
478.564	894.88
478.783	908.88
479.002	926.88
479.22	925.88
479.439	952.88
479.658	935.88
479.876	928.88
480.095	923.88
480.313	949.88
480.532	921.88
480.751	939.88
480.969	961.88
481.188	941.88
481.406	959.88
481.624	966.88
481.843	923.88
482.061	929.88
482.28	956.88
482.498	951.88
482.717	958.88
482.935	989.88
483.153	984.88
483.372	966.88
483.59	969.88
483.808	961.88
484.027	971.88
484.245	971.88
484.463	960.88
484.681	992.88
484.9	1003.88
485.118	1024.88
485.336	948.88
485.554	1019.88
485.772	1020.88
485.99	956.88
486.209	1002.88
486.427	975.88
486.645	956.88
486.863	993.88
487.081	987.88
487.299	991.88
487.517	961.88
487.735	1007.88
487.953	979.88
488.171	1024.88
488.389	1015.88
488.607	996.88
488.825	990.88
489.043	1010.88
489.261	982.88
489.479	986.88
489.696	977.88
489.914	1004.88
490.132	986.88
490.35	1021.88
490.568	976.88
490.786	1003.88
491.003	985.88
491.221	990.88
491.439	990.88
491.657	996.88
491.874	1021.88
492.092	1011.88
492.31	994.88
492.527	1020.88
492.745	1025.88
492.963	976.88
493.18	1002.88
493.398	1031.88
493.615	1044.88
493.833	1019.88
494.05	1015.88
494.268	1017.88
494.485	1046.88
494.703	1011.88
494.92	1026.88
495.138	1061.88
495.355	1015.88
495.573	1064.88
495.79	1035.88
496.008	1062.88
496.225	1050.88
496.442	1077.88
496.66	1065.88
496.877	1076.88
497.094	1097.88
497.312	1099.88
497.529	1099.88
497.746	1086.88
497.963	1076.88
498.181	1115.88
498.398	1182.88
498.615	1145.88
498.832	1183.88
499.049	1166.88
499.267	1174.88
499.484	1220.88
499.701	1271.88
499.918	1290.88
500.135	1296.88
500.352	1321.88
500.569	1323.88
500.786	1347.88
