Data from Fe(NO3)3@0.0125M.TitratingCurve.Agarose3%dH2O.NegLispCup.LampEnergy10.LIBS07252019_HRD10591_16-59-59-337.txt Node
Date: Thu Jul 25 16:59:59 EDT 2019
User: cochatt
Spectrometer: HR+D1059
Trigger mode: 1
Integration Time (sec): 1.000000E-1
Scans to average: 1
Electric dark correction enabled: true
Nonlinearity correction enabled: false
Boxcar width: 0
XAxis mode: Wavelengths
Number of Pixels in Spectrum: 2048
>>>>>Begin Spectral Data<<<<<
223.165	-17.5
223.4	-17.5
223.635	-17.5
223.869	-17.5
224.104	-27.5
224.338	-22.5
224.573	-7.5
224.808	-10.5
225.042	1.5
225.277	-0.5
225.511	11.5
225.746	-14.5
225.98	22.5
226.215	24.5
226.449	19.5
226.683	17.5
226.918	5.5
227.152	15.5
227.387	32.5
227.621	50.5
227.856	51.5
228.09	58.5
228.324	56.5
228.559	55.5
228.793	63.5
229.027	75.5
229.262	69.5
229.496	75.5
229.73	84.5
229.964	78.5
230.199	83.5
230.433	80.5
230.667	83.5
230.901	84.5
231.136	90.5
231.37	97.5
231.604	102.5
231.838	88.5
232.072	93.5
232.306	94.5
232.541	87.5
232.775	112.5
233.009	95.5
233.243	85.5
233.477	96.5
233.711	98.5
233.945	89.5
234.179	88.5
234.413	88.5
234.647	95.5
234.881	111.5
235.115	92.5
235.349	100.5
235.583	101.5
235.817	90.5
236.051	89.5
236.285	105.5
236.519	107.5
236.753	102.5
236.987	102.5
237.221	94.5
237.455	90.5
237.689	106.5
237.922	98.5
238.156	95.5
238.39	84.5
238.624	106.5
238.858	93.5
239.091	107.5
239.325	88.5
239.559	95.5
239.793	101.5
240.027	96.5
240.26	102.5
240.494	89.5
240.728	110.5
240.961	105.5
241.195	113.5
241.429	106.5
241.662	109.5
241.896	99.5
242.13	96.5
242.363	111.5
242.597	87.5
242.83	100.5
243.064	101.5
243.298	108.5
243.531	94.5
243.765	105.5
243.998	100.5
244.232	114.5
244.465	109.5
244.699	103.5
244.932	108.5
245.166	99.5
245.399	113.5
245.633	104.5
245.866	98.5
246.099	109.5
246.333	108.5
246.566	113.5
246.8	118.5
247.033	114.5
247.266	106.5
247.5	108.5
247.733	121.5
247.966	123.5
248.2	110.5
248.433	118.5
248.666	115.5
248.899	113.5
249.133	118.5
249.366	126.5
249.599	103.5
249.832	113.5
250.066	119.5
250.299	124.5
250.532	102.5
250.765	125.5
250.998	115.5
251.231	106.5
251.465	125.5
251.698	107.5
251.931	119.5
252.164	108.5
252.397	114.5
252.63	126.5
252.863	125.5
253.096	139.5
253.329	119.5
253.562	128.5
253.795	117.5
254.028	137.5
254.261	124.5
254.494	117.5
254.727	106.5
254.96	124.5
255.193	133.5
255.426	129.5
255.659	121.5
255.892	132.5
256.124	121.5
256.357	125.5
256.59	117.5
256.823	137.5
257.056	129.5
257.289	126.5
257.521	136.5
257.754	121.5
257.987	132.5
258.22	141.5
258.452	130.5
258.685	147.5
258.918	131.5
259.151	122.5
259.383	144.5
259.616	125.5
259.849	132.5
260.081	140.5
260.314	160.5
260.547	137.5
260.779	148.5
261.012	149.5
261.244	139.5
261.477	138.5
261.71	139.5
261.942	134.5
262.175	136.5
262.407	140.5
262.64	138.5
262.872	151.5
263.105	144.5
263.337	162.5
263.57	142.5
263.802	149.5
264.035	132.5
264.267	141.5
264.499	127.5
264.732	132.5
264.964	132.5
265.197	141.5
265.429	159.5
265.661	144.5
265.894	144.5
266.126	150.5
266.358	126.5
266.591	152.5
266.823	129.5
267.055	131.5
267.287	142.5
267.52	154.5
267.752	133.5
267.984	151.5
268.216	147.5
268.448	159.5
268.681	154.5
268.913	149.5
269.145	159.5
269.377	154.5
269.609	151.5
269.841	139.5
270.073	147.5
270.306	152.5
270.538	152.5
270.77	150.5
271.002	159.5
271.234	163.5
271.466	172.5
271.698	163.5
271.93	153.5
272.162	170.5
272.394	172.5
272.626	161.5
272.858	148.5
273.09	152.5
273.322	162.5
273.553	167.5
273.785	149.5
274.017	180.5
274.249	178.5
274.481	171.5
274.713	184.5
274.945	181.5
275.176	172.5
275.408	175.5
275.64	152.5
275.872	169.5
276.104	167.5
276.335	166.5
276.567	168.5
276.799	162.5
277.031	163.5
277.262	162.5
277.494	166.5
277.726	162.5
277.957	170.5
278.189	166.5
278.421	161.5
278.652	173.5
278.884	167.5
279.115	162.5
279.347	166.5
279.579	167.5
279.81	168.5
280.042	186.5
280.273	172.5
280.505	171.5
280.736	179.5
280.968	160.5
281.199	173.5
281.431	190.5
281.662	189.5
281.894	191.5
282.125	173.5
282.356	192.5
282.588	172.5
282.819	178.5
283.051	191.5
283.282	178.5
283.513	188.5
283.745	173.5
283.976	178.5
284.207	183.5
284.439	201.5
284.67	192.5
284.901	193.5
285.132	183.5
285.364	194.5
285.595	189.5
285.826	181.5
286.057	213.5
286.288	188.5
286.52	204.5
286.751	201.5
286.982	199.5
287.213	198.5
287.444	204.5
287.675	205.5
287.906	212.5
288.138	191.5
288.369	207.5
288.6	193.5
288.831	200.5
289.062	194.5
289.293	195.5
289.524	190.5
289.755	201.5
289.986	195.5
290.217	216.5
290.448	195.5
290.679	191.5
290.91	185.5
291.141	200.5
291.371	202.5
291.602	193.5
291.833	192.5
292.064	201.5
292.295	201.5
292.526	223.5
292.757	202.5
292.987	193.5
293.218	199.5
293.449	195.5
293.68	212.5
293.91	213.5
294.141	205.5
294.372	200.5
294.603	192.5
294.833	227.5
295.064	212.5
295.295	186.5
295.525	197.5
295.756	217.5
295.987	213.5
296.217	203.5
296.448	197.5
296.679	215.5
296.909	197.5
297.14	205.5
297.37	207.5
297.601	219.5
297.831	202.5
298.062	186.5
298.292	207.5
298.523	213.5
298.753	217.5
298.984	219.5
299.214	216.5
299.445	222.5
299.675	211.5
299.905	223.5
300.136	208.5
300.366	212.5
300.597	211.5
300.827	230.5
301.057	215.5
301.288	210.5
301.518	230.5
301.748	225.5
301.979	215.5
302.209	235.5
302.439	228.5
302.669	235.5
302.9	223.5
303.13	232.5
303.36	229.5
303.59	229.5
303.82	213.5
304.051	215.5
304.281	232.5
304.511	225.5
304.741	247.5
304.971	247.5
305.201	244.5
305.431	225.5
305.661	224.5
305.891	233.5
306.121	232.5
306.352	236.5
306.582	219.5
306.812	220.5
307.042	226.5
307.272	243.5
307.502	247.5
307.731	231.5
307.961	241.5
308.191	247.5
308.421	227.5
308.651	234.5
308.881	240.5
309.111	235.5
309.341	238.5
309.571	239.5
309.8	232.5
310.03	230.5
310.26	233.5
310.49	233.5
310.72	236.5
310.949	258.5
311.179	253.5
311.409	253.5
311.639	247.5
311.868	247.5
312.098	244.5
312.328	258.5
312.557	243.5
312.787	248.5
313.017	257.5
313.246	263.5
313.476	249.5
313.706	239.5
313.935	232.5
314.165	235.5
314.394	258.5
314.624	275.5
314.853	251.5
315.083	244.5
315.312	263.5
315.542	264.5
315.771	250.5
316.001	260.5
316.23	263.5
316.46	259.5
316.689	263.5
316.919	261.5
317.148	278.5
317.377	279.5
317.607	261.5
317.836	237.5
318.065	257.5
318.295	264.5
318.524	267.5
318.753	260.5
318.983	252.5
319.212	257.5
319.441	263.5
319.67	272.5
319.9	259.5
320.129	262.5
320.358	246.5
320.587	261.5
320.816	251.5
321.046	270.5
321.275	271.5
321.504	260.5
321.733	256.5
321.962	277.5
322.191	273.5
322.42	277.5
322.649	278.5
322.878	268.5
323.108	276.5
323.337	271.5
323.566	261.5
323.795	275.5
324.024	286.5
324.253	271.5
324.482	276.5
324.71	277.5
324.939	278.5
325.168	271.5
325.397	298.5
325.626	278.5
325.855	276.5
326.084	286.5
326.313	289.5
326.542	277.5
326.77	273.5
326.999	294.5
327.228	281.5
327.457	280.5
327.686	284.5
327.914	275.5
328.143	295.5
328.372	294.5
328.6	280.5
328.829	272.5
329.058	285.5
329.287	297.5
329.515	281.5
329.744	288.5
329.972	287.5
330.201	299.5
330.43	279.5
330.658	289.5
330.887	289.5
331.115	285.5
331.344	277.5
331.572	308.5
331.801	301.5
332.03	295.5
332.258	294.5
332.486	303.5
332.715	303.5
332.943	305.5
333.172	300.5
333.4	313.5
333.629	311.5
333.857	307.5
334.085	319.5
334.314	329.5
334.542	328.5
334.771	304.5
334.999	301.5
335.227	324.5
335.455	315.5
335.684	321.5
335.912	313.5
336.14	307.5
336.369	306.5
336.597	306.5
336.825	327.5
337.053	307.5
337.281	310.5
337.51	308.5
337.738	324.5
337.966	300.5
338.194	301.5
338.422	309.5
338.65	298.5
338.878	323.5
339.106	305.5
339.334	324.5
339.562	309.5
339.79	309.5
340.018	311.5
340.246	307.5
340.474	314.5
340.702	315.5
340.93	323.5
341.158	298.5
341.386	314.5
341.614	283.5
341.842	322.5
342.07	300.5
342.298	318.5
342.526	322.5
342.754	312.5
342.981	323.5
343.209	299.5
343.437	323.5
343.665	318.5
343.893	317.5
344.12	337.5
344.348	335.5
344.576	325.5
344.804	326.5
345.031	319.5
345.259	308.5
345.487	322.5
345.714	307.5
345.942	310.5
346.17	307.5
346.397	300.5
346.625	313.5
346.853	288.5
347.08	309.5
347.308	298.5
347.535	298.5
347.763	307.5
347.99	317.5
348.218	310.5
348.445	289.5
348.673	319.5
348.9	304.5
349.128	304.5
349.355	314.5
349.583	294.5
349.81	305.5
350.037	293.5
350.265	311.5
350.492	303.5
350.72	311.5
350.947	302.5
351.174	305.5
351.402	286.5
351.629	320.5
351.856	313.5
352.083	298.5
352.311	306.5
352.538	313.5
352.765	303.5
352.992	294.5
353.22	303.5
353.447	310.5
353.674	319.5
353.901	313.5
354.128	319.5
354.355	303.5
354.583	298.5
354.81	305.5
355.037	295.5
355.264	309.5
355.491	297.5
355.718	304.5
355.945	298.5
356.172	289.5
356.399	296.5
356.626	301.5
356.853	308.5
357.08	324.5
357.307	299.5
357.534	307.5
357.761	308.5
357.988	331.5
358.215	296.5
358.441	312.5
358.668	301.5
358.895	335.5
359.122	316.5
359.349	307.5
359.576	293.5
359.802	290.5
360.029	305.5
360.256	318.5
360.483	310.5
360.709	300.5
360.936	317.5
361.163	323.5
361.39	314.5
361.616	310.5
361.843	318.5
362.07	327.5
362.296	307.5
362.523	322.5
362.749	308.5
362.976	306.5
363.203	320.5
363.429	304.5
363.656	313.5
363.882	310.5
364.109	327.5
364.335	322.5
364.562	326.5
364.788	297.5
365.015	319.5
365.241	308.5
365.468	321.5
365.694	306.5
365.92	332.5
366.147	309.5
366.373	315.5
366.599	323.5
366.826	311.5
367.052	320.5
367.278	309.5
367.505	330.5
367.731	322.5
367.957	330.5
368.184	328.5
368.41	321.5
368.636	334.5
368.862	312.5
369.089	326.5
369.315	326.5
369.541	327.5
369.767	323.5
369.993	328.5
370.219	323.5
370.445	334.5
370.672	323.5
370.898	325.5
371.124	326.5
371.35	324.5
371.576	323.5
371.802	340.5
372.028	360.5
372.254	328.5
372.48	344.5
372.706	335.5
372.932	324.5
373.158	328.5
373.384	333.5
373.61	331.5
373.835	353.5
374.061	344.5
374.287	339.5
374.513	347.5
374.739	336.5
374.965	373.5
375.191	345.5
375.416	348.5
375.642	339.5
375.868	330.5
376.094	345.5
376.319	348.5
376.545	331.5
376.771	327.5
376.997	351.5
377.222	322.5
377.448	329.5
377.674	352.5
377.899	340.5
378.125	327.5
378.35	319.5
378.576	324.5
378.802	323.5
379.027	344.5
379.253	343.5
379.478	321.5
379.704	330.5
379.929	330.5
380.155	334.5
380.38	340.5
380.606	330.5
380.831	329.5
381.057	333.5
381.282	353.5
381.507	356.5
381.733	344.5
381.958	339.5
382.184	344.5
382.409	343.5
382.634	368.5
382.86	369.5
383.085	364.5
383.31	360.5
383.535	355.5
383.761	369.5
383.986	364.5
384.211	369.5
384.436	347.5
384.662	362.5
384.887	362.5
385.112	358.5
385.337	369.5
385.562	377.5
385.787	380.5
386.013	364.5
386.238	358.5
386.463	374.5
386.688	370.5
386.913	367.5
387.138	377.5
387.363	363.5
387.588	386.5
387.813	378.5
388.038	367.5
388.263	364.5
388.488	387.5
388.713	359.5
388.938	375.5
389.163	391.5
389.387	371.5
389.612	389.5
389.837	369.5
390.062	392.5
390.287	363.5
390.512	379.5
390.736	375.5
390.961	384.5
391.186	409.5
391.411	401.5
391.636	395.5
391.86	373.5
392.085	401.5
392.31	383.5
392.534	403.5
392.759	404.5
392.984	407.5
393.208	406.5
393.433	406.5
393.658	420.5
393.882	383.5
394.107	409.5
394.331	396.5
394.556	401.5
394.78	407.5
395.005	401.5
395.229	395.5
395.454	407.5
395.678	399.5
395.903	405.5
396.127	402.5
396.352	400.5
396.576	415.5
396.801	383.5
397.025	404.5
397.249	418.5
397.474	417.5
397.698	386.5
397.922	424.5
398.147	411.5
398.371	424.5
398.595	437.5
398.82	428.5
399.044	410.5
399.268	429.5
399.492	451.5
399.717	475.5
399.941	497.5
400.165	458.5
400.389	473.5
400.613	460.5
400.837	459.5
401.062	440.5
401.286	436.5
401.51	443.5
401.734	426.5
401.958	435.5
402.182	439.5
402.406	419.5
402.63	438.5
402.854	433.5
403.078	440.5
403.302	419.5
403.526	452.5
403.75	455.5
403.974	423.5
404.198	453.5
404.422	449.5
404.645	420.5
404.869	435.5
405.093	419.5
405.317	439.5
405.541	444.5
405.765	429.5
405.988	441.5
406.212	460.5
406.436	441.5
406.66	459.5
406.883	450.5
407.107	460.5
407.331	470.5
407.555	462.5
407.778	466.5
408.002	469.5
408.226	474.5
408.449	485.5
408.673	467.5
408.896	474.5
409.12	479.5
409.344	471.5
409.567	449.5
409.791	475.5
410.014	449.5
410.238	453.5
410.461	466.5
410.685	467.5
410.908	465.5
411.132	448.5
411.355	437.5
411.578	437.5
411.802	438.5
412.025	440.5
412.249	447.5
412.472	454.5
412.695	442.5
412.919	434.5
413.142	420.5
413.365	429.5
413.589	443.5
413.812	452.5
414.035	450.5
414.258	421.5
414.482	433.5
414.705	409.5
414.928	443.5
415.151	431.5
415.374	420.5
415.597	439.5
415.821	442.5
416.044	415.5
416.267	428.5
416.49	425.5
416.713	416.5
416.936	436.5
417.159	435.5
417.382	405.5
417.605	423.5
417.828	419.5
418.051	415.5
418.274	426.5
418.497	403.5
418.72	412.5
418.943	415.5
419.166	420.5
419.389	447.5
419.611	439.5
419.834	431.5
420.057	446.5
420.28	410.5
420.503	403.5
420.726	415.5
420.948	407.5
421.171	397.5
421.394	397.5
421.617	404.5
421.839	425.5
422.062	433.5
422.285	416.5
422.507	430.5
422.73	451.5
422.953	399.5
423.175	416.5
423.398	400.5
423.621	413.5
423.843	438.5
424.066	407.5
424.288	435.5
424.511	392.5
424.733	425.5
424.956	419.5
425.178	416.5
425.401	405.5
425.623	409.5
425.846	401.5
426.068	392.5
426.291	413.5
426.513	425.5
426.735	397.5
426.958	398.5
427.18	424.5
427.402	435.5
427.625	427.5
427.847	406.5
428.069	411.5
428.292	419.5
428.514	405.5
428.736	418.5
428.958	423.5
429.181	410.5
429.403	407.5
429.625	423.5
429.847	391.5
430.069	390.5
430.292	393.5
430.514	410.5
430.736	417.5
430.958	391.5
431.18	419.5
431.402	419.5
431.624	403.5
431.846	405.5
432.068	409.5
432.29	389.5
432.512	428.5
432.734	404.5
432.956	404.5
433.178	411.5
433.4	401.5
433.622	415.5
433.844	409.5
434.066	419.5
434.287	411.5
434.509	412.5
434.731	410.5
434.953	398.5
435.175	427.5
435.397	439.5
435.618	396.5
435.84	411.5
436.062	408.5
436.284	414.5
436.505	406.5
436.727	397.5
436.949	413.5
437.17	402.5
437.392	408.5
437.614	405.5
437.835	404.5
438.057	415.5
438.278	409.5
438.5	395.5
438.721	413.5
438.943	413.5
439.165	402.5
439.386	397.5
439.608	410.5
439.829	405.5
440.05	402.5
440.272	410.5
440.493	412.5
440.715	398.5
440.936	411.5
441.158	412.5
441.379	412.5
441.6	409.5
441.822	397.5
442.043	396.5
442.264	416.5
442.486	413.5
442.707	422.5
442.928	415.5
443.149	416.5
443.371	404.5
443.592	422.5
443.813	407.5
444.034	409.5
444.255	401.5
444.476	419.5
444.698	432.5
444.919	443.5
445.14	480.5
445.361	447.5
445.582	420.5
445.803	422.5
446.024	417.5
446.245	429.5
446.466	404.5
446.687	395.5
446.908	423.5
447.129	405.5
447.35	407.5
447.571	378.5
447.792	377.5
448.013	382.5
448.234	380.5
448.455	394.5
448.675	411.5
448.896	385.5
449.117	404.5
449.338	383.5
449.559	374.5
449.779	384.5
450	378.5
450.221	372.5
450.442	391.5
450.662	379.5
450.883	381.5
451.104	364.5
451.324	383.5
451.545	387.5
451.766	374.5
451.986	396.5
452.207	395.5
452.428	381.5
452.648	401.5
452.869	378.5
453.089	359.5
453.31	359.5
453.53	379.5
453.751	360.5
453.971	362.5
454.192	374.5
454.412	367.5
454.633	370.5
454.853	368.5
455.073	384.5
455.294	378.5
455.514	376.5
455.734	378.5
455.955	383.5
456.175	381.5
456.395	380.5
456.616	379.5
456.836	379.5
457.056	370.5
457.276	374.5
457.497	372.5
457.717	385.5
457.937	378.5
458.157	387.5
458.377	364.5
458.598	396.5
458.818	406.5
459.038	390.5
459.258	391.5
459.478	399.5
459.698	410.5
459.918	403.5
460.138	426.5
460.358	428.5
460.578	421.5
460.798	413.5
461.018	411.5
461.238	425.5
461.458	435.5
461.678	429.5
461.898	428.5
462.118	437.5
462.338	431.5
462.558	427.5
462.777	440.5
462.997	465.5
463.217	449.5
463.437	467.5
463.657	438.5
463.876	448.5
464.096	451.5
464.316	459.5
464.536	449.5
464.755	449.5
464.975	452.5
465.195	449.5
465.414	434.5
465.634	415.5
465.854	435.5
466.073	415.5
466.293	431.5
466.512	400.5
466.732	401.5
466.951	410.5
467.171	413.5
467.391	411.5
467.61	406.5
467.829	402.5
468.049	415.5
468.268	397.5
468.488	393.5
468.707	403.5
468.927	413.5
469.146	411.5
469.365	403.5
469.585	395.5
469.804	407.5
470.023	403.5
470.243	410.5
470.462	416.5
470.681	425.5
470.901	427.5
471.12	402.5
471.339	414.5
471.558	441.5
471.777	413.5
471.997	408.5
472.216	430.5
472.435	421.5
472.654	407.5
472.873	419.5
473.092	408.5
473.311	403.5
473.53	428.5
473.749	419.5
473.968	414.5
474.187	398.5
474.406	399.5
474.625	425.5
474.844	447.5
475.063	422.5
475.282	433.5
475.501	425.5
475.72	443.5
475.939	452.5
476.158	413.5
476.377	415.5
476.596	443.5
476.814	450.5
477.033	445.5
477.252	445.5
477.471	448.5
477.69	452.5
477.908	437.5
478.127	448.5
478.346	471.5
478.564	472.5
478.783	459.5
479.002	456.5
479.22	484.5
479.439	475.5
479.658	486.5
479.876	494.5
480.095	480.5
480.313	484.5
480.532	489.5
480.751	482.5
480.969	477.5
481.188	478.5
481.406	501.5
481.624	499.5
481.843	493.5
482.061	484.5
482.28	484.5
482.498	489.5
482.717	474.5
482.935	490.5
483.153	501.5
483.372	482.5
483.59	488.5
483.808	496.5
484.027	501.5
484.245	480.5
484.463	476.5
484.681	492.5
484.9	500.5
485.118	481.5
485.336	484.5
485.554	484.5
485.772	489.5
485.99	478.5
486.209	501.5
486.427	523.5
486.645	492.5
486.863	494.5
487.081	519.5
487.299	510.5
487.517	505.5
487.735	504.5
487.953	518.5
488.171	506.5
488.389	517.5
488.607	515.5
488.825	514.5
489.043	515.5
489.261	527.5
489.479	498.5
489.696	510.5
489.914	500.5
490.132	501.5
490.35	532.5
490.568	519.5
490.786	524.5
491.003	517.5
491.221	537.5
491.439	521.5
491.657	525.5
491.874	517.5
492.092	528.5
492.31	511.5
492.527	502.5
492.745	512.5
492.963	536.5
493.18	529.5
493.398	527.5
493.615	512.5
493.833	507.5
494.05	522.5
494.268	517.5
494.485	530.5
494.703	526.5
494.92	538.5
495.138	530.5
495.355	519.5
495.573	553.5
495.79	552.5
496.008	535.5
496.225	545.5
496.442	548.5
496.66	568.5
496.877	553.5
497.094	584.5
497.312	568.5
497.529	546.5
497.746	561.5
497.963	585.5
498.181	605.5
498.398	594.5
498.615	612.5
498.832	618.5
499.049	642.5
499.267	637.5
499.484	665.5
499.701	675.5
499.918	707.5
500.135	714.5
500.352	729.5
500.569	755.5
500.786	729.5
501.003	723.5
501.22	710.5
501.437	684.5
501.654	696.5
501.871	643.5
502.088	648.5
502.305	635.5
502.522	635.5
502.739	589.5
502.956	618.5
503.172	562.5
503.389	583.5
503.606	564.5
503.823	543.5
504.04	568.5
504.256	555.5
504.473	563.5
504.69	539.5
504.907	540.5
505.123	549.5
505.34	530.5
505.557	531.5
505.773	520.5
505.99	504.5
506.207	514.5
506.423	513.5
506.64	488.5
506.856	498.5
507.073	487.5
507.289	484.5
507.506	492.5
507.722	480.5
507.939	496.5
508.155	481.5
508.372	465.5
508.588	480.5
508.805	449.5
509.021	479.5
509.238	475.5
509.454	474.5
509.67	458.5
509.887	465.5
510.103	456.5
510.319	472.5
510.536	487.5
510.752	452.5
510.968	451.5
511.184	433.5
511.401	442.5
511.617	452.5
511.833	458.5
512.049	449.5
512.265	441.5
512.481	459.5
512.698	452.5
512.914	465.5
513.13	471.5
513.346	462.5
513.562	451.5
513.778	438.5
513.994	459.5
514.21	439.5
514.426	450.5
514.642	467.5
514.858	449.5
515.074	444.5
515.29	472.5
515.506	452.5
515.721	476.5
515.937	440.5
516.153	464.5
516.369	463.5
516.585	477.5
516.801	465.5
517.016	467.5
517.232	492.5
517.448	474.5
517.664	488.5
517.879	453.5
518.095	468.5
518.311	480.5
518.527	469.5
518.742	463.5
518.958	464.5
519.173	460.5
519.389	454.5
519.605	469.5
519.82	455.5
520.036	454.5
