Data from Fe(NO3)3@0.05M.TitratingCurve.Agarose3%dH2O.NegLispCup.LampEnergy10.LIBS07252019_HRD10591_16-48-24-334.txt Node
Date: Thu Jul 25 16:48:24 EDT 2019
User: cochatt
Spectrometer: HR+D1059
Trigger mode: 1
Integration Time (sec): 1.000000E-1
Scans to average: 1
Electric dark correction enabled: true
Nonlinearity correction enabled: false
Boxcar width: 0
XAxis mode: Wavelengths
Number of Pixels in Spectrum: 2048
>>>>>Begin Spectral Data<<<<<
223.165	-20.56
223.4	-20.56
223.635	-20.56
223.869	-12.56
224.104	-25.56
224.338	-27.56
224.573	-24.56
224.808	5.44
225.042	-9.56
225.277	-4.56
225.511	0.44
225.746	3.44
225.98	1.44
226.215	15.44
226.449	15.44
226.683	29.44
226.918	15.44
227.152	38.44
227.387	47.44
227.621	34.44
227.856	45.44
228.09	57.44
228.324	46.44
228.559	59.44
228.793	47.44
229.027	76.44
229.262	72.44
229.496	86.44
229.73	73.44
229.964	90.44
230.199	86.44
230.433	79.44
230.667	86.44
230.901	84.44
231.136	101.44
231.37	80.44
231.604	84.44
231.838	95.44
232.072	97.44
232.306	98.44
232.541	100.44
232.775	94.44
233.009	88.44
233.243	97.44
233.477	86.44
233.711	83.44
233.945	84.44
234.179	96.44
234.413	95.44
234.647	103.44
234.881	93.44
235.115	70.44
235.349	92.44
235.583	97.44
235.817	97.44
236.051	87.44
236.285	84.44
236.519	90.44
236.753	93.44
236.987	97.44
237.221	88.44
237.455	90.44
237.689	91.44
237.922	87.44
238.156	102.44
238.39	72.44
238.624	90.44
238.858	88.44
239.091	90.44
239.325	91.44
239.559	94.44
239.793	78.44
240.027	96.44
240.26	101.44
240.494	90.44
240.728	94.44
240.961	93.44
241.195	72.44
241.429	88.44
241.662	91.44
241.896	87.44
242.13	92.44
242.363	91.44
242.597	102.44
242.83	106.44
243.064	92.44
243.298	98.44
243.531	79.44
243.765	91.44
243.998	98.44
244.232	95.44
244.465	98.44
244.699	91.44
244.932	103.44
245.166	100.44
245.399	106.44
245.633	95.44
245.866	104.44
246.099	96.44
246.333	93.44
246.566	98.44
246.8	95.44
247.033	87.44
247.266	86.44
247.5	104.44
247.733	94.44
247.966	108.44
248.2	113.44
248.433	96.44
248.666	107.44
248.899	107.44
249.133	105.44
249.366	102.44
249.599	101.44
249.832	102.44
250.066	105.44
250.299	99.44
250.532	110.44
250.765	106.44
250.998	94.44
251.231	117.44
251.465	108.44
251.698	87.44
251.931	106.44
252.164	101.44
252.397	120.44
252.63	103.44
252.863	100.44
253.096	110.44
253.329	116.44
253.562	110.44
253.795	106.44
254.028	104.44
254.261	106.44
254.494	114.44
254.727	115.44
254.96	97.44
255.193	95.44
255.426	100.44
255.659	115.44
255.892	119.44
256.124	100.44
256.357	114.44
256.59	123.44
256.823	124.44
257.056	102.44
257.289	115.44
257.521	100.44
257.754	102.44
257.987	115.44
258.22	125.44
258.452	102.44
258.685	98.44
258.918	117.44
259.151	120.44
259.383	109.44
259.616	108.44
259.849	122.44
260.081	126.44
260.314	120.44
260.547	110.44
260.779	118.44
261.012	135.44
261.244	130.44
261.477	113.44
261.71	117.44
261.942	118.44
262.175	118.44
262.407	127.44
262.64	117.44
262.872	113.44
263.105	121.44
263.337	126.44
263.57	131.44
263.802	123.44
264.035	133.44
264.267	109.44
264.499	115.44
264.732	123.44
264.964	100.44
265.197	118.44
265.429	124.44
265.661	115.44
265.894	127.44
266.126	119.44
266.358	122.44
266.591	118.44
266.823	123.44
267.055	102.44
267.287	122.44
267.52	130.44
267.752	120.44
267.984	116.44
268.216	116.44
268.448	128.44
268.681	114.44
268.913	119.44
269.145	110.44
269.377	121.44
269.609	121.44
269.841	117.44
270.073	130.44
270.306	126.44
270.538	121.44
270.77	119.44
271.002	121.44
271.234	122.44
271.466	133.44
271.698	114.44
271.93	121.44
272.162	131.44
272.394	135.44
272.626	131.44
272.858	116.44
273.09	123.44
273.322	123.44
273.553	125.44
273.785	124.44
274.017	130.44
274.249	137.44
274.481	137.44
274.713	142.44
274.945	125.44
275.176	141.44
275.408	126.44
275.64	123.44
275.872	138.44
276.104	125.44
276.335	125.44
276.567	124.44
276.799	117.44
277.031	129.44
277.262	133.44
277.494	139.44
277.726	138.44
277.957	140.44
278.189	138.44
278.421	127.44
278.652	149.44
278.884	135.44
279.115	135.44
279.347	134.44
279.579	146.44
279.81	129.44
280.042	138.44
280.273	138.44
280.505	132.44
280.736	123.44
280.968	113.44
281.199	125.44
281.431	132.44
281.662	141.44
281.894	120.44
282.125	112.44
282.356	154.44
282.588	131.44
282.819	135.44
283.051	147.44
283.282	150.44
283.513	149.44
283.745	126.44
283.976	137.44
284.207	129.44
284.439	136.44
284.67	141.44
284.901	152.44
285.132	139.44
285.364	135.44
285.595	142.44
285.826	130.44
286.057	124.44
286.288	135.44
286.52	147.44
286.751	141.44
286.982	129.44
287.213	150.44
287.444	147.44
287.675	132.44
287.906	140.44
288.138	129.44
288.369	144.44
288.6	143.44
288.831	127.44
289.062	131.44
289.293	128.44
289.524	155.44
289.755	141.44
289.986	148.44
290.217	139.44
290.448	134.44
290.679	140.44
290.91	150.44
291.141	143.44
291.371	158.44
291.602	129.44
291.833	143.44
292.064	159.44
292.295	152.44
292.526	139.44
292.757	159.44
292.987	145.44
293.218	136.44
293.449	153.44
293.68	133.44
293.91	156.44
294.141	142.44
294.372	151.44
294.603	150.44
294.833	144.44
295.064	151.44
295.295	158.44
295.525	139.44
295.756	144.44
295.987	158.44
296.217	150.44
296.448	163.44
296.679	154.44
296.909	147.44
297.14	136.44
297.37	146.44
297.601	151.44
297.831	143.44
298.062	136.44
298.292	139.44
298.523	155.44
298.753	139.44
298.984	141.44
299.214	139.44
299.445	159.44
299.675	155.44
299.905	149.44
300.136	143.44
300.366	167.44
300.597	150.44
300.827	171.44
301.057	141.44
301.288	156.44
301.518	153.44
301.748	147.44
301.979	158.44
302.209	162.44
302.439	161.44
302.669	143.44
302.9	152.44
303.13	169.44
303.36	166.44
303.59	167.44
303.82	135.44
304.051	148.44
304.281	151.44
304.511	167.44
304.741	149.44
304.971	150.44
305.201	152.44
305.431	153.44
305.661	150.44
305.891	143.44
306.121	158.44
306.352	170.44
306.582	155.44
306.812	155.44
307.042	155.44
307.272	161.44
307.502	150.44
307.731	163.44
307.961	162.44
308.191	166.44
308.421	159.44
308.651	162.44
308.881	159.44
309.111	147.44
309.341	156.44
309.571	157.44
309.8	146.44
310.03	156.44
310.26	154.44
310.49	161.44
310.72	170.44
310.949	168.44
311.179	157.44
311.409	162.44
311.639	163.44
311.868	163.44
312.098	154.44
312.328	150.44
312.557	167.44
312.787	161.44
313.017	157.44
313.246	159.44
313.476	165.44
313.706	163.44
313.935	173.44
314.165	158.44
314.394	156.44
314.624	158.44
314.853	155.44
315.083	170.44
315.312	162.44
315.542	162.44
315.771	160.44
316.001	166.44
316.23	170.44
316.46	161.44
316.689	160.44
316.919	175.44
317.148	161.44
317.377	158.44
317.607	162.44
317.836	168.44
318.065	185.44
318.295	163.44
318.524	180.44
318.753	148.44
318.983	164.44
319.212	155.44
319.441	174.44
319.67	167.44
319.9	165.44
320.129	170.44
320.358	157.44
320.587	158.44
320.816	174.44
321.046	171.44
321.275	167.44
321.504	173.44
321.733	171.44
321.962	174.44
322.191	163.44
322.42	166.44
322.649	180.44
322.878	174.44
323.108	174.44
323.337	176.44
323.566	161.44
323.795	159.44
324.024	163.44
324.253	164.44
324.482	152.44
324.71	148.44
324.939	153.44
325.168	181.44
325.397	167.44
325.626	149.44
325.855	177.44
326.084	171.44
326.313	177.44
326.542	187.44
326.77	169.44
326.999	159.44
327.228	179.44
327.457	179.44
327.686	169.44
327.914	166.44
328.143	202.44
328.372	190.44
328.6	189.44
328.829	184.44
329.058	161.44
329.287	162.44
329.515	185.44
329.744	170.44
329.972	177.44
330.201	178.44
330.43	172.44
330.658	187.44
330.887	169.44
331.115	190.44
331.344	183.44
331.572	181.44
331.801	173.44
332.03	187.44
332.258	183.44
332.486	181.44
332.715	201.44
332.943	183.44
333.172	187.44
333.4	198.44
333.629	206.44
333.857	185.44
334.085	184.44
334.314	186.44
334.542	198.44
334.771	189.44
334.999	198.44
335.227	197.44
335.455	181.44
335.684	182.44
335.912	191.44
336.14	189.44
336.369	178.44
336.597	180.44
336.825	187.44
337.053	184.44
337.281	166.44
337.51	179.44
337.738	174.44
337.966	183.44
338.194	173.44
338.422	179.44
338.65	197.44
338.878	166.44
339.106	185.44
339.334	193.44
339.562	188.44
339.79	171.44
340.018	165.44
340.246	177.44
340.474	182.44
340.702	169.44
340.93	179.44
341.158	194.44
341.386	169.44
341.614	174.44
341.842	191.44
342.07	196.44
342.298	177.44
342.526	185.44
342.754	193.44
342.981	161.44
343.209	184.44
343.437	206.44
343.665	206.44
343.893	202.44
344.12	218.44
344.348	183.44
344.576	171.44
344.804	190.44
345.031	177.44
345.259	194.44
345.487	180.44
345.714	197.44
345.942	179.44
346.17	185.44
346.397	169.44
346.625	189.44
346.853	179.44
347.08	173.44
347.308	197.44
347.535	175.44
347.763	169.44
347.99	179.44
348.218	164.44
348.445	166.44
348.673	180.44
348.9	171.44
349.128	179.44
349.355	173.44
349.583	181.44
349.81	174.44
350.037	184.44
350.265	160.44
350.492	175.44
350.72	183.44
350.947	171.44
351.174	179.44
351.402	191.44
351.629	184.44
351.856	189.44
352.083	171.44
352.311	172.44
352.538	183.44
352.765	181.44
352.992	163.44
353.22	200.44
353.447	191.44
353.674	187.44
353.901	173.44
354.128	186.44
354.355	173.44
354.583	163.44
354.81	167.44
355.037	185.44
355.264	180.44
355.491	187.44
355.718	179.44
355.945	193.44
356.172	162.44
356.399	183.44
356.626	177.44
356.853	186.44
357.08	177.44
357.307	173.44
357.534	163.44
357.761	172.44
357.988	183.44
358.215	177.44
358.441	183.44
358.668	174.44
358.895	163.44
359.122	168.44
359.349	166.44
359.576	177.44
359.802	196.44
360.029	173.44
360.256	182.44
360.483	174.44
360.709	178.44
360.936	191.44
361.163	184.44
361.39	189.44
361.616	193.44
361.843	164.44
362.07	179.44
362.296	170.44
362.523	184.44
362.749	177.44
362.976	159.44
363.203	183.44
363.429	167.44
363.656	183.44
363.882	171.44
364.109	186.44
364.335	168.44
364.562	162.44
364.788	185.44
365.015	177.44
365.241	177.44
365.468	186.44
365.694	181.44
365.92	174.44
366.147	174.44
366.373	173.44
366.599	187.44
366.826	201.44
367.052	179.44
367.278	177.44
367.505	188.44
367.731	181.44
367.957	179.44
368.184	191.44
368.41	165.44
368.636	175.44
368.862	214.44
369.089	178.44
369.315	190.44
369.541	195.44
369.767	181.44
369.993	172.44
370.219	192.44
370.445	190.44
370.672	189.44
370.898	181.44
371.124	177.44
371.35	185.44
371.576	187.44
371.802	202.44
372.028	199.44
372.254	184.44
372.48	195.44
372.706	196.44
372.932	192.44
373.158	193.44
373.384	206.44
373.61	215.44
373.835	205.44
374.061	201.44
374.287	195.44
374.513	207.44
374.739	199.44
374.965	186.44
375.191	208.44
375.416	226.44
375.642	216.44
375.868	193.44
376.094	207.44
376.319	204.44
376.545	210.44
376.771	210.44
376.997	199.44
377.222	205.44
377.448	194.44
377.674	213.44
377.899	193.44
378.125	212.44
378.35	209.44
378.576	188.44
378.802	195.44
379.027	215.44
379.253	217.44
379.478	211.44
379.704	199.44
379.929	198.44
380.155	205.44
380.38	212.44
380.606	203.44
380.831	213.44
381.057	217.44
381.282	214.44
381.507	211.44
381.733	206.44
381.958	215.44
382.184	201.44
382.409	218.44
382.634	204.44
382.86	217.44
383.085	206.44
383.31	209.44
383.535	211.44
383.761	229.44
383.986	225.44
384.211	222.44
384.436	235.44
384.662	232.44
384.887	243.44
385.112	228.44
385.337	245.44
385.562	225.44
385.787	223.44
386.013	246.44
386.238	217.44
386.463	232.44
386.688	227.44
386.913	233.44
387.138	225.44
387.363	233.44
387.588	231.44
387.813	233.44
388.038	213.44
388.263	226.44
388.488	227.44
388.713	223.44
388.938	204.44
389.163	233.44
389.387	224.44
389.612	237.44
389.837	253.44
390.062	229.44
390.287	234.44
390.512	234.44
390.736	234.44
390.961	233.44
391.186	235.44
391.411	246.44
391.636	249.44
391.86	257.44
392.085	243.44
392.31	238.44
392.534	220.44
392.759	233.44
392.984	230.44
393.208	248.44
393.433	241.44
393.658	246.44
393.882	216.44
394.107	230.44
394.331	238.44
394.556	247.44
394.78	238.44
395.005	259.44
395.229	259.44
395.454	246.44
395.678	249.44
395.903	265.44
396.127	262.44
396.352	237.44
396.576	234.44
396.801	251.44
397.025	247.44
397.249	242.44
397.474	261.44
397.698	258.44
397.922	261.44
398.147	256.44
398.371	248.44
398.595	266.44
398.82	278.44
399.044	269.44
399.268	291.44
399.492	350.44
399.717	356.44
399.941	348.44
400.165	322.44
400.389	275.44
400.613	310.44
400.837	283.44
401.062	262.44
401.286	270.44
401.51	285.44
401.734	267.44
401.958	264.44
402.182	290.44
402.406	286.44
402.63	291.44
402.854	300.44
403.078	281.44
403.302	278.44
403.526	301.44
403.75	299.44
403.974	293.44
404.198	276.44
404.422	270.44
404.645	297.44
404.869	302.44
405.093	283.44
405.317	295.44
405.541	287.44
405.765	287.44
405.988	285.44
406.212	282.44
406.436	285.44
406.66	309.44
406.883	301.44
407.107	314.44
407.331	321.44
407.555	335.44
407.778	324.44
408.002	314.44
408.226	321.44
408.449	289.44
408.673	296.44
408.896	307.44
409.12	317.44
409.344	297.44
409.567	305.44
409.791	308.44
410.014	305.44
410.238	303.44
410.461	285.44
410.685	310.44
410.908	279.44
411.132	283.44
411.355	274.44
411.578	306.44
411.802	290.44
412.025	270.44
412.249	307.44
412.472	284.44
412.695	297.44
412.919	301.44
413.142	271.44
413.365	289.44
413.589	286.44
413.812	287.44
414.035	297.44
414.258	293.44
414.482	287.44
414.705	298.44
414.928	297.44
415.151	289.44
415.374	299.44
415.597	300.44
415.821	284.44
416.044	284.44
416.267	282.44
416.49	285.44
416.713	285.44
416.936	267.44
417.159	297.44
417.382	293.44
417.605	288.44
417.828	264.44
418.051	272.44
418.274	284.44
418.497	282.44
418.72	297.44
418.943	290.44
419.166	307.44
419.389	317.44
419.611	305.44
419.834	293.44
420.057	310.44
420.28	289.44
420.503	286.44
420.726	285.44
420.948	278.44
421.171	295.44
421.394	267.44
421.617	298.44
421.839	289.44
422.062	295.44
422.285	287.44
422.507	287.44
422.73	291.44
422.953	297.44
423.175	288.44
423.398	280.44
423.621	294.44
423.843	296.44
424.066	297.44
424.288	295.44
424.511	292.44
424.733	309.44
424.956	316.44
425.178	300.44
425.401	292.44
425.623	296.44
425.846	286.44
426.068	275.44
426.291	282.44
426.513	278.44
426.735	284.44
426.958	287.44
427.18	274.44
427.402	275.44
427.625	268.44
427.847	283.44
428.069	262.44
428.292	290.44
428.514	267.44
428.736	274.44
428.958	244.44
429.181	287.44
429.403	281.44
429.625	278.44
429.847	275.44
430.069	264.44
430.292	260.44
430.514	276.44
430.736	297.44
430.958	274.44
431.18	269.44
431.402	273.44
431.624	261.44
431.846	288.44
432.068	267.44
432.29	257.44
432.512	283.44
432.734	272.44
432.956	293.44
433.178	299.44
433.4	277.44
433.622	298.44
433.844	291.44
434.066	286.44
434.287	268.44
434.509	288.44
434.731	305.44
434.953	309.44
435.175	309.44
435.397	297.44
435.618	299.44
435.84	290.44
436.062	276.44
436.284	274.44
436.505	286.44
436.727	294.44
436.949	301.44
437.17	285.44
437.392	298.44
437.614	282.44
437.835	282.44
438.057	264.44
438.278	272.44
438.5	282.44
438.721	287.44
438.943	290.44
439.165	277.44
439.386	280.44
439.608	299.44
439.829	298.44
440.05	295.44
440.272	309.44
440.493	282.44
440.715	292.44
440.936	299.44
441.158	318.44
441.379	288.44
441.6	321.44
441.822	319.44
442.043	314.44
442.264	313.44
442.486	301.44
442.707	310.44
442.928	317.44
443.149	300.44
443.371	296.44
443.592	301.44
443.813	308.44
444.034	314.44
444.255	309.44
444.476	299.44
444.698	324.44
444.919	332.44
445.14	446.44
445.361	393.44
445.582	323.44
445.803	313.44
446.024	307.44
446.245	316.44
446.466	310.44
446.687	283.44
446.908	269.44
447.129	284.44
447.35	295.44
447.571	290.44
447.792	287.44
448.013	291.44
448.234	288.44
448.455	291.44
448.675	275.44
448.896	290.44
449.117	283.44
449.338	284.44
449.559	281.44
449.779	269.44
450	276.44
450.221	276.44
450.442	284.44
450.662	283.44
450.883	296.44
451.104	292.44
451.324	280.44
451.545	270.44
451.766	273.44
451.986	279.44
452.207	286.44
452.428	281.44
452.648	279.44
452.869	262.44
453.089	264.44
453.31	287.44
453.53	270.44
453.751	259.44
453.971	265.44
454.192	251.44
454.412	255.44
454.633	280.44
454.853	279.44
455.073	262.44
455.294	257.44
455.514	267.44
455.734	271.44
455.955	264.44
456.175	262.44
456.395	279.44
456.616	263.44
456.836	259.44
457.056	276.44
457.276	264.44
457.497	260.44
457.717	249.44
457.937	275.44
458.157	268.44
458.377	257.44
458.598	280.44
458.818	257.44
459.038	272.44
459.258	272.44
459.478	271.44
459.698	290.44
459.918	287.44
460.138	309.44
460.358	324.44
460.578	307.44
460.798	330.44
461.018	325.44
461.238	311.44
461.458	315.44
461.678	329.44
461.898	322.44
462.118	312.44
462.338	334.44
462.558	332.44
462.777	331.44
462.997	374.44
463.217	362.44
463.437	350.44
463.657	359.44
463.876	353.44
464.096	339.44
464.316	322.44
464.536	343.44
464.755	349.44
464.975	334.44
465.195	329.44
465.414	322.44
465.634	305.44
465.854	311.44
466.073	296.44
466.293	303.44
466.512	302.44
466.732	295.44
466.951	298.44
467.171	292.44
467.391	291.44
467.61	290.44
467.829	300.44
468.049	278.44
468.268	294.44
468.488	291.44
468.707	271.44
468.927	287.44
469.146	298.44
469.365	285.44
469.585	292.44
469.804	298.44
470.023	306.44
470.243	281.44
470.462	313.44
470.681	289.44
470.901	296.44
471.12	299.44
471.339	296.44
471.558	282.44
471.777	292.44
471.997	283.44
472.216	312.44
472.435	285.44
472.654	286.44
472.873	287.44
473.092	271.44
473.311	291.44
473.53	286.44
473.749	277.44
473.968	285.44
474.187	283.44
474.406	286.44
474.625	274.44
474.844	288.44
475.063	269.44
475.282	263.44
475.501	290.44
475.72	281.44
475.939	297.44
476.158	293.44
476.377	278.44
476.596	295.44
476.814	287.44
477.033	283.44
477.252	282.44
477.471	313.44
477.69	307.44
477.908	326.44
478.127	331.44
478.346	315.44
478.564	322.44
478.783	333.44
479.002	306.44
479.22	327.44
479.439	329.44
479.658	345.44
479.876	327.44
480.095	339.44
480.313	335.44
480.532	344.44
480.751	338.44
480.969	318.44
481.188	328.44
481.406	318.44
481.624	325.44
481.843	318.44
482.061	298.44
482.28	317.44
482.498	320.44
482.717	309.44
482.935	303.44
483.153	338.44
483.372	312.44
483.59	332.44
483.808	314.44
484.027	316.44
484.245	333.44
484.463	321.44
484.681	341.44
484.9	332.44
485.118	320.44
485.336	318.44
485.554	316.44
485.772	309.44
485.99	317.44
486.209	302.44
486.427	308.44
486.645	330.44
486.863	315.44
487.081	324.44
487.299	335.44
487.517	351.44
487.735	334.44
487.953	345.44
488.171	340.44
488.389	328.44
488.607	327.44
488.825	319.44
489.043	314.44
489.261	313.44
489.479	316.44
489.696	325.44
489.914	316.44
490.132	327.44
490.35	331.44
490.568	333.44
490.786	334.44
491.003	335.44
491.221	356.44
491.439	356.44
491.657	343.44
491.874	363.44
492.092	345.44
492.31	347.44
492.527	358.44
492.745	367.44
492.963	339.44
493.18	341.44
493.398	350.44
493.615	347.44
493.833	342.44
494.05	335.44
494.268	340.44
494.485	345.44
494.703	352.44
494.92	331.44
495.138	324.44
495.355	335.44
495.573	366.44
495.79	350.44
496.008	341.44
496.225	356.44
496.442	340.44
496.66	362.44
496.877	366.44
497.094	358.44
497.312	354.44
497.529	372.44
497.746	369.44
497.963	378.44
498.181	399.44
498.398	392.44
498.615	419.44
498.832	422.44
499.049	439.44
499.267	457.44
499.484	505.44
499.701	523.44
499.918	543.44
500.135	595.44
500.352	647.44
500.569	659.44
500.786	635.44
501.003	622.44
501.22	593.44
501.437	542.44
501.654	467.44
501.871	469.44
502.088	430.44
502.305	415.44
502.522	409.44
502.739	408.44
