Data from Fe(NO3)3@0.05M.TitratingCurve.Agarose3%dH2O.NegLispCup.LampEnergy10.LIBS07252019_HRD10591_16-47-13-334.txt Node
Date: Thu Jul 25 16:47:13 EDT 2019
User: cochatt
Spectrometer: HR+D1059
Trigger mode: 1
Integration Time (sec): 1.000000E-1
Scans to average: 1
Electric dark correction enabled: true
Nonlinearity correction enabled: false
Boxcar width: 0
XAxis mode: Wavelengths
Number of Pixels in Spectrum: 2048
>>>>>Begin Spectral Data<<<<<
223.165	-21.56
223.4	-21.56
223.635	-21.56
223.869	-14.56
224.104	-22.56
224.338	-4.56
224.573	-0.56
224.808	-17.56
225.042	-14.56
225.277	-4.56
225.511	-2.56
225.746	11.44
225.98	10.44
226.215	7.44
226.449	18.44
226.683	15.44
226.918	22.44
227.152	17.44
227.387	43.44
227.621	29.44
227.856	37.44
228.09	32.44
228.324	47.44
228.559	52.44
228.793	59.44
229.027	94.44
229.262	86.44
229.496	83.44
229.73	107.44
229.964	114.44
230.199	105.44
230.433	110.44
230.667	105.44
230.901	120.44
231.136	116.44
231.37	118.44
231.604	116.44
231.838	117.44
232.072	117.44
232.306	108.44
232.541	127.44
232.775	100.44
233.009	109.44
233.243	123.44
233.477	122.44
233.711	132.44
233.945	132.44
234.179	117.44
234.413	110.44
234.647	125.44
234.881	125.44
235.115	120.44
235.349	130.44
235.583	122.44
235.817	131.44
236.051	118.44
236.285	118.44
236.519	133.44
236.753	139.44
236.987	127.44
237.221	141.44
237.455	137.44
237.689	141.44
237.922	124.44
238.156	122.44
238.39	134.44
238.624	155.44
238.858	127.44
239.091	125.44
239.325	136.44
239.559	131.44
239.793	132.44
240.027	133.44
240.26	158.44
240.494	133.44
240.728	151.44
240.961	131.44
241.195	138.44
241.429	131.44
241.662	132.44
241.896	146.44
242.13	137.44
242.363	143.44
242.597	152.44
242.83	147.44
243.064	151.44
243.298	153.44
243.531	157.44
243.765	143.44
243.998	149.44
244.232	140.44
244.465	155.44
244.699	155.44
244.932	166.44
245.166	163.44
245.399	168.44
245.633	160.44
245.866	156.44
246.099	149.44
246.333	168.44
246.566	161.44
246.8	164.44
247.033	179.44
247.266	152.44
247.5	159.44
247.733	162.44
247.966	164.44
248.2	188.44
248.433	177.44
248.666	192.44
248.899	187.44
249.133	160.44
249.366	188.44
249.599	189.44
249.832	169.44
250.066	192.44
250.299	183.44
250.532	175.44
250.765	169.44
250.998	172.44
251.231	186.44
251.465	182.44
251.698	191.44
251.931	177.44
252.164	181.44
252.397	188.44
252.63	188.44
252.863	197.44
253.096	210.44
253.329	194.44
253.562	181.44
253.795	190.44
254.028	198.44
254.261	216.44
254.494	191.44
254.727	200.44
254.96	215.44
255.193	207.44
255.426	203.44
255.659	207.44
255.892	198.44
256.124	182.44
256.357	192.44
256.59	223.44
256.823	206.44
257.056	221.44
257.289	190.44
257.521	208.44
257.754	197.44
257.987	215.44
258.22	214.44
258.452	212.44
258.685	204.44
258.918	214.44
259.151	208.44
259.383	211.44
259.616	215.44
259.849	214.44
260.081	227.44
260.314	227.44
260.547	228.44
260.779	235.44
261.012	228.44
261.244	236.44
261.477	242.44
261.71	228.44
261.942	207.44
262.175	216.44
262.407	225.44
262.64	221.44
262.872	243.44
263.105	222.44
263.337	227.44
263.57	246.44
263.802	227.44
264.035	225.44
264.267	229.44
264.499	229.44
264.732	238.44
264.964	238.44
265.197	233.44
265.429	245.44
265.661	242.44
265.894	225.44
266.126	241.44
266.358	225.44
266.591	234.44
266.823	243.44
267.055	243.44
267.287	249.44
267.52	256.44
267.752	236.44
267.984	243.44
268.216	237.44
268.448	241.44
268.681	247.44
268.913	243.44
269.145	238.44
269.377	248.44
269.609	255.44
269.841	262.44
270.073	255.44
270.306	246.44
270.538	249.44
270.77	253.44
271.002	255.44
271.234	233.44
271.466	251.44
271.698	263.44
271.93	253.44
272.162	293.44
272.394	272.44
272.626	266.44
272.858	275.44
273.09	271.44
273.322	261.44
273.553	271.44
273.785	283.44
274.017	296.44
274.249	286.44
274.481	288.44
274.713	309.44
274.945	299.44
275.176	297.44
275.408	292.44
275.64	307.44
275.872	282.44
276.104	291.44
276.335	293.44
276.567	287.44
276.799	305.44
277.031	289.44
277.262	286.44
277.494	298.44
277.726	279.44
277.957	294.44
278.189	295.44
278.421	298.44
278.652	271.44
278.884	292.44
279.115	292.44
279.347	281.44
279.579	277.44
279.81	294.44
280.042	291.44
280.273	314.44
280.505	309.44
280.736	298.44
280.968	305.44
281.199	295.44
281.431	315.44
281.662	300.44
281.894	309.44
282.125	311.44
282.356	299.44
282.588	299.44
282.819	307.44
283.051	318.44
283.282	287.44
283.513	315.44
283.745	318.44
283.976	296.44
284.207	313.44
284.439	302.44
284.67	308.44
284.901	315.44
285.132	309.44
285.364	321.44
285.595	300.44
285.826	327.44
286.057	332.44
286.288	326.44
286.52	317.44
286.751	318.44
286.982	310.44
287.213	309.44
287.444	313.44
287.675	333.44
287.906	331.44
288.138	325.44
288.369	337.44
288.6	345.44
288.831	327.44
289.062	314.44
289.293	323.44
289.524	341.44
289.755	319.44
289.986	324.44
290.217	340.44
290.448	334.44
290.679	339.44
290.91	341.44
291.141	327.44
291.371	353.44
291.602	342.44
291.833	331.44
292.064	339.44
292.295	341.44
292.526	329.44
292.757	321.44
292.987	318.44
293.218	325.44
293.449	328.44
293.68	333.44
293.91	346.44
294.141	310.44
294.372	337.44
294.603	358.44
294.833	340.44
295.064	333.44
295.295	339.44
295.525	342.44
295.756	344.44
295.987	344.44
296.217	364.44
296.448	350.44
296.679	351.44
296.909	348.44
297.14	351.44
297.37	350.44
297.601	353.44
297.831	362.44
298.062	359.44
298.292	361.44
298.523	374.44
298.753	364.44
298.984	360.44
299.214	391.44
299.445	369.44
299.675	353.44
299.905	351.44
300.136	375.44
300.366	374.44
300.597	364.44
300.827	359.44
301.057	385.44
301.288	377.44
301.518	401.44
301.748	380.44
301.979	397.44
302.209	389.44
302.439	379.44
302.669	407.44
302.9	371.44
303.13	375.44
303.36	378.44
303.59	367.44
303.82	382.44
304.051	391.44
304.281	394.44
304.511	377.44
304.741	397.44
304.971	382.44
305.201	366.44
305.431	388.44
305.661	381.44
305.891	395.44
306.121	388.44
306.352	393.44
306.582	390.44
306.812	385.44
307.042	380.44
307.272	367.44
307.502	375.44
307.731	370.44
307.961	374.44
308.191	377.44
308.421	362.44
308.651	385.44
308.881	387.44
309.111	383.44
309.341	372.44
309.571	381.44
309.8	395.44
310.03	378.44
310.26	370.44
310.49	380.44
310.72	394.44
310.949	392.44
311.179	410.44
311.409	385.44
311.639	387.44
311.868	385.44
312.098	372.44
312.328	398.44
312.557	399.44
312.787	391.44
313.017	394.44
313.246	399.44
313.476	408.44
313.706	399.44
313.935	407.44
314.165	413.44
314.394	411.44
314.624	409.44
314.853	400.44
315.083	392.44
315.312	410.44
315.542	391.44
315.771	413.44
316.001	411.44
316.23	408.44
316.46	397.44
316.689	408.44
316.919	404.44
317.148	422.44
317.377	402.44
317.607	386.44
317.836	414.44
318.065	406.44
318.295	407.44
318.524	398.44
318.753	417.44
318.983	405.44
319.212	413.44
319.441	424.44
319.67	409.44
319.9	394.44
320.129	417.44
320.358	421.44
320.587	396.44
320.816	421.44
321.046	406.44
321.275	407.44
321.504	438.44
321.733	419.44
321.962	403.44
322.191	410.44
322.42	434.44
322.649	429.44
322.878	406.44
323.108	427.44
323.337	428.44
323.566	422.44
323.795	410.44
324.024	439.44
324.253	409.44
324.482	439.44
324.71	426.44
324.939	430.44
325.168	463.44
325.397	423.44
325.626	431.44
325.855	430.44
326.084	435.44
326.313	454.44
326.542	447.44
326.77	471.44
326.999	459.44
327.228	441.44
327.457	446.44
327.686	449.44
327.914	439.44
328.143	422.44
328.372	449.44
328.6	459.44
328.829	426.44
329.058	438.44
329.287	467.44
329.515	463.44
329.744	467.44
329.972	439.44
330.201	444.44
330.43	468.44
330.658	467.44
330.887	458.44
331.115	459.44
331.344	479.44
331.572	456.44
331.801	471.44
332.03	489.44
332.258	492.44
332.486	485.44
332.715	494.44
332.943	495.44
333.172	530.44
333.4	530.44
333.629	542.44
333.857	553.44
334.085	554.44
334.314	538.44
334.542	537.44
334.771	550.44
334.999	553.44
335.227	558.44
335.455	555.44
335.684	529.44
335.912	508.44
336.14	530.44
336.369	543.44
336.597	517.44
336.825	528.44
337.053	513.44
337.281	525.44
337.51	509.44
337.738	513.44
337.966	518.44
338.194	483.44
338.422	471.44
338.65	501.44
338.878	507.44
339.106	458.44
339.334	481.44
339.562	486.44
339.79	455.44
340.018	471.44
340.246	461.44
340.474	470.44
340.702	461.44
340.93	484.44
341.158	481.44
341.386	479.44
341.614	474.44
341.842	467.44
342.07	485.44
342.298	472.44
342.526	478.44
342.754	481.44
342.981	465.44
343.209	480.44
343.437	493.44
343.665	495.44
343.893	538.44
344.12	529.44
344.348	548.44
344.576	524.44
344.804	509.44
345.031	480.44
345.259	488.44
345.487	489.44
345.714	481.44
345.942	463.44
346.17	457.44
346.397	461.44
346.625	442.44
346.853	457.44
347.08	459.44
347.308	461.44
347.535	456.44
347.763	459.44
347.99	462.44
348.218	447.44
348.445	440.44
348.673	467.44
348.9	437.44
349.128	461.44
349.355	443.44
349.583	453.44
349.81	439.44
350.037	430.44
350.265	437.44
350.492	454.44
350.72	431.44
350.947	458.44
351.174	430.44
351.402	453.44
351.629	445.44
351.856	449.44
352.083	441.44
352.311	446.44
352.538	450.44
352.765	432.44
352.992	455.44
353.22	427.44
353.447	446.44
353.674	454.44
353.901	448.44
354.128	434.44
354.355	452.44
354.583	434.44
354.81	441.44
355.037	424.44
355.264	426.44
355.491	446.44
355.718	456.44
355.945	446.44
356.172	449.44
356.399	440.44
356.626	451.44
356.853	460.44
357.08	481.44
357.307	462.44
357.534	444.44
357.761	452.44
357.988	454.44
358.215	456.44
358.441	455.44
358.668	438.44
358.895	443.44
359.122	446.44
359.349	445.44
359.576	429.44
359.802	456.44
360.029	455.44
360.256	445.44
360.483	437.44
360.709	463.44
360.936	451.44
361.163	453.44
361.39	448.44
361.616	438.44
361.843	463.44
362.07	437.44
362.296	451.44
362.523	475.44
362.749	457.44
362.976	451.44
363.203	463.44
363.429	450.44
363.656	460.44
363.882	438.44
364.109	421.44
364.335	460.44
364.562	463.44
364.788	481.44
365.015	477.44
365.241	458.44
365.468	447.44
365.694	438.44
365.92	433.44
366.147	457.44
366.373	451.44
366.599	471.44
366.826	451.44
367.052	436.44
367.278	457.44
367.505	450.44
367.731	468.44
367.957	456.44
368.184	450.44
368.41	470.44
368.636	468.44
368.862	470.44
369.089	475.44
369.315	468.44
369.541	487.44
369.767	467.44
369.993	474.44
370.219	476.44
370.445	473.44
370.672	485.44
370.898	481.44
371.124	485.44
371.35	497.44
371.576	507.44
371.802	521.44
372.028	494.44
372.254	519.44
372.48	510.44
372.706	502.44
372.932	512.44
373.158	511.44
373.384	521.44
373.61	533.44
373.835	530.44
374.061	515.44
374.287	505.44
374.513	499.44
374.739	523.44
374.965	550.44
375.191	558.44
375.416	539.44
375.642	499.44
375.868	517.44
376.094	525.44
376.319	490.44
376.545	521.44
376.771	522.44
376.997	499.44
377.222	509.44
377.448	491.44
377.674	524.44
377.899	493.44
378.125	498.44
378.35	492.44
378.576	504.44
378.802	489.44
379.027	499.44
379.253	519.44
379.478	501.44
379.704	516.44
379.929	499.44
380.155	511.44
380.38	477.44
380.606	521.44
380.831	514.44
381.057	504.44
381.282	502.44
381.507	521.44
381.733	504.44
381.958	517.44
382.184	521.44
382.409	538.44
382.634	529.44
382.86	536.44
383.085	532.44
383.31	537.44
383.535	571.44
383.761	553.44
383.986	553.44
384.211	565.44
384.436	589.44
384.662	567.44
384.887	572.44
385.112	561.44
385.337	605.44
385.562	582.44
385.787	590.44
386.013	604.44
386.238	577.44
386.463	586.44
386.688	597.44
386.913	584.44
387.138	596.44
387.363	610.44
387.588	584.44
387.813	590.44
388.038	595.44
388.263	606.44
388.488	623.44
388.713	592.44
388.938	575.44
389.163	591.44
389.387	593.44
389.612	590.44
389.837	598.44
390.062	610.44
390.287	606.44
390.512	607.44
390.736	610.44
390.961	599.44
391.186	609.44
391.411	639.44
391.636	641.44
391.86	658.44
392.085	667.44
392.31	635.44
392.534	635.44
392.759	642.44
392.984	643.44
393.208	639.44
393.433	656.44
393.658	647.44
393.882	655.44
394.107	632.44
394.331	662.44
394.556	639.44
394.78	643.44
395.005	654.44
395.229	649.44
395.454	653.44
395.678	670.44
395.903	646.44
396.127	661.44
396.352	645.44
396.576	648.44
396.801	648.44
397.025	659.44
397.249	663.44
397.474	677.44
397.698	695.44
397.922	691.44
398.147	682.44
398.371	701.44
398.595	723.44
398.82	727.44
399.044	803.44
399.268	813.44
399.492	914.44
399.717	947.44
399.941	968.44
400.165	926.44
400.389	859.44
400.613	806.44
400.837	809.44
401.062	771.44
401.286	743.44
401.51	750.44
401.734	747.44
401.958	701.44
402.182	744.44
402.406	742.44
402.63	781.44
402.854	780.44
403.078	769.44
403.302	780.44
403.526	772.44
403.75	776.44
403.974	782.44
404.198	810.44
404.422	795.44
404.645	806.44
404.869	789.44
405.093	800.44
405.317	792.44
405.541	799.44
405.765	795.44
405.988	783.44
406.212	801.44
406.436	797.44
406.66	798.44
406.883	804.44
407.107	875.44
407.331	882.44
407.555	896.44
407.778	899.44
408.002	869.44
408.226	915.44
408.449	867.44
408.673	856.44
408.896	836.44
409.12	830.44
409.344	840.44
409.567	805.44
409.791	825.44
410.014	796.44
410.238	798.44
410.461	810.44
410.685	804.44
410.908	821.44
411.132	784.44
411.355	769.44
411.578	788.44
411.802	785.44
412.025	786.44
412.249	786.44
412.472	787.44
412.695	774.44
412.919	753.44
413.142	753.44
413.365	759.44
413.589	789.44
413.812	755.44
414.035	760.44
414.258	753.44
414.482	780.44
414.705	780.44
414.928	782.44
415.151	776.44
415.374	770.44
415.597	727.44
415.821	732.44
416.044	722.44
416.267	715.44
416.49	710.44
416.713	726.44
416.936	743.44
417.159	701.44
417.382	731.44
417.605	729.44
417.828	722.44
418.051	708.44
418.274	728.44
418.497	745.44
418.72	767.44
418.943	755.44
419.166	808.44
419.389	843.44
419.611	827.44
419.834	793.44
420.057	781.44
420.28	757.44
420.503	710.44
420.726	704.44
420.948	714.44
421.171	730.44
421.394	733.44
421.617	726.44
421.839	743.44
422.062	734.44
422.285	717.44
422.507	742.44
422.73	745.44
422.953	741.44
423.175	756.44
423.398	791.44
423.621	747.44
423.843	748.44
424.066	755.44
424.288	755.44
424.511	754.44
424.733	765.44
424.956	757.44
425.178	746.44
425.401	725.44
425.623	741.44
425.846	677.44
426.068	706.44
426.291	709.44
426.513	697.44
426.735	708.44
426.958	709.44
427.18	710.44
427.402	696.44
427.625	717.44
427.847	675.44
428.069	696.44
428.292	702.44
428.514	704.44
428.736	676.44
428.958	691.44
429.181	678.44
429.403	652.44
429.625	677.44
429.847	673.44
430.069	656.44
430.292	680.44
430.514	663.44
430.736	659.44
430.958	675.44
431.18	712.44
431.402	673.44
431.624	671.44
431.846	671.44
432.068	665.44
432.29	703.44
432.512	697.44
432.734	698.44
432.956	675.44
433.178	668.44
433.4	687.44
433.622	679.44
433.844	695.44
434.066	671.44
434.287	689.44
434.509	729.44
434.731	727.44
434.953	745.44
435.175	746.44
435.397	741.44
435.618	718.44
435.84	698.44
436.062	671.44
436.284	693.44
436.505	690.44
436.727	690.44
436.949	685.44
437.17	675.44
437.392	680.44
437.614	667.44
437.835	662.44
438.057	647.44
438.278	675.44
438.5	686.44
438.721	669.44
438.943	638.44
439.165	675.44
439.386	677.44
439.608	695.44
439.829	678.44
440.05	699.44
440.272	692.44
440.493	701.44
440.715	716.44
440.936	695.44
441.158	706.44
441.379	709.44
441.6	746.44
441.822	771.44
442.043	715.44
442.264	745.44
442.486	718.44
442.707	723.44
442.928	743.44
443.149	753.44
443.371	725.44
443.592	725.44
443.813	749.44
444.034	739.44
444.255	795.44
444.476	783.44
444.698	801.44
444.919	793.44
445.14	877.44
445.361	845.44
445.582	790.44
445.803	732.44
446.024	745.44
446.245	717.44
446.466	727.44
446.687	705.44
446.908	717.44
447.129	667.44
447.35	674.44
447.571	666.44
447.792	637.44
448.013	648.44
448.234	657.44
448.455	651.44
448.675	640.44
448.896	648.44
449.117	642.44
449.338	656.44
449.559	633.44
449.779	611.44
450	610.44
450.221	649.44
450.442	636.44
450.662	653.44
450.883	632.44
451.104	642.44
451.324	634.44
451.545	620.44
451.766	655.44
451.986	649.44
452.207	606.44
452.428	638.44
452.648	615.44
452.869	610.44
453.089	602.44
453.31	617.44
453.53	607.44
453.751	606.44
453.971	628.44
454.192	613.44
454.412	590.44
454.633	609.44
454.853	604.44
455.073	597.44
455.294	609.44
455.514	597.44
455.734	620.44
455.955	595.44
456.175	597.44
456.395	573.44
456.616	591.44
456.836	598.44
457.056	587.44
457.276	597.44
457.497	607.44
457.717	590.44
457.937	620.44
458.157	605.44
458.377	617.44
458.598	645.44
458.818	633.44
459.038	641.44
459.258	658.44
459.478	660.44
459.698	666.44
459.918	718.44
460.138	721.44
460.358	756.44
460.578	766.44
460.798	771.44
461.018	777.44
461.238	754.44
461.458	760.44
461.678	787.44
461.898	795.44
462.118	808.44
462.338	817.44
462.558	827.44
462.777	857.44
462.997	915.44
463.217	935.44
463.437	957.44
463.657	899.44
463.876	876.44
464.096	884.44
464.316	886.44
464.536	862.44
464.755	858.44
464.975	790.44
465.195	786.44
465.414	751.44
465.634	727.44
465.854	716.44
466.073	703.44
466.293	683.44
466.512	686.44
466.732	674.44
466.951	674.44
467.171	673.44
467.391	676.44
467.61	653.44
467.829	661.44
468.049	643.44
468.268	658.44
468.488	638.44
468.707	637.44
468.927	667.44
469.146	649.44
469.365	643.44
469.585	635.44
469.804	664.44
470.023	675.44
470.243	671.44
470.462	654.44
470.681	664.44
470.901	655.44
471.12	667.44
471.339	676.44
471.558	660.44
471.777	662.44
471.997	667.44
472.216	660.44
472.435	643.44
472.654	623.44
472.873	652.44
473.092	645.44
473.311	642.44
473.53	653.44
473.749	629.44
473.968	649.44
474.187	623.44
474.406	645.44
474.625	641.44
474.844	614.44
475.063	640.44
475.282	643.44
475.501	619.44
475.72	653.44
475.939	666.44
476.158	659.44
476.377	640.44
476.596	673.44
476.814	659.44
477.033	664.44
477.252	667.44
477.471	723.44
477.69	721.44
477.908	707.44
478.127	691.44
478.346	730.44
478.564	742.44
478.783	734.44
479.002	746.44
479.22	757.44
479.439	761.44
479.658	768.44
479.876	741.44
480.095	789.44
480.313	806.44
480.532	802.44
480.751	806.44
480.969	764.44
481.188	758.44
481.406	775.44
481.624	759.44
481.843	740.44
482.061	718.44
482.28	732.44
482.498	744.44
482.717	667.44
482.935	726.44
483.153	717.44
483.372	709.44
483.59	710.44
483.808	730.44
484.027	735.44
484.245	746.44
484.463	710.44
484.681	755.44
484.9	722.44
485.118	735.44
485.336	757.44
485.554	749.44
485.772	740.44
485.99	761.44
486.209	759.44
486.427	750.44
486.645	738.44
486.863	766.44
487.081	748.44
487.299	743.44
487.517	731.44
487.735	757.44
487.953	760.44
488.171	744.44
488.389	753.44
488.607	723.44
488.825	723.44
489.043	741.44
489.261	725.44
489.479	746.44
489.696	753.44
489.914	745.44
490.132	751.44
490.35	775.44
490.568	788.44
490.786	774.44
491.003	779.44
491.221	782.44
491.439	775.44
491.657	759.44
491.874	795.44
492.092	799.44
492.31	813.44
492.527	794.44
492.745	759.44
492.963	769.44
493.18	779.44
493.398	778.44
493.615	786.44
493.833	785.44
494.05	783.44
494.268	828.44
494.485	813.44
494.703	788.44
494.92	804.44
495.138	811.44
495.355	817.44
495.573	782.44
495.79	811.44
496.008	834.44
496.225	820.44
496.442	829.44
496.66	850.44
496.877	854.44
497.094	859.44
497.312	883.44
497.529	898.44
497.746	919.44
497.963	928.44
498.181	974.44
498.398	988.44
498.615	1043.44
498.832	1103.44
499.049	1140.44
499.267	1192.44
499.484	1284.44
499.701	1339.44
499.918	1478.44
500.135	1614.44
500.352	1784.44
500.569	1854.44
500.786	1778.44
501.003	1694.44
501.22	1579.44
501.437	1464.44
