Data from Fe(NO3)3@0.1M.TitratingCurve.Agarose3%dH2O.NegLispCup.LampEnergy10.LIBS07252019_HRD10591_16-37-53-331.txt Node
Date: Thu Jul 25 16:37:53 EDT 2019
User: cochatt
Spectrometer: HR+D1059
Trigger mode: 1
Integration Time (sec): 1.000000E-1
Scans to average: 1
Electric dark correction enabled: true
Nonlinearity correction enabled: false
Boxcar width: 0
XAxis mode: Wavelengths
Number of Pixels in Spectrum: 2048
>>>>>Begin Spectral Data<<<<<
223.165	-22.88
223.4	-22.88
223.635	-22.88
223.869	-23.88
224.104	-18.88
224.338	-11.88
224.573	-12.88
224.808	-10.88
225.042	-0.88
225.277	1.12
225.511	-3.88
225.746	-0.88
225.98	-11.88
226.215	20.12
226.449	26.12
226.683	22.12
226.918	18.12
227.152	31.12
227.387	29.12
227.621	25.12
227.856	42.12
228.09	37.12
228.324	33.12
228.559	60.12
228.793	63.12
229.027	85.12
229.262	76.12
229.496	68.12
229.73	82.12
229.964	78.12
230.199	73.12
230.433	69.12
230.667	85.12
230.901	93.12
231.136	85.12
231.37	60.12
231.604	91.12
231.838	73.12
232.072	87.12
232.306	94.12
232.541	105.12
232.775	93.12
233.009	102.12
233.243	84.12
233.477	105.12
233.711	103.12
233.945	85.12
234.179	90.12
234.413	97.12
234.647	93.12
234.881	104.12
235.115	100.12
235.349	106.12
235.583	94.12
235.817	95.12
236.051	86.12
236.285	98.12
236.519	100.12
236.753	83.12
236.987	78.12
237.221	99.12
237.455	84.12
237.689	96.12
237.922	91.12
238.156	101.12
238.39	95.12
238.624	89.12
238.858	82.12
239.091	87.12
239.325	93.12
239.559	96.12
239.793	99.12
240.027	100.12
240.26	98.12
240.494	103.12
240.728	97.12
240.961	104.12
241.195	99.12
241.429	104.12
241.662	92.12
241.896	89.12
242.13	107.12
242.363	95.12
242.597	100.12
242.83	101.12
243.064	110.12
243.298	88.12
243.531	102.12
243.765	114.12
243.998	102.12
244.232	99.12
244.465	111.12
244.699	99.12
244.932	101.12
245.166	102.12
245.399	109.12
245.633	106.12
245.866	92.12
246.099	117.12
246.333	111.12
246.566	99.12
246.8	94.12
247.033	98.12
247.266	106.12
247.5	112.12
247.733	111.12
247.966	102.12
248.2	111.12
248.433	98.12
248.666	100.12
248.899	113.12
249.133	98.12
249.366	111.12
249.599	113.12
249.832	118.12
250.066	105.12
250.299	112.12
250.532	111.12
250.765	104.12
250.998	102.12
251.231	91.12
251.465	115.12
251.698	114.12
251.931	122.12
252.164	112.12
252.397	108.12
252.63	116.12
252.863	120.12
253.096	124.12
253.329	123.12
253.562	118.12
253.795	107.12
254.028	131.12
254.261	104.12
254.494	124.12
254.727	116.12
254.96	120.12
255.193	107.12
255.426	120.12
255.659	135.12
255.892	120.12
256.124	122.12
256.357	124.12
256.59	109.12
256.823	115.12
257.056	122.12
257.289	119.12
257.521	132.12
257.754	121.12
257.987	127.12
258.22	121.12
258.452	121.12
258.685	121.12
258.918	128.12
259.151	117.12
259.383	128.12
259.616	120.12
259.849	115.12
260.081	120.12
260.314	121.12
260.547	108.12
260.779	127.12
261.012	117.12
261.244	123.12
261.477	135.12
261.71	126.12
261.942	127.12
262.175	128.12
262.407	125.12
262.64	120.12
262.872	119.12
263.105	125.12
263.337	109.12
263.57	125.12
263.802	129.12
264.035	123.12
264.267	120.12
264.499	115.12
264.732	123.12
264.964	118.12
265.197	113.12
265.429	122.12
265.661	127.12
265.894	141.12
266.126	136.12
266.358	146.12
266.591	141.12
266.823	116.12
267.055	116.12
267.287	131.12
267.52	134.12
267.752	130.12
267.984	132.12
268.216	140.12
268.448	133.12
268.681	129.12
268.913	151.12
269.145	139.12
269.377	145.12
269.609	136.12
269.841	138.12
270.073	143.12
270.306	137.12
270.538	139.12
270.77	129.12
271.002	140.12
271.234	156.12
271.466	143.12
271.698	139.12
271.93	151.12
272.162	138.12
272.394	138.12
272.626	139.12
272.858	139.12
273.09	151.12
273.322	159.12
273.553	148.12
273.785	143.12
274.017	133.12
274.249	143.12
274.481	147.12
274.713	144.12
274.945	141.12
275.176	145.12
275.408	147.12
275.64	152.12
275.872	152.12
276.104	143.12
276.335	153.12
276.567	148.12
276.799	151.12
277.031	154.12
277.262	156.12
277.494	149.12
277.726	160.12
277.957	154.12
278.189	150.12
278.421	147.12
278.652	145.12
278.884	163.12
279.115	149.12
279.347	146.12
279.579	152.12
279.81	147.12
280.042	158.12
280.273	151.12
280.505	151.12
280.736	153.12
280.968	154.12
281.199	169.12
281.431	150.12
281.662	152.12
281.894	163.12
282.125	153.12
282.356	170.12
282.588	167.12
282.819	157.12
283.051	157.12
283.282	155.12
283.513	162.12
283.745	142.12
283.976	172.12
284.207	157.12
284.439	171.12
284.67	156.12
284.901	173.12
285.132	152.12
285.364	147.12
285.595	146.12
285.826	148.12
286.057	177.12
286.288	167.12
286.52	161.12
286.751	163.12
286.982	172.12
287.213	171.12
287.444	165.12
287.675	163.12
287.906	150.12
288.138	167.12
288.369	172.12
288.6	163.12
288.831	157.12
289.062	152.12
289.293	156.12
289.524	170.12
289.755	169.12
289.986	171.12
290.217	180.12
290.448	165.12
290.679	178.12
290.91	159.12
291.141	160.12
291.371	162.12
291.602	170.12
291.833	170.12
292.064	172.12
292.295	179.12
292.526	179.12
292.757	173.12
292.987	178.12
293.218	159.12
293.449	173.12
293.68	154.12
293.91	175.12
294.141	169.12
294.372	168.12
294.603	149.12
294.833	168.12
295.064	189.12
295.295	186.12
295.525	176.12
295.756	185.12
295.987	174.12
296.217	168.12
296.448	172.12
296.679	157.12
296.909	186.12
297.14	177.12
297.37	184.12
297.601	168.12
297.831	166.12
298.062	172.12
298.292	190.12
298.523	172.12
298.753	171.12
298.984	191.12
299.214	202.12
299.445	166.12
299.675	184.12
299.905	173.12
300.136	184.12
300.366	183.12
300.597	181.12
300.827	179.12
301.057	184.12
301.288	185.12
301.518	181.12
301.748	177.12
301.979	186.12
302.209	186.12
302.439	185.12
302.669	179.12
302.9	175.12
303.13	180.12
303.36	193.12
303.59	172.12
303.82	193.12
304.051	181.12
304.281	196.12
304.511	177.12
304.741	192.12
304.971	192.12
305.201	187.12
305.431	182.12
305.661	191.12
305.891	189.12
306.121	183.12
306.352	168.12
306.582	166.12
306.812	193.12
307.042	188.12
307.272	194.12
307.502	187.12
307.731	180.12
307.961	179.12
308.191	181.12
308.421	185.12
308.651	182.12
308.881	169.12
309.111	175.12
309.341	179.12
309.571	197.12
309.8	190.12
310.03	180.12
310.26	185.12
310.49	184.12
310.72	184.12
310.949	178.12
311.179	186.12
311.409	163.12
311.639	173.12
311.868	172.12
312.098	187.12
312.328	177.12
312.557	186.12
312.787	207.12
313.017	199.12
313.246	205.12
313.476	198.12
313.706	207.12
313.935	195.12
314.165	193.12
314.394	198.12
314.624	188.12
314.853	197.12
315.083	203.12
315.312	185.12
315.542	189.12
315.771	196.12
316.001	203.12
316.23	193.12
316.46	170.12
316.689	191.12
316.919	188.12
317.148	185.12
317.377	183.12
317.607	198.12
317.836	193.12
318.065	207.12
318.295	188.12
318.524	186.12
318.753	193.12
318.983	203.12
319.212	209.12
319.441	217.12
319.67	191.12
319.9	192.12
320.129	189.12
320.358	183.12
320.587	199.12
320.816	189.12
321.046	190.12
321.275	216.12
321.504	204.12
321.733	202.12
321.962	188.12
322.191	188.12
322.42	201.12
322.649	191.12
322.878	212.12
323.108	207.12
323.337	199.12
323.566	204.12
323.795	176.12
324.024	162.12
324.253	193.12
324.482	210.12
324.71	190.12
324.939	205.12
325.168	208.12
325.397	184.12
325.626	207.12
325.855	234.12
326.084	211.12
326.313	198.12
326.542	211.12
326.77	219.12
326.999	184.12
327.228	212.12
327.457	214.12
327.686	209.12
327.914	210.12
328.143	207.12
328.372	211.12
328.6	205.12
328.829	213.12
329.058	225.12
329.287	196.12
329.515	198.12
329.744	233.12
329.972	204.12
330.201	191.12
330.43	214.12
330.658	201.12
330.887	223.12
331.115	220.12
331.344	224.12
331.572	230.12
331.801	212.12
332.03	230.12
332.258	233.12
332.486	216.12
332.715	247.12
332.943	233.12
333.172	249.12
333.4	242.12
333.629	273.12
333.857	259.12
334.085	236.12
334.314	245.12
334.542	255.12
334.771	240.12
334.999	259.12
335.227	249.12
335.455	240.12
335.684	255.12
335.912	232.12
336.14	218.12
336.369	232.12
336.597	237.12
336.825	229.12
337.053	237.12
337.281	230.12
337.51	224.12
337.738	214.12
337.966	235.12
338.194	215.12
338.422	219.12
338.65	220.12
338.878	230.12
339.106	217.12
339.334	209.12
339.562	220.12
339.79	215.12
340.018	209.12
340.246	211.12
340.474	221.12
340.702	216.12
340.93	227.12
341.158	223.12
341.386	208.12
341.614	212.12
341.842	225.12
342.07	207.12
342.298	223.12
342.526	234.12
342.754	219.12
342.981	228.12
343.209	220.12
343.437	244.12
343.665	233.12
343.893	248.12
344.12	245.12
344.348	239.12
344.576	226.12
344.804	236.12
345.031	234.12
345.259	226.12
345.487	217.12
345.714	213.12
345.942	214.12
346.17	204.12
346.397	195.12
346.625	201.12
346.853	214.12
347.08	214.12
347.308	214.12
347.535	225.12
347.763	217.12
347.99	212.12
348.218	215.12
348.445	224.12
348.673	215.12
348.9	209.12
349.128	232.12
349.355	232.12
349.583	221.12
349.81	208.12
350.037	207.12
350.265	201.12
350.492	192.12
350.72	207.12
350.947	213.12
351.174	212.12
351.402	223.12
351.629	197.12
351.856	213.12
352.083	218.12
352.311	216.12
352.538	213.12
352.765	216.12
352.992	195.12
353.22	194.12
353.447	224.12
353.674	215.12
353.901	213.12
354.128	215.12
354.355	208.12
354.583	210.12
354.81	223.12
355.037	198.12
355.264	206.12
355.491	213.12
355.718	197.12
355.945	209.12
356.172	219.12
356.399	210.12
356.626	210.12
356.853	211.12
357.08	211.12
357.307	212.12
357.534	212.12
357.761	201.12
357.988	201.12
358.215	214.12
358.441	218.12
358.668	213.12
358.895	199.12
359.122	216.12
359.349	215.12
359.576	223.12
359.802	201.12
360.029	218.12
360.256	216.12
360.483	203.12
360.709	212.12
360.936	222.12
361.163	208.12
361.39	210.12
361.616	213.12
361.843	216.12
362.07	203.12
362.296	198.12
362.523	197.12
362.749	231.12
362.976	214.12
363.203	214.12
363.429	200.12
363.656	210.12
363.882	202.12
364.109	204.12
364.335	205.12
364.562	203.12
364.788	218.12
365.015	209.12
365.241	215.12
365.468	217.12
365.694	210.12
365.92	217.12
366.147	218.12
366.373	216.12
366.599	189.12
366.826	211.12
367.052	216.12
367.278	232.12
367.505	218.12
367.731	218.12
367.957	218.12
368.184	208.12
368.41	201.12
368.636	194.12
368.862	223.12
369.089	202.12
369.315	214.12
369.541	236.12
369.767	224.12
369.993	217.12
370.219	208.12
370.445	236.12
370.672	212.12
370.898	233.12
371.124	224.12
371.35	218.12
371.576	216.12
371.802	234.12
372.028	213.12
372.254	218.12
372.48	224.12
372.706	233.12
372.932	249.12
373.158	231.12
373.384	228.12
373.61	223.12
373.835	243.12
374.061	244.12
374.287	234.12
374.513	215.12
374.739	228.12
374.965	236.12
375.191	258.12
375.416	247.12
375.642	250.12
375.868	230.12
376.094	233.12
376.319	221.12
376.545	225.12
376.771	223.12
376.997	228.12
377.222	239.12
377.448	225.12
377.674	215.12
377.899	222.12
378.125	213.12
378.35	202.12
378.576	231.12
378.802	245.12
379.027	231.12
379.253	223.12
379.478	232.12
379.704	212.12
379.929	222.12
380.155	225.12
380.38	222.12
380.606	224.12
380.831	240.12
381.057	241.12
381.282	240.12
381.507	235.12
381.733	228.12
381.958	236.12
382.184	240.12
382.409	241.12
382.634	244.12
382.86	240.12
383.085	242.12
383.31	242.12
383.535	252.12
383.761	264.12
383.986	272.12
384.211	275.12
384.436	256.12
384.662	267.12
384.887	273.12
385.112	243.12
385.337	281.12
385.562	266.12
385.787	279.12
386.013	279.12
386.238	265.12
386.463	267.12
386.688	284.12
386.913	268.12
387.138	270.12
387.363	275.12
387.588	249.12
387.813	289.12
388.038	282.12
388.263	276.12
388.488	251.12
388.713	277.12
388.938	280.12
389.163	275.12
389.387	269.12
389.612	281.12
389.837	287.12
390.062	270.12
390.287	265.12
390.512	267.12
390.736	281.12
390.961	264.12
391.186	277.12
391.411	290.12
391.636	300.12
391.86	287.12
392.085	303.12
392.31	319.12
392.534	301.12
392.759	287.12
392.984	284.12
393.208	282.12
393.433	285.12
393.658	267.12
393.882	275.12
394.107	291.12
394.331	296.12
394.556	303.12
394.78	269.12
395.005	294.12
395.229	305.12
395.454	299.12
395.678	300.12
395.903	291.12
396.127	288.12
396.352	292.12
396.576	287.12
396.801	284.12
397.025	277.12
397.249	308.12
397.474	295.12
397.698	297.12
397.922	297.12
398.147	309.12
398.371	305.12
398.595	293.12
398.82	313.12
399.044	322.12
399.268	376.12
399.492	437.12
399.717	463.12
399.941	437.12
400.165	393.12
400.389	370.12
400.613	343.12
400.837	327.12
401.062	337.12
401.286	317.12
401.51	325.12
401.734	311.12
401.958	321.12
402.182	324.12
402.406	346.12
402.63	341.12
402.854	360.12
403.078	362.12
403.302	361.12
403.526	356.12
403.75	365.12
403.974	364.12
404.198	377.12
404.422	371.12
404.645	346.12
404.869	369.12
405.093	351.12
405.317	359.12
405.541	332.12
405.765	333.12
405.988	349.12
406.212	337.12
406.436	345.12
406.66	362.12
406.883	362.12
407.107	383.12
407.331	390.12
407.555	405.12
407.778	400.12
408.002	390.12
408.226	367.12
408.449	376.12
408.673	375.12
408.896	367.12
409.12	356.12
409.344	386.12
409.567	346.12
409.791	371.12
410.014	355.12
410.238	360.12
410.461	389.12
410.685	354.12
410.908	367.12
411.132	367.12
411.355	367.12
411.578	344.12
411.802	346.12
412.025	351.12
412.249	348.12
412.472	348.12
412.695	336.12
412.919	325.12
413.142	338.12
413.365	331.12
413.589	335.12
413.812	336.12
414.035	332.12
414.258	347.12
414.482	321.12
414.705	322.12
414.928	327.12
415.151	323.12
415.374	329.12
415.597	337.12
415.821	317.12
416.044	330.12
416.267	314.12
416.49	328.12
416.713	319.12
416.936	330.12
417.159	327.12
417.382	314.12
417.605	342.12
417.828	334.12
418.051	327.12
418.274	331.12
418.497	315.12
418.72	338.12
418.943	354.12
419.166	348.12
419.389	364.12
419.611	358.12
419.834	336.12
420.057	347.12
420.28	335.12
420.503	313.12
420.726	319.12
420.948	322.12
421.171	345.12
421.394	334.12
421.617	323.12
421.839	330.12
422.062	330.12
422.285	332.12
422.507	330.12
422.73	331.12
422.953	338.12
423.175	354.12
423.398	352.12
423.621	341.12
423.843	335.12
424.066	359.12
424.288	354.12
424.511	332.12
424.733	339.12
424.956	333.12
425.178	332.12
425.401	324.12
425.623	310.12
425.846	314.12
426.068	331.12
426.291	326.12
426.513	311.12
426.735	306.12
426.958	307.12
427.18	309.12
427.402	309.12
427.625	307.12
427.847	295.12
428.069	296.12
428.292	305.12
428.514	294.12
428.736	297.12
428.958	312.12
429.181	313.12
429.403	299.12
429.625	286.12
429.847	293.12
430.069	303.12
430.292	295.12
430.514	291.12
430.736	309.12
430.958	303.12
431.18	293.12
431.402	289.12
431.624	293.12
431.846	298.12
432.068	314.12
432.29	307.12
432.512	314.12
432.734	296.12
432.956	305.12
433.178	298.12
433.4	304.12
433.622	316.12
433.844	304.12
434.066	313.12
434.287	318.12
434.509	325.12
434.731	328.12
434.953	308.12
435.175	341.12
435.397	319.12
435.618	300.12
435.84	298.12
436.062	308.12
436.284	295.12
436.505	312.12
436.727	295.12
436.949	311.12
437.17	300.12
437.392	292.12
437.614	285.12
437.835	270.12
438.057	283.12
438.278	299.12
438.5	312.12
438.721	295.12
438.943	307.12
439.165	296.12
439.386	288.12
439.608	291.12
439.829	307.12
440.05	293.12
440.272	293.12
440.493	293.12
440.715	319.12
440.936	315.12
441.158	319.12
441.379	292.12
441.6	337.12
441.822	340.12
442.043	329.12
442.264	337.12
442.486	331.12
442.707	314.12
442.928	344.12
443.149	320.12
443.371	331.12
443.592	322.12
443.813	324.12
444.034	334.12
444.255	347.12
444.476	348.12
444.698	363.12
444.919	358.12
445.14	482.12
445.361	392.12
445.582	333.12
445.803	323.12
446.024	316.12
446.245	332.12
446.466	324.12
446.687	313.12
446.908	324.12
447.129	313.12
447.35	299.12
447.571	290.12
447.792	280.12
448.013	290.12
448.234	272.12
448.455	296.12
448.675	283.12
448.896	278.12
449.117	269.12
449.338	288.12
449.559	274.12
449.779	276.12
450	280.12
450.221	275.12
450.442	286.12
450.662	266.12
450.883	279.12
451.104	285.12
451.324	289.12
451.545	294.12
451.766	278.12
451.986	253.12
452.207	280.12
452.428	310.12
452.648	300.12
452.869	274.12
453.089	287.12
453.31	285.12
453.53	292.12
453.751	290.12
453.971	274.12
454.192	284.12
454.412	261.12
454.633	263.12
454.853	280.12
455.073	256.12
455.294	269.12
455.514	274.12
455.734	259.12
455.955	275.12
456.175	265.12
456.395	271.12
456.616	255.12
456.836	266.12
457.056	252.12
457.276	244.12
457.497	267.12
457.717	273.12
457.937	283.12
458.157	278.12
458.377	288.12
458.598	284.12
458.818	283.12
459.038	267.12
459.258	287.12
459.478	281.12
459.698	307.12
459.918	314.12
460.138	326.12
460.358	352.12
460.578	342.12
460.798	355.12
461.018	344.12
461.238	334.12
461.458	332.12
461.678	349.12
461.898	322.12
462.118	328.12
462.338	379.12
462.558	368.12
462.777	371.12
462.997	395.12
463.217	428.12
463.437	426.12
463.657	399.12
463.876	386.12
464.096	379.12
464.316	379.12
464.536	389.12
464.755	372.12
464.975	351.12
465.195	351.12
465.414	332.12
465.634	299.12
465.854	317.12
466.073	317.12
466.293	310.12
466.512	295.12
466.732	317.12
466.951	284.12
467.171	295.12
467.391	304.12
467.61	293.12
467.829	290.12
468.049	294.12
468.268	293.12
468.488	291.12
468.707	288.12
468.927	280.12
469.146	272.12
469.365	285.12
469.585	283.12
469.804	304.12
470.023	287.12
470.243	307.12
470.462	307.12
470.681	305.12
470.901	305.12
471.12	282.12
471.339	295.12
471.558	296.12
471.777	296.12
471.997	285.12
472.216	291.12
472.435	283.12
472.654	274.12
472.873	282.12
473.092	290.12
473.311	281.12
473.53	271.12
473.749	282.12
473.968	275.12
474.187	279.12
474.406	293.12
474.625	256.12
474.844	283.12
475.063	267.12
475.282	283.12
475.501	281.12
475.72	290.12
475.939	276.12
476.158	275.12
476.377	274.12
476.596	300.12
476.814	288.12
477.033	292.12
477.252	292.12
477.471	292.12
477.69	313.12
477.908	305.12
478.127	315.12
478.346	334.12
478.564	318.12
478.783	313.12
479.002	355.12
479.22	350.12
479.439	337.12
479.658	330.12
479.876	327.12
480.095	327.12
480.313	340.12
480.532	368.12
480.751	358.12
480.969	341.12
481.188	332.12
481.406	339.12
481.624	294.12
481.843	301.12
482.061	315.12
482.28	312.12
482.498	313.12
482.717	316.12
482.935	312.12
483.153	301.12
483.372	301.12
483.59	312.12
483.808	300.12
484.027	315.12
484.245	300.12
484.463	307.12
484.681	329.12
484.9	321.12
485.118	320.12
485.336	311.12
485.554	293.12
485.772	311.12
485.99	317.12
486.209	324.12
486.427	318.12
486.645	314.12
486.863	336.12
487.081	305.12
487.299	304.12
487.517	318.12
487.735	331.12
487.953	343.12
488.171	319.12
488.389	315.12
488.607	318.12
488.825	325.12
489.043	318.12
489.261	312.12
489.479	336.12
489.696	325.12
489.914	326.12
490.132	324.12
490.35	338.12
490.568	335.12
490.786	332.12
491.003	332.12
491.221	340.12
491.439	326.12
491.657	331.12
491.874	303.12
492.092	330.12
492.31	333.12
492.527	349.12
492.745	313.12
492.963	358.12
493.18	340.12
493.398	331.12
493.615	331.12
493.833	360.12
494.05	347.12
494.268	346.12
494.485	343.12
494.703	336.12
494.92	360.12
495.138	355.12
495.355	362.12
495.573	333.12
495.79	360.12
496.008	352.12
496.225	351.12
496.442	329.12
496.66	358.12
496.877	361.12
497.094	363.12
497.312	362.12
497.529	377.12
497.746	364.12
497.963	405.12
498.181	407.12
498.398	409.12
498.615	410.12
498.832	458.12
499.049	456.12
499.267	513.12
499.484	546.12
499.701	589.12
499.918	640.12
500.135	721.12
500.352	809.12
500.569	827.12
500.786	835.12
501.003	754.12
501.22	692.12
501.437	618.12
501.654	556.12
501.871	536.12
502.088	480.12
502.305	474.12
