Data from Fe(NO3)3@0.05M.TitratingCurve.Agarose3%dH2O.NegLispCup.LampEnergy10.LIBS07252019_HRD10591_16-45-40-340.txt Node
Date: Thu Jul 25 16:45:40 EDT 2019
User: cochatt
Spectrometer: HR+D1059
Trigger mode: 1
Integration Time (sec): 1.000000E-1
Scans to average: 1
Electric dark correction enabled: true
Nonlinearity correction enabled: false
Boxcar width: 0
XAxis mode: Wavelengths
Number of Pixels in Spectrum: 2048
>>>>>Begin Spectral Data<<<<<
223.165	-26.81
223.4	-26.81
223.635	-26.81
223.869	-15.81
224.104	-27.81
224.338	-22.81
224.573	-26.81
224.808	-11.81
225.042	-2.81
225.277	6.19
225.511	3.19
225.746	3.19
225.98	3.19
226.215	-1.81
226.449	20.19
226.683	39.19
226.918	34.19
227.152	27.19
227.387	37.19
227.621	42.19
227.856	55.19
228.09	52.19
228.324	65.19
228.559	65.19
228.793	86.19
229.027	131.19
229.262	125.19
229.496	133.19
229.73	137.19
229.964	136.19
230.199	163.19
230.433	151.19
230.667	147.19
230.901	177.19
231.136	167.19
231.37	168.19
231.604	165.19
231.838	169.19
232.072	175.19
232.306	170.19
232.541	173.19
232.775	185.19
233.009	191.19
233.243	212.19
233.477	187.19
233.711	198.19
233.945	187.19
234.179	189.19
234.413	207.19
234.647	228.19
234.881	234.19
235.115	219.19
235.349	214.19
235.583	203.19
235.817	210.19
236.051	215.19
236.285	235.19
236.519	241.19
236.753	229.19
236.987	227.19
237.221	220.19
237.455	218.19
237.689	225.19
237.922	251.19
238.156	248.19
238.39	267.19
238.624	335.19
238.858	293.19
239.091	247.19
239.325	268.19
239.559	249.19
239.793	283.19
240.027	305.19
240.26	288.19
240.494	296.19
240.728	287.19
240.961	298.19
241.195	313.19
241.429	311.19
241.662	276.19
241.896	276.19
242.13	267.19
242.363	267.19
242.597	269.19
242.83	298.19
243.064	285.19
243.298	283.19
243.531	289.19
243.765	306.19
243.998	319.19
244.232	284.19
244.465	300.19
244.699	309.19
244.932	313.19
245.166	324.19
245.399	291.19
245.633	307.19
245.866	307.19
246.099	310.19
246.333	317.19
246.566	338.19
246.8	330.19
247.033	333.19
247.266	342.19
247.5	333.19
247.733	345.19
247.966	344.19
248.2	351.19
248.433	353.19
248.666	371.19
248.899	353.19
249.133	359.19
249.366	395.19
249.599	407.19
249.832	396.19
250.066	362.19
250.299	367.19
250.532	359.19
250.765	369.19
250.998	381.19
251.231	367.19
251.465	371.19
251.698	374.19
251.931	388.19
252.164	383.19
252.397	389.19
252.63	407.19
252.863	447.19
253.096	432.19
253.329	427.19
253.562	422.19
253.795	449.19
254.028	491.19
254.261	502.19
254.494	444.19
254.727	453.19
254.96	430.19
255.193	446.19
255.426	418.19
255.659	402.19
255.892	399.19
256.124	425.19
256.357	408.19
256.59	461.19
256.823	465.19
257.056	428.19
257.289	409.19
257.521	431.19
257.754	431.19
257.987	441.19
258.22	436.19
258.452	457.19
258.685	470.19
258.918	487.19
259.151	476.19
259.383	457.19
259.616	490.19
259.849	537.19
260.081	619.19
260.314	709.19
260.547	555.19
260.779	532.19
261.012	541.19
261.244	530.19
261.477	573.19
261.71	562.19
261.942	500.19
262.175	495.19
262.407	508.19
262.64	523.19
262.872	547.19
263.105	546.19
263.337	596.19
263.57	570.19
263.802	485.19
264.035	477.19
264.267	459.19
264.499	467.19
264.732	469.19
264.964	475.19
265.197	472.19
265.429	459.19
265.661	479.19
265.894	487.19
266.126	490.19
266.358	485.19
266.591	500.19
266.823	513.19
267.055	516.19
267.287	491.19
267.52	488.19
267.752	497.19
267.984	492.19
268.216	499.19
268.448	501.19
268.681	535.19
268.913	502.19
269.145	521.19
269.377	530.19
269.609	508.19
269.841	510.19
270.073	506.19
270.306	517.19
270.538	527.19
270.77	569.19
271.002	548.19
271.234	559.19
271.466	565.19
271.698	580.19
271.93	599.19
272.162	593.19
272.394	556.19
272.626	570.19
272.858	584.19
273.09	590.19
273.322	608.19
273.553	582.19
273.785	610.19
274.017	711.19
274.249	767.19
274.481	775.19
274.713	781.19
274.945	892.19
275.176	920.19
275.408	825.19
275.64	790.19
275.872	791.19
276.104	688.19
276.335	631.19
276.567	604.19
276.799	623.19
277.031	641.19
277.262	639.19
277.494	621.19
277.726	595.19
277.957	602.19
278.189	628.19
278.421	615.19
278.652	618.19
278.884	632.19
279.115	620.19
279.347	598.19
279.579	599.19
279.81	620.19
280.042	627.19
280.273	617.19
280.505	617.19
280.736	608.19
280.968	613.19
281.199	631.19
281.431	628.19
281.662	661.19
281.894	629.19
282.125	627.19
282.356	618.19
282.588	633.19
282.819	606.19
283.051	642.19
283.282	649.19
283.513	635.19
283.745	646.19
283.976	655.19
284.207	665.19
284.439	687.19
284.67	681.19
284.901	653.19
285.132	673.19
285.364	665.19
285.595	668.19
285.826	653.19
286.057	689.19
286.288	667.19
286.52	667.19
286.751	671.19
286.982	684.19
287.213	666.19
287.444	684.19
287.675	675.19
287.906	688.19
288.138	707.19
288.369	678.19
288.6	663.19
288.831	690.19
289.062	679.19
289.293	675.19
289.524	701.19
289.755	706.19
289.986	693.19
290.217	691.19
290.448	643.19
290.679	698.19
290.91	700.19
291.141	680.19
291.371	681.19
291.602	690.19
291.833	675.19
292.064	709.19
292.295	683.19
292.526	680.19
292.757	682.19
292.987	689.19
293.218	684.19
293.449	703.19
293.68	703.19
293.91	699.19
294.141	673.19
294.372	689.19
294.603	721.19
294.833	722.19
295.064	741.19
295.295	729.19
295.525	719.19
295.756	710.19
295.987	729.19
296.217	715.19
296.448	691.19
296.679	719.19
296.909	727.19
297.14	754.19
297.37	746.19
297.601	753.19
297.831	727.19
298.062	751.19
298.292	737.19
298.523	795.19
298.753	777.19
298.984	736.19
299.214	739.19
299.445	767.19
299.675	752.19
299.905	748.19
300.136	731.19
300.366	761.19
300.597	763.19
300.827	793.19
301.057	771.19
301.288	767.19
301.518	772.19
301.748	784.19
301.979	785.19
302.209	809.19
302.439	817.19
302.669	793.19
302.9	820.19
303.13	801.19
303.36	801.19
303.59	806.19
303.82	789.19
304.051	789.19
304.281	807.19
304.511	805.19
304.741	789.19
304.971	825.19
305.201	811.19
305.431	802.19
305.661	780.19
305.891	790.19
306.121	793.19
306.352	811.19
306.582	787.19
306.812	801.19
307.042	809.19
307.272	806.19
307.502	801.19
307.731	791.19
307.961	800.19
308.191	821.19
308.421	791.19
308.651	799.19
308.881	811.19
309.111	808.19
309.341	803.19
309.571	792.19
309.8	813.19
310.03	811.19
310.26	816.19
310.49	799.19
310.72	820.19
310.949	815.19
311.179	809.19
311.409	827.19
311.639	817.19
311.868	836.19
312.098	837.19
312.328	828.19
312.557	842.19
312.787	832.19
313.017	840.19
313.246	852.19
313.476	855.19
313.706	837.19
313.935	869.19
314.165	837.19
314.394	855.19
314.624	855.19
314.853	855.19
315.083	882.19
315.312	867.19
315.542	879.19
315.771	883.19
316.001	862.19
316.23	872.19
316.46	867.19
316.689	859.19
316.919	904.19
317.148	873.19
317.377	885.19
317.607	868.19
317.836	891.19
318.065	873.19
318.295	879.19
318.524	903.19
318.753	887.19
318.983	891.19
319.212	874.19
319.441	894.19
319.67	903.19
319.9	905.19
320.129	850.19
320.358	899.19
320.587	896.19
320.816	893.19
321.046	895.19
321.275	911.19
321.504	900.19
321.733	890.19
321.962	895.19
322.191	904.19
322.42	895.19
322.649	911.19
322.878	881.19
323.108	903.19
323.337	920.19
323.566	919.19
323.795	917.19
324.024	923.19
324.253	927.19
324.482	932.19
324.71	929.19
324.939	929.19
325.168	933.19
325.397	913.19
325.626	940.19
325.855	953.19
326.084	964.19
326.313	935.19
326.542	911.19
326.77	956.19
326.999	951.19
327.228	939.19
327.457	962.19
327.686	928.19
327.914	974.19
328.143	958.19
328.372	960.19
328.6	947.19
328.829	939.19
329.058	955.19
329.287	947.19
329.515	994.19
329.744	963.19
329.972	960.19
330.201	988.19
330.43	998.19
330.658	965.19
330.887	980.19
331.115	996.19
331.344	959.19
331.572	986.19
331.801	969.19
332.03	997.19
332.258	1006.19
332.486	1019.19
332.715	992.19
332.943	1021.19
333.172	1035.19
333.4	1035.19
333.629	1090.19
333.857	1073.19
334.085	1069.19
334.314	1064.19
334.542	1075.19
334.771	1072.19
334.999	1120.19
335.227	1082.19
335.455	1095.19
335.684	1107.19
335.912	1088.19
336.14	1071.19
336.369	1091.19
336.597	1076.19
336.825	1112.19
337.053	1093.19
337.281	1069.19
337.51	1079.19
337.738	1081.19
337.966	1042.19
338.194	1063.19
338.422	1076.19
338.65	1041.19
338.878	1049.19
339.106	1047.19
339.334	1057.19
339.562	1053.19
339.79	1000.19
340.018	1027.19
340.246	1049.19
340.474	1021.19
340.702	1032.19
340.93	1041.19
341.158	1033.19
341.386	1001.19
341.614	1013.19
341.842	1008.19
342.07	1032.19
342.298	1037.19
342.526	1042.19
342.754	1038.19
342.981	1043.19
343.209	1063.19
343.437	1060.19
343.665	1063.19
343.893	1068.19
344.12	1105.19
344.348	1087.19
344.576	1115.19
344.804	1088.19
345.031	1063.19
345.259	1052.19
345.487	1041.19
345.714	1039.19
345.942	991.19
346.17	999.19
346.397	995.19
346.625	989.19
346.853	997.19
347.08	987.19
347.308	967.19
347.535	998.19
347.763	1006.19
347.99	978.19
348.218	1002.19
348.445	972.19
348.673	995.19
348.9	995.19
349.128	985.19
349.355	1004.19
349.583	1002.19
349.81	986.19
350.037	947.19
350.265	941.19
350.492	969.19
350.72	990.19
350.947	979.19
351.174	949.19
351.402	975.19
351.629	968.19
351.856	977.19
352.083	955.19
352.311	957.19
352.538	967.19
352.765	970.19
352.992	978.19
353.22	970.19
353.447	965.19
353.674	951.19
353.901	971.19
354.128	951.19
354.355	950.19
354.583	989.19
354.81	995.19
355.037	973.19
355.264	979.19
355.491	985.19
355.718	992.19
355.945	956.19
356.172	977.19
356.399	988.19
356.626	1016.19
356.853	999.19
357.08	1013.19
357.307	1028.19
357.534	984.19
357.761	1025.19
357.988	994.19
358.215	1018.19
358.441	1052.19
358.668	1021.19
358.895	1050.19
359.122	979.19
359.349	991.19
359.576	979.19
359.802	949.19
360.029	956.19
360.256	1009.19
360.483	1020.19
360.709	1007.19
360.936	1009.19
361.163	1002.19
361.39	989.19
361.616	1006.19
361.843	987.19
362.07	1033.19
362.296	1005.19
362.523	1005.19
362.749	967.19
362.976	973.19
363.203	999.19
363.429	1035.19
363.656	1013.19
363.882	983.19
364.109	989.19
364.335	998.19
364.562	963.19
364.788	1020.19
365.015	1029.19
365.241	1010.19
365.468	1009.19
365.694	1017.19
365.92	1008.19
366.147	977.19
366.373	1024.19
366.599	1015.19
366.826	1022.19
367.052	999.19
367.278	1033.19
367.505	1007.19
367.731	1040.19
367.957	1032.19
368.184	1016.19
368.41	1049.19
368.636	1019.19
368.862	1056.19
369.089	1037.19
369.315	1029.19
369.541	1056.19
369.767	1055.19
369.993	1047.19
370.219	1079.19
370.445	1067.19
370.672	1075.19
370.898	1054.19
371.124	1098.19
371.35	1077.19
371.576	1057.19
371.802	1101.19
372.028	1110.19
372.254	1107.19
372.48	1137.19
372.706	1129.19
372.932	1115.19
373.158	1116.19
373.384	1097.19
373.61	1162.19
373.835	1187.19
374.061	1161.19
374.287	1121.19
374.513	1147.19
374.739	1200.19
374.965	1200.19
375.191	1239.19
375.416	1151.19
375.642	1103.19
375.868	1122.19
376.094	1158.19
376.319	1116.19
376.545	1113.19
376.771	1116.19
376.997	1109.19
377.222	1101.19
377.448	1104.19
377.674	1097.19
377.899	1070.19
378.125	1096.19
378.35	1099.19
378.576	1091.19
378.802	1095.19
379.027	1087.19
379.253	1093.19
379.478	1091.19
379.704	1109.19
379.929	1111.19
380.155	1110.19
380.38	1130.19
380.606	1114.19
380.831	1068.19
381.057	1110.19
381.282	1087.19
381.507	1122.19
381.733	1167.19
381.958	1182.19
382.184	1163.19
382.409	1184.19
382.634	1211.19
382.86	1169.19
383.085	1173.19
383.31	1164.19
383.535	1155.19
383.761	1186.19
383.986	1193.19
384.211	1220.19
384.436	1216.19
384.662	1184.19
384.887	1247.19
385.112	1219.19
385.337	1202.19
385.562	1207.19
385.787	1217.19
386.013	1233.19
386.238	1233.19
386.463	1260.19
386.688	1251.19
386.913	1247.19
387.138	1267.19
387.363	1281.19
387.588	1262.19
387.813	1283.19
388.038	1249.19
388.263	1285.19
388.488	1304.19
388.713	1285.19
388.938	1289.19
389.163	1284.19
389.387	1259.19
389.612	1276.19
389.837	1307.19
390.062	1269.19
390.287	1253.19
390.512	1302.19
390.736	1316.19
390.961	1322.19
391.186	1296.19
391.411	1296.19
391.636	1328.19
391.86	1361.19
392.085	1348.19
392.31	1327.19
392.534	1330.19
392.759	1337.19
392.984	1337.19
393.208	1315.19
393.433	1338.19
393.658	1327.19
393.882	1329.19
394.107	1284.19
394.331	1298.19
394.556	1359.19
394.78	1360.19
395.005	1329.19
395.229	1367.19
395.454	1354.19
395.678	1362.19
395.903	1363.19
396.127	1393.19
396.352	1375.19
396.576	1384.19
396.801	1370.19
397.025	1411.19
397.249	1411.19
397.474	1450.19
397.698	1409.19
397.922	1419.19
398.147	1420.19
398.371	1455.19
398.595	1470.19
398.82	1499.19
399.044	1519.19
399.268	1622.19
399.492	1651.19
399.717	1699.19
399.941	1757.19
400.165	1727.19
400.389	1683.19
400.613	1630.19
400.837	1559.19
401.062	1596.19
401.286	1573.19
401.51	1552.19
401.734	1536.19
401.958	1509.19
402.182	1516.19
402.406	1532.19
402.63	1475.19
402.854	1537.19
403.078	1529.19
403.302	1514.19
403.526	1497.19
403.75	1522.19
403.974	1527.19
404.198	1534.19
404.422	1490.19
404.645	1551.19
404.869	1561.19
405.093	1563.19
405.317	1562.19
405.541	1560.19
405.765	1592.19
405.988	1561.19
406.212	1620.19
406.436	1613.19
406.66	1672.19
406.883	1587.19
407.107	1676.19
407.331	1708.19
407.555	1771.19
407.778	1761.19
408.002	1723.19
408.226	1733.19
408.449	1701.19
408.673	1681.19
408.896	1677.19
409.12	1629.19
409.344	1681.19
409.567	1601.19
409.791	1645.19
410.014	1655.19
410.238	1616.19
410.461	1600.19
410.685	1603.19
410.908	1597.19
411.132	1585.19
411.355	1590.19
411.578	1569.19
411.802	1591.19
412.025	1585.19
412.249	1573.19
412.472	1599.19
412.695	1569.19
412.919	1554.19
413.142	1545.19
413.365	1604.19
413.589	1561.19
413.812	1512.19
414.035	1552.19
414.258	1571.19
414.482	1521.19
414.705	1555.19
414.928	1548.19
415.151	1515.19
415.374	1517.19
415.597	1510.19
415.821	1508.19
416.044	1484.19
416.267	1474.19
416.49	1504.19
416.713	1550.19
416.936	1491.19
417.159	1435.19
417.382	1438.19
417.605	1466.19
417.828	1444.19
418.051	1458.19
418.274	1492.19
418.497	1429.19
418.72	1457.19
418.943	1452.19
419.166	1540.19
419.389	1623.19
419.611	1616.19
419.834	1560.19
420.057	1509.19
420.28	1514.19
420.503	1441.19
420.726	1453.19
420.948	1461.19
421.171	1469.19
421.394	1452.19
421.617	1423.19
421.839	1458.19
422.062	1456.19
422.285	1452.19
422.507	1449.19
422.73	1455.19
422.953	1463.19
423.175	1437.19
423.398	1448.19
423.621	1451.19
423.843	1469.19
424.066	1455.19
424.288	1482.19
424.511	1455.19
424.733	1430.19
424.956	1455.19
425.178	1460.19
425.401	1470.19
425.623	1492.19
425.846	1399.19
426.068	1430.19
426.291	1455.19
426.513	1455.19
426.735	1437.19
426.958	1448.19
427.18	1426.19
427.402	1448.19
427.625	1430.19
427.847	1386.19
428.069	1412.19
428.292	1411.19
428.514	1417.19
428.736	1439.19
428.958	1425.19
429.181	1427.19
429.403	1397.19
429.625	1419.19
429.847	1418.19
430.069	1396.19
430.292	1399.19
430.514	1384.19
430.736	1405.19
430.958	1459.19
431.18	1399.19
431.402	1425.19
431.624	1411.19
431.846	1405.19
432.068	1404.19
432.29	1396.19
432.512	1381.19
432.734	1469.19
432.956	1419.19
433.178	1439.19
433.4	1425.19
433.622	1419.19
433.844	1414.19
434.066	1444.19
434.287	1451.19
434.509	1467.19
434.731	1475.19
434.953	1459.19
435.175	1497.19
435.397	1481.19
435.618	1458.19
435.84	1453.19
436.062	1432.19
436.284	1401.19
436.505	1431.19
436.727	1428.19
436.949	1436.19
437.17	1404.19
437.392	1411.19
437.614	1390.19
437.835	1371.19
438.057	1364.19
438.278	1373.19
438.5	1399.19
438.721	1414.19
438.943	1393.19
439.165	1370.19
439.386	1351.19
439.608	1370.19
439.829	1389.19
440.05	1393.19
440.272	1371.19
440.493	1368.19
440.715	1407.19
440.936	1443.19
441.158	1419.19
441.379	1412.19
441.6	1448.19
441.822	1449.19
442.043	1436.19
442.264	1453.19
442.486	1440.19
442.707	1480.19
442.928	1443.19
443.149	1488.19
443.371	1426.19
443.592	1459.19
443.813	1449.19
444.034	1489.19
444.255	1445.19
444.476	1491.19
444.698	1529.19
444.919	1512.19
445.14	1605.19
445.361	1492.19
445.582	1458.19
445.803	1445.19
446.024	1431.19
446.245	1425.19
446.466	1390.19
446.687	1395.19
446.908	1416.19
447.129	1359.19
447.35	1372.19
447.571	1336.19
447.792	1332.19
448.013	1378.19
448.234	1316.19
448.455	1315.19
448.675	1315.19
448.896	1312.19
449.117	1271.19
449.338	1320.19
449.559	1320.19
449.779	1268.19
450	1288.19
450.221	1290.19
450.442	1284.19
450.662	1277.19
450.883	1263.19
451.104	1264.19
451.324	1251.19
451.545	1305.19
451.766	1274.19
451.986	1263.19
452.207	1274.19
452.428	1254.19
452.648	1249.19
452.869	1249.19
453.089	1263.19
453.31	1275.19
453.53	1238.19
453.751	1241.19
453.971	1227.19
454.192	1246.19
454.412	1213.19
454.633	1250.19
454.853	1228.19
455.073	1220.19
455.294	1248.19
455.514	1223.19
455.734	1235.19
455.955	1236.19
456.175	1206.19
456.395	1192.19
456.616	1203.19
456.836	1215.19
457.056	1244.19
457.276	1245.19
457.497	1255.19
457.717	1222.19
457.937	1226.19
458.157	1239.19
458.377	1254.19
458.598	1286.19
458.818	1301.19
459.038	1324.19
459.258	1321.19
459.478	1346.19
459.698	1379.19
459.918	1380.19
460.138	1421.19
460.358	1459.19
460.578	1459.19
460.798	1464.19
461.018	1494.19
461.238	1508.19
461.458	1471.19
461.678	1464.19
461.898	1511.19
462.118	1487.19
462.338	1530.19
462.558	1599.19
462.777	1568.19
462.997	1619.19
463.217	1661.19
463.437	1681.19
463.657	1634.19
463.876	1618.19
464.096	1625.19
464.316	1592.19
464.536	1632.19
464.755	1607.19
464.975	1575.19
465.195	1531.19
465.414	1517.19
465.634	1459.19
465.854	1477.19
466.073	1420.19
466.293	1417.19
466.512	1386.19
466.732	1407.19
466.951	1381.19
467.171	1399.19
467.391	1403.19
467.61	1387.19
467.829	1371.19
468.049	1352.19
468.268	1344.19
468.488	1357.19
468.707	1373.19
468.927	1364.19
469.146	1417.19
469.365	1375.19
469.585	1368.19
469.804	1449.19
470.023	1363.19
470.243	1387.19
470.462	1368.19
470.681	1397.19
470.901	1384.19
471.12	1368.19
471.339	1378.19
471.558	1368.19
471.777	1399.19
471.997	1397.19
472.216	1395.19
472.435	1395.19
472.654	1369.19
472.873	1355.19
473.092	1386.19
473.311	1415.19
473.53	1392.19
473.749	1382.19
473.968	1394.19
474.187	1377.19
474.406	1371.19
474.625	1384.19
474.844	1402.19
475.063	1399.19
475.282	1387.19
475.501	1383.19
475.72	1396.19
475.939	1433.19
476.158	1467.19
476.377	1500.19
476.596	1579.19
476.814	1631.19
477.033	1490.19
477.252	1477.19
477.471	1494.19
477.69	1533.19
477.908	1579.19
478.127	1622.19
478.346	1614.19
478.564	1628.19
478.783	1592.19
479.002	1603.19
479.22	1651.19
479.439	1751.19
479.658	1694.19
479.876	1634.19
480.095	1649.19
480.313	1695.19
480.532	1664.19
480.751	1647.19
480.969	1672.19
481.188	1722.19
481.406	1697.19
481.624	1696.19
481.843	1705.19
482.061	1655.19
482.28	1659.19
482.498	1709.19
482.717	1672.19
482.935	1672.19
483.153	1640.19
483.372	1648.19
483.59	1674.19
483.808	1669.19
484.027	1699.19
484.245	1681.19
484.463	1696.19
484.681	1706.19
484.9	1717.19
485.118	1731.19
485.336	1695.19
485.554	1736.19
485.772	1736.19
485.99	1724.19
486.209	1737.19
486.427	1732.19
486.645	1718.19
486.863	1756.19
487.081	1739.19
487.299	1724.19
487.517	1703.19
487.735	1743.19
487.953	1720.19
488.171	1761.19
488.389	1732.19
488.607	1701.19
488.825	1717.19
489.043	1707.19
489.261	1784.19
489.479	1738.19
489.696	1715.19
489.914	1728.19
490.132	1713.19
490.35	1732.19
490.568	1692.19
490.786	1761.19
491.003	1709.19
491.221	1726.19
491.439	1767.19
491.657	1725.19
491.874	1717.19
492.092	1762.19
492.31	1803.19
492.527	1740.19
