Data from Fe(NO3)3@0.025M.TitratingCurve.Agarose3%dH2O.NegLispCup.LampEnergy10.LIBS07252019_HRD10591_16-53-47-335.txt Node
Date: Thu Jul 25 16:53:47 EDT 2019
User: cochatt
Spectrometer: HR+D1059
Trigger mode: 1
Integration Time (sec): 1.000000E-1
Scans to average: 1
Electric dark correction enabled: true
Nonlinearity correction enabled: false
Boxcar width: 0
XAxis mode: Wavelengths
Number of Pixels in Spectrum: 2048
>>>>>Begin Spectral Data<<<<<
223.165	-17.62
223.4	-17.62
223.635	-17.62
223.869	-18.62
224.104	-18.62
224.338	4.38
224.573	-31.62
224.808	-8.62
225.042	-12.62
225.277	-2.62
225.511	1.38
225.746	-0.62
225.98	3.38
226.215	14.38
226.449	7.38
226.683	27.38
226.918	28.38
227.152	24.38
227.387	33.38
227.621	26.38
227.856	46.38
228.09	51.38
228.324	58.38
228.559	56.38
228.793	78.38
229.027	76.38
229.262	93.38
229.496	93.38
229.73	97.38
229.964	101.38
230.199	102.38
230.433	128.38
230.667	122.38
230.901	116.38
231.136	115.38
231.37	119.38
231.604	109.38
231.838	104.38
232.072	110.38
232.306	132.38
232.541	134.38
232.775	127.38
233.009	127.38
233.243	120.38
233.477	123.38
233.711	121.38
233.945	124.38
234.179	109.38
234.413	122.38
234.647	121.38
234.881	122.38
235.115	116.38
235.349	124.38
235.583	115.38
235.817	134.38
236.051	123.38
236.285	136.38
236.519	121.38
236.753	129.38
236.987	122.38
237.221	141.38
237.455	136.38
237.689	129.38
237.922	134.38
238.156	134.38
238.39	141.38
238.624	134.38
238.858	146.38
239.091	134.38
239.325	152.38
239.559	142.38
239.793	132.38
240.027	148.38
240.26	141.38
240.494	152.38
240.728	136.38
240.961	150.38
241.195	136.38
241.429	146.38
241.662	126.38
241.896	152.38
242.13	134.38
242.363	144.38
242.597	143.38
242.83	144.38
243.064	149.38
243.298	168.38
243.531	150.38
243.765	145.38
243.998	150.38
244.232	158.38
244.465	171.38
244.699	170.38
244.932	175.38
245.166	174.38
245.399	171.38
245.633	170.38
245.866	177.38
246.099	184.38
246.333	155.38
246.566	157.38
246.8	165.38
247.033	159.38
247.266	170.38
247.5	162.38
247.733	172.38
247.966	170.38
248.2	176.38
248.433	184.38
248.666	187.38
248.899	170.38
249.133	166.38
249.366	195.38
249.599	175.38
249.832	206.38
250.066	189.38
250.299	174.38
250.532	183.38
250.765	192.38
250.998	176.38
251.231	174.38
251.465	190.38
251.698	195.38
251.931	169.38
252.164	212.38
252.397	205.38
252.63	204.38
252.863	211.38
253.096	201.38
253.329	210.38
253.562	204.38
253.795	206.38
254.028	221.38
254.261	199.38
254.494	215.38
254.727	197.38
254.96	202.38
255.193	209.38
255.426	195.38
255.659	220.38
255.892	221.38
256.124	221.38
256.357	214.38
256.59	221.38
256.823	212.38
257.056	212.38
257.289	228.38
257.521	215.38
257.754	228.38
257.987	201.38
258.22	208.38
258.452	216.38
258.685	232.38
258.918	237.38
259.151	209.38
259.383	236.38
259.616	224.38
259.849	227.38
260.081	246.38
260.314	263.38
260.547	237.38
260.779	225.38
261.012	241.38
261.244	246.38
261.477	258.38
261.71	233.38
261.942	248.38
262.175	233.38
262.407	246.38
262.64	238.38
262.872	252.38
263.105	251.38
263.337	261.38
263.57	266.38
263.802	258.38
264.035	255.38
264.267	244.38
264.499	237.38
264.732	255.38
264.964	266.38
265.197	261.38
265.429	249.38
265.661	252.38
265.894	268.38
266.126	254.38
266.358	247.38
266.591	246.38
266.823	269.38
267.055	254.38
267.287	264.38
267.52	277.38
267.752	272.38
267.984	280.38
268.216	283.38
268.448	280.38
268.681	270.38
268.913	273.38
269.145	274.38
269.377	269.38
269.609	282.38
269.841	282.38
270.073	276.38
270.306	269.38
270.538	272.38
270.77	274.38
271.002	300.38
271.234	282.38
271.466	271.38
271.698	280.38
271.93	284.38
272.162	281.38
272.394	297.38
272.626	304.38
272.858	286.38
273.09	305.38
273.322	302.38
273.553	298.38
273.785	308.38
274.017	306.38
274.249	308.38
274.481	298.38
274.713	322.38
274.945	327.38
275.176	333.38
275.408	326.38
275.64	337.38
275.872	323.38
276.104	310.38
276.335	310.38
276.567	309.38
276.799	318.38
277.031	318.38
277.262	323.38
277.494	306.38
277.726	306.38
277.957	324.38
278.189	332.38
278.421	338.38
278.652	349.38
278.884	310.38
279.115	316.38
279.347	328.38
279.579	334.38
279.81	326.38
280.042	336.38
280.273	339.38
280.505	338.38
280.736	336.38
280.968	333.38
281.199	338.38
281.431	340.38
281.662	331.38
281.894	349.38
282.125	342.38
282.356	359.38
282.588	361.38
282.819	348.38
283.051	357.38
283.282	340.38
283.513	358.38
283.745	349.38
283.976	356.38
284.207	353.38
284.439	352.38
284.67	338.38
284.901	357.38
285.132	360.38
285.364	348.38
285.595	355.38
285.826	370.38
286.057	352.38
286.288	368.38
286.52	372.38
286.751	391.38
286.982	365.38
287.213	361.38
287.444	381.38
287.675	365.38
287.906	375.38
288.138	381.38
288.369	366.38
288.6	389.38
288.831	379.38
289.062	356.38
289.293	386.38
289.524	363.38
289.755	379.38
289.986	374.38
290.217	379.38
290.448	378.38
290.679	399.38
290.91	372.38
291.141	384.38
291.371	392.38
291.602	387.38
291.833	388.38
292.064	383.38
292.295	377.38
292.526	386.38
292.757	386.38
292.987	373.38
293.218	377.38
293.449	399.38
293.68	375.38
293.91	396.38
294.141	391.38
294.372	395.38
294.603	386.38
294.833	388.38
295.064	395.38
295.295	401.38
295.525	398.38
295.756	388.38
295.987	398.38
296.217	393.38
296.448	410.38
296.679	394.38
296.909	410.38
297.14	428.38
297.37	421.38
297.601	412.38
297.831	403.38
298.062	408.38
298.292	416.38
298.523	412.38
298.753	435.38
298.984	396.38
299.214	419.38
299.445	425.38
299.675	406.38
299.905	404.38
300.136	409.38
300.366	419.38
300.597	423.38
300.827	440.38
301.057	419.38
301.288	438.38
301.518	434.38
301.748	426.38
301.979	442.38
302.209	438.38
302.439	430.38
302.669	427.38
302.9	444.38
303.13	437.38
303.36	447.38
303.59	444.38
303.82	430.38
304.051	441.38
304.281	442.38
304.511	434.38
304.741	456.38
304.971	453.38
305.201	456.38
305.431	430.38
305.661	454.38
305.891	472.38
306.121	450.38
306.352	452.38
306.582	449.38
306.812	434.38
307.042	454.38
307.272	444.38
307.502	459.38
307.731	445.38
307.961	449.38
308.191	454.38
308.421	457.38
308.651	453.38
308.881	450.38
309.111	462.38
309.341	422.38
309.571	466.38
309.8	477.38
310.03	477.38
310.26	480.38
310.49	460.38
310.72	471.38
310.949	482.38
311.179	472.38
311.409	460.38
311.639	478.38
311.868	499.38
312.098	465.38
312.328	508.38
312.557	483.38
312.787	485.38
313.017	496.38
313.246	522.38
313.476	502.38
313.706	506.38
313.935	513.38
314.165	519.38
314.394	496.38
314.624	471.38
314.853	502.38
315.083	487.38
315.312	510.38
315.542	493.38
315.771	505.38
316.001	500.38
316.23	494.38
316.46	487.38
316.689	514.38
316.919	503.38
317.148	514.38
317.377	505.38
317.607	488.38
317.836	491.38
318.065	490.38
318.295	503.38
318.524	500.38
318.753	511.38
318.983	524.38
319.212	497.38
319.441	490.38
319.67	502.38
319.9	522.38
320.129	503.38
320.358	508.38
320.587	510.38
320.816	498.38
321.046	524.38
321.275	510.38
321.504	537.38
321.733	519.38
321.962	522.38
322.191	529.38
322.42	520.38
322.649	533.38
322.878	504.38
323.108	520.38
323.337	532.38
323.566	525.38
323.795	536.38
324.024	519.38
324.253	522.38
324.482	540.38
324.71	548.38
324.939	510.38
325.168	522.38
325.397	518.38
325.626	542.38
325.855	553.38
326.084	562.38
326.313	548.38
326.542	510.38
326.77	568.38
326.999	538.38
327.228	542.38
327.457	557.38
327.686	545.38
327.914	555.38
328.143	552.38
328.372	573.38
328.6	562.38
328.829	546.38
329.058	549.38
329.287	560.38
329.515	543.38
329.744	571.38
329.972	558.38
330.201	541.38
330.43	564.38
330.658	578.38
330.887	560.38
331.115	563.38
331.344	564.38
331.572	569.38
331.801	578.38
332.03	588.38
332.258	600.38
332.486	584.38
332.715	589.38
332.943	607.38
333.172	632.38
333.4	614.38
333.629	606.38
333.857	597.38
334.085	596.38
334.314	625.38
334.542	603.38
334.771	618.38
334.999	617.38
335.227	625.38
335.455	627.38
335.684	619.38
335.912	620.38
336.14	639.38
336.369	612.38
336.597	612.38
336.825	637.38
337.053	635.38
337.281	600.38
337.51	617.38
337.738	630.38
337.966	614.38
338.194	622.38
338.422	614.38
338.65	604.38
338.878	609.38
339.106	615.38
339.334	611.38
339.562	619.38
339.79	595.38
340.018	595.38
340.246	610.38
340.474	598.38
340.702	625.38
340.93	604.38
341.158	596.38
341.386	596.38
341.614	593.38
341.842	594.38
342.07	582.38
342.298	596.38
342.526	600.38
342.754	589.38
342.981	591.38
343.209	619.38
343.437	602.38
343.665	635.38
343.893	610.38
344.12	620.38
344.348	611.38
344.576	640.38
344.804	610.38
345.031	620.38
345.259	611.38
345.487	612.38
345.714	600.38
345.942	612.38
346.17	611.38
346.397	608.38
346.625	589.38
346.853	605.38
347.08	582.38
347.308	584.38
347.535	588.38
347.763	580.38
347.99	602.38
348.218	595.38
348.445	565.38
348.673	577.38
348.9	580.38
349.128	587.38
349.355	565.38
349.583	590.38
349.81	585.38
350.037	564.38
350.265	570.38
350.492	595.38
350.72	555.38
350.947	564.38
351.174	587.38
351.402	585.38
351.629	581.38
351.856	583.38
352.083	574.38
352.311	556.38
352.538	593.38
352.765	600.38
352.992	581.38
353.22	570.38
353.447	550.38
353.674	581.38
353.901	567.38
354.128	569.38
354.355	583.38
354.583	546.38
354.81	552.38
355.037	546.38
355.264	553.38
355.491	590.38
355.718	575.38
355.945	576.38
356.172	552.38
356.399	576.38
356.626	576.38
356.853	563.38
357.08	557.38
357.307	572.38
357.534	584.38
357.761	588.38
357.988	578.38
358.215	578.38
358.441	586.38
358.668	562.38
358.895	590.38
359.122	569.38
359.349	553.38
359.576	588.38
359.802	582.38
360.029	578.38
360.256	578.38
360.483	579.38
360.709	581.38
360.936	585.38
361.163	578.38
361.39	554.38
361.616	577.38
361.843	599.38
362.07	587.38
362.296	583.38
362.523	616.38
362.749	580.38
362.976	567.38
363.203	574.38
363.429	579.38
363.656	567.38
363.882	582.38
364.109	592.38
364.335	594.38
364.562	613.38
364.788	590.38
365.015	592.38
365.241	598.38
365.468	582.38
365.694	597.38
365.92	570.38
366.147	605.38
366.373	600.38
366.599	586.38
366.826	568.38
367.052	572.38
367.278	599.38
367.505	578.38
367.731	603.38
367.957	602.38
368.184	610.38
368.41	592.38
368.636	600.38
368.862	589.38
369.089	611.38
369.315	595.38
369.541	616.38
369.767	618.38
369.993	616.38
370.219	611.38
370.445	618.38
370.672	588.38
370.898	630.38
371.124	633.38
371.35	624.38
371.576	630.38
371.802	621.38
372.028	636.38
372.254	635.38
372.48	649.38
372.706	628.38
372.932	628.38
373.158	634.38
373.384	626.38
373.61	645.38
373.835	649.38
374.061	652.38
374.287	624.38
374.513	655.38
374.739	633.38
374.965	645.38
375.191	624.38
375.416	637.38
375.642	663.38
375.868	647.38
376.094	633.38
376.319	646.38
376.545	617.38
376.771	632.38
376.997	624.38
377.222	620.38
377.448	619.38
377.674	633.38
377.899	617.38
378.125	621.38
378.35	627.38
378.576	621.38
378.802	605.38
379.027	646.38
379.253	628.38
379.478	623.38
379.704	652.38
379.929	629.38
380.155	611.38
380.38	638.38
380.606	626.38
380.831	606.38
381.057	636.38
381.282	631.38
381.507	628.38
381.733	614.38
381.958	649.38
382.184	628.38
382.409	660.38
382.634	668.38
382.86	641.38
383.085	648.38
383.31	658.38
383.535	666.38
383.761	661.38
383.986	648.38
384.211	651.38
384.436	667.38
384.662	674.38
384.887	658.38
385.112	672.38
385.337	668.38
385.562	666.38
385.787	695.38
386.013	692.38
386.238	698.38
386.463	708.38
386.688	700.38
386.913	710.38
387.138	691.38
387.363	704.38
387.588	699.38
387.813	715.38
388.038	719.38
388.263	713.38
388.488	706.38
388.713	717.38
388.938	713.38
389.163	729.38
389.387	726.38
389.612	708.38
389.837	700.38
390.062	706.38
390.287	741.38
390.512	724.38
390.736	712.38
390.961	686.38
391.186	726.38
391.411	722.38
391.636	741.38
391.86	743.38
392.085	739.38
392.31	750.38
392.534	721.38
392.759	742.38
392.984	739.38
393.208	749.38
393.433	766.38
393.658	720.38
393.882	729.38
394.107	744.38
394.331	718.38
394.556	734.38
394.78	745.38
395.005	746.38
395.229	731.38
395.454	773.38
395.678	743.38
395.903	763.38
396.127	727.38
396.352	768.38
396.576	748.38
396.801	762.38
397.025	768.38
397.249	777.38
397.474	762.38
397.698	773.38
397.922	760.38
398.147	800.38
398.371	757.38
398.595	794.38
398.82	809.38
399.044	803.38
399.268	832.38
399.492	833.38
399.717	848.38
399.941	880.38
400.165	883.38
400.389	872.38
400.613	867.38
400.837	838.38
401.062	797.38
401.286	836.38
401.51	820.38
401.734	812.38
401.958	810.38
402.182	798.38
402.406	805.38
402.63	806.38
402.854	801.38
403.078	808.38
403.302	832.38
403.526	814.38
403.75	811.38
403.974	815.38
404.198	816.38
404.422	803.38
404.645	804.38
404.869	802.38
405.093	836.38
405.317	829.38
405.541	827.38
405.765	802.38
405.988	823.38
406.212	842.38
406.436	837.38
406.66	858.38
406.883	846.38
407.107	877.38
407.331	869.38
407.555	902.38
407.778	880.38
408.002	873.38
408.226	887.38
408.449	897.38
408.673	859.38
408.896	860.38
409.12	846.38
409.344	876.38
409.567	828.38
409.791	859.38
410.014	838.38
410.238	840.38
410.461	860.38
410.685	853.38
410.908	822.38
411.132	840.38
411.355	832.38
411.578	808.38
411.802	829.38
412.025	800.38
412.249	814.38
412.472	826.38
412.695	800.38
412.919	810.38
413.142	816.38
413.365	806.38
413.589	828.38
413.812	825.38
414.035	799.38
414.258	807.38
414.482	804.38
414.705	807.38
414.928	779.38
415.151	805.38
415.374	824.38
415.597	797.38
415.821	779.38
416.044	786.38
416.267	752.38
416.49	769.38
416.713	788.38
416.936	796.38
417.159	762.38
417.382	752.38
417.605	746.38
417.828	764.38
418.051	762.38
418.274	763.38
418.497	753.38
418.72	720.38
418.943	734.38
419.166	788.38
419.389	828.38
419.611	858.38
419.834	763.38
420.057	759.38
420.28	780.38
420.503	739.38
420.726	754.38
420.948	747.38
421.171	739.38
421.394	748.38
421.617	746.38
421.839	717.38
422.062	750.38
422.285	764.38
422.507	785.38
422.73	745.38
422.953	733.38
423.175	725.38
423.398	747.38
423.621	738.38
423.843	741.38
424.066	737.38
424.288	750.38
424.511	713.38
424.733	732.38
424.956	741.38
425.178	770.38
425.401	741.38
425.623	766.38
425.846	721.38
426.068	752.38
426.291	729.38
426.513	722.38
426.735	715.38
426.958	745.38
427.18	733.38
427.402	727.38
427.625	753.38
427.847	724.38
428.069	728.38
428.292	750.38
428.514	718.38
428.736	744.38
428.958	731.38
429.181	698.38
429.403	730.38
429.625	712.38
429.847	713.38
430.069	739.38
430.292	738.38
430.514	703.38
430.736	731.38
430.958	742.38
431.18	729.38
431.402	741.38
431.624	719.38
431.846	730.38
432.068	730.38
432.29	755.38
432.512	738.38
432.734	748.38
432.956	730.38
433.178	750.38
433.4	739.38
433.622	733.38
433.844	740.38
434.066	739.38
434.287	711.38
434.509	737.38
434.731	752.38
434.953	747.38
435.175	736.38
435.397	738.38
435.618	742.38
435.84	754.38
436.062	729.38
436.284	747.38
436.505	710.38
436.727	732.38
436.949	735.38
437.17	732.38
437.392	716.38
437.614	703.38
437.835	686.38
438.057	721.38
438.278	692.38
438.5	697.38
438.721	692.38
438.943	714.38
439.165	696.38
439.386	715.38
439.608	740.38
439.829	704.38
440.05	711.38
440.272	723.38
440.493	706.38
440.715	720.38
440.936	705.38
441.158	683.38
441.379	710.38
441.6	705.38
441.822	727.38
442.043	739.38
442.264	740.38
442.486	715.38
442.707	727.38
442.928	718.38
443.149	748.38
443.371	716.38
443.592	709.38
443.813	728.38
444.034	722.38
444.255	720.38
444.476	729.38
444.698	723.38
444.919	752.38
445.14	835.38
445.361	756.38
445.582	725.38
445.803	706.38
446.024	701.38
446.245	730.38
446.466	713.38
446.687	693.38
446.908	715.38
447.129	675.38
447.35	676.38
447.571	693.38
447.792	684.38
448.013	678.38
448.234	677.38
448.455	669.38
448.675	680.38
448.896	662.38
449.117	658.38
449.338	679.38
449.559	655.38
449.779	654.38
450	677.38
450.221	680.38
450.442	652.38
450.662	637.38
450.883	640.38
451.104	674.38
451.324	638.38
451.545	649.38
451.766	645.38
451.986	649.38
452.207	649.38
452.428	650.38
452.648	658.38
452.869	643.38
453.089	634.38
453.31	642.38
453.53	636.38
453.751	640.38
453.971	647.38
454.192	647.38
454.412	644.38
454.633	628.38
454.853	641.38
455.073	632.38
455.294	635.38
455.514	640.38
455.734	643.38
455.955	623.38
456.175	636.38
456.395	634.38
456.616	620.38
456.836	655.38
457.056	646.38
457.276	657.38
457.497	658.38
457.717	646.38
457.937	638.38
458.157	656.38
458.377	640.38
458.598	663.38
458.818	673.38
459.038	676.38
459.258	674.38
459.478	700.38
459.698	709.38
459.918	719.38
460.138	712.38
460.358	729.38
460.578	724.38
460.798	746.38
461.018	751.38
461.238	742.38
461.458	768.38
461.678	727.38
461.898	759.38
462.118	772.38
462.338	780.38
462.558	777.38
462.777	791.38
462.997	777.38
463.217	798.38
463.437	794.38
463.657	814.38
463.876	776.38
464.096	790.38
464.316	789.38
464.536	768.38
464.755	749.38
464.975	777.38
465.195	756.38
465.414	728.38
465.634	734.38
465.854	706.38
466.073	727.38
466.293	708.38
466.512	730.38
466.732	698.38
466.951	703.38
467.171	702.38
467.391	708.38
467.61	701.38
467.829	686.38
468.049	705.38
468.268	700.38
468.488	684.38
468.707	670.38
468.927	699.38
469.146	688.38
469.365	707.38
469.585	695.38
469.804	684.38
470.023	680.38
470.243	682.38
470.462	686.38
470.681	692.38
470.901	676.38
471.12	702.38
471.339	710.38
471.558	691.38
471.777	708.38
471.997	695.38
472.216	695.38
472.435	718.38
472.654	706.38
472.873	719.38
473.092	709.38
473.311	709.38
473.53	708.38
473.749	723.38
473.968	712.38
474.187	708.38
474.406	689.38
474.625	717.38
474.844	712.38
475.063	743.38
475.282	711.38
475.501	708.38
475.72	732.38
475.939	738.38
476.158	714.38
476.377	749.38
476.596	756.38
476.814	770.38
477.033	783.38
477.252	745.38
477.471	786.38
477.69	758.38
477.908	793.38
478.127	792.38
478.346	791.38
478.564	795.38
478.783	778.38
479.002	786.38
479.22	806.38
479.439	806.38
479.658	837.38
479.876	840.38
480.095	817.38
480.313	826.38
480.532	816.38
480.751	798.38
480.969	809.38
481.188	827.38
481.406	820.38
481.624	832.38
481.843	824.38
482.061	829.38
482.28	843.38
482.498	836.38
482.717	824.38
482.935	842.38
483.153	849.38
483.372	826.38
483.59	821.38
483.808	839.38
484.027	826.38
484.245	827.38
484.463	856.38
484.681	864.38
484.9	842.38
485.118	854.38
485.336	842.38
485.554	846.38
485.772	834.38
485.99	844.38
486.209	829.38
486.427	862.38
486.645	857.38
486.863	834.38
487.081	853.38
487.299	865.38
487.517	834.38
487.735	871.38
487.953	826.38
488.171	845.38
488.389	871.38
488.607	876.38
488.825	841.38
489.043	861.38
489.261	845.38
489.479	857.38
489.696	863.38
489.914	863.38
490.132	857.38
490.35	864.38
490.568	881.38
490.786	868.38
491.003	863.38
491.221	857.38
491.439	869.38
491.657	862.38
491.874	893.38
492.092	900.38
492.31	894.38
492.527	904.38
492.745	892.38
492.963	870.38
493.18	883.38
493.398	898.38
493.615	891.38
493.833	881.38
494.05	905.38
494.268	892.38
494.485	893.38
494.703	896.38
494.92	892.38
495.138	922.38
495.355	898.38
495.573	916.38
495.79	935.38
496.008	908.38
496.225	918.38
496.442	941.38
496.66	950.38
496.877	932.38
497.094	959.38
497.312	977.38
497.529	966.38
497.746	1004.38
497.963	1012.38
498.181	1024.38
498.398	1010.38
498.615	1061.38
498.832	1079.38
499.049	1101.38
499.267	1115.38
499.484	1144.38
499.701	1192.38
499.918	1155.38
500.135	1211.38
500.352	1259.38
500.569	1221.38
500.786	1249.38
501.003	1277.38
501.22	1245.38
501.437	1193.38
