Data from Fe(NO3)3@0.05M.TitratingCurve.Agarose3%dH2O.NegLispCup.LampEnergy10.LIBS07252019_HRD10591_16-48-14-334.txt Node
Date: Thu Jul 25 16:48:14 EDT 2019
User: cochatt
Spectrometer: HR+D1059
Trigger mode: 1
Integration Time (sec): 1.000000E-1
Scans to average: 1
Electric dark correction enabled: true
Nonlinearity correction enabled: false
Boxcar width: 0
XAxis mode: Wavelengths
Number of Pixels in Spectrum: 2048
>>>>>Begin Spectral Data<<<<<
223.165	-33.62
223.4	-33.62
223.635	-33.62
223.869	-10.62
224.104	-11.62
224.338	-9.62
224.573	-12.62
224.808	-13.62
225.042	-1.62
225.277	-12.62
225.511	-12.62
225.746	9.38
225.98	9.38
226.215	24.38
226.449	30.38
226.683	15.38
226.918	17.38
227.152	12.38
227.387	19.38
227.621	45.38
227.856	56.38
228.09	52.38
228.324	67.38
228.559	61.38
228.793	62.38
229.027	75.38
229.262	84.38
229.496	86.38
229.73	87.38
229.964	92.38
230.199	80.38
230.433	81.38
230.667	87.38
230.901	85.38
231.136	94.38
231.37	101.38
231.604	113.38
231.838	101.38
232.072	98.38
232.306	93.38
232.541	90.38
232.775	100.38
233.009	92.38
233.243	89.38
233.477	112.38
233.711	87.38
233.945	104.38
234.179	107.38
234.413	94.38
234.647	113.38
234.881	99.38
235.115	106.38
235.349	104.38
235.583	119.38
235.817	115.38
236.051	106.38
236.285	100.38
236.519	100.38
236.753	108.38
236.987	88.38
237.221	89.38
237.455	99.38
237.689	102.38
237.922	98.38
238.156	97.38
238.39	101.38
238.624	118.38
238.858	92.38
239.091	109.38
239.325	112.38
239.559	90.38
239.793	107.38
240.027	113.38
240.26	114.38
240.494	109.38
240.728	110.38
240.961	115.38
241.195	107.38
241.429	102.38
241.662	105.38
241.896	106.38
242.13	120.38
242.363	108.38
242.597	122.38
242.83	102.38
243.064	100.38
243.298	122.38
243.531	96.38
243.765	116.38
243.998	119.38
244.232	118.38
244.465	107.38
244.699	104.38
244.932	120.38
245.166	112.38
245.399	114.38
245.633	124.38
245.866	110.38
246.099	128.38
246.333	124.38
246.566	107.38
246.8	124.38
247.033	128.38
247.266	107.38
247.5	114.38
247.733	118.38
247.966	146.38
248.2	121.38
248.433	128.38
248.666	119.38
248.899	116.38
249.133	124.38
249.366	127.38
249.599	136.38
249.832	137.38
250.066	121.38
250.299	129.38
250.532	113.38
250.765	118.38
250.998	126.38
251.231	118.38
251.465	123.38
251.698	110.38
251.931	128.38
252.164	132.38
252.397	144.38
252.63	146.38
252.863	135.38
253.096	141.38
253.329	139.38
253.562	131.38
253.795	140.38
254.028	132.38
254.261	140.38
254.494	144.38
254.727	138.38
254.96	149.38
255.193	137.38
255.426	146.38
255.659	141.38
255.892	136.38
256.124	136.38
256.357	131.38
256.59	139.38
256.823	136.38
257.056	130.38
257.289	135.38
257.521	147.38
257.754	141.38
257.987	132.38
258.22	148.38
258.452	148.38
258.685	154.38
258.918	166.38
259.151	143.38
259.383	146.38
259.616	133.38
259.849	157.38
260.081	156.38
260.314	147.38
260.547	144.38
260.779	153.38
261.012	142.38
261.244	154.38
261.477	160.38
261.71	157.38
261.942	151.38
262.175	147.38
262.407	144.38
262.64	152.38
262.872	152.38
263.105	169.38
263.337	162.38
263.57	137.38
263.802	154.38
264.035	167.38
264.267	140.38
264.499	138.38
264.732	151.38
264.964	161.38
265.197	169.38
265.429	154.38
265.661	164.38
265.894	163.38
266.126	148.38
266.358	157.38
266.591	154.38
266.823	162.38
267.055	158.38
267.287	160.38
267.52	156.38
267.752	172.38
267.984	161.38
268.216	164.38
268.448	152.38
268.681	170.38
268.913	169.38
269.145	161.38
269.377	162.38
269.609	158.38
269.841	157.38
270.073	177.38
270.306	169.38
270.538	171.38
270.77	160.38
271.002	169.38
271.234	147.38
271.466	136.38
271.698	169.38
271.93	167.38
272.162	162.38
272.394	170.38
272.626	176.38
272.858	165.38
273.09	168.38
273.322	172.38
273.553	186.38
273.785	190.38
274.017	168.38
274.249	191.38
274.481	193.38
274.713	190.38
274.945	186.38
275.176	195.38
275.408	185.38
275.64	195.38
275.872	190.38
276.104	196.38
276.335	177.38
276.567	173.38
276.799	173.38
277.031	189.38
277.262	173.38
277.494	170.38
277.726	191.38
277.957	178.38
278.189	189.38
278.421	183.38
278.652	182.38
278.884	186.38
279.115	179.38
279.347	182.38
279.579	180.38
279.81	186.38
280.042	189.38
280.273	194.38
280.505	198.38
280.736	192.38
280.968	186.38
281.199	184.38
281.431	203.38
281.662	189.38
281.894	197.38
282.125	196.38
282.356	200.38
282.588	177.38
282.819	188.38
283.051	206.38
283.282	200.38
283.513	197.38
283.745	211.38
283.976	193.38
284.207	211.38
284.439	187.38
284.67	211.38
284.901	209.38
285.132	204.38
285.364	194.38
285.595	203.38
285.826	213.38
286.057	204.38
286.288	187.38
286.52	212.38
286.751	193.38
286.982	223.38
287.213	208.38
287.444	209.38
287.675	197.38
287.906	208.38
288.138	197.38
288.369	205.38
288.6	220.38
288.831	199.38
289.062	213.38
289.293	207.38
289.524	199.38
289.755	200.38
289.986	208.38
290.217	212.38
290.448	220.38
290.679	210.38
290.91	201.38
291.141	201.38
291.371	200.38
291.602	217.38
291.833	214.38
292.064	218.38
292.295	201.38
292.526	197.38
292.757	210.38
292.987	208.38
293.218	212.38
293.449	213.38
293.68	223.38
293.91	214.38
294.141	214.38
294.372	222.38
294.603	212.38
294.833	220.38
295.064	202.38
295.295	213.38
295.525	196.38
295.756	217.38
295.987	217.38
296.217	223.38
296.448	213.38
296.679	220.38
296.909	225.38
297.14	229.38
297.37	220.38
297.601	218.38
297.831	224.38
298.062	217.38
298.292	219.38
298.523	233.38
298.753	209.38
298.984	226.38
299.214	200.38
299.445	224.38
299.675	220.38
299.905	224.38
300.136	227.38
300.366	231.38
300.597	248.38
300.827	238.38
301.057	219.38
301.288	234.38
301.518	248.38
301.748	250.38
301.979	237.38
302.209	224.38
302.439	247.38
302.669	225.38
302.9	240.38
303.13	219.38
303.36	220.38
303.59	241.38
303.82	218.38
304.051	231.38
304.281	245.38
304.511	256.38
304.741	236.38
304.971	235.38
305.201	234.38
305.431	244.38
305.661	222.38
305.891	240.38
306.121	233.38
306.352	233.38
306.582	220.38
306.812	214.38
307.042	222.38
307.272	229.38
307.502	225.38
307.731	229.38
307.961	220.38
308.191	222.38
308.421	233.38
308.651	221.38
308.881	218.38
309.111	218.38
309.341	223.38
309.571	217.38
309.8	234.38
310.03	231.38
310.26	221.38
310.49	221.38
310.72	240.38
310.949	243.38
311.179	241.38
311.409	244.38
311.639	237.38
311.868	234.38
312.098	244.38
312.328	260.38
312.557	241.38
312.787	253.38
313.017	237.38
313.246	253.38
313.476	229.38
313.706	228.38
313.935	254.38
314.165	232.38
314.394	244.38
314.624	228.38
314.853	239.38
315.083	225.38
315.312	258.38
315.542	238.38
315.771	242.38
316.001	248.38
316.23	237.38
316.46	237.38
316.689	245.38
316.919	264.38
317.148	230.38
317.377	242.38
317.607	233.38
317.836	241.38
318.065	255.38
318.295	276.38
318.524	253.38
318.753	234.38
318.983	242.38
319.212	256.38
319.441	236.38
319.67	246.38
319.9	235.38
320.129	232.38
320.358	268.38
320.587	251.38
320.816	249.38
321.046	256.38
321.275	245.38
321.504	254.38
321.733	244.38
321.962	241.38
322.191	245.38
322.42	225.38
322.649	242.38
322.878	249.38
323.108	264.38
323.337	243.38
323.566	237.38
323.795	256.38
324.024	254.38
324.253	269.38
324.482	256.38
324.71	240.38
324.939	252.38
325.168	257.38
325.397	248.38
325.626	271.38
325.855	263.38
326.084	267.38
326.313	252.38
326.542	259.38
326.77	282.38
326.999	278.38
327.228	260.38
327.457	258.38
327.686	260.38
327.914	262.38
328.143	260.38
328.372	265.38
328.6	260.38
328.829	272.38
329.058	273.38
329.287	261.38
329.515	255.38
329.744	264.38
329.972	269.38
330.201	268.38
330.43	270.38
330.658	265.38
330.887	278.38
331.115	285.38
331.344	267.38
331.572	280.38
331.801	271.38
332.03	298.38
332.258	318.38
332.486	296.38
332.715	304.38
332.943	321.38
333.172	315.38
333.4	342.38
333.629	326.38
333.857	302.38
334.085	338.38
334.314	333.38
334.542	352.38
334.771	324.38
334.999	332.38
335.227	302.38
335.455	320.38
335.684	319.38
335.912	316.38
336.14	312.38
336.369	317.38
336.597	326.38
336.825	300.38
337.053	324.38
337.281	319.38
337.51	301.38
337.738	313.38
337.966	281.38
338.194	275.38
338.422	287.38
338.65	288.38
338.878	287.38
339.106	281.38
339.334	288.38
339.562	286.38
339.79	283.38
340.018	282.38
340.246	288.38
340.474	277.38
340.702	267.38
340.93	279.38
341.158	268.38
341.386	280.38
341.614	277.38
341.842	284.38
342.07	271.38
342.298	272.38
342.526	288.38
342.754	272.38
342.981	296.38
343.209	274.38
343.437	291.38
343.665	318.38
343.893	316.38
344.12	305.38
344.348	315.38
344.576	291.38
344.804	294.38
345.031	300.38
345.259	268.38
345.487	283.38
345.714	284.38
345.942	282.38
346.17	271.38
346.397	267.38
346.625	271.38
346.853	249.38
347.08	276.38
347.308	300.38
347.535	271.38
347.763	274.38
347.99	266.38
348.218	272.38
348.445	270.38
348.673	293.38
348.9	278.38
349.128	282.38
349.355	270.38
349.583	282.38
349.81	276.38
350.037	273.38
350.265	268.38
350.492	271.38
350.72	264.38
350.947	274.38
351.174	277.38
351.402	280.38
351.629	253.38
351.856	252.38
352.083	253.38
352.311	260.38
352.538	274.38
352.765	277.38
352.992	271.38
353.22	266.38
353.447	282.38
353.674	264.38
353.901	238.38
354.128	270.38
354.355	261.38
354.583	245.38
354.81	275.38
355.037	266.38
355.264	258.38
355.491	244.38
355.718	248.38
355.945	256.38
356.172	269.38
356.399	266.38
356.626	265.38
356.853	248.38
357.08	272.38
357.307	288.38
357.534	274.38
357.761	250.38
357.988	272.38
358.215	283.38
358.441	262.38
358.668	272.38
358.895	273.38
359.122	251.38
359.349	266.38
359.576	245.38
359.802	254.38
360.029	282.38
360.256	278.38
360.483	268.38
360.709	276.38
360.936	275.38
361.163	269.38
361.39	278.38
361.616	270.38
361.843	269.38
362.07	261.38
362.296	258.38
362.523	262.38
362.749	274.38
362.976	267.38
363.203	267.38
363.429	269.38
363.656	260.38
363.882	273.38
364.109	280.38
364.335	278.38
364.562	282.38
364.788	271.38
365.015	298.38
365.241	270.38
365.468	259.38
365.694	267.38
365.92	278.38
366.147	273.38
366.373	263.38
366.599	270.38
366.826	270.38
367.052	275.38
367.278	290.38
367.505	248.38
367.731	274.38
367.957	284.38
368.184	264.38
368.41	299.38
368.636	279.38
368.862	272.38
369.089	272.38
369.315	286.38
369.541	284.38
369.767	267.38
369.993	290.38
370.219	291.38
370.445	278.38
370.672	289.38
370.898	293.38
371.124	309.38
371.35	320.38
371.576	291.38
371.802	302.38
372.028	298.38
372.254	308.38
372.48	296.38
372.706	304.38
372.932	308.38
373.158	314.38
373.384	302.38
373.61	286.38
373.835	299.38
374.061	301.38
374.287	299.38
374.513	310.38
374.739	315.38
374.965	327.38
375.191	302.38
375.416	334.38
375.642	320.38
375.868	311.38
376.094	319.38
376.319	301.38
376.545	302.38
376.771	296.38
376.997	297.38
377.222	310.38
377.448	312.38
377.674	268.38
377.899	299.38
378.125	302.38
378.35	304.38
378.576	314.38
378.802	309.38
379.027	274.38
379.253	283.38
379.478	307.38
379.704	292.38
379.929	319.38
380.155	301.38
380.38	302.38
380.606	302.38
380.831	294.38
381.057	285.38
381.282	293.38
381.507	268.38
381.733	307.38
381.958	324.38
382.184	305.38
382.409	310.38
382.634	329.38
382.86	331.38
383.085	322.38
383.31	327.38
383.535	324.38
383.761	326.38
383.986	317.38
384.211	335.38
384.436	331.38
384.662	339.38
384.887	350.38
385.112	361.38
385.337	352.38
385.562	353.38
385.787	365.38
386.013	364.38
386.238	344.38
386.463	355.38
386.688	365.38
386.913	350.38
387.138	362.38
387.363	353.38
387.588	349.38
387.813	364.38
388.038	364.38
388.263	346.38
388.488	347.38
388.713	364.38
388.938	363.38
389.163	362.38
389.387	355.38
389.612	340.38
389.837	349.38
390.062	361.38
390.287	346.38
390.512	355.38
390.736	347.38
390.961	363.38
391.186	391.38
391.411	360.38
391.636	382.38
391.86	404.38
392.085	394.38
392.31	398.38
392.534	383.38
392.759	372.38
392.984	388.38
393.208	389.38
393.433	393.38
393.658	370.38
393.882	374.38
394.107	368.38
394.331	384.38
394.556	385.38
394.78	402.38
395.005	389.38
395.229	379.38
395.454	377.38
395.678	406.38
395.903	398.38
396.127	390.38
396.352	386.38
396.576	395.38
396.801	378.38
397.025	388.38
397.249	416.38
397.474	414.38
397.698	402.38
397.922	412.38
398.147	402.38
398.371	425.38
398.595	410.38
398.82	446.38
399.044	472.38
399.268	506.38
399.492	545.38
399.717	594.38
399.941	586.38
400.165	528.38
400.389	514.38
400.613	477.38
400.837	444.38
401.062	456.38
401.286	442.38
401.51	429.38
401.734	429.38
401.958	461.38
402.182	427.38
402.406	442.38
402.63	452.38
402.854	472.38
403.078	471.38
403.302	466.38
403.526	489.38
403.75	475.38
403.974	497.38
404.198	499.38
404.422	477.38
404.645	488.38
404.869	493.38
405.093	487.38
405.317	481.38
405.541	483.38
405.765	473.38
405.988	459.38
406.212	486.38
406.436	492.38
406.66	497.38
406.883	476.38
407.107	525.38
407.331	524.38
407.555	554.38
407.778	551.38
408.002	557.38
408.226	534.38
408.449	526.38
408.673	513.38
408.896	473.38
409.12	489.38
409.344	500.38
409.567	506.38
409.791	499.38
410.014	481.38
410.238	466.38
410.461	495.38
410.685	508.38
410.908	477.38
411.132	478.38
411.355	465.38
411.578	480.38
411.802	461.38
412.025	470.38
412.249	473.38
412.472	446.38
412.695	462.38
412.919	458.38
413.142	469.38
413.365	458.38
413.589	448.38
413.812	456.38
414.035	460.38
414.258	458.38
414.482	450.38
414.705	475.38
414.928	446.38
415.151	444.38
415.374	469.38
415.597	464.38
415.821	433.38
416.044	452.38
416.267	436.38
416.49	447.38
416.713	433.38
416.936	448.38
417.159	427.38
417.382	432.38
417.605	438.38
417.828	435.38
418.051	449.38
418.274	450.38
418.497	446.38
418.72	461.38
418.943	467.38
419.166	476.38
419.389	513.38
419.611	511.38
419.834	462.38
420.057	461.38
420.28	454.38
420.503	432.38
420.726	460.38
420.948	452.38
421.171	443.38
421.394	431.38
421.617	452.38
421.839	446.38
422.062	451.38
422.285	460.38
422.507	462.38
422.73	465.38
422.953	453.38
423.175	447.38
423.398	460.38
423.621	453.38
423.843	457.38
424.066	456.38
424.288	454.38
424.511	436.38
424.733	457.38
424.956	442.38
425.178	457.38
425.401	442.38
425.623	444.38
425.846	423.38
426.068	444.38
426.291	441.38
426.513	426.38
426.735	425.38
426.958	418.38
427.18	418.38
427.402	433.38
427.625	429.38
427.847	429.38
428.069	419.38
428.292	425.38
428.514	431.38
428.736	407.38
428.958	420.38
429.181	418.38
429.403	381.38
429.625	398.38
429.847	420.38
430.069	420.38
430.292	409.38
430.514	423.38
430.736	421.38
430.958	419.38
431.18	406.38
431.402	406.38
431.624	416.38
431.846	411.38
432.068	408.38
432.29	407.38
432.512	434.38
432.734	402.38
432.956	423.38
433.178	409.38
433.4	426.38
433.622	415.38
433.844	420.38
434.066	422.38
434.287	443.38
434.509	419.38
434.731	436.38
434.953	466.38
435.175	452.38
435.397	444.38
435.618	427.38
435.84	433.38
436.062	432.38
436.284	420.38
436.505	413.38
436.727	420.38
436.949	422.38
437.17	420.38
437.392	408.38
437.614	404.38
437.835	392.38
438.057	405.38
438.278	418.38
438.5	404.38
438.721	386.38
438.943	407.38
439.165	411.38
439.386	410.38
439.608	425.38
439.829	406.38
440.05	404.38
440.272	430.38
440.493	434.38
440.715	436.38
440.936	438.38
441.158	433.38
441.379	450.38
441.6	463.38
441.822	449.38
442.043	461.38
442.264	455.38
442.486	454.38
442.707	449.38
442.928	460.38
443.149	467.38
443.371	465.38
443.592	433.38
443.813	470.38
444.034	460.38
444.255	499.38
444.476	485.38
444.698	525.38
444.919	539.38
445.14	646.38
445.361	547.38
445.582	491.38
445.803	467.38
446.024	442.38
446.245	439.38
446.466	445.38
446.687	439.38
446.908	424.38
447.129	430.38
447.35	425.38
447.571	408.38
447.792	401.38
448.013	411.38
448.234	433.38
448.455	402.38
448.675	405.38
448.896	408.38
449.117	381.38
449.338	386.38
449.559	418.38
449.779	383.38
450	388.38
450.221	391.38
450.442	419.38
450.662	406.38
450.883	413.38
451.104	397.38
451.324	404.38
451.545	405.38
451.766	408.38
451.986	386.38
452.207	384.38
452.428	401.38
452.648	393.38
452.869	401.38
453.089	378.38
453.31	367.38
453.53	392.38
453.751	370.38
453.971	381.38
454.192	385.38
454.412	368.38
454.633	368.38
454.853	359.38
455.073	371.38
455.294	370.38
455.514	383.38
455.734	370.38
455.955	364.38
456.175	380.38
456.395	388.38
456.616	378.38
456.836	388.38
457.056	361.38
457.276	357.38
457.497	359.38
457.717	371.38
457.937	374.38
458.157	377.38
458.377	393.38
458.598	403.38
458.818	393.38
459.038	384.38
459.258	397.38
459.478	431.38
459.698	411.38
459.918	429.38
460.138	457.38
460.358	468.38
460.578	436.38
460.798	470.38
461.018	482.38
461.238	452.38
461.458	456.38
461.678	482.38
461.898	475.38
462.118	483.38
462.338	518.38
462.558	529.38
462.777	522.38
462.997	555.38
463.217	597.38
463.437	583.38
463.657	550.38
463.876	538.38
464.096	568.38
464.316	546.38
464.536	554.38
464.755	522.38
464.975	522.38
465.195	494.38
465.414	477.38
465.634	456.38
465.854	421.38
466.073	426.38
466.293	406.38
466.512	429.38
466.732	420.38
466.951	426.38
467.171	427.38
467.391	418.38
467.61	432.38
467.829	411.38
468.049	393.38
468.268	388.38
468.488	389.38
468.707	392.38
468.927	406.38
469.146	390.38
469.365	412.38
469.585	422.38
469.804	415.38
470.023	441.38
470.243	402.38
470.462	427.38
470.681	429.38
470.901	414.38
471.12	432.38
471.339	402.38
471.558	424.38
471.777	411.38
471.997	397.38
472.216	400.38
472.435	381.38
472.654	385.38
472.873	371.38
473.092	350.38
473.311	386.38
473.53	393.38
473.749	395.38
473.968	390.38
474.187	391.38
474.406	370.38
474.625	395.38
474.844	404.38
475.063	402.38
475.282	397.38
475.501	400.38
475.72	401.38
475.939	404.38
476.158	413.38
476.377	430.38
476.596	421.38
476.814	397.38
477.033	393.38
477.252	407.38
477.471	409.38
477.69	418.38
477.908	443.38
478.127	448.38
478.346	454.38
478.564	450.38
478.783	457.38
479.002	466.38
479.22	475.38
479.439	461.38
479.658	459.38
479.876	456.38
480.095	477.38
480.313	469.38
480.532	486.38
480.751	476.38
480.969	469.38
481.188	447.38
481.406	453.38
481.624	443.38
481.843	437.38
482.061	421.38
482.28	426.38
482.498	423.38
482.717	438.38
482.935	444.38
483.153	427.38
483.372	428.38
483.59	437.38
483.808	429.38
484.027	446.38
484.245	461.38
484.463	448.38
484.681	444.38
484.9	447.38
485.118	459.38
485.336	438.38
485.554	444.38
485.772	443.38
485.99	432.38
486.209	434.38
486.427	451.38
486.645	442.38
486.863	448.38
487.081	455.38
487.299	435.38
487.517	448.38
487.735	448.38
487.953	458.38
488.171	484.38
488.389	462.38
488.607	442.38
488.825	444.38
489.043	441.38
489.261	436.38
489.479	459.38
489.696	458.38
489.914	454.38
490.132	462.38
490.35	460.38
490.568	440.38
490.786	459.38
491.003	453.38
491.221	467.38
491.439	476.38
491.657	458.38
491.874	458.38
492.092	482.38
492.31	467.38
492.527	490.38
492.745	497.38
492.963	462.38
493.18	461.38
493.398	483.38
493.615	485.38
493.833	474.38
494.05	482.38
494.268	494.38
494.485	461.38
494.703	487.38
494.92	489.38
495.138	491.38
495.355	482.38
495.573	504.38
495.79	489.38
496.008	471.38
496.225	483.38
496.442	490.38
496.66	500.38
496.877	501.38
497.094	516.38
497.312	499.38
497.529	524.38
497.746	554.38
497.963	528.38
498.181	551.38
498.398	577.38
498.615	632.38
498.832	654.38
499.049	696.38
499.267	726.38
499.484	779.38
499.701	825.38
499.918	938.38
500.135	1012.38
500.352	1094.38
500.569	1120.38
500.786	1151.38
501.003	1074.38
501.22	982.38
501.437	916.38
501.654	803.38
501.871	771.38
