Data from Fe(NO3)3@0.05M.TitratingCurve.Agarose3%dH2O.NegLispCup.LampEnergy10.LIBS07252019_HRD10591_16-46-07-334.txt Node
Date: Thu Jul 25 16:46:07 EDT 2019
User: cochatt
Spectrometer: HR+D1059
Trigger mode: 1
Integration Time (sec): 1.000000E-1
Scans to average: 1
Electric dark correction enabled: true
Nonlinearity correction enabled: false
Boxcar width: 0
XAxis mode: Wavelengths
Number of Pixels in Spectrum: 2048
>>>>>Begin Spectral Data<<<<<
223.165	-9.81
223.4	-9.81
223.635	-9.81
223.869	-24.81
224.104	-26.81
224.338	-12.81
224.573	-11.81
224.808	-13.81
225.042	-23.81
225.277	2.19
225.511	4.19
225.746	-8.81
225.98	2.19
226.215	22.19
226.449	18.19
226.683	33.19
226.918	25.19
227.152	25.19
227.387	34.19
227.621	38.19
227.856	42.19
228.09	40.19
228.324	43.19
228.559	69.19
228.793	84.19
229.027	125.19
229.262	134.19
229.496	139.19
229.73	150.19
229.964	142.19
230.199	142.19
230.433	166.19
230.667	155.19
230.901	146.19
231.136	170.19
231.37	171.19
231.604	165.19
231.838	163.19
232.072	164.19
232.306	159.19
232.541	171.19
232.775	194.19
233.009	178.19
233.243	187.19
233.477	189.19
233.711	189.19
233.945	172.19
234.179	187.19
234.413	196.19
234.647	194.19
234.881	202.19
235.115	202.19
235.349	192.19
235.583	188.19
235.817	206.19
236.051	211.19
236.285	197.19
236.519	211.19
236.753	232.19
236.987	221.19
237.221	205.19
237.455	208.19
237.689	223.19
237.922	239.19
238.156	210.19
238.39	231.19
238.624	256.19
238.858	258.19
239.091	254.19
239.325	238.19
239.559	231.19
239.793	254.19
240.027	271.19
240.26	275.19
240.494	250.19
240.728	240.19
240.961	278.19
241.195	278.19
241.429	270.19
241.662	279.19
241.896	240.19
242.13	258.19
242.363	237.19
242.597	258.19
242.83	260.19
243.064	264.19
243.298	278.19
243.531	274.19
243.765	271.19
243.998	280.19
244.232	289.19
244.465	280.19
244.699	296.19
244.932	294.19
245.166	296.19
245.399	311.19
245.633	300.19
245.866	316.19
246.099	300.19
246.333	297.19
246.566	314.19
246.8	310.19
247.033	325.19
247.266	315.19
247.5	298.19
247.733	310.19
247.966	306.19
248.2	328.19
248.433	316.19
248.666	336.19
248.899	342.19
249.133	349.19
249.366	375.19
249.599	379.19
249.832	356.19
250.066	362.19
250.299	347.19
250.532	338.19
250.765	363.19
250.998	341.19
251.231	344.19
251.465	363.19
251.698	353.19
251.931	355.19
252.164	352.19
252.397	359.19
252.63	373.19
252.863	404.19
253.096	396.19
253.329	401.19
253.562	391.19
253.795	411.19
254.028	408.19
254.261	414.19
254.494	386.19
254.727	401.19
254.96	409.19
255.193	401.19
255.426	393.19
255.659	377.19
255.892	389.19
256.124	404.19
256.357	422.19
256.59	427.19
256.823	415.19
257.056	404.19
257.289	387.19
257.521	390.19
257.754	413.19
257.987	405.19
258.22	425.19
258.452	441.19
258.685	419.19
258.918	445.19
259.151	435.19
259.383	442.19
259.616	443.19
259.849	458.19
260.081	536.19
260.314	578.19
260.547	478.19
260.779	478.19
261.012	463.19
261.244	482.19
261.477	479.19
261.71	507.19
261.942	454.19
262.175	476.19
262.407	454.19
262.64	462.19
262.872	484.19
263.105	493.19
263.337	506.19
263.57	522.19
263.802	457.19
264.035	455.19
264.267	458.19
264.499	434.19
264.732	448.19
264.964	462.19
265.197	462.19
265.429	480.19
265.661	467.19
265.894	462.19
266.126	438.19
266.358	473.19
266.591	493.19
266.823	482.19
267.055	483.19
267.287	467.19
267.52	473.19
267.752	498.19
267.984	480.19
268.216	500.19
268.448	493.19
268.681	480.19
268.913	495.19
269.145	504.19
269.377	504.19
269.609	499.19
269.841	485.19
270.073	486.19
270.306	500.19
270.538	522.19
270.77	518.19
271.002	536.19
271.234	494.19
271.466	522.19
271.698	524.19
271.93	549.19
272.162	546.19
272.394	551.19
272.626	545.19
272.858	558.19
273.09	544.19
273.322	548.19
273.553	568.19
273.785	584.19
274.017	612.19
274.249	668.19
274.481	661.19
274.713	675.19
274.945	728.19
275.176	740.19
275.408	686.19
275.64	663.19
275.872	666.19
276.104	645.19
276.335	582.19
276.567	588.19
276.799	584.19
277.031	600.19
277.262	612.19
277.494	580.19
277.726	591.19
277.957	589.19
278.189	580.19
278.421	588.19
278.652	613.19
278.884	601.19
279.115	611.19
279.347	603.19
279.579	602.19
279.81	576.19
280.042	584.19
280.273	605.19
280.505	604.19
280.736	597.19
280.968	613.19
281.199	591.19
281.431	629.19
281.662	619.19
281.894	599.19
282.125	602.19
282.356	612.19
282.588	631.19
282.819	622.19
283.051	619.19
283.282	659.19
283.513	622.19
283.745	640.19
283.976	618.19
284.207	644.19
284.439	654.19
284.67	645.19
284.901	637.19
285.132	640.19
285.364	630.19
285.595	644.19
285.826	648.19
286.057	670.19
286.288	680.19
286.52	646.19
286.751	653.19
286.982	680.19
287.213	666.19
287.444	675.19
287.675	663.19
287.906	664.19
288.138	667.19
288.369	658.19
288.6	679.19
288.831	666.19
289.062	674.19
289.293	681.19
289.524	697.19
289.755	690.19
289.986	676.19
290.217	672.19
290.448	674.19
290.679	686.19
290.91	665.19
291.141	683.19
291.371	699.19
291.602	654.19
291.833	658.19
292.064	692.19
292.295	675.19
292.526	692.19
292.757	703.19
292.987	699.19
293.218	671.19
293.449	698.19
293.68	681.19
293.91	680.19
294.141	684.19
294.372	687.19
294.603	723.19
294.833	703.19
295.064	710.19
295.295	717.19
295.525	716.19
295.756	694.19
295.987	701.19
296.217	726.19
296.448	723.19
296.679	730.19
296.909	700.19
297.14	733.19
297.37	709.19
297.601	746.19
297.831	731.19
298.062	700.19
298.292	733.19
298.523	724.19
298.753	731.19
298.984	744.19
299.214	733.19
299.445	744.19
299.675	725.19
299.905	732.19
300.136	730.19
300.366	744.19
300.597	748.19
300.827	740.19
301.057	748.19
301.288	742.19
301.518	748.19
301.748	793.19
301.979	768.19
302.209	774.19
302.439	778.19
302.669	781.19
302.9	753.19
303.13	783.19
303.36	782.19
303.59	772.19
303.82	768.19
304.051	797.19
304.281	753.19
304.511	785.19
304.741	755.19
304.971	793.19
305.201	775.19
305.431	762.19
305.661	791.19
305.891	799.19
306.121	764.19
306.352	770.19
306.582	768.19
306.812	779.19
307.042	788.19
307.272	793.19
307.502	799.19
307.731	831.19
307.961	802.19
308.191	779.19
308.421	776.19
308.651	772.19
308.881	748.19
309.111	763.19
309.341	796.19
309.571	787.19
309.8	802.19
310.03	808.19
310.26	788.19
310.49	789.19
310.72	810.19
310.949	806.19
311.179	788.19
311.409	811.19
311.639	794.19
311.868	826.19
312.098	820.19
312.328	822.19
312.557	828.19
312.787	809.19
313.017	826.19
313.246	828.19
313.476	866.19
313.706	836.19
313.935	834.19
314.165	844.19
314.394	856.19
314.624	843.19
314.853	861.19
315.083	829.19
315.312	840.19
315.542	848.19
315.771	854.19
316.001	842.19
316.23	869.19
316.46	828.19
316.689	871.19
316.919	831.19
317.148	867.19
317.377	873.19
317.607	854.19
317.836	885.19
318.065	877.19
318.295	885.19
318.524	888.19
318.753	867.19
318.983	857.19
319.212	848.19
319.441	860.19
319.67	866.19
319.9	880.19
320.129	867.19
320.358	870.19
320.587	879.19
320.816	865.19
321.046	863.19
321.275	845.19
321.504	888.19
321.733	890.19
321.962	894.19
322.191	884.19
322.42	890.19
322.649	863.19
322.878	887.19
323.108	865.19
323.337	884.19
323.566	904.19
323.795	874.19
324.024	890.19
324.253	886.19
324.482	862.19
324.71	930.19
324.939	917.19
325.168	926.19
325.397	911.19
325.626	913.19
325.855	931.19
326.084	908.19
326.313	948.19
326.542	915.19
326.77	952.19
326.999	926.19
327.228	943.19
327.457	953.19
327.686	957.19
327.914	941.19
328.143	936.19
328.372	906.19
328.6	967.19
328.829	940.19
329.058	938.19
329.287	947.19
329.515	922.19
329.744	951.19
329.972	939.19
330.201	967.19
330.43	954.19
330.658	955.19
330.887	964.19
331.115	972.19
331.344	975.19
331.572	981.19
331.801	996.19
332.03	981.19
332.258	981.19
332.486	984.19
332.715	1022.19
332.943	1038.19
333.172	1044.19
333.4	1065.19
333.629	1069.19
333.857	1078.19
334.085	1085.19
334.314	1095.19
334.542	1087.19
334.771	1097.19
334.999	1057.19
335.227	1071.19
335.455	1091.19
335.684	1098.19
335.912	1088.19
336.14	1071.19
336.369	1086.19
336.597	1078.19
336.825	1081.19
337.053	1079.19
337.281	1056.19
337.51	1034.19
337.738	1041.19
337.966	1054.19
338.194	1050.19
338.422	1038.19
338.65	1015.19
338.878	1026.19
339.106	1057.19
339.334	1051.19
339.562	1021.19
339.79	1008.19
340.018	1012.19
340.246	1014.19
340.474	1017.19
340.702	1010.19
340.93	995.19
341.158	1034.19
341.386	991.19
341.614	1006.19
341.842	1014.19
342.07	1004.19
342.298	983.19
342.526	983.19
342.754	1027.19
342.981	1004.19
343.209	1010.19
343.437	1038.19
343.665	1069.19
343.893	1082.19
344.12	1087.19
344.348	1052.19
344.576	1038.19
344.804	1067.19
345.031	1038.19
345.259	1034.19
345.487	1027.19
345.714	985.19
345.942	987.19
346.17	996.19
346.397	978.19
346.625	972.19
346.853	989.19
347.08	972.19
347.308	956.19
347.535	961.19
347.763	960.19
347.99	950.19
348.218	950.19
348.445	950.19
348.673	952.19
348.9	984.19
349.128	980.19
349.355	969.19
349.583	986.19
349.81	968.19
350.037	956.19
350.265	965.19
350.492	957.19
350.72	935.19
350.947	935.19
351.174	962.19
351.402	934.19
351.629	929.19
351.856	888.19
352.083	914.19
352.311	942.19
352.538	952.19
352.765	942.19
352.992	961.19
353.22	950.19
353.447	956.19
353.674	936.19
353.901	941.19
354.128	958.19
354.355	930.19
354.583	941.19
354.81	912.19
355.037	953.19
355.264	961.19
355.491	958.19
355.718	957.19
355.945	959.19
356.172	965.19
356.399	942.19
356.626	962.19
356.853	955.19
357.08	953.19
357.307	973.19
357.534	952.19
357.761	939.19
357.988	985.19
358.215	975.19
358.441	1017.19
358.668	959.19
358.895	989.19
359.122	962.19
359.349	926.19
359.576	961.19
359.802	934.19
360.029	940.19
360.256	960.19
360.483	966.19
360.709	927.19
360.936	987.19
361.163	971.19
361.39	939.19
361.616	949.19
361.843	976.19
362.07	987.19
362.296	987.19
362.523	963.19
362.749	969.19
362.976	966.19
363.203	980.19
363.429	996.19
363.656	949.19
363.882	1002.19
364.109	983.19
364.335	936.19
364.562	1010.19
364.788	966.19
365.015	1008.19
365.241	989.19
365.468	963.19
365.694	971.19
365.92	968.19
366.147	949.19
366.373	971.19
366.599	974.19
366.826	1005.19
367.052	998.19
367.278	1021.19
367.505	1001.19
367.731	986.19
367.957	1011.19
368.184	1012.19
368.41	1015.19
368.636	984.19
368.862	1024.19
369.089	1022.19
369.315	1034.19
369.541	1024.19
369.767	1023.19
369.993	1049.19
370.219	1034.19
370.445	1056.19
370.672	1044.19
370.898	1033.19
371.124	1026.19
371.35	1051.19
371.576	1054.19
371.802	1083.19
372.028	1074.19
372.254	1076.19
372.48	1079.19
372.706	1091.19
372.932	1066.19
373.158	1037.19
373.384	1079.19
373.61	1102.19
373.835	1101.19
374.061	1098.19
374.287	1084.19
374.513	1065.19
374.739	1112.19
374.965	1132.19
375.191	1150.19
375.416	1154.19
375.642	1103.19
375.868	1108.19
376.094	1095.19
376.319	1078.19
376.545	1079.19
376.771	1075.19
376.997	1083.19
377.222	1076.19
377.448	1060.19
377.674	1090.19
377.899	1081.19
378.125	1069.19
378.35	1068.19
378.576	1041.19
378.802	1036.19
379.027	1064.19
379.253	1060.19
379.478	1050.19
379.704	1067.19
379.929	1060.19
380.155	1078.19
380.38	1079.19
380.606	1066.19
380.831	1054.19
381.057	1077.19
381.282	1075.19
381.507	1056.19
381.733	1094.19
381.958	1102.19
382.184	1146.19
382.409	1156.19
382.634	1119.19
382.86	1112.19
383.085	1114.19
383.31	1159.19
383.535	1198.19
383.761	1155.19
383.986	1147.19
384.211	1177.19
384.436	1173.19
384.662	1206.19
384.887	1165.19
385.112	1173.19
385.337	1205.19
385.562	1187.19
385.787	1202.19
386.013	1233.19
386.238	1252.19
386.463	1223.19
386.688	1227.19
386.913	1176.19
387.138	1226.19
387.363	1263.19
387.588	1228.19
387.813	1248.19
388.038	1256.19
388.263	1226.19
388.488	1240.19
388.713	1246.19
388.938	1274.19
389.163	1279.19
389.387	1247.19
389.612	1243.19
389.837	1282.19
390.062	1275.19
390.287	1242.19
390.512	1314.19
390.736	1272.19
390.961	1307.19
391.186	1295.19
391.411	1309.19
391.636	1316.19
391.86	1332.19
392.085	1329.19
392.31	1334.19
392.534	1334.19
392.759	1286.19
392.984	1310.19
393.208	1317.19
393.433	1360.19
393.658	1344.19
393.882	1303.19
394.107	1325.19
394.331	1310.19
394.556	1297.19
394.78	1360.19
395.005	1342.19
395.229	1324.19
395.454	1355.19
395.678	1357.19
395.903	1377.19
396.127	1357.19
396.352	1370.19
396.576	1362.19
396.801	1331.19
397.025	1357.19
397.249	1410.19
397.474	1412.19
397.698	1399.19
397.922	1398.19
398.147	1411.19
398.371	1445.19
398.595	1458.19
398.82	1474.19
399.044	1566.19
399.268	1601.19
399.492	1696.19
399.717	1759.19
399.941	1774.19
400.165	1743.19
400.389	1701.19
400.613	1644.19
400.837	1605.19
401.062	1557.19
401.286	1557.19
401.51	1541.19
401.734	1507.19
401.958	1513.19
402.182	1503.19
402.406	1528.19
402.63	1520.19
402.854	1482.19
403.078	1507.19
403.302	1526.19
403.526	1524.19
403.75	1520.19
403.974	1538.19
404.198	1560.19
404.422	1543.19
404.645	1562.19
404.869	1552.19
405.093	1588.19
405.317	1526.19
405.541	1559.19
405.765	1636.19
405.988	1584.19
406.212	1589.19
406.436	1593.19
406.66	1618.19
406.883	1656.19
407.107	1659.19
407.331	1689.19
407.555	1756.19
407.778	1746.19
408.002	1747.19
408.226	1739.19
408.449	1752.19
408.673	1688.19
408.896	1679.19
409.12	1633.19
409.344	1641.19
409.567	1611.19
409.791	1668.19
410.014	1632.19
410.238	1600.19
410.461	1626.19
410.685	1578.19
410.908	1593.19
411.132	1576.19
411.355	1561.19
411.578	1594.19
411.802	1572.19
412.025	1544.19
412.249	1594.19
412.472	1606.19
412.695	1574.19
412.919	1540.19
413.142	1578.19
413.365	1536.19
413.589	1552.19
413.812	1559.19
414.035	1523.19
414.258	1511.19
414.482	1544.19
414.705	1517.19
414.928	1544.19
415.151	1547.19
415.374	1506.19
415.597	1501.19
415.821	1470.19
416.044	1458.19
416.267	1472.19
416.49	1484.19
416.713	1475.19
416.936	1482.19
417.159	1471.19
417.382	1434.19
417.605	1472.19
417.828	1447.19
418.051	1444.19
418.274	1464.19
418.497	1434.19
418.72	1455.19
418.943	1460.19
419.166	1555.19
419.389	1660.19
419.611	1626.19
419.834	1542.19
420.057	1534.19
420.28	1506.19
420.503	1463.19
420.726	1399.19
420.948	1455.19
421.171	1452.19
421.394	1435.19
421.617	1423.19
421.839	1474.19
422.062	1467.19
422.285	1430.19
422.507	1462.19
422.73	1428.19
422.953	1422.19
423.175	1469.19
423.398	1478.19
423.621	1438.19
423.843	1453.19
424.066	1435.19
424.288	1451.19
424.511	1456.19
424.733	1432.19
424.956	1452.19
425.178	1441.19
425.401	1442.19
425.623	1446.19
425.846	1415.19
426.068	1433.19
426.291	1421.19
426.513	1401.19
426.735	1436.19
426.958	1416.19
427.18	1355.19
427.402	1424.19
427.625	1418.19
427.847	1378.19
428.069	1408.19
428.292	1376.19
428.514	1394.19
428.736	1384.19
428.958	1430.19
429.181	1380.19
429.403	1346.19
429.625	1391.19
429.847	1377.19
430.069	1360.19
430.292	1385.19
430.514	1360.19
430.736	1412.19
430.958	1411.19
431.18	1366.19
431.402	1402.19
431.624	1394.19
431.846	1374.19
432.068	1396.19
432.29	1395.19
432.512	1360.19
432.734	1441.19
432.956	1392.19
433.178	1396.19
433.4	1415.19
433.622	1426.19
433.844	1403.19
434.066	1421.19
434.287	1387.19
434.509	1458.19
434.731	1431.19
434.953	1435.19
435.175	1446.19
435.397	1511.19
435.618	1444.19
435.84	1405.19
436.062	1394.19
436.284	1352.19
436.505	1360.19
436.727	1389.19
436.949	1355.19
437.17	1379.19
437.392	1366.19
437.614	1364.19
437.835	1352.19
438.057	1341.19
438.278	1338.19
438.5	1371.19
438.721	1386.19
438.943	1370.19
439.165	1351.19
439.386	1344.19
439.608	1387.19
439.829	1356.19
440.05	1372.19
440.272	1380.19
440.493	1352.19
440.715	1396.19
440.936	1401.19
441.158	1413.19
441.379	1407.19
441.6	1465.19
441.822	1427.19
442.043	1444.19
442.264	1412.19
442.486	1444.19
442.707	1422.19
442.928	1439.19
443.149	1459.19
443.371	1456.19
443.592	1435.19
443.813	1449.19
444.034	1474.19
444.255	1454.19
444.476	1498.19
444.698	1532.19
444.919	1549.19
445.14	1607.19
445.361	1526.19
445.582	1472.19
445.803	1440.19
446.024	1428.19
446.245	1449.19
446.466	1414.19
446.687	1373.19
446.908	1383.19
447.129	1384.19
447.35	1339.19
447.571	1340.19
447.792	1308.19
448.013	1333.19
448.234	1294.19
448.455	1310.19
448.675	1262.19
448.896	1282.19
449.117	1294.19
449.338	1282.19
449.559	1272.19
449.779	1248.19
450	1268.19
450.221	1259.19
450.442	1261.19
450.662	1262.19
450.883	1261.19
451.104	1279.19
451.324	1280.19
451.545	1250.19
451.766	1276.19
451.986	1278.19
452.207	1241.19
452.428	1247.19
452.648	1230.19
452.869	1230.19
453.089	1221.19
453.31	1224.19
453.53	1214.19
453.751	1219.19
453.971	1202.19
454.192	1208.19
454.412	1197.19
454.633	1192.19
454.853	1211.19
455.073	1212.19
455.294	1186.19
455.514	1195.19
455.734	1200.19
455.955	1186.19
456.175	1191.19
456.395	1203.19
456.616	1202.19
456.836	1245.19
457.056	1233.19
457.276	1192.19
457.497	1209.19
457.717	1206.19
457.937	1236.19
458.157	1256.19
458.377	1273.19
458.598	1281.19
458.818	1260.19
459.038	1274.19
459.258	1333.19
459.478	1347.19
459.698	1361.19
459.918	1402.19
460.138	1381.19
460.358	1434.19
460.578	1394.19
460.798	1465.19
461.018	1522.19
461.238	1517.19
461.458	1482.19
461.678	1478.19
461.898	1495.19
462.118	1516.19
462.338	1562.19
462.558	1578.19
462.777	1639.19
462.997	1613.19
463.217	1686.19
463.437	1682.19
463.657	1674.19
463.876	1645.19
464.096	1610.19
464.316	1587.19
464.536	1606.19
464.755	1595.19
464.975	1583.19
465.195	1514.19
465.414	1508.19
465.634	1479.19
465.854	1440.19
466.073	1425.19
466.293	1402.19
466.512	1360.19
466.732	1354.19
466.951	1387.19
467.171	1364.19
467.391	1343.19
467.61	1364.19
467.829	1365.19
468.049	1320.19
468.268	1312.19
468.488	1343.19
468.707	1322.19
468.927	1344.19
469.146	1335.19
469.365	1327.19
469.585	1350.19
469.804	1355.19
470.023	1386.19
470.243	1348.19
470.462	1352.19
470.681	1391.19
470.901	1374.19
471.12	1373.19
471.339	1346.19
471.558	1330.19
471.777	1341.19
471.997	1309.19
472.216	1345.19
472.435	1350.19
472.654	1335.19
472.873	1344.19
473.092	1344.19
473.311	1343.19
473.53	1356.19
473.749	1346.19
473.968	1318.19
474.187	1317.19
474.406	1301.19
474.625	1337.19
474.844	1322.19
475.063	1389.19
475.282	1342.19
475.501	1374.19
475.72	1358.19
475.939	1375.19
476.158	1403.19
476.377	1422.19
476.596	1450.19
476.814	1483.19
477.033	1455.19
477.252	1407.19
477.471	1454.19
477.69	1473.19
477.908	1509.19
478.127	1537.19
478.346	1518.19
478.564	1526.19
478.783	1557.19
479.002	1522.19
479.22	1587.19
479.439	1668.19
479.658	1610.19
479.876	1587.19
480.095	1599.19
480.313	1607.19
480.532	1626.19
480.751	1628.19
480.969	1599.19
481.188	1642.19
481.406	1622.19
481.624	1611.19
481.843	1588.19
482.061	1594.19
482.28	1576.19
482.498	1637.19
482.717	1585.19
482.935	1607.19
483.153	1596.19
483.372	1581.19
483.59	1595.19
483.808	1634.19
484.027	1620.19
484.245	1579.19
484.463	1616.19
484.681	1626.19
484.9	1637.19
485.118	1623.19
485.336	1617.19
485.554	1645.19
485.772	1698.19
485.99	1618.19
486.209	1610.19
486.427	1647.19
486.645	1642.19
486.863	1678.19
487.081	1645.19
487.299	1634.19
487.517	1646.19
487.735	1655.19
487.953	1688.19
488.171	1655.19
488.389	1668.19
488.607	1610.19
488.825	1632.19
489.043	1675.19
489.261	1646.19
489.479	1685.19
489.696	1675.19
489.914	1612.19
490.132	1614.19
490.35	1657.19
490.568	1654.19
490.786	1661.19
491.003	1611.19
491.221	1678.19
491.439	1690.19
491.657	1675.19
491.874	1710.19
492.092	1692.19
492.31	1700.19
492.527	1703.19
492.745	1681.19
492.963	1687.19
