Data from Fe(NO3)3@0.0125M.TitratingCurve.Agarose3%dH2O.NegLispCup.LampEnergy10.LIBS07252019_HRD10591_16-58-53-337.txt Node
Date: Thu Jul 25 16:58:53 EDT 2019
User: cochatt
Spectrometer: HR+D1059
Trigger mode: 1
Integration Time (sec): 1.000000E-1
Scans to average: 1
Electric dark correction enabled: true
Nonlinearity correction enabled: false
Boxcar width: 0
XAxis mode: Wavelengths
Number of Pixels in Spectrum: 2048
>>>>>Begin Spectral Data<<<<<
223.165	-8.06
223.4	-8.06
223.635	-8.06
223.869	-7.06
224.104	-29.06
224.338	-10.06
224.573	-18.06
224.808	-4.06
225.042	-10.06
225.277	-12.06
225.511	-2.06
225.746	2.94
225.98	12.94
226.215	15.94
226.449	12.94
226.683	15.94
226.918	19.94
227.152	19.94
227.387	37.94
227.621	23.94
227.856	44.94
228.09	55.94
228.324	40.94
228.559	47.94
228.793	59.94
229.027	69.94
229.262	86.94
229.496	107.94
229.73	98.94
229.964	112.94
230.199	124.94
230.433	112.94
230.667	103.94
230.901	97.94
231.136	114.94
231.37	115.94
231.604	127.94
231.838	108.94
232.072	124.94
232.306	128.94
232.541	111.94
232.775	128.94
233.009	128.94
233.243	123.94
233.477	121.94
233.711	135.94
233.945	137.94
234.179	123.94
234.413	123.94
234.647	130.94
234.881	125.94
235.115	132.94
235.349	143.94
235.583	130.94
235.817	129.94
236.051	123.94
236.285	148.94
236.519	116.94
236.753	140.94
236.987	135.94
237.221	139.94
237.455	144.94
237.689	138.94
237.922	134.94
238.156	141.94
238.39	129.94
238.624	155.94
238.858	159.94
239.091	158.94
239.325	152.94
239.559	161.94
239.793	156.94
240.027	167.94
240.26	143.94
240.494	155.94
240.728	166.94
240.961	171.94
241.195	154.94
241.429	172.94
241.662	180.94
241.896	165.94
242.13	168.94
242.363	164.94
242.597	160.94
242.83	161.94
243.064	169.94
243.298	175.94
243.531	178.94
243.765	174.94
243.998	162.94
244.232	176.94
244.465	195.94
244.699	173.94
244.932	185.94
245.166	182.94
245.399	193.94
245.633	179.94
245.866	188.94
246.099	183.94
246.333	189.94
246.566	176.94
246.8	193.94
247.033	200.94
247.266	208.94
247.5	197.94
247.733	183.94
247.966	212.94
248.2	216.94
248.433	195.94
248.666	197.94
248.899	193.94
249.133	206.94
249.366	219.94
249.599	214.94
249.832	207.94
250.066	227.94
250.299	223.94
250.532	212.94
250.765	198.94
250.998	201.94
251.231	213.94
251.465	223.94
251.698	222.94
251.931	224.94
252.164	216.94
252.397	216.94
252.63	238.94
252.863	243.94
253.096	246.94
253.329	235.94
253.562	232.94
253.795	220.94
254.028	273.94
254.261	245.94
254.494	249.94
254.727	221.94
254.96	235.94
255.193	247.94
255.426	254.94
255.659	249.94
255.892	252.94
256.124	237.94
256.357	249.94
256.59	240.94
256.823	263.94
257.056	250.94
257.289	247.94
257.521	259.94
257.754	250.94
257.987	269.94
258.22	273.94
258.452	283.94
258.685	277.94
258.918	279.94
259.151	262.94
259.383	254.94
259.616	268.94
259.849	283.94
260.081	301.94
260.314	299.94
260.547	278.94
260.779	283.94
261.012	284.94
261.244	281.94
261.477	302.94
261.71	309.94
261.942	300.94
262.175	283.94
262.407	303.94
262.64	278.94
262.872	301.94
263.105	299.94
263.337	317.94
263.57	304.94
263.802	302.94
264.035	289.94
264.267	288.94
264.499	289.94
264.732	291.94
264.964	286.94
265.197	293.94
265.429	306.94
265.661	303.94
265.894	311.94
266.126	308.94
266.358	308.94
266.591	314.94
266.823	331.94
267.055	321.94
267.287	322.94
267.52	311.94
267.752	330.94
267.984	312.94
268.216	332.94
268.448	326.94
268.681	313.94
268.913	323.94
269.145	327.94
269.377	313.94
269.609	332.94
269.841	320.94
270.073	321.94
270.306	329.94
270.538	309.94
270.77	344.94
271.002	329.94
271.234	340.94
271.466	317.94
271.698	322.94
271.93	334.94
272.162	363.94
272.394	342.94
272.626	351.94
272.858	349.94
273.09	351.94
273.322	357.94
273.553	367.94
273.785	358.94
274.017	381.94
274.249	389.94
274.481	376.94
274.713	391.94
274.945	376.94
275.176	392.94
275.408	403.94
275.64	369.94
275.872	385.94
276.104	377.94
276.335	381.94
276.567	368.94
276.799	367.94
277.031	371.94
277.262	374.94
277.494	379.94
277.726	394.94
277.957	385.94
278.189	393.94
278.421	408.94
278.652	383.94
278.884	394.94
279.115	405.94
279.347	404.94
279.579	408.94
279.81	388.94
280.042	401.94
280.273	404.94
280.505	432.94
280.736	413.94
280.968	394.94
281.199	397.94
281.431	397.94
281.662	423.94
281.894	391.94
282.125	434.94
282.356	429.94
282.588	426.94
282.819	409.94
283.051	413.94
283.282	420.94
283.513	422.94
283.745	427.94
283.976	431.94
284.207	429.94
284.439	440.94
284.67	415.94
284.901	435.94
285.132	421.94
285.364	421.94
285.595	429.94
285.826	432.94
286.057	428.94
286.288	437.94
286.52	443.94
286.751	444.94
286.982	438.94
287.213	435.94
287.444	425.94
287.675	441.94
287.906	446.94
288.138	468.94
288.369	441.94
288.6	441.94
288.831	472.94
289.062	444.94
289.293	461.94
289.524	460.94
289.755	475.94
289.986	452.94
290.217	458.94
290.448	468.94
290.679	469.94
290.91	469.94
291.141	451.94
291.371	475.94
291.602	467.94
291.833	455.94
292.064	453.94
292.295	475.94
292.526	470.94
292.757	467.94
292.987	471.94
293.218	468.94
293.449	472.94
293.68	477.94
293.91	471.94
294.141	487.94
294.372	494.94
294.603	477.94
294.833	463.94
295.064	467.94
295.295	483.94
295.525	471.94
295.756	487.94
295.987	495.94
296.217	484.94
296.448	484.94
296.679	496.94
296.909	484.94
297.14	509.94
297.37	532.94
297.601	502.94
297.831	502.94
298.062	513.94
298.292	487.94
298.523	532.94
298.753	520.94
298.984	495.94
299.214	527.94
299.445	527.94
299.675	520.94
299.905	524.94
300.136	531.94
300.366	532.94
300.597	510.94
300.827	515.94
301.057	509.94
301.288	529.94
301.518	528.94
301.748	533.94
301.979	538.94
302.209	548.94
302.439	562.94
302.669	529.94
302.9	537.94
303.13	543.94
303.36	527.94
303.59	525.94
303.82	549.94
304.051	576.94
304.281	533.94
304.511	535.94
304.741	574.94
304.971	563.94
305.201	528.94
305.431	525.94
305.661	547.94
305.891	539.94
306.121	561.94
306.352	555.94
306.582	561.94
306.812	548.94
307.042	559.94
307.272	572.94
307.502	571.94
307.731	577.94
307.961	571.94
308.191	561.94
308.421	565.94
308.651	572.94
308.881	567.94
309.111	542.94
309.341	543.94
309.571	561.94
309.8	550.94
310.03	567.94
310.26	583.94
310.49	573.94
310.72	581.94
310.949	602.94
311.179	590.94
311.409	588.94
311.639	590.94
311.868	609.94
312.098	601.94
312.328	598.94
312.557	600.94
312.787	605.94
313.017	598.94
313.246	597.94
313.476	597.94
313.706	604.94
313.935	621.94
314.165	593.94
314.394	614.94
314.624	622.94
314.853	602.94
315.083	614.94
315.312	622.94
315.542	625.94
315.771	629.94
316.001	632.94
316.23	616.94
316.46	621.94
316.689	615.94
316.919	623.94
317.148	633.94
317.377	592.94
317.607	597.94
317.836	611.94
318.065	640.94
318.295	631.94
318.524	621.94
318.753	629.94
318.983	627.94
319.212	626.94
319.441	629.94
319.67	633.94
319.9	639.94
320.129	640.94
320.358	655.94
320.587	650.94
320.816	639.94
321.046	655.94
321.275	655.94
321.504	657.94
321.733	653.94
321.962	645.94
322.191	653.94
322.42	637.94
322.649	683.94
322.878	644.94
323.108	638.94
323.337	671.94
323.566	652.94
323.795	660.94
324.024	656.94
324.253	687.94
324.482	670.94
324.71	670.94
324.939	687.94
325.168	669.94
325.397	671.94
325.626	686.94
325.855	649.94
326.084	688.94
326.313	713.94
326.542	687.94
326.77	699.94
326.999	683.94
327.228	659.94
327.457	686.94
327.686	702.94
327.914	694.94
328.143	664.94
328.372	692.94
328.6	690.94
328.829	694.94
329.058	685.94
329.287	694.94
329.515	720.94
329.744	713.94
329.972	699.94
330.201	688.94
330.43	697.94
330.658	671.94
330.887	689.94
331.115	689.94
331.344	720.94
331.572	684.94
331.801	701.94
332.03	685.94
332.258	712.94
332.486	703.94
332.715	726.94
332.943	728.94
333.172	731.94
333.4	723.94
333.629	706.94
333.857	721.94
334.085	756.94
334.314	743.94
334.542	753.94
334.771	753.94
334.999	796.94
335.227	785.94
335.455	756.94
335.684	745.94
335.912	755.94
336.14	765.94
336.369	761.94
336.597	747.94
336.825	772.94
337.053	759.94
337.281	792.94
337.51	737.94
337.738	752.94
337.966	767.94
338.194	739.94
338.422	731.94
338.65	759.94
338.878	745.94
339.106	771.94
339.334	743.94
339.562	752.94
339.79	728.94
340.018	742.94
340.246	759.94
340.474	725.94
340.702	711.94
340.93	744.94
341.158	737.94
341.386	719.94
341.614	719.94
341.842	744.94
342.07	745.94
342.298	727.94
342.526	721.94
342.754	733.94
342.981	754.94
343.209	737.94
343.437	753.94
343.665	782.94
343.893	754.94
344.12	752.94
344.348	758.94
344.576	751.94
344.804	768.94
345.031	740.94
345.259	732.94
345.487	725.94
345.714	739.94
345.942	739.94
346.17	741.94
346.397	752.94
346.625	748.94
346.853	760.94
347.08	708.94
347.308	726.94
347.535	697.94
347.763	707.94
347.99	713.94
348.218	710.94
348.445	694.94
348.673	666.94
348.9	721.94
349.128	715.94
349.355	704.94
349.583	736.94
349.81	737.94
350.037	732.94
350.265	711.94
350.492	705.94
350.72	716.94
350.947	695.94
351.174	704.94
351.402	720.94
351.629	691.94
351.856	730.94
352.083	735.94
352.311	679.94
352.538	711.94
352.765	702.94
352.992	714.94
353.22	722.94
353.447	713.94
353.674	704.94
353.901	736.94
354.128	719.94
354.355	692.94
354.583	697.94
354.81	724.94
355.037	728.94
355.264	719.94
355.491	710.94
355.718	706.94
355.945	706.94
356.172	718.94
356.399	696.94
356.626	703.94
356.853	703.94
357.08	723.94
357.307	706.94
357.534	740.94
357.761	724.94
357.988	732.94
358.215	707.94
358.441	712.94
358.668	707.94
358.895	723.94
359.122	733.94
359.349	741.94
359.576	708.94
359.802	704.94
360.029	731.94
360.256	693.94
360.483	709.94
360.709	723.94
360.936	744.94
361.163	720.94
361.39	721.94
361.616	715.94
361.843	716.94
362.07	704.94
362.296	708.94
362.523	722.94
362.749	700.94
362.976	757.94
363.203	737.94
363.429	740.94
363.656	740.94
363.882	713.94
364.109	734.94
364.335	717.94
364.562	715.94
364.788	735.94
365.015	728.94
365.241	734.94
365.468	751.94
365.694	738.94
365.92	744.94
366.147	727.94
366.373	728.94
366.599	732.94
366.826	758.94
367.052	744.94
367.278	738.94
367.505	734.94
367.731	728.94
367.957	738.94
368.184	746.94
368.41	749.94
368.636	748.94
368.862	767.94
369.089	752.94
369.315	794.94
369.541	761.94
369.767	769.94
369.993	774.94
370.219	743.94
370.445	773.94
370.672	759.94
370.898	773.94
371.124	755.94
371.35	756.94
371.576	754.94
371.802	743.94
372.028	749.94
372.254	767.94
372.48	787.94
372.706	808.94
372.932	769.94
373.158	759.94
373.384	778.94
373.61	790.94
373.835	788.94
374.061	766.94
374.287	754.94
374.513	751.94
374.739	769.94
374.965	818.94
375.191	787.94
375.416	813.94
375.642	777.94
375.868	783.94
376.094	794.94
376.319	763.94
376.545	751.94
376.771	775.94
376.997	784.94
377.222	763.94
377.448	756.94
377.674	787.94
377.899	789.94
378.125	780.94
378.35	765.94
378.576	765.94
378.802	739.94
379.027	748.94
379.253	761.94
379.478	759.94
379.704	759.94
379.929	786.94
380.155	797.94
380.38	766.94
380.606	780.94
380.831	756.94
381.057	769.94
381.282	794.94
381.507	771.94
381.733	803.94
381.958	778.94
382.184	804.94
382.409	762.94
382.634	773.94
382.86	801.94
383.085	815.94
383.31	775.94
383.535	784.94
383.761	766.94
383.986	819.94
384.211	814.94
384.436	798.94
384.662	812.94
384.887	817.94
385.112	812.94
385.337	807.94
385.562	837.94
385.787	839.94
386.013	841.94
386.238	837.94
386.463	829.94
386.688	857.94
386.913	838.94
387.138	831.94
387.363	842.94
387.588	854.94
387.813	818.94
388.038	821.94
388.263	839.94
388.488	836.94
388.713	831.94
388.938	851.94
389.163	831.94
389.387	815.94
389.612	854.94
389.837	849.94
390.062	831.94
390.287	857.94
390.512	831.94
390.736	846.94
390.961	853.94
391.186	864.94
391.411	856.94
391.636	843.94
391.86	865.94
392.085	867.94
392.31	825.94
392.534	868.94
392.759	848.94
392.984	876.94
393.208	867.94
393.433	877.94
393.658	883.94
393.882	872.94
394.107	865.94
394.331	856.94
394.556	861.94
394.78	897.94
395.005	875.94
395.229	868.94
395.454	876.94
395.678	899.94
395.903	880.94
396.127	853.94
396.352	886.94
396.576	888.94
396.801	895.94
397.025	893.94
397.249	916.94
397.474	911.94
397.698	913.94
397.922	916.94
398.147	923.94
398.371	936.94
398.595	931.94
398.82	944.94
399.044	947.94
399.268	959.94
399.492	989.94
399.717	976.94
399.941	989.94
400.165	997.94
400.389	999.94
400.613	992.94
400.837	960.94
401.062	938.94
401.286	945.94
401.51	939.94
401.734	930.94
401.958	952.94
402.182	930.94
402.406	941.94
402.63	942.94
402.854	936.94
403.078	939.94
403.302	933.94
403.526	929.94
403.75	923.94
403.974	963.94
404.198	931.94
404.422	956.94
404.645	956.94
404.869	969.94
405.093	935.94
405.317	967.94
405.541	988.94
405.765	960.94
405.988	964.94
406.212	996.94
406.436	982.94
406.66	982.94
406.883	944.94
407.107	980.94
407.331	999.94
407.555	1017.94
407.778	1021.94
408.002	987.94
408.226	1022.94
408.449	1019.94
408.673	1005.94
408.896	997.94
409.12	979.94
409.344	1003.94
409.567	981.94
409.791	1009.94
410.014	960.94
410.238	975.94
410.461	1005.94
410.685	969.94
410.908	985.94
411.132	953.94
411.355	950.94
411.578	963.94
411.802	932.94
412.025	941.94
412.249	946.94
412.472	961.94
412.695	952.94
412.919	961.94
413.142	975.94
413.365	927.94
413.589	946.94
413.812	945.94
414.035	962.94
414.258	972.94
414.482	916.94
414.705	941.94
414.928	952.94
415.151	905.94
415.374	902.94
415.597	900.94
415.821	896.94
416.044	902.94
416.267	906.94
416.49	911.94
416.713	905.94
416.936	901.94
417.159	898.94
417.382	897.94
417.605	902.94
417.828	860.94
418.051	899.94
418.274	893.94
418.497	887.94
418.72	887.94
418.943	861.94
419.166	891.94
419.389	963.94
419.611	944.94
419.834	933.94
420.057	913.94
420.28	894.94
420.503	887.94
420.726	897.94
420.948	899.94
421.171	885.94
421.394	871.94
421.617	880.94
421.839	893.94
422.062	887.94
422.285	879.94
422.507	889.94
422.73	863.94
422.953	853.94
423.175	886.94
423.398	883.94
423.621	862.94
423.843	875.94
424.066	868.94
424.288	877.94
424.511	866.94
424.733	877.94
424.956	872.94
425.178	846.94
425.401	876.94
425.623	876.94
425.846	851.94
426.068	857.94
426.291	868.94
426.513	879.94
426.735	886.94
426.958	886.94
427.18	859.94
427.402	863.94
427.625	854.94
427.847	864.94
428.069	854.94
428.292	886.94
428.514	860.94
428.736	835.94
428.958	886.94
429.181	826.94
429.403	864.94
429.625	855.94
429.847	843.94
430.069	813.94
430.292	856.94
430.514	855.94
430.736	839.94
430.958	850.94
431.18	861.94
431.402	875.94
431.624	850.94
431.846	849.94
432.068	839.94
432.29	869.94
432.512	858.94
432.734	865.94
432.956	856.94
433.178	855.94
433.4	846.94
433.622	837.94
433.844	848.94
434.066	864.94
434.287	864.94
434.509	867.94
434.731	865.94
434.953	872.94
435.175	860.94
435.397	875.94
435.618	857.94
435.84	863.94
436.062	858.94
436.284	854.94
436.505	828.94
436.727	818.94
436.949	835.94
437.17	829.94
437.392	828.94
437.614	825.94
437.835	837.94
438.057	809.94
438.278	823.94
438.5	846.94
438.721	816.94
438.943	832.94
439.165	815.94
439.386	832.94
439.608	844.94
439.829	833.94
440.05	827.94
440.272	809.94
440.493	821.94
440.715	829.94
440.936	853.94
441.158	848.94
441.379	846.94
441.6	839.94
441.822	811.94
442.043	863.94
442.264	860.94
442.486	856.94
442.707	832.94
442.928	840.94
443.149	839.94
443.371	840.94
443.592	835.94
443.813	861.94
444.034	849.94
444.255	888.94
444.476	876.94
444.698	862.94
444.919	863.94
445.14	941.94
445.361	895.94
445.582	848.94
445.803	838.94
446.024	843.94
446.245	824.94
446.466	831.94
446.687	806.94
446.908	802.94
447.129	784.94
447.35	814.94
447.571	805.94
447.792	786.94
448.013	780.94
448.234	799.94
448.455	792.94
448.675	817.94
448.896	767.94
449.117	763.94
449.338	762.94
449.559	783.94
449.779	803.94
450	792.94
450.221	763.94
450.442	790.94
450.662	755.94
450.883	784.94
451.104	789.94
451.324	774.94
451.545	749.94
451.766	727.94
451.986	777.94
452.207	775.94
452.428	774.94
452.648	776.94
452.869	763.94
453.089	729.94
453.31	770.94
453.53	763.94
453.751	759.94
453.971	751.94
454.192	775.94
454.412	743.94
454.633	775.94
454.853	757.94
455.073	754.94
455.294	746.94
455.514	756.94
455.734	798.94
455.955	750.94
456.175	763.94
456.395	748.94
456.616	723.94
456.836	736.94
457.056	756.94
457.276	733.94
457.497	767.94
457.717	755.94
457.937	729.94
458.157	767.94
458.377	771.94
458.598	772.94
458.818	775.94
459.038	781.94
459.258	786.94
459.478	804.94
459.698	794.94
459.918	813.94
460.138	837.94
460.358	826.94
460.578	836.94
460.798	869.94
461.018	845.94
461.238	854.94
461.458	833.94
461.678	851.94
461.898	880.94
462.118	877.94
462.338	888.94
462.558	911.94
462.777	904.94
462.997	915.94
463.217	918.94
463.437	924.94
463.657	903.94
463.876	889.94
464.096	908.94
464.316	895.94
464.536	892.94
464.755	893.94
464.975	865.94
465.195	867.94
465.414	837.94
465.634	835.94
465.854	840.94
466.073	820.94
466.293	832.94
466.512	819.94
466.732	827.94
466.951	809.94
467.171	839.94
467.391	831.94
467.61	813.94
467.829	804.94
468.049	806.94
468.268	807.94
468.488	814.94
468.707	789.94
468.927	815.94
469.146	819.94
469.365	794.94
469.585	810.94
469.804	827.94
470.023	820.94
470.243	805.94
470.462	814.94
470.681	821.94
470.901	828.94
471.12	821.94
471.339	814.94
471.558	807.94
471.777	805.94
471.997	823.94
472.216	833.94
472.435	828.94
472.654	800.94
472.873	817.94
473.092	839.94
473.311	860.94
473.53	849.94
473.749	823.94
473.968	835.94
474.187	852.94
474.406	827.94
474.625	849.94
474.844	838.94
475.063	837.94
475.282	849.94
475.501	873.94
475.72	870.94
475.939	902.94
476.158	863.94
476.377	904.94
476.596	885.94
476.814	899.94
477.033	895.94
477.252	870.94
477.471	917.94
477.69	905.94
477.908	920.94
478.127	911.94
478.346	914.94
478.564	943.94
478.783	935.94
479.002	939.94
479.22	977.94
479.439	979.94
479.658	977.94
479.876	969.94
480.095	977.94
480.313	982.94
480.532	983.94
480.751	992.94
480.969	992.94
481.188	1006.94
481.406	1008.94
481.624	974.94
481.843	974.94
482.061	981.94
482.28	1008.94
482.498	994.94
482.717	965.94
482.935	1017.94
483.153	1001.94
483.372	992.94
483.59	982.94
483.808	988.94
484.027	1009.94
484.245	1019.94
484.463	1019.94
484.681	1016.94
484.9	1003.94
485.118	1033.94
485.336	1019.94
485.554	1031.94
485.772	1054.94
485.99	1010.94
486.209	1010.94
486.427	1020.94
486.645	992.94
486.863	1050.94
487.081	1027.94
487.299	1040.94
487.517	1020.94
487.735	1029.94
487.953	1032.94
488.171	1046.94
488.389	1026.94
488.607	1004.94
488.825	1036.94
489.043	1026.94
489.261	1036.94
489.479	1030.94
489.696	1052.94
489.914	1054.94
490.132	1047.94
490.35	1029.94
490.568	1047.94
490.786	1042.94
491.003	1037.94
491.221	1058.94
491.439	1025.94
491.657	1013.94
491.874	1025.94
492.092	1052.94
492.31	1050.94
492.527	1036.94
492.745	1007.94
492.963	1064.94
493.18	1050.94
493.398	1058.94
493.615	1051.94
493.833	1030.94
494.05	1101.94
494.268	1058.94
494.485	1042.94
494.703	1065.94
494.92	1082.94
495.138	1069.94
495.355	1081.94
495.573	1087.94
495.79	1069.94
496.008	1086.94
496.225	1080.94
496.442	1117.94
496.66	1095.94
496.877	1104.94
497.094	1116.94
497.312	1132.94
497.529	1139.94
497.746	1152.94
497.963	1149.94
498.181	1183.94
498.398	1204.94
498.615	1214.94
498.832	1262.94
499.049	1219.94
499.267	1279.94
499.484	1280.94
499.701	1343.94
499.918	1380.94
500.135	1412.94
500.352	1421.94
