Data from Fe(NO3)3@0.1M.TitratingCurve.Agarose3%dH2O.NegLispCup.LampEnergy10.LIBS07252019_HRD10591_16-40-29-332.txt Node
Date: Thu Jul 25 16:40:29 EDT 2019
User: cochatt
Spectrometer: HR+D1059
Trigger mode: 1
Integration Time (sec): 1.000000E-1
Scans to average: 1
Electric dark correction enabled: true
Nonlinearity correction enabled: false
Boxcar width: 0
XAxis mode: Wavelengths
Number of Pixels in Spectrum: 2048
>>>>>Begin Spectral Data<<<<<
223.165	-23.56
223.4	-23.56
223.635	-23.56
223.869	-21.56
224.104	-12.56
224.338	-27.56
224.573	-12.56
224.808	-20.56
225.042	-10.56
225.277	-10.56
225.511	3.44
225.746	-0.56
225.98	16.44
226.215	28.44
226.449	20.44
226.683	36.44
226.918	6.44
227.152	28.44
227.387	31.44
227.621	39.44
227.856	47.44
228.09	53.44
228.324	44.44
228.559	51.44
228.793	55.44
229.027	78.44
229.262	82.44
229.496	79.44
229.73	80.44
229.964	87.44
230.199	92.44
230.433	101.44
230.667	93.44
230.901	99.44
231.136	96.44
231.37	93.44
231.604	103.44
231.838	104.44
232.072	110.44
232.306	94.44
232.541	105.44
232.775	97.44
233.009	95.44
233.243	99.44
233.477	99.44
233.711	105.44
233.945	108.44
234.179	101.44
234.413	109.44
234.647	102.44
234.881	100.44
235.115	81.44
235.349	90.44
235.583	102.44
235.817	101.44
236.051	108.44
236.285	97.44
236.519	91.44
236.753	101.44
236.987	94.44
237.221	101.44
237.455	100.44
237.689	110.44
237.922	107.44
238.156	104.44
238.39	105.44
238.624	100.44
238.858	106.44
239.091	112.44
239.325	105.44
239.559	113.44
239.793	103.44
240.027	103.44
240.26	101.44
240.494	109.44
240.728	98.44
240.961	103.44
241.195	103.44
241.429	100.44
241.662	92.44
241.896	108.44
242.13	105.44
242.363	114.44
242.597	100.44
242.83	119.44
243.064	97.44
243.298	115.44
243.531	108.44
243.765	119.44
243.998	109.44
244.232	109.44
244.465	115.44
244.699	116.44
244.932	106.44
245.166	121.44
245.399	109.44
245.633	102.44
245.866	117.44
246.099	107.44
246.333	125.44
246.566	124.44
246.8	117.44
247.033	107.44
247.266	114.44
247.5	110.44
247.733	110.44
247.966	119.44
248.2	120.44
248.433	112.44
248.666	128.44
248.899	123.44
249.133	113.44
249.366	124.44
249.599	109.44
249.832	123.44
250.066	125.44
250.299	108.44
250.532	121.44
250.765	134.44
250.998	129.44
251.231	117.44
251.465	133.44
251.698	122.44
251.931	134.44
252.164	123.44
252.397	126.44
252.63	132.44
252.863	127.44
253.096	149.44
253.329	144.44
253.562	137.44
253.795	129.44
254.028	135.44
254.261	130.44
254.494	140.44
254.727	137.44
254.96	141.44
255.193	114.44
255.426	140.44
255.659	136.44
255.892	128.44
256.124	131.44
256.357	129.44
256.59	130.44
256.823	126.44
257.056	135.44
257.289	143.44
257.521	137.44
257.754	134.44
257.987	129.44
258.22	141.44
258.452	129.44
258.685	129.44
258.918	141.44
259.151	147.44
259.383	139.44
259.616	137.44
259.849	153.44
260.081	145.44
260.314	126.44
260.547	133.44
260.779	134.44
261.012	125.44
261.244	143.44
261.477	141.44
261.71	142.44
261.942	152.44
262.175	140.44
262.407	161.44
262.64	136.44
262.872	143.44
263.105	138.44
263.337	143.44
263.57	168.44
263.802	140.44
264.035	155.44
264.267	139.44
264.499	154.44
264.732	140.44
264.964	157.44
265.197	151.44
265.429	157.44
265.661	150.44
265.894	153.44
266.126	151.44
266.358	132.44
266.591	152.44
266.823	150.44
267.055	155.44
267.287	154.44
267.52	146.44
267.752	156.44
267.984	144.44
268.216	151.44
268.448	141.44
268.681	135.44
268.913	150.44
269.145	158.44
269.377	149.44
269.609	152.44
269.841	157.44
270.073	148.44
270.306	168.44
270.538	161.44
270.77	158.44
271.002	164.44
271.234	146.44
271.466	163.44
271.698	165.44
271.93	157.44
272.162	156.44
272.394	152.44
272.626	171.44
272.858	154.44
273.09	170.44
273.322	153.44
273.553	146.44
273.785	151.44
274.017	155.44
274.249	156.44
274.481	166.44
274.713	159.44
274.945	164.44
275.176	163.44
275.408	166.44
275.64	167.44
275.872	157.44
276.104	170.44
276.335	165.44
276.567	187.44
276.799	167.44
277.031	179.44
277.262	167.44
277.494	162.44
277.726	166.44
277.957	169.44
278.189	171.44
278.421	174.44
278.652	187.44
278.884	177.44
279.115	170.44
279.347	180.44
279.579	175.44
279.81	196.44
280.042	174.44
280.273	170.44
280.505	170.44
280.736	181.44
280.968	179.44
281.199	191.44
281.431	191.44
281.662	181.44
281.894	190.44
282.125	174.44
282.356	195.44
282.588	173.44
282.819	186.44
283.051	177.44
283.282	174.44
283.513	193.44
283.745	186.44
283.976	197.44
284.207	191.44
284.439	183.44
284.67	186.44
284.901	179.44
285.132	189.44
285.364	197.44
285.595	188.44
285.826	166.44
286.057	190.44
286.288	190.44
286.52	195.44
286.751	199.44
286.982	193.44
287.213	186.44
287.444	197.44
287.675	179.44
287.906	200.44
288.138	197.44
288.369	179.44
288.6	186.44
288.831	188.44
289.062	196.44
289.293	200.44
289.524	191.44
289.755	190.44
289.986	212.44
290.217	196.44
290.448	191.44
290.679	197.44
290.91	181.44
291.141	183.44
291.371	205.44
291.602	195.44
291.833	196.44
292.064	189.44
292.295	202.44
292.526	182.44
292.757	198.44
292.987	205.44
293.218	185.44
293.449	189.44
293.68	198.44
293.91	194.44
294.141	213.44
294.372	189.44
294.603	209.44
294.833	191.44
295.064	195.44
295.295	195.44
295.525	196.44
295.756	201.44
295.987	190.44
296.217	202.44
296.448	195.44
296.679	186.44
296.909	206.44
297.14	223.44
297.37	207.44
297.601	230.44
297.831	196.44
298.062	210.44
298.292	214.44
298.523	211.44
298.753	183.44
298.984	209.44
299.214	208.44
299.445	207.44
299.675	216.44
299.905	212.44
300.136	218.44
300.366	203.44
300.597	201.44
300.827	207.44
301.057	210.44
301.288	222.44
301.518	222.44
301.748	228.44
301.979	225.44
302.209	217.44
302.439	213.44
302.669	206.44
302.9	213.44
303.13	217.44
303.36	211.44
303.59	207.44
303.82	199.44
304.051	216.44
304.281	222.44
304.511	207.44
304.741	217.44
304.971	216.44
305.201	206.44
305.431	212.44
305.661	213.44
305.891	206.44
306.121	229.44
306.352	197.44
306.582	203.44
306.812	221.44
307.042	214.44
307.272	221.44
307.502	204.44
307.731	223.44
307.961	222.44
308.191	222.44
308.421	206.44
308.651	219.44
308.881	217.44
309.111	218.44
309.341	219.44
309.571	231.44
309.8	208.44
310.03	204.44
310.26	209.44
310.49	230.44
310.72	223.44
310.949	228.44
311.179	205.44
311.409	216.44
311.639	234.44
311.868	218.44
312.098	224.44
312.328	221.44
312.557	233.44
312.787	216.44
313.017	215.44
313.246	218.44
313.476	229.44
313.706	211.44
313.935	219.44
314.165	226.44
314.394	219.44
314.624	222.44
314.853	249.44
315.083	236.44
315.312	236.44
315.542	215.44
315.771	223.44
316.001	222.44
316.23	230.44
316.46	232.44
316.689	239.44
316.919	235.44
317.148	236.44
317.377	233.44
317.607	213.44
317.836	212.44
318.065	227.44
318.295	227.44
318.524	223.44
318.753	220.44
318.983	216.44
319.212	218.44
319.441	235.44
319.67	232.44
319.9	213.44
320.129	231.44
320.358	215.44
320.587	226.44
320.816	226.44
321.046	218.44
321.275	227.44
321.504	233.44
321.733	236.44
321.962	234.44
322.191	238.44
322.42	233.44
322.649	238.44
322.878	236.44
323.108	221.44
323.337	239.44
323.566	228.44
323.795	227.44
324.024	228.44
324.253	238.44
324.482	248.44
324.71	235.44
324.939	232.44
325.168	225.44
325.397	254.44
325.626	237.44
325.855	222.44
326.084	238.44
326.313	253.44
326.542	221.44
326.77	246.44
326.999	241.44
327.228	240.44
327.457	223.44
327.686	261.44
327.914	243.44
328.143	231.44
328.372	227.44
328.6	243.44
328.829	248.44
329.058	245.44
329.287	247.44
329.515	251.44
329.744	250.44
329.972	259.44
330.201	264.44
330.43	243.44
330.658	249.44
330.887	249.44
331.115	257.44
331.344	241.44
331.572	263.44
331.801	281.44
332.03	259.44
332.258	269.44
332.486	267.44
332.715	283.44
332.943	267.44
333.172	300.44
333.4	290.44
333.629	281.44
333.857	297.44
334.085	307.44
334.314	307.44
334.542	305.44
334.771	302.44
334.999	309.44
335.227	298.44
335.455	304.44
335.684	289.44
335.912	290.44
336.14	285.44
336.369	294.44
336.597	292.44
336.825	295.44
337.053	290.44
337.281	287.44
337.51	285.44
337.738	280.44
337.966	284.44
338.194	263.44
338.422	263.44
338.65	254.44
338.878	268.44
339.106	280.44
339.334	269.44
339.562	277.44
339.79	263.44
340.018	282.44
340.246	266.44
340.474	254.44
340.702	259.44
340.93	259.44
341.158	253.44
341.386	248.44
341.614	263.44
341.842	251.44
342.07	262.44
342.298	254.44
342.526	230.44
342.754	243.44
342.981	267.44
343.209	270.44
343.437	270.44
343.665	289.44
343.893	292.44
344.12	310.44
344.348	292.44
344.576	281.44
344.804	284.44
345.031	262.44
345.259	268.44
345.487	250.44
345.714	265.44
345.942	263.44
346.17	265.44
346.397	259.44
346.625	229.44
346.853	267.44
347.08	246.44
347.308	227.44
347.535	246.44
347.763	259.44
347.99	261.44
348.218	253.44
348.445	242.44
348.673	245.44
348.9	260.44
349.128	263.44
349.355	261.44
349.583	240.44
349.81	251.44
350.037	255.44
350.265	248.44
350.492	245.44
350.72	251.44
350.947	242.44
351.174	270.44
351.402	236.44
351.629	254.44
351.856	248.44
352.083	257.44
352.311	242.44
352.538	235.44
352.765	243.44
352.992	238.44
353.22	235.44
353.447	233.44
353.674	234.44
353.901	227.44
354.128	246.44
354.355	249.44
354.583	259.44
354.81	223.44
355.037	253.44
355.264	253.44
355.491	261.44
355.718	226.44
355.945	245.44
356.172	253.44
356.399	271.44
356.626	248.44
356.853	241.44
357.08	240.44
357.307	250.44
357.534	243.44
357.761	255.44
357.988	254.44
358.215	231.44
358.441	248.44
358.668	246.44
358.895	276.44
359.122	247.44
359.349	253.44
359.576	245.44
359.802	246.44
360.029	255.44
360.256	253.44
360.483	245.44
360.709	262.44
360.936	240.44
361.163	251.44
361.39	245.44
361.616	255.44
361.843	241.44
362.07	261.44
362.296	257.44
362.523	252.44
362.749	248.44
362.976	245.44
363.203	247.44
363.429	243.44
363.656	242.44
363.882	252.44
364.109	246.44
364.335	244.44
364.562	236.44
364.788	236.44
365.015	248.44
365.241	262.44
365.468	274.44
365.694	242.44
365.92	246.44
366.147	256.44
366.373	237.44
366.599	245.44
366.826	247.44
367.052	243.44
367.278	263.44
367.505	262.44
367.731	254.44
367.957	264.44
368.184	243.44
368.41	261.44
368.636	245.44
368.862	259.44
369.089	237.44
369.315	229.44
369.541	248.44
369.767	251.44
369.993	242.44
370.219	276.44
370.445	282.44
370.672	275.44
370.898	276.44
371.124	270.44
371.35	293.44
371.576	279.44
371.802	284.44
372.028	258.44
372.254	276.44
372.48	283.44
372.706	266.44
372.932	264.44
373.158	281.44
373.384	263.44
373.61	283.44
373.835	273.44
374.061	267.44
374.287	277.44
374.513	272.44
374.739	280.44
374.965	274.44
375.191	310.44
375.416	277.44
375.642	282.44
375.868	283.44
376.094	309.44
376.319	273.44
376.545	281.44
376.771	292.44
376.997	286.44
377.222	275.44
377.448	265.44
377.674	262.44
377.899	284.44
378.125	277.44
378.35	262.44
378.576	281.44
378.802	287.44
379.027	256.44
379.253	277.44
379.478	269.44
379.704	269.44
379.929	290.44
380.155	271.44
380.38	268.44
380.606	259.44
380.831	270.44
381.057	281.44
381.282	290.44
381.507	271.44
381.733	277.44
381.958	294.44
382.184	280.44
382.409	289.44
382.634	301.44
382.86	281.44
383.085	288.44
383.31	301.44
383.535	309.44
383.761	293.44
383.986	313.44
384.211	286.44
384.436	292.44
384.662	290.44
384.887	320.44
385.112	317.44
385.337	315.44
385.562	319.44
385.787	307.44
386.013	322.44
386.238	336.44
386.463	341.44
386.688	342.44
386.913	323.44
387.138	329.44
387.363	315.44
387.588	311.44
387.813	309.44
388.038	312.44
388.263	309.44
388.488	309.44
388.713	300.44
388.938	315.44
389.163	325.44
389.387	305.44
389.612	324.44
389.837	302.44
390.062	323.44
390.287	327.44
390.512	305.44
390.736	334.44
390.961	339.44
391.186	315.44
391.411	333.44
391.636	346.44
391.86	344.44
392.085	362.44
392.31	341.44
392.534	350.44
392.759	333.44
392.984	348.44
393.208	333.44
393.433	334.44
393.658	339.44
393.882	335.44
394.107	348.44
394.331	349.44
394.556	324.44
394.78	343.44
395.005	349.44
395.229	340.44
395.454	349.44
395.678	365.44
395.903	368.44
396.127	358.44
396.352	344.44
396.576	326.44
396.801	329.44
397.025	337.44
397.249	338.44
397.474	363.44
397.698	349.44
397.922	350.44
398.147	338.44
398.371	359.44
398.595	377.44
398.82	379.44
399.044	387.44
399.268	443.44
399.492	475.44
399.717	523.44
399.941	514.44
400.165	476.44
400.389	455.44
400.613	418.44
400.837	410.44
401.062	407.44
401.286	407.44
401.51	380.44
401.734	399.44
401.958	372.44
402.182	379.44
402.406	380.44
402.63	417.44
402.854	407.44
403.078	401.44
403.302	420.44
403.526	423.44
403.75	412.44
403.974	442.44
404.198	404.44
404.422	421.44
404.645	434.44
404.869	418.44
405.093	409.44
405.317	419.44
405.541	406.44
405.765	413.44
405.988	425.44
406.212	419.44
406.436	423.44
406.66	455.44
406.883	451.44
407.107	461.44
407.331	463.44
407.555	482.44
407.778	504.44
408.002	480.44
408.226	468.44
408.449	483.44
408.673	463.44
408.896	450.44
409.12	449.44
409.344	467.44
409.567	445.44
409.791	428.44
410.014	443.44
410.238	428.44
410.461	436.44
410.685	441.44
410.908	411.44
411.132	431.44
411.355	419.44
411.578	435.44
411.802	424.44
412.025	408.44
412.249	425.44
412.472	409.44
412.695	400.44
412.919	418.44
413.142	396.44
413.365	378.44
413.589	407.44
413.812	403.44
414.035	399.44
414.258	399.44
414.482	415.44
414.705	424.44
414.928	399.44
415.151	394.44
415.374	407.44
415.597	420.44
415.821	396.44
416.044	400.44
416.267	401.44
416.49	399.44
416.713	378.44
416.936	396.44
417.159	383.44
417.382	392.44
417.605	404.44
417.828	400.44
418.051	414.44
418.274	391.44
418.497	404.44
418.72	408.44
418.943	384.44
419.166	432.44
419.389	436.44
419.611	418.44
419.834	429.44
420.057	421.44
420.28	403.44
420.503	385.44
420.726	379.44
420.948	383.44
421.171	374.44
421.394	393.44
421.617	390.44
421.839	395.44
422.062	403.44
422.285	391.44
422.507	393.44
422.73	397.44
422.953	403.44
423.175	397.44
423.398	399.44
423.621	390.44
423.843	419.44
424.066	410.44
424.288	412.44
424.511	422.44
424.733	398.44
424.956	400.44
425.178	400.44
425.401	404.44
425.623	391.44
425.846	395.44
426.068	378.44
426.291	387.44
426.513	385.44
426.735	353.44
426.958	401.44
427.18	389.44
427.402	400.44
427.625	379.44
427.847	346.44
428.069	371.44
428.292	387.44
428.514	358.44
428.736	358.44
428.958	379.44
429.181	368.44
429.403	364.44
429.625	385.44
429.847	359.44
430.069	372.44
430.292	341.44
430.514	335.44
430.736	349.44
430.958	361.44
431.18	357.44
431.402	375.44
431.624	364.44
431.846	352.44
432.068	365.44
432.29	366.44
432.512	371.44
432.734	359.44
432.956	357.44
433.178	382.44
433.4	384.44
433.622	388.44
433.844	386.44
434.066	375.44
434.287	378.44
434.509	377.44
434.731	398.44
434.953	397.44
435.175	394.44
435.397	407.44
435.618	379.44
435.84	369.44
436.062	346.44
436.284	360.44
436.505	378.44
436.727	357.44
436.949	373.44
437.17	365.44
437.392	365.44
437.614	364.44
437.835	375.44
438.057	359.44
438.278	355.44
438.5	352.44
438.721	363.44
438.943	363.44
439.165	355.44
439.386	375.44
439.608	375.44
439.829	358.44
440.05	362.44
440.272	377.44
440.493	391.44
440.715	382.44
440.936	378.44
441.158	390.44
441.379	390.44
441.6	395.44
441.822	408.44
442.043	410.44
442.264	407.44
442.486	377.44
442.707	398.44
442.928	398.44
443.149	410.44
443.371	392.44
443.592	402.44
443.813	422.44
444.034	400.44
444.255	420.44
444.476	440.44
444.698	453.44
444.919	449.44
445.14	538.44
445.361	492.44
445.582	429.44
445.803	422.44
446.024	403.44
446.245	424.44
446.466	383.44
446.687	366.44
446.908	366.44
447.129	379.44
447.35	373.44
447.571	360.44
447.792	368.44
448.013	383.44
448.234	372.44
448.455	359.44
448.675	360.44
448.896	341.44
449.117	358.44
449.338	362.44
449.559	356.44
449.779	344.44
450	322.44
450.221	363.44
450.442	351.44
450.662	344.44
450.883	340.44
451.104	354.44
451.324	362.44
451.545	358.44
451.766	357.44
451.986	357.44
452.207	360.44
452.428	344.44
452.648	346.44
452.869	338.44
453.089	333.44
453.31	329.44
453.53	337.44
453.751	361.44
453.971	331.44
454.192	316.44
454.412	311.44
454.633	335.44
454.853	350.44
455.073	349.44
455.294	350.44
455.514	335.44
455.734	324.44
455.955	309.44
456.175	316.44
456.395	325.44
456.616	326.44
456.836	339.44
457.056	341.44
457.276	307.44
457.497	346.44
457.717	320.44
457.937	331.44
458.157	325.44
458.377	348.44
458.598	337.44
458.818	359.44
459.038	354.44
459.258	357.44
459.478	373.44
459.698	382.44
459.918	374.44
460.138	399.44
460.358	414.44
460.578	417.44
460.798	415.44
461.018	430.44
461.238	419.44
461.458	420.44
461.678	401.44
461.898	406.44
462.118	419.44
462.338	451.44
462.558	459.44
462.777	480.44
462.997	486.44
463.217	521.44
463.437	522.44
463.657	510.44
463.876	468.44
464.096	480.44
464.316	458.44
464.536	482.44
464.755	450.44
464.975	457.44
465.195	403.44
465.414	405.44
465.634	379.44
465.854	376.44
466.073	378.44
466.293	390.44
466.512	357.44
466.732	363.44
466.951	347.44
467.171	371.44
467.391	379.44
467.61	380.44
467.829	375.44
468.049	363.44
468.268	347.44
468.488	369.44
468.707	345.44
468.927	353.44
469.146	362.44
469.365	358.44
469.585	358.44
469.804	358.44
470.023	365.44
470.243	372.44
470.462	367.44
470.681	377.44
470.901	375.44
471.12	359.44
471.339	378.44
471.558	353.44
471.777	341.44
471.997	362.44
472.216	369.44
472.435	355.44
472.654	343.44
472.873	353.44
473.092	339.44
473.311	357.44
473.53	343.44
473.749	325.44
473.968	332.44
474.187	336.44
474.406	326.44
474.625	331.44
474.844	327.44
475.063	323.44
475.282	338.44
475.501	333.44
475.72	344.44
475.939	354.44
476.158	350.44
476.377	341.44
476.596	365.44
476.814	352.44
477.033	351.44
477.252	361.44
477.471	367.44
477.69	389.44
477.908	379.44
478.127	380.44
478.346	387.44
478.564	379.44
478.783	387.44
479.002	392.44
479.22	391.44
479.439	421.44
479.658	402.44
479.876	397.44
480.095	411.44
480.313	405.44
480.532	418.44
480.751	409.44
480.969	399.44
481.188	380.44
481.406	387.44
481.624	398.44
481.843	391.44
482.061	377.44
482.28	359.44
482.498	365.44
482.717	370.44
482.935	367.44
483.153	366.44
483.372	371.44
483.59	369.44
483.808	381.44
484.027	362.44
484.245	385.44
484.463	392.44
484.681	370.44
484.9	375.44
485.118	387.44
485.336	386.44
485.554	364.44
485.772	378.44
485.99	363.44
486.209	376.44
486.427	374.44
486.645	392.44
486.863	387.44
487.081	377.44
487.299	391.44
487.517	394.44
487.735	394.44
487.953	381.44
488.171	396.44
488.389	394.44
488.607	388.44
488.825	376.44
489.043	367.44
489.261	397.44
489.479	374.44
489.696	380.44
489.914	401.44
490.132	388.44
490.35	387.44
490.568	378.44
490.786	390.44
491.003	408.44
491.221	397.44
491.439	399.44
491.657	386.44
491.874	406.44
492.092	404.44
492.31	399.44
492.527	397.44
492.745	394.44
492.963	389.44
493.18	386.44
493.398	388.44
493.615	423.44
493.833	409.44
494.05	409.44
494.268	415.44
494.485	409.44
494.703	408.44
494.92	436.44
495.138	397.44
495.355	403.44
495.573	409.44
495.79	414.44
496.008	428.44
496.225	412.44
496.442	411.44
496.66	428.44
496.877	419.44
497.094	426.44
497.312	429.44
497.529	463.44
497.746	485.44
497.963	440.44
498.181	459.44
498.398	513.44
498.615	524.44
498.832	540.44
499.049	595.44
499.267	612.44
499.484	661.44
499.701	719.44
499.918	761.44
500.135	875.44
500.352	949.44
500.569	977.44
500.786	966.44
501.003	931.44
501.22	845.44
501.437	773.44
501.654	675.44
501.871	649.44
