Data from Fe(NO3)3@0.0125M.TitratingCurve.Agarose3%dH2O.NegLispCup.LampEnergy10.LIBS07252019_HRD10591_17-01-27-336.txt Node
Date: Thu Jul 25 17:01:27 EDT 2019
User: cochatt
Spectrometer: HR+D1059
Trigger mode: 1
Integration Time (sec): 1.000000E-1
Scans to average: 1
Electric dark correction enabled: true
Nonlinearity correction enabled: false
Boxcar width: 0
XAxis mode: Wavelengths
Number of Pixels in Spectrum: 2048
>>>>>Begin Spectral Data<<<<<
223.165	-1.25
223.4	-1.25
223.635	-1.25
223.869	-27.25
224.104	-20.25
224.338	-13.25
224.573	-16.25
224.808	-8.25
225.042	-6.25
225.277	9.75
225.511	5.75
225.746	-0.25
225.98	-2.25
226.215	-5.25
226.449	9.75
226.683	22.75
226.918	25.75
227.152	26.75
227.387	32.75
227.621	37.75
227.856	51.75
228.09	37.75
228.324	59.75
228.559	62.75
228.793	72.75
229.027	75.75
229.262	72.75
229.496	80.75
229.73	76.75
229.964	88.75
230.199	85.75
230.433	89.75
230.667	92.75
230.901	94.75
231.136	90.75
231.37	105.75
231.604	98.75
231.838	92.75
232.072	112.75
232.306	77.75
232.541	92.75
232.775	99.75
233.009	104.75
233.243	91.75
233.477	105.75
233.711	87.75
233.945	101.75
234.179	103.75
234.413	101.75
234.647	96.75
234.881	97.75
235.115	94.75
235.349	98.75
235.583	107.75
235.817	104.75
236.051	83.75
236.285	92.75
236.519	102.75
236.753	102.75
236.987	89.75
237.221	105.75
237.455	102.75
237.689	112.75
237.922	104.75
238.156	101.75
238.39	99.75
238.624	114.75
238.858	116.75
239.091	104.75
239.325	116.75
239.559	112.75
239.793	110.75
240.027	107.75
240.26	101.75
240.494	102.75
240.728	119.75
240.961	120.75
241.195	112.75
241.429	100.75
241.662	118.75
241.896	116.75
242.13	106.75
242.363	114.75
242.597	114.75
242.83	117.75
243.064	108.75
243.298	103.75
243.531	118.75
243.765	103.75
243.998	118.75
244.232	114.75
244.465	101.75
244.699	134.75
244.932	115.75
245.166	128.75
245.399	114.75
245.633	128.75
245.866	118.75
246.099	126.75
246.333	130.75
246.566	120.75
246.8	114.75
247.033	121.75
247.266	119.75
247.5	120.75
247.733	113.75
247.966	122.75
248.2	141.75
248.433	134.75
248.666	126.75
248.899	139.75
249.133	133.75
249.366	128.75
249.599	139.75
249.832	122.75
250.066	149.75
250.299	118.75
250.532	125.75
250.765	128.75
250.998	134.75
251.231	123.75
251.465	139.75
251.698	133.75
251.931	139.75
252.164	132.75
252.397	129.75
252.63	140.75
252.863	140.75
253.096	141.75
253.329	139.75
253.562	131.75
253.795	145.75
254.028	148.75
254.261	137.75
254.494	152.75
254.727	146.75
254.96	148.75
255.193	141.75
255.426	138.75
255.659	137.75
255.892	148.75
256.124	142.75
256.357	139.75
256.59	152.75
256.823	151.75
257.056	148.75
257.289	135.75
257.521	146.75
257.754	146.75
257.987	138.75
258.22	152.75
258.452	134.75
258.685	150.75
258.918	157.75
259.151	151.75
259.383	141.75
259.616	152.75
259.849	163.75
260.081	164.75
260.314	163.75
260.547	159.75
260.779	154.75
261.012	161.75
261.244	150.75
261.477	166.75
261.71	156.75
261.942	146.75
262.175	164.75
262.407	161.75
262.64	153.75
262.872	154.75
263.105	169.75
263.337	171.75
263.57	152.75
263.802	155.75
264.035	159.75
264.267	164.75
264.499	162.75
264.732	174.75
264.964	162.75
265.197	166.75
265.429	165.75
265.661	142.75
265.894	173.75
266.126	171.75
266.358	168.75
266.591	171.75
266.823	178.75
267.055	155.75
267.287	176.75
267.52	165.75
267.752	163.75
267.984	166.75
268.216	174.75
268.448	167.75
268.681	163.75
268.913	164.75
269.145	162.75
269.377	158.75
269.609	179.75
269.841	182.75
270.073	184.75
270.306	179.75
270.538	177.75
270.77	167.75
271.002	173.75
271.234	164.75
271.466	183.75
271.698	183.75
271.93	173.75
272.162	179.75
272.394	189.75
272.626	186.75
272.858	172.75
273.09	197.75
273.322	176.75
273.553	168.75
273.785	204.75
274.017	200.75
274.249	198.75
274.481	200.75
274.713	201.75
274.945	217.75
275.176	205.75
275.408	187.75
275.64	209.75
275.872	188.75
276.104	191.75
276.335	194.75
276.567	197.75
276.799	187.75
277.031	185.75
277.262	202.75
277.494	185.75
277.726	192.75
277.957	204.75
278.189	189.75
278.421	199.75
278.652	181.75
278.884	195.75
279.115	203.75
279.347	195.75
279.579	206.75
279.81	184.75
280.042	181.75
280.273	202.75
280.505	207.75
280.736	207.75
280.968	193.75
281.199	197.75
281.431	190.75
281.662	199.75
281.894	196.75
282.125	200.75
282.356	216.75
282.588	209.75
282.819	215.75
283.051	217.75
283.282	203.75
283.513	225.75
283.745	220.75
283.976	206.75
284.207	210.75
284.439	208.75
284.67	211.75
284.901	211.75
285.132	229.75
285.364	216.75
285.595	233.75
285.826	218.75
286.057	225.75
286.288	215.75
286.52	220.75
286.751	205.75
286.982	218.75
287.213	215.75
287.444	221.75
287.675	224.75
287.906	227.75
288.138	235.75
288.369	228.75
288.6	215.75
288.831	219.75
289.062	219.75
289.293	228.75
289.524	222.75
289.755	226.75
289.986	227.75
290.217	226.75
290.448	236.75
290.679	222.75
290.91	230.75
291.141	240.75
291.371	229.75
291.602	235.75
291.833	235.75
292.064	225.75
292.295	208.75
292.526	220.75
292.757	233.75
292.987	221.75
293.218	224.75
293.449	232.75
293.68	222.75
293.91	237.75
294.141	237.75
294.372	229.75
294.603	248.75
294.833	220.75
295.064	227.75
295.295	251.75
295.525	244.75
295.756	225.75
295.987	221.75
296.217	230.75
296.448	219.75
296.679	219.75
296.909	241.75
297.14	242.75
297.37	236.75
297.601	236.75
297.831	229.75
298.062	268.75
298.292	248.75
298.523	248.75
298.753	238.75
298.984	240.75
299.214	242.75
299.445	267.75
299.675	231.75
299.905	220.75
300.136	242.75
300.366	243.75
300.597	242.75
300.827	244.75
301.057	227.75
301.288	243.75
301.518	248.75
301.748	257.75
301.979	252.75
302.209	247.75
302.439	247.75
302.669	264.75
302.9	266.75
303.13	240.75
303.36	264.75
303.59	265.75
303.82	285.75
304.051	265.75
304.281	249.75
304.511	270.75
304.741	260.75
304.971	276.75
305.201	265.75
305.431	254.75
305.661	249.75
305.891	262.75
306.121	245.75
306.352	260.75
306.582	262.75
306.812	241.75
307.042	270.75
307.272	267.75
307.502	279.75
307.731	261.75
307.961	270.75
308.191	236.75
308.421	269.75
308.651	284.75
308.881	288.75
309.111	273.75
309.341	273.75
309.571	250.75
309.8	264.75
310.03	265.75
310.26	263.75
310.49	275.75
310.72	253.75
310.949	262.75
311.179	290.75
311.409	275.75
311.639	275.75
311.868	286.75
312.098	277.75
312.328	265.75
312.557	278.75
312.787	267.75
313.017	282.75
313.246	292.75
313.476	273.75
313.706	287.75
313.935	276.75
314.165	279.75
314.394	279.75
314.624	284.75
314.853	282.75
315.083	289.75
315.312	295.75
315.542	283.75
315.771	301.75
316.001	281.75
316.23	290.75
316.46	291.75
316.689	288.75
316.919	269.75
317.148	285.75
317.377	269.75
317.607	289.75
317.836	280.75
318.065	277.75
318.295	281.75
318.524	290.75
318.753	286.75
318.983	298.75
319.212	296.75
319.441	291.75
319.67	309.75
319.9	295.75
320.129	288.75
320.358	264.75
320.587	291.75
320.816	304.75
321.046	291.75
321.275	292.75
321.504	307.75
321.733	296.75
321.962	283.75
322.191	294.75
322.42	299.75
322.649	301.75
322.878	299.75
323.108	300.75
323.337	300.75
323.566	305.75
323.795	303.75
324.024	313.75
324.253	288.75
324.482	297.75
324.71	292.75
324.939	301.75
325.168	287.75
325.397	300.75
325.626	306.75
325.855	300.75
326.084	309.75
326.313	313.75
326.542	312.75
326.77	302.75
326.999	300.75
327.228	310.75
327.457	308.75
327.686	306.75
327.914	341.75
328.143	329.75
328.372	316.75
328.6	310.75
328.829	307.75
329.058	322.75
329.287	318.75
329.515	327.75
329.744	328.75
329.972	316.75
330.201	308.75
330.43	303.75
330.658	318.75
330.887	334.75
331.115	332.75
331.344	343.75
331.572	321.75
331.801	325.75
332.03	326.75
332.258	314.75
332.486	344.75
332.715	336.75
332.943	356.75
333.172	343.75
333.4	343.75
333.629	350.75
333.857	359.75
334.085	376.75
334.314	369.75
334.542	371.75
334.771	367.75
334.999	380.75
335.227	379.75
335.455	347.75
335.684	363.75
335.912	366.75
336.14	373.75
336.369	349.75
336.597	378.75
336.825	345.75
337.053	356.75
337.281	346.75
337.51	356.75
337.738	349.75
337.966	354.75
338.194	351.75
338.422	347.75
338.65	351.75
338.878	338.75
339.106	336.75
339.334	345.75
339.562	325.75
339.79	336.75
340.018	340.75
340.246	341.75
340.474	337.75
340.702	316.75
340.93	337.75
341.158	332.75
341.386	327.75
341.614	342.75
341.842	340.75
342.07	348.75
342.298	331.75
342.526	339.75
342.754	330.75
342.981	336.75
343.209	349.75
343.437	347.75
343.665	344.75
343.893	365.75
344.12	358.75
344.348	357.75
344.576	356.75
344.804	376.75
345.031	333.75
345.259	344.75
345.487	331.75
345.714	347.75
345.942	335.75
346.17	332.75
346.397	324.75
346.625	324.75
346.853	328.75
347.08	314.75
347.308	331.75
347.535	328.75
347.763	340.75
347.99	330.75
348.218	334.75
348.445	327.75
348.673	321.75
348.9	314.75
349.128	332.75
349.355	317.75
349.583	317.75
349.81	335.75
350.037	316.75
350.265	324.75
350.492	313.75
350.72	299.75
350.947	332.75
351.174	316.75
351.402	323.75
351.629	317.75
351.856	322.75
352.083	317.75
352.311	323.75
352.538	308.75
352.765	327.75
352.992	332.75
353.22	321.75
353.447	322.75
353.674	326.75
353.901	322.75
354.128	346.75
354.355	338.75
354.583	331.75
354.81	338.75
355.037	316.75
355.264	329.75
355.491	324.75
355.718	301.75
355.945	324.75
356.172	319.75
356.399	330.75
356.626	319.75
356.853	317.75
357.08	318.75
357.307	328.75
357.534	321.75
357.761	327.75
357.988	358.75
358.215	344.75
358.441	335.75
358.668	325.75
358.895	317.75
359.122	329.75
359.349	304.75
359.576	345.75
359.802	336.75
360.029	326.75
360.256	324.75
360.483	334.75
360.709	327.75
360.936	312.75
361.163	319.75
361.39	323.75
361.616	335.75
361.843	324.75
362.07	325.75
362.296	340.75
362.523	347.75
362.749	326.75
362.976	324.75
363.203	326.75
363.429	326.75
363.656	350.75
363.882	329.75
364.109	328.75
364.335	341.75
364.562	333.75
364.788	332.75
365.015	327.75
365.241	326.75
365.468	331.75
365.694	328.75
365.92	334.75
366.147	321.75
366.373	334.75
366.599	345.75
366.826	336.75
367.052	341.75
367.278	341.75
367.505	337.75
367.731	335.75
367.957	343.75
368.184	314.75
368.41	342.75
368.636	340.75
368.862	359.75
369.089	338.75
369.315	332.75
369.541	334.75
369.767	322.75
369.993	345.75
370.219	340.75
370.445	350.75
370.672	355.75
370.898	371.75
371.124	356.75
371.35	361.75
371.576	338.75
371.802	356.75
372.028	361.75
372.254	358.75
372.48	366.75
372.706	363.75
372.932	386.75
373.158	364.75
373.384	344.75
373.61	376.75
373.835	360.75
374.061	364.75
374.287	354.75
374.513	375.75
374.739	374.75
374.965	390.75
375.191	378.75
375.416	374.75
375.642	359.75
375.868	380.75
376.094	369.75
376.319	349.75
376.545	365.75
376.771	361.75
376.997	363.75
377.222	348.75
377.448	352.75
377.674	354.75
377.899	353.75
378.125	347.75
378.35	342.75
378.576	342.75
378.802	359.75
379.027	346.75
379.253	355.75
379.478	363.75
379.704	354.75
379.929	365.75
380.155	338.75
380.38	341.75
380.606	345.75
380.831	351.75
381.057	360.75
381.282	350.75
381.507	386.75
381.733	362.75
381.958	381.75
382.184	368.75
382.409	373.75
382.634	380.75
382.86	375.75
383.085	367.75
383.31	365.75
383.535	378.75
383.761	391.75
383.986	389.75
384.211	406.75
384.436	377.75
384.662	378.75
384.887	390.75
385.112	371.75
385.337	389.75
385.562	397.75
385.787	409.75
386.013	405.75
386.238	410.75
386.463	405.75
386.688	421.75
386.913	394.75
387.138	408.75
387.363	402.75
387.588	390.75
387.813	404.75
388.038	396.75
388.263	404.75
388.488	416.75
388.713	406.75
388.938	416.75
389.163	392.75
389.387	402.75
389.612	403.75
389.837	404.75
390.062	409.75
390.287	413.75
390.512	405.75
390.736	429.75
390.961	424.75
391.186	434.75
391.411	428.75
391.636	442.75
391.86	414.75
392.085	427.75
392.31	451.75
392.534	418.75
392.759	432.75
392.984	436.75
393.208	435.75
393.433	418.75
393.658	420.75
393.882	441.75
394.107	436.75
394.331	424.75
394.556	424.75
394.78	418.75
395.005	436.75
395.229	436.75
395.454	434.75
395.678	435.75
395.903	437.75
396.127	449.75
396.352	421.75
396.576	437.75
396.801	441.75
397.025	451.75
397.249	447.75
397.474	479.75
397.698	460.75
397.922	461.75
398.147	467.75
398.371	453.75
398.595	467.75
398.82	485.75
399.044	485.75
399.268	517.75
399.492	513.75
399.717	540.75
399.941	555.75
400.165	532.75
400.389	522.75
400.613	520.75
400.837	498.75
401.062	487.75
401.286	473.75
401.51	491.75
401.734	466.75
401.958	489.75
402.182	488.75
402.406	481.75
402.63	475.75
402.854	504.75
403.078	472.75
403.302	478.75
403.526	481.75
403.75	479.75
403.974	489.75
404.198	463.75
404.422	469.75
404.645	498.75
404.869	491.75
405.093	498.75
405.317	487.75
405.541	512.75
405.765	514.75
405.988	500.75
406.212	512.75
406.436	499.75
406.66	511.75
406.883	501.75
407.107	513.75
407.331	541.75
407.555	541.75
407.778	533.75
408.002	547.75
408.226	537.75
408.449	539.75
408.673	535.75
408.896	520.75
409.12	537.75
409.344	530.75
409.567	524.75
409.791	528.75
410.014	528.75
410.238	510.75
410.461	518.75
410.685	518.75
410.908	500.75
411.132	502.75
411.355	516.75
411.578	508.75
411.802	496.75
412.025	491.75
412.249	495.75
412.472	518.75
412.695	486.75
412.919	484.75
413.142	508.75
413.365	482.75
413.589	506.75
413.812	475.75
414.035	483.75
414.258	482.75
414.482	464.75
414.705	477.75
414.928	466.75
415.151	474.75
415.374	484.75
415.597	461.75
415.821	449.75
416.044	457.75
416.267	457.75
416.49	478.75
416.713	464.75
416.936	483.75
417.159	465.75
417.382	443.75
417.605	458.75
417.828	463.75
418.051	449.75
418.274	455.75
418.497	426.75
418.72	454.75
418.943	468.75
419.166	473.75
419.389	493.75
419.611	482.75
419.834	496.75
420.057	469.75
420.28	453.75
420.503	458.75
420.726	466.75
420.948	461.75
421.171	460.75
421.394	464.75
421.617	437.75
421.839	453.75
422.062	446.75
422.285	456.75
422.507	460.75
422.73	443.75
422.953	463.75
423.175	455.75
423.398	447.75
423.621	463.75
423.843	459.75
424.066	464.75
424.288	443.75
424.511	436.75
424.733	443.75
424.956	453.75
425.178	457.75
425.401	436.75
425.623	438.75
425.846	454.75
426.068	448.75
426.291	445.75
426.513	460.75
426.735	442.75
426.958	440.75
427.18	429.75
427.402	434.75
427.625	440.75
427.847	439.75
428.069	429.75
428.292	451.75
428.514	434.75
428.736	430.75
428.958	437.75
429.181	425.75
429.403	426.75
429.625	426.75
429.847	447.75
430.069	434.75
430.292	438.75
430.514	414.75
430.736	428.75
430.958	421.75
431.18	432.75
431.402	427.75
431.624	442.75
431.846	446.75
432.068	424.75
432.29	420.75
432.512	436.75
432.734	458.75
432.956	411.75
433.178	458.75
433.4	437.75
433.622	455.75
433.844	444.75
434.066	438.75
434.287	439.75
434.509	444.75
434.731	454.75
434.953	454.75
435.175	448.75
435.397	429.75
435.618	442.75
435.84	453.75
436.062	445.75
436.284	449.75
436.505	443.75
436.727	426.75
436.949	427.75
437.17	435.75
437.392	425.75
437.614	417.75
437.835	424.75
438.057	416.75
438.278	432.75
438.5	426.75
438.721	422.75
438.943	446.75
439.165	432.75
439.386	428.75
439.608	434.75
439.829	434.75
440.05	420.75
440.272	443.75
440.493	428.75
440.715	446.75
440.936	441.75
441.158	444.75
441.379	430.75
441.6	447.75
441.822	443.75
442.043	442.75
442.264	466.75
442.486	429.75
442.707	436.75
442.928	474.75
443.149	414.75
443.371	435.75
443.592	451.75
443.813	467.75
444.034	446.75
444.255	465.75
444.476	456.75
444.698	464.75
444.919	466.75
445.14	574.75
445.361	494.75
445.582	466.75
445.803	449.75
446.024	446.75
446.245	432.75
446.466	446.75
446.687	441.75
446.908	444.75
447.129	424.75
447.35	436.75
447.571	422.75
447.792	396.75
448.013	411.75
448.234	406.75
448.455	380.75
448.675	404.75
448.896	413.75
449.117	420.75
449.338	388.75
449.559	419.75
449.779	405.75
450	397.75
450.221	405.75
450.442	430.75
450.662	390.75
450.883	395.75
451.104	393.75
451.324	391.75
451.545	401.75
451.766	385.75
451.986	399.75
452.207	413.75
452.428	392.75
452.648	396.75
452.869	401.75
453.089	370.75
453.31	410.75
453.53	378.75
453.751	385.75
453.971	401.75
454.192	371.75
454.412	366.75
454.633	392.75
454.853	392.75
455.073	379.75
455.294	379.75
455.514	393.75
455.734	384.75
455.955	390.75
456.175	380.75
456.395	396.75
456.616	389.75
456.836	397.75
457.056	397.75
457.276	377.75
457.497	409.75
457.717	398.75
457.937	395.75
458.157	406.75
458.377	408.75
458.598	401.75
458.818	415.75
459.038	413.75
459.258	425.75
459.478	430.75
459.698	434.75
459.918	438.75
460.138	432.75
460.358	464.75
460.578	466.75
460.798	468.75
461.018	448.75
461.238	470.75
461.458	477.75
461.678	485.75
461.898	474.75
462.118	470.75
462.338	489.75
462.558	494.75
462.777	513.75
462.997	521.75
463.217	527.75
463.437	520.75
463.657	501.75
463.876	518.75
464.096	534.75
464.316	520.75
464.536	492.75
464.755	485.75
464.975	460.75
465.195	464.75
465.414	473.75
465.634	456.75
465.854	441.75
466.073	460.75
466.293	436.75
466.512	417.75
466.732	420.75
466.951	422.75
467.171	412.75
467.391	432.75
467.61	438.75
467.829	405.75
468.049	425.75
468.268	428.75
468.488	419.75
468.707	422.75
468.927	406.75
469.146	420.75
469.365	422.75
469.585	429.75
469.804	434.75
470.023	423.75
470.243	432.75
470.462	404.75
470.681	435.75
470.901	434.75
471.12	416.75
471.339	437.75
471.558	406.75
471.777	425.75
471.997	411.75
472.216	417.75
472.435	404.75
472.654	424.75
472.873	405.75
473.092	429.75
473.311	414.75
473.53	421.75
473.749	415.75
473.968	418.75
474.187	420.75
474.406	422.75
474.625	441.75
474.844	411.75
475.063	442.75
475.282	452.75
475.501	454.75
475.72	439.75
475.939	413.75
476.158	456.75
476.377	456.75
476.596	436.75
476.814	461.75
477.033	450.75
477.252	449.75
477.471	444.75
477.69	445.75
477.908	477.75
478.127	490.75
478.346	483.75
478.564	475.75
478.783	484.75
479.002	469.75
479.22	482.75
479.439	524.75
479.658	491.75
479.876	509.75
480.095	507.75
480.313	513.75
480.532	486.75
480.751	523.75
480.969	509.75
481.188	516.75
481.406	490.75
481.624	498.75
481.843	486.75
482.061	462.75
482.28	498.75
482.498	496.75
482.717	484.75
482.935	486.75
483.153	484.75
483.372	498.75
483.59	512.75
483.808	483.75
484.027	502.75
484.245	501.75
484.463	502.75
484.681	497.75
484.9	492.75
485.118	521.75
485.336	500.75
485.554	503.75
485.772	501.75
485.99	516.75
486.209	500.75
486.427	512.75
486.645	493.75
486.863	517.75
487.081	511.75
487.299	521.75
487.517	509.75
487.735	518.75
487.953	510.75
488.171	513.75
488.389	487.75
488.607	486.75
488.825	507.75
489.043	509.75
489.261	525.75
489.479	493.75
489.696	497.75
489.914	508.75
490.132	517.75
490.35	517.75
490.568	544.75
490.786	497.75
491.003	517.75
491.221	503.75
491.439	517.75
491.657	497.75
491.874	523.75
492.092	516.75
492.31	527.75
492.527	528.75
492.745	497.75
492.963	544.75
493.18	535.75
493.398	527.75
493.615	545.75
493.833	524.75
494.05	512.75
494.268	508.75
494.485	546.75
494.703	525.75
494.92	538.75
495.138	537.75
495.355	556.75
495.573	535.75
495.79	551.75
496.008	546.75
496.225	531.75
496.442	557.75
496.66	554.75
496.877	580.75
497.094	574.75
497.312	592.75
497.529	597.75
497.746	586.75
497.963	632.75
498.181	624.75
498.398	653.75
498.615	658.75
498.832	680.75
499.049	717.75
499.267	713.75
499.484	783.75
499.701	796.75
499.918	851.75
500.135	831.75
500.352	888.75
500.569	870.75
500.786	878.75
501.003	871.75
501.22	843.75
501.437	802.75
501.654	753.75
501.871	745.75
