Data from Fe(NO3)3@0.1M.TitratingCurve.Agarose3%dH2O.NegLispCup.LampEnergy10.LIBS07252019_HRD10591_16-41-54-333.txt Node
Date: Thu Jul 25 16:41:54 EDT 2019
User: cochatt
Spectrometer: HR+D1059
Trigger mode: 1
Integration Time (sec): 1.000000E-1
Scans to average: 1
Electric dark correction enabled: true
Nonlinearity correction enabled: false
Boxcar width: 0
XAxis mode: Wavelengths
Number of Pixels in Spectrum: 2048
>>>>>Begin Spectral Data<<<<<
223.165	-18.88
223.4	-18.88
223.635	-18.88
223.869	-14.88
224.104	-21.88
224.338	-13.88
224.573	-12.88
224.808	-29.88
225.042	8.12
225.277	-8.88
225.511	14.12
225.746	7.12
225.98	14.12
226.215	14.12
226.449	9.12
226.683	7.12
226.918	14.12
227.152	33.12
227.387	39.12
227.621	43.12
227.856	51.12
228.09	57.12
228.324	37.12
228.559	55.12
228.793	58.12
229.027	71.12
229.262	65.12
229.496	89.12
229.73	83.12
229.964	89.12
230.199	101.12
230.433	90.12
230.667	93.12
230.901	97.12
231.136	101.12
231.37	86.12
231.604	70.12
231.838	104.12
232.072	103.12
232.306	106.12
232.541	97.12
232.775	100.12
233.009	92.12
233.243	108.12
233.477	100.12
233.711	100.12
233.945	94.12
234.179	95.12
234.413	78.12
234.647	105.12
234.881	101.12
235.115	102.12
235.349	107.12
235.583	113.12
235.817	91.12
236.051	110.12
236.285	86.12
236.519	95.12
236.753	90.12
236.987	101.12
237.221	115.12
237.455	86.12
237.689	89.12
237.922	96.12
238.156	89.12
238.39	92.12
238.624	86.12
238.858	108.12
239.091	88.12
239.325	110.12
239.559	106.12
239.793	89.12
240.027	107.12
240.26	98.12
240.494	94.12
240.728	106.12
240.961	116.12
241.195	108.12
241.429	116.12
241.662	105.12
241.896	108.12
242.13	96.12
242.363	92.12
242.597	108.12
242.83	116.12
243.064	107.12
243.298	100.12
243.531	107.12
243.765	122.12
243.998	98.12
244.232	122.12
244.465	101.12
244.699	108.12
244.932	115.12
245.166	128.12
245.399	108.12
245.633	97.12
245.866	107.12
246.099	122.12
246.333	114.12
246.566	117.12
246.8	116.12
247.033	108.12
247.266	117.12
247.5	119.12
247.733	104.12
247.966	104.12
248.2	109.12
248.433	107.12
248.666	108.12
248.899	121.12
249.133	122.12
249.366	123.12
249.599	124.12
249.832	119.12
250.066	122.12
250.299	120.12
250.532	139.12
250.765	128.12
250.998	120.12
251.231	114.12
251.465	132.12
251.698	132.12
251.931	128.12
252.164	125.12
252.397	125.12
252.63	132.12
252.863	123.12
253.096	122.12
253.329	132.12
253.562	136.12
253.795	151.12
254.028	150.12
254.261	123.12
254.494	133.12
254.727	126.12
254.96	133.12
255.193	130.12
255.426	133.12
255.659	138.12
255.892	124.12
256.124	133.12
256.357	140.12
256.59	128.12
256.823	137.12
257.056	139.12
257.289	146.12
257.521	122.12
257.754	152.12
257.987	160.12
258.22	131.12
258.452	145.12
258.685	130.12
258.918	141.12
259.151	136.12
259.383	146.12
259.616	144.12
259.849	137.12
260.081	140.12
260.314	145.12
260.547	140.12
260.779	138.12
261.012	146.12
261.244	141.12
261.477	150.12
261.71	142.12
261.942	145.12
262.175	138.12
262.407	130.12
262.64	150.12
262.872	147.12
263.105	156.12
263.337	156.12
263.57	132.12
263.802	144.12
264.035	144.12
264.267	163.12
264.499	154.12
264.732	133.12
264.964	143.12
265.197	140.12
265.429	140.12
265.661	144.12
265.894	163.12
266.126	148.12
266.358	168.12
266.591	158.12
266.823	157.12
267.055	156.12
267.287	162.12
267.52	166.12
267.752	155.12
267.984	146.12
268.216	140.12
268.448	151.12
268.681	154.12
268.913	168.12
269.145	158.12
269.377	166.12
269.609	163.12
269.841	161.12
270.073	167.12
270.306	166.12
270.538	149.12
270.77	160.12
271.002	167.12
271.234	146.12
271.466	161.12
271.698	154.12
271.93	176.12
272.162	163.12
272.394	160.12
272.626	164.12
272.858	161.12
273.09	154.12
273.322	178.12
273.553	164.12
273.785	155.12
274.017	163.12
274.249	173.12
274.481	164.12
274.713	167.12
274.945	176.12
275.176	184.12
275.408	177.12
275.64	182.12
275.872	164.12
276.104	173.12
276.335	163.12
276.567	156.12
276.799	159.12
277.031	176.12
277.262	165.12
277.494	163.12
277.726	184.12
277.957	177.12
278.189	157.12
278.421	178.12
278.652	178.12
278.884	163.12
279.115	181.12
279.347	182.12
279.579	202.12
279.81	186.12
280.042	183.12
280.273	179.12
280.505	180.12
280.736	185.12
280.968	170.12
281.199	186.12
281.431	184.12
281.662	176.12
281.894	173.12
282.125	188.12
282.356	196.12
282.588	187.12
282.819	198.12
283.051	190.12
283.282	198.12
283.513	206.12
283.745	191.12
283.976	201.12
284.207	200.12
284.439	176.12
284.67	189.12
284.901	186.12
285.132	196.12
285.364	184.12
285.595	190.12
285.826	195.12
286.057	201.12
286.288	196.12
286.52	204.12
286.751	180.12
286.982	206.12
287.213	192.12
287.444	195.12
287.675	191.12
287.906	177.12
288.138	188.12
288.369	176.12
288.6	181.12
288.831	193.12
289.062	209.12
289.293	215.12
289.524	205.12
289.755	201.12
289.986	205.12
290.217	190.12
290.448	194.12
290.679	213.12
290.91	196.12
291.141	195.12
291.371	204.12
291.602	197.12
291.833	192.12
292.064	204.12
292.295	196.12
292.526	211.12
292.757	217.12
292.987	206.12
293.218	214.12
293.449	206.12
293.68	209.12
293.91	209.12
294.141	195.12
294.372	205.12
294.603	206.12
294.833	212.12
295.064	205.12
295.295	217.12
295.525	196.12
295.756	213.12
295.987	198.12
296.217	210.12
296.448	206.12
296.679	202.12
296.909	194.12
297.14	198.12
297.37	220.12
297.601	219.12
297.831	212.12
298.062	226.12
298.292	234.12
298.523	246.12
298.753	212.12
298.984	219.12
299.214	220.12
299.445	221.12
299.675	229.12
299.905	210.12
300.136	220.12
300.366	205.12
300.597	234.12
300.827	217.12
301.057	221.12
301.288	224.12
301.518	228.12
301.748	220.12
301.979	213.12
302.209	199.12
302.439	231.12
302.669	222.12
302.9	226.12
303.13	202.12
303.36	217.12
303.59	243.12
303.82	233.12
304.051	233.12
304.281	226.12
304.511	245.12
304.741	231.12
304.971	221.12
305.201	229.12
305.431	222.12
305.661	232.12
305.891	209.12
306.121	216.12
306.352	226.12
306.582	226.12
306.812	222.12
307.042	211.12
307.272	229.12
307.502	205.12
307.731	224.12
307.961	220.12
308.191	218.12
308.421	209.12
308.651	243.12
308.881	229.12
309.111	214.12
309.341	222.12
309.571	219.12
309.8	221.12
310.03	221.12
310.26	223.12
310.49	226.12
310.72	222.12
310.949	228.12
311.179	227.12
311.409	225.12
311.639	220.12
311.868	221.12
312.098	225.12
312.328	255.12
312.557	230.12
312.787	229.12
313.017	241.12
313.246	229.12
313.476	217.12
313.706	232.12
313.935	240.12
314.165	242.12
314.394	241.12
314.624	245.12
314.853	242.12
315.083	253.12
315.312	240.12
315.542	234.12
315.771	252.12
316.001	226.12
316.23	246.12
316.46	224.12
316.689	229.12
316.919	257.12
317.148	251.12
317.377	247.12
317.607	245.12
317.836	246.12
318.065	239.12
318.295	229.12
318.524	240.12
318.753	252.12
318.983	241.12
319.212	236.12
319.441	244.12
319.67	230.12
319.9	227.12
320.129	220.12
320.358	258.12
320.587	233.12
320.816	248.12
321.046	248.12
321.275	233.12
321.504	213.12
321.733	238.12
321.962	235.12
322.191	243.12
322.42	252.12
322.649	235.12
322.878	240.12
323.108	223.12
323.337	236.12
323.566	227.12
323.795	253.12
324.024	234.12
324.253	226.12
324.482	252.12
324.71	252.12
324.939	271.12
325.168	240.12
325.397	246.12
325.626	268.12
325.855	253.12
326.084	244.12
326.313	243.12
326.542	261.12
326.77	274.12
326.999	255.12
327.228	241.12
327.457	278.12
327.686	266.12
327.914	264.12
328.143	245.12
328.372	236.12
328.6	247.12
328.829	267.12
329.058	256.12
329.287	258.12
329.515	264.12
329.744	270.12
329.972	271.12
330.201	280.12
330.43	264.12
330.658	268.12
330.887	272.12
331.115	274.12
331.344	282.12
331.572	280.12
331.801	278.12
332.03	282.12
332.258	260.12
332.486	292.12
332.715	280.12
332.943	313.12
333.172	316.12
333.4	322.12
333.629	341.12
333.857	328.12
334.085	308.12
334.314	314.12
334.542	321.12
334.771	323.12
334.999	311.12
335.227	312.12
335.455	312.12
335.684	305.12
335.912	325.12
336.14	305.12
336.369	301.12
336.597	314.12
336.825	310.12
337.053	306.12
337.281	298.12
337.51	284.12
337.738	292.12
337.966	287.12
338.194	282.12
338.422	283.12
338.65	277.12
338.878	277.12
339.106	277.12
339.334	286.12
339.562	284.12
339.79	268.12
340.018	263.12
340.246	266.12
340.474	257.12
340.702	258.12
340.93	290.12
341.158	279.12
341.386	280.12
341.614	272.12
341.842	256.12
342.07	272.12
342.298	271.12
342.526	279.12
342.754	300.12
342.981	283.12
343.209	286.12
343.437	294.12
343.665	300.12
343.893	301.12
344.12	310.12
344.348	309.12
344.576	295.12
344.804	284.12
345.031	274.12
345.259	275.12
345.487	253.12
345.714	262.12
345.942	272.12
346.17	272.12
346.397	270.12
346.625	271.12
346.853	261.12
347.08	274.12
347.308	275.12
347.535	276.12
347.763	281.12
347.99	260.12
348.218	263.12
348.445	261.12
348.673	269.12
348.9	266.12
349.128	268.12
349.355	265.12
349.583	265.12
349.81	259.12
350.037	285.12
350.265	271.12
350.492	264.12
350.72	248.12
350.947	280.12
351.174	271.12
351.402	262.12
351.629	278.12
351.856	253.12
352.083	264.12
352.311	252.12
352.538	257.12
352.765	262.12
352.992	261.12
353.22	273.12
353.447	262.12
353.674	280.12
353.901	252.12
354.128	254.12
354.355	256.12
354.583	266.12
354.81	249.12
355.037	251.12
355.264	247.12
355.491	270.12
355.718	241.12
355.945	256.12
356.172	250.12
356.399	261.12
356.626	264.12
356.853	254.12
357.08	264.12
357.307	270.12
357.534	264.12
357.761	266.12
357.988	276.12
358.215	259.12
358.441	258.12
358.668	277.12
358.895	270.12
359.122	248.12
359.349	261.12
359.576	260.12
359.802	272.12
360.029	272.12
360.256	257.12
360.483	267.12
360.709	255.12
360.936	261.12
361.163	270.12
361.39	270.12
361.616	244.12
361.843	260.12
362.07	249.12
362.296	252.12
362.523	258.12
362.749	271.12
362.976	269.12
363.203	256.12
363.429	269.12
363.656	246.12
363.882	271.12
364.109	277.12
364.335	272.12
364.562	281.12
364.788	276.12
365.015	264.12
365.241	260.12
365.468	284.12
365.694	265.12
365.92	268.12
366.147	260.12
366.373	253.12
366.599	264.12
366.826	241.12
367.052	252.12
367.278	267.12
367.505	274.12
367.731	265.12
367.957	285.12
368.184	276.12
368.41	254.12
368.636	270.12
368.862	257.12
369.089	271.12
369.315	284.12
369.541	271.12
369.767	269.12
369.993	265.12
370.219	264.12
370.445	262.12
370.672	252.12
370.898	271.12
371.124	280.12
371.35	278.12
371.576	290.12
371.802	280.12
372.028	283.12
372.254	309.12
372.48	280.12
372.706	280.12
372.932	298.12
373.158	284.12
373.384	275.12
373.61	286.12
373.835	296.12
374.061	284.12
374.287	306.12
374.513	305.12
374.739	302.12
374.965	303.12
375.191	302.12
375.416	318.12
375.642	323.12
375.868	299.12
376.094	298.12
376.319	284.12
376.545	298.12
376.771	282.12
376.997	293.12
377.222	294.12
377.448	285.12
377.674	286.12
377.899	281.12
378.125	279.12
378.35	276.12
378.576	277.12
378.802	286.12
379.027	295.12
379.253	277.12
379.478	271.12
379.704	282.12
379.929	279.12
380.155	297.12
380.38	288.12
380.606	264.12
380.831	280.12
381.057	301.12
381.282	288.12
381.507	292.12
381.733	281.12
381.958	288.12
382.184	268.12
382.409	297.12
382.634	315.12
382.86	310.12
383.085	310.12
383.31	309.12
383.535	308.12
383.761	303.12
383.986	322.12
384.211	316.12
384.436	320.12
384.662	333.12
384.887	337.12
385.112	324.12
385.337	336.12
385.562	315.12
385.787	332.12
386.013	349.12
386.238	313.12
386.463	354.12
386.688	361.12
386.913	332.12
387.138	314.12
387.363	325.12
387.588	353.12
387.813	338.12
388.038	336.12
388.263	333.12
388.488	348.12
388.713	336.12
388.938	312.12
389.163	317.12
389.387	320.12
389.612	312.12
389.837	323.12
390.062	318.12
390.287	355.12
390.512	344.12
390.736	334.12
390.961	349.12
391.186	352.12
391.411	363.12
391.636	379.12
391.86	365.12
392.085	371.12
392.31	362.12
392.534	368.12
392.759	362.12
392.984	353.12
393.208	351.12
393.433	352.12
393.658	349.12
393.882	361.12
394.107	354.12
394.331	344.12
394.556	356.12
394.78	363.12
395.005	369.12
395.229	367.12
395.454	361.12
395.678	364.12
395.903	365.12
396.127	375.12
396.352	354.12
396.576	354.12
396.801	353.12
397.025	343.12
397.249	371.12
397.474	398.12
397.698	378.12
397.922	385.12
398.147	370.12
398.371	380.12
398.595	405.12
398.82	407.12
399.044	446.12
399.268	469.12
399.492	516.12
399.717	576.12
399.941	534.12
400.165	507.12
400.389	468.12
400.613	441.12
400.837	438.12
401.062	419.12
401.286	404.12
401.51	412.12
401.734	409.12
401.958	407.12
402.182	403.12
402.406	446.12
402.63	426.12
402.854	414.12
403.078	453.12
403.302	461.12
403.526	427.12
403.75	451.12
403.974	444.12
404.198	436.12
404.422	462.12
404.645	454.12
404.869	439.12
405.093	456.12
405.317	439.12
405.541	440.12
405.765	427.12
405.988	435.12
406.212	442.12
406.436	448.12
406.66	449.12
406.883	465.12
407.107	499.12
407.331	481.12
407.555	478.12
407.778	499.12
408.002	507.12
408.226	491.12
408.449	496.12
408.673	455.12
408.896	455.12
409.12	464.12
409.344	461.12
409.567	439.12
409.791	468.12
410.014	465.12
410.238	453.12
410.461	456.12
410.685	461.12
410.908	440.12
411.132	443.12
411.355	434.12
411.578	432.12
411.802	431.12
412.025	426.12
412.249	413.12
412.472	424.12
412.695	435.12
412.919	428.12
413.142	411.12
413.365	408.12
413.589	408.12
413.812	422.12
414.035	391.12
414.258	419.12
414.482	426.12
414.705	413.12
414.928	413.12
415.151	441.12
415.374	402.12
415.597	424.12
415.821	415.12
416.044	392.12
416.267	417.12
416.49	420.12
416.713	407.12
416.936	409.12
417.159	392.12
417.382	388.12
417.605	396.12
417.828	414.12
418.051	411.12
418.274	412.12
418.497	426.12
418.72	436.12
418.943	432.12
419.166	430.12
419.389	451.12
419.611	439.12
419.834	444.12
420.057	433.12
420.28	416.12
420.503	400.12
420.726	403.12
420.948	419.12
421.171	414.12
421.394	423.12
421.617	430.12
421.839	428.12
422.062	410.12
422.285	413.12
422.507	405.12
422.73	417.12
422.953	423.12
423.175	430.12
423.398	420.12
423.621	409.12
423.843	417.12
424.066	414.12
424.288	413.12
424.511	428.12
424.733	417.12
424.956	429.12
425.178	416.12
425.401	414.12
425.623	401.12
425.846	403.12
426.068	400.12
426.291	383.12
426.513	389.12
426.735	389.12
426.958	390.12
427.18	391.12
427.402	396.12
427.625	371.12
427.847	388.12
428.069	393.12
428.292	388.12
428.514	385.12
428.736	374.12
428.958	364.12
429.181	366.12
429.403	366.12
429.625	363.12
429.847	366.12
430.069	380.12
430.292	384.12
430.514	385.12
430.736	390.12
430.958	388.12
431.18	357.12
431.402	381.12
431.624	388.12
431.846	376.12
432.068	365.12
432.29	396.12
432.512	384.12
432.734	374.12
432.956	380.12
433.178	398.12
433.4	384.12
433.622	396.12
433.844	384.12
434.066	408.12
434.287	398.12
434.509	404.12
434.731	408.12
434.953	421.12
435.175	393.12
435.397	423.12
435.618	396.12
435.84	402.12
436.062	390.12
436.284	384.12
436.505	384.12
436.727	395.12
436.949	386.12
437.17	405.12
437.392	396.12
437.614	386.12
437.835	369.12
438.057	374.12
438.278	347.12
438.5	384.12
438.721	376.12
438.943	393.12
439.165	378.12
439.386	394.12
439.608	384.12
439.829	392.12
440.05	386.12
440.272	386.12
440.493	396.12
440.715	406.12
440.936	412.12
441.158	406.12
441.379	417.12
441.6	436.12
441.822	419.12
442.043	416.12
442.264	428.12
442.486	409.12
442.707	412.12
442.928	428.12
443.149	430.12
443.371	396.12
443.592	435.12
443.813	435.12
444.034	444.12
444.255	465.12
444.476	476.12
444.698	492.12
444.919	509.12
445.14	544.12
445.361	496.12
445.582	436.12
445.803	428.12
446.024	412.12
446.245	403.12
446.466	402.12
446.687	391.12
446.908	388.12
447.129	389.12
447.35	392.12
447.571	385.12
447.792	377.12
448.013	362.12
448.234	372.12
448.455	372.12
448.675	362.12
448.896	362.12
449.117	352.12
449.338	358.12
449.559	363.12
449.779	362.12
450	355.12
450.221	362.12
450.442	370.12
450.662	354.12
450.883	360.12
451.104	370.12
451.324	369.12
451.545	359.12
451.766	364.12
451.986	356.12
452.207	370.12
452.428	362.12
452.648	352.12
452.869	356.12
453.089	347.12
453.31	349.12
453.53	363.12
453.751	344.12
453.971	326.12
454.192	355.12
454.412	338.12
454.633	354.12
454.853	338.12
455.073	343.12
455.294	343.12
455.514	355.12
455.734	321.12
455.955	324.12
456.175	347.12
456.395	346.12
456.616	316.12
456.836	354.12
457.056	343.12
457.276	322.12
457.497	326.12
457.717	356.12
457.937	339.12
458.157	349.12
458.377	342.12
458.598	342.12
458.818	348.12
459.038	356.12
459.258	365.12
459.478	387.12
459.698	370.12
459.918	380.12
460.138	420.12
460.358	465.12
460.578	436.12
460.798	437.12
461.018	435.12
461.238	421.12
461.458	441.12
461.678	432.12
461.898	434.12
462.118	423.12
462.338	449.12
462.558	469.12
462.777	478.12
462.997	534.12
463.217	541.12
463.437	544.12
463.657	512.12
463.876	495.12
464.096	481.12
464.316	486.12
464.536	488.12
464.755	476.12
464.975	478.12
465.195	445.12
465.414	390.12
465.634	380.12
465.854	408.12
466.073	382.12
466.293	397.12
466.512	373.12
466.732	388.12
466.951	367.12
467.171	379.12
467.391	381.12
467.61	365.12
467.829	376.12
468.049	365.12
468.268	380.12
468.488	378.12
468.707	352.12
468.927	364.12
469.146	372.12
469.365	363.12
469.585	368.12
469.804	374.12
470.023	343.12
470.243	386.12
470.462	378.12
470.681	382.12
470.901	388.12
471.12	381.12
471.339	384.12
471.558	375.12
471.777	349.12
471.997	355.12
472.216	348.12
472.435	358.12
472.654	365.12
472.873	342.12
473.092	354.12
473.311	340.12
473.53	348.12
473.749	339.12
473.968	330.12
474.187	366.12
474.406	354.12
474.625	368.12
474.844	354.12
475.063	352.12
475.282	342.12
475.501	328.12
475.72	370.12
475.939	354.12
476.158	338.12
476.377	357.12
476.596	354.12
476.814	355.12
477.033	344.12
477.252	372.12
477.471	372.12
477.69	365.12
477.908	404.12
478.127	394.12
478.346	415.12
478.564	424.12
478.783	408.12
479.002	418.12
479.22	402.12
479.439	419.12
479.658	407.12
479.876	393.12
480.095	405.12
480.313	427.12
480.532	444.12
480.751	438.12
480.969	414.12
481.188	403.12
481.406	399.12
481.624	395.12
481.843	389.12
482.061	374.12
482.28	379.12
482.498	374.12
482.717	391.12
482.935	398.12
483.153	389.12
483.372	389.12
483.59	381.12
483.808	390.12
484.027	394.12
484.245	398.12
484.463	368.12
484.681	398.12
484.9	396.12
485.118	402.12
485.336	395.12
485.554	385.12
485.772	404.12
485.99	402.12
486.209	413.12
486.427	396.12
486.645	412.12
486.863	401.12
487.081	384.12
487.299	383.12
487.517	385.12
487.735	396.12
487.953	430.12
488.171	410.12
488.389	406.12
488.607	389.12
488.825	397.12
489.043	380.12
489.261	395.12
489.479	377.12
489.696	398.12
489.914	382.12
490.132	390.12
490.35	406.12
490.568	413.12
490.786	387.12
491.003	398.12
491.221	409.12
491.439	412.12
491.657	421.12
491.874	399.12
492.092	434.12
492.31	435.12
492.527	436.12
492.745	419.12
492.963	416.12
493.18	447.12
493.398	447.12
493.615	391.12
493.833	420.12
494.05	423.12
494.268	423.12
494.485	425.12
494.703	437.12
494.92	408.12
495.138	412.12
495.355	422.12
495.573	442.12
495.79	440.12
496.008	417.12
496.225	449.12
496.442	437.12
496.66	440.12
496.877	448.12
497.094	428.12
497.312	474.12
497.529	481.12
497.746	468.12
497.963	477.12
498.181	515.12
498.398	491.12
498.615	542.12
498.832	578.12
499.049	598.12
499.267	630.12
499.484	701.12
499.701	736.12
499.918	829.12
500.135	926.12
500.352	1000.12
500.569	1028.12
500.786	1053.12
501.003	944.12
501.22	865.12
501.437	798.12
501.654	721.12
501.871	677.12
502.088	626.12
