Data from Fe(NO3)3@0.1M.TitratingCurve.Agarose3%dH2O.NegLispCup.LampEnergy10.LIBS07252019_HRD10591_16-39-40-336.txt Node
Date: Thu Jul 25 16:39:40 EDT 2019
User: cochatt
Spectrometer: HR+D1059
Trigger mode: 1
Integration Time (sec): 1.000000E-1
Scans to average: 1
Electric dark correction enabled: true
Nonlinearity correction enabled: false
Boxcar width: 0
XAxis mode: Wavelengths
Number of Pixels in Spectrum: 2048
>>>>>Begin Spectral Data<<<<<
223.165	-4.19
223.4	-4.19
223.635	-4.19
223.869	-3.19
224.104	-18.19
224.338	-16.19
224.573	-21.19
224.808	-10.19
225.042	-8.19
225.277	-3.19
225.511	-12.19
225.746	11.81
225.98	3.81
226.215	10.81
226.449	9.81
226.683	19.81
226.918	16.81
227.152	23.81
227.387	27.81
227.621	40.81
227.856	43.81
228.09	39.81
228.324	53.81
228.559	59.81
228.793	53.81
229.027	78.81
229.262	78.81
229.496	66.81
229.73	64.81
229.964	82.81
230.199	78.81
230.433	100.81
230.667	102.81
230.901	95.81
231.136	93.81
231.37	100.81
231.604	90.81
231.838	99.81
232.072	89.81
232.306	99.81
232.541	94.81
232.775	87.81
233.009	98.81
233.243	99.81
233.477	102.81
233.711	94.81
233.945	90.81
234.179	108.81
234.413	111.81
234.647	106.81
234.881	106.81
235.115	93.81
235.349	99.81
235.583	111.81
235.817	105.81
236.051	100.81
236.285	106.81
236.519	98.81
236.753	117.81
236.987	92.81
237.221	98.81
237.455	97.81
237.689	95.81
237.922	91.81
238.156	98.81
238.39	94.81
238.624	109.81
238.858	101.81
239.091	101.81
239.325	101.81
239.559	94.81
239.793	85.81
240.027	107.81
240.26	110.81
240.494	118.81
240.728	120.81
240.961	121.81
241.195	107.81
241.429	118.81
241.662	101.81
241.896	104.81
242.13	106.81
242.363	114.81
242.597	112.81
242.83	118.81
243.064	109.81
243.298	105.81
243.531	115.81
243.765	111.81
243.998	139.81
244.232	126.81
244.465	109.81
244.699	133.81
244.932	128.81
245.166	116.81
245.399	109.81
245.633	112.81
245.866	101.81
246.099	134.81
246.333	127.81
246.566	130.81
246.8	108.81
247.033	120.81
247.266	129.81
247.5	117.81
247.733	116.81
247.966	111.81
248.2	124.81
248.433	130.81
248.666	130.81
248.899	132.81
249.133	139.81
249.366	128.81
249.599	122.81
249.832	121.81
250.066	122.81
250.299	114.81
250.532	126.81
250.765	135.81
250.998	128.81
251.231	132.81
251.465	131.81
251.698	142.81
251.931	138.81
252.164	127.81
252.397	147.81
252.63	134.81
252.863	135.81
253.096	142.81
253.329	128.81
253.562	148.81
253.795	135.81
254.028	141.81
254.261	142.81
254.494	141.81
254.727	145.81
254.96	130.81
255.193	157.81
255.426	161.81
255.659	138.81
255.892	142.81
256.124	132.81
256.357	127.81
256.59	154.81
256.823	151.81
257.056	142.81
257.289	145.81
257.521	161.81
257.754	141.81
257.987	154.81
258.22	144.81
258.452	142.81
258.685	148.81
258.918	140.81
259.151	156.81
259.383	146.81
259.616	166.81
259.849	156.81
260.081	155.81
260.314	151.81
260.547	144.81
260.779	146.81
261.012	166.81
261.244	169.81
261.477	163.81
261.71	170.81
261.942	149.81
262.175	158.81
262.407	155.81
262.64	167.81
262.872	160.81
263.105	165.81
263.337	154.81
263.57	157.81
263.802	176.81
264.035	173.81
264.267	163.81
264.499	168.81
264.732	173.81
264.964	171.81
265.197	148.81
265.429	173.81
265.661	163.81
265.894	178.81
266.126	167.81
266.358	158.81
266.591	179.81
266.823	187.81
267.055	170.81
267.287	179.81
267.52	166.81
267.752	184.81
267.984	167.81
268.216	184.81
268.448	184.81
268.681	179.81
268.913	176.81
269.145	186.81
269.377	178.81
269.609	174.81
269.841	177.81
270.073	177.81
270.306	174.81
270.538	186.81
270.77	187.81
271.002	193.81
271.234	179.81
271.466	176.81
271.698	184.81
271.93	164.81
272.162	181.81
272.394	186.81
272.626	182.81
272.858	180.81
273.09	182.81
273.322	196.81
273.553	174.81
273.785	190.81
274.017	191.81
274.249	197.81
274.481	184.81
274.713	188.81
274.945	205.81
275.176	206.81
275.408	197.81
275.64	190.81
275.872	184.81
276.104	187.81
276.335	206.81
276.567	187.81
276.799	200.81
277.031	182.81
277.262	196.81
277.494	204.81
277.726	194.81
277.957	207.81
278.189	204.81
278.421	192.81
278.652	198.81
278.884	181.81
279.115	219.81
279.347	210.81
279.579	219.81
279.81	205.81
280.042	215.81
280.273	189.81
280.505	215.81
280.736	209.81
280.968	218.81
281.199	211.81
281.431	221.81
281.662	209.81
281.894	208.81
282.125	220.81
282.356	200.81
282.588	206.81
282.819	211.81
283.051	198.81
283.282	216.81
283.513	215.81
283.745	211.81
283.976	213.81
284.207	203.81
284.439	191.81
284.67	208.81
284.901	212.81
285.132	209.81
285.364	223.81
285.595	217.81
285.826	212.81
286.057	222.81
286.288	215.81
286.52	218.81
286.751	235.81
286.982	227.81
287.213	221.81
287.444	216.81
287.675	213.81
287.906	233.81
288.138	220.81
288.369	230.81
288.6	221.81
288.831	231.81
289.062	246.81
289.293	226.81
289.524	219.81
289.755	230.81
289.986	223.81
290.217	231.81
290.448	236.81
290.679	225.81
290.91	240.81
291.141	224.81
291.371	217.81
291.602	237.81
291.833	232.81
292.064	252.81
292.295	229.81
292.526	248.81
292.757	222.81
292.987	228.81
293.218	227.81
293.449	241.81
293.68	237.81
293.91	226.81
294.141	240.81
294.372	225.81
294.603	236.81
294.833	236.81
295.064	261.81
295.295	237.81
295.525	238.81
295.756	246.81
295.987	253.81
296.217	256.81
296.448	240.81
296.679	242.81
296.909	243.81
297.14	232.81
297.37	241.81
297.601	240.81
297.831	252.81
298.062	253.81
298.292	256.81
298.523	254.81
298.753	251.81
298.984	234.81
299.214	219.81
299.445	262.81
299.675	257.81
299.905	247.81
300.136	239.81
300.366	268.81
300.597	238.81
300.827	268.81
301.057	244.81
301.288	256.81
301.518	242.81
301.748	258.81
301.979	256.81
302.209	263.81
302.439	257.81
302.669	240.81
302.9	252.81
303.13	271.81
303.36	258.81
303.59	259.81
303.82	242.81
304.051	256.81
304.281	273.81
304.511	280.81
304.741	256.81
304.971	271.81
305.201	255.81
305.431	252.81
305.661	254.81
305.891	275.81
306.121	250.81
306.352	272.81
306.582	263.81
306.812	266.81
307.042	266.81
307.272	263.81
307.502	261.81
307.731	270.81
307.961	252.81
308.191	252.81
308.421	269.81
308.651	270.81
308.881	269.81
309.111	259.81
309.341	262.81
309.571	254.81
309.8	259.81
310.03	248.81
310.26	263.81
310.49	260.81
310.72	267.81
310.949	259.81
311.179	274.81
311.409	275.81
311.639	265.81
311.868	269.81
312.098	287.81
312.328	274.81
312.557	264.81
312.787	276.81
313.017	279.81
313.246	283.81
313.476	261.81
313.706	275.81
313.935	271.81
314.165	270.81
314.394	258.81
314.624	266.81
314.853	298.81
315.083	294.81
315.312	266.81
315.542	279.81
315.771	282.81
316.001	286.81
316.23	259.81
316.46	271.81
316.689	277.81
316.919	271.81
317.148	275.81
317.377	279.81
317.607	277.81
317.836	294.81
318.065	275.81
318.295	285.81
318.524	287.81
318.753	296.81
318.983	276.81
319.212	280.81
319.441	264.81
319.67	277.81
319.9	286.81
320.129	256.81
320.358	279.81
320.587	286.81
320.816	268.81
321.046	293.81
321.275	286.81
321.504	254.81
321.733	283.81
321.962	272.81
322.191	290.81
322.42	294.81
322.649	286.81
322.878	270.81
323.108	269.81
323.337	295.81
323.566	292.81
323.795	280.81
324.024	281.81
324.253	286.81
324.482	260.81
324.71	281.81
324.939	275.81
325.168	293.81
325.397	308.81
325.626	292.81
325.855	296.81
326.084	304.81
326.313	296.81
326.542	317.81
326.77	298.81
326.999	296.81
327.228	300.81
327.457	306.81
327.686	312.81
327.914	299.81
328.143	319.81
328.372	302.81
328.6	299.81
328.829	319.81
329.058	289.81
329.287	302.81
329.515	309.81
329.744	309.81
329.972	320.81
330.201	313.81
330.43	293.81
330.658	314.81
330.887	316.81
331.115	305.81
331.344	333.81
331.572	322.81
331.801	315.81
332.03	333.81
332.258	344.81
332.486	343.81
332.715	349.81
332.943	353.81
333.172	370.81
333.4	376.81
333.629	378.81
333.857	382.81
334.085	376.81
334.314	383.81
334.542	374.81
334.771	365.81
334.999	370.81
335.227	378.81
335.455	368.81
335.684	358.81
335.912	351.81
336.14	389.81
336.369	366.81
336.597	383.81
336.825	372.81
337.053	362.81
337.281	350.81
337.51	356.81
337.738	348.81
337.966	334.81
338.194	319.81
338.422	355.81
338.65	337.81
338.878	315.81
339.106	344.81
339.334	322.81
339.562	317.81
339.79	318.81
340.018	330.81
340.246	285.81
340.474	330.81
340.702	315.81
340.93	312.81
341.158	315.81
341.386	322.81
341.614	331.81
341.842	314.81
342.07	298.81
342.298	314.81
342.526	317.81
342.754	295.81
342.981	316.81
343.209	325.81
343.437	330.81
343.665	362.81
343.893	374.81
344.12	370.81
344.348	367.81
344.576	370.81
344.804	349.81
345.031	333.81
345.259	330.81
345.487	308.81
345.714	310.81
345.942	320.81
346.17	320.81
346.397	315.81
346.625	318.81
346.853	337.81
347.08	307.81
347.308	306.81
347.535	305.81
347.763	309.81
347.99	308.81
348.218	306.81
348.445	307.81
348.673	330.81
348.9	319.81
349.128	316.81
349.355	299.81
349.583	292.81
349.81	308.81
350.037	290.81
350.265	293.81
350.492	301.81
350.72	302.81
350.947	301.81
351.174	310.81
351.402	321.81
351.629	298.81
351.856	297.81
352.083	278.81
352.311	303.81
352.538	303.81
352.765	328.81
352.992	308.81
353.22	309.81
353.447	284.81
353.674	308.81
353.901	293.81
354.128	306.81
354.355	293.81
354.583	309.81
354.81	310.81
355.037	319.81
355.264	310.81
355.491	309.81
355.718	315.81
355.945	314.81
356.172	305.81
356.399	315.81
356.626	302.81
356.853	306.81
357.08	310.81
357.307	294.81
357.534	300.81
357.761	308.81
357.988	307.81
358.215	326.81
358.441	314.81
358.668	291.81
358.895	299.81
359.122	318.81
359.349	305.81
359.576	306.81
359.802	290.81
360.029	301.81
360.256	314.81
360.483	315.81
360.709	307.81
360.936	307.81
361.163	288.81
361.39	300.81
361.616	311.81
361.843	302.81
362.07	326.81
362.296	323.81
362.523	309.81
362.749	301.81
362.976	296.81
363.203	312.81
363.429	319.81
363.656	302.81
363.882	291.81
364.109	299.81
364.335	313.81
364.562	322.81
364.788	299.81
365.015	316.81
365.241	315.81
365.468	322.81
365.694	302.81
365.92	320.81
366.147	291.81
366.373	308.81
366.599	307.81
366.826	303.81
367.052	305.81
367.278	284.81
367.505	318.81
367.731	309.81
367.957	306.81
368.184	316.81
368.41	312.81
368.636	306.81
368.862	337.81
369.089	310.81
369.315	331.81
369.541	314.81
369.767	328.81
369.993	317.81
370.219	314.81
370.445	340.81
370.672	330.81
370.898	343.81
371.124	335.81
371.35	343.81
371.576	339.81
371.802	348.81
372.028	328.81
372.254	312.81
372.48	348.81
372.706	357.81
372.932	338.81
373.158	338.81
373.384	362.81
373.61	336.81
373.835	337.81
374.061	348.81
374.287	343.81
374.513	343.81
374.739	351.81
374.965	374.81
375.191	360.81
375.416	358.81
375.642	362.81
375.868	364.81
376.094	352.81
376.319	341.81
376.545	348.81
376.771	332.81
376.997	341.81
377.222	333.81
377.448	342.81
377.674	328.81
377.899	357.81
378.125	347.81
378.35	333.81
378.576	333.81
378.802	323.81
379.027	343.81
379.253	335.81
379.478	326.81
379.704	336.81
379.929	313.81
380.155	339.81
380.38	338.81
380.606	346.81
380.831	349.81
381.057	359.81
381.282	332.81
381.507	349.81
381.733	341.81
381.958	336.81
382.184	355.81
382.409	365.81
382.634	341.81
382.86	351.81
383.085	356.81
383.31	370.81
383.535	375.81
383.761	384.81
383.986	374.81
384.211	379.81
384.436	426.81
384.662	390.81
384.887	405.81
385.112	389.81
385.337	387.81
385.562	395.81
385.787	406.81
386.013	433.81
386.238	383.81
386.463	419.81
386.688	415.81
386.913	399.81
387.138	385.81
387.363	380.81
387.588	383.81
387.813	386.81
388.038	406.81
388.263	405.81
388.488	404.81
388.713	387.81
388.938	414.81
389.163	397.81
389.387	397.81
389.612	399.81
389.837	396.81
390.062	396.81
390.287	396.81
390.512	403.81
390.736	404.81
390.961	401.81
391.186	390.81
391.411	416.81
391.636	450.81
391.86	428.81
392.085	458.81
392.31	456.81
392.534	444.81
392.759	429.81
392.984	419.81
393.208	430.81
393.433	432.81
393.658	417.81
393.882	436.81
394.107	417.81
394.331	434.81
394.556	428.81
394.78	419.81
395.005	439.81
395.229	438.81
395.454	447.81
395.678	469.81
395.903	451.81
396.127	440.81
396.352	432.81
396.576	423.81
396.801	414.81
397.025	424.81
397.249	429.81
397.474	466.81
397.698	442.81
397.922	434.81
398.147	463.81
398.371	468.81
398.595	479.81
398.82	512.81
399.044	527.81
399.268	540.81
399.492	638.81
399.717	686.81
399.941	682.81
400.165	615.81
400.389	578.81
400.613	536.81
400.837	522.81
401.062	519.81
401.286	503.81
401.51	505.81
401.734	490.81
401.958	506.81
402.182	487.81
402.406	514.81
402.63	517.81
402.854	506.81
403.078	520.81
403.302	526.81
403.526	545.81
403.75	557.81
403.974	556.81
404.198	546.81
404.422	565.81
404.645	558.81
404.869	544.81
405.093	547.81
405.317	534.81
405.541	531.81
405.765	548.81
405.988	519.81
406.212	524.81
406.436	541.81
406.66	564.81
406.883	582.81
407.107	604.81
407.331	622.81
407.555	615.81
407.778	615.81
408.002	611.81
408.226	580.81
408.449	594.81
408.673	606.81
408.896	548.81
409.12	557.81
409.344	555.81
409.567	558.81
409.791	557.81
410.014	552.81
410.238	568.81
410.461	564.81
410.685	550.81
410.908	550.81
411.132	529.81
411.355	531.81
411.578	543.81
411.802	555.81
412.025	538.81
412.249	542.81
412.472	544.81
412.695	495.81
412.919	501.81
413.142	517.81
413.365	494.81
413.589	527.81
413.812	518.81
414.035	524.81
414.258	491.81
414.482	507.81
414.705	505.81
414.928	517.81
415.151	515.81
415.374	502.81
415.597	518.81
415.821	509.81
416.044	492.81
416.267	490.81
416.49	502.81
416.713	492.81
416.936	507.81
417.159	515.81
417.382	494.81
417.605	486.81
417.828	489.81
418.051	506.81
418.274	494.81
418.497	493.81
418.72	504.81
418.943	514.81
419.166	546.81
419.389	561.81
419.611	544.81
419.834	551.81
420.057	537.81
420.28	518.81
420.503	506.81
420.726	488.81
420.948	492.81
421.171	497.81
421.394	490.81
421.617	500.81
421.839	483.81
422.062	512.81
422.285	499.81
422.507	493.81
422.73	485.81
422.953	493.81
423.175	524.81
423.398	503.81
423.621	501.81
423.843	505.81
424.066	512.81
424.288	511.81
424.511	496.81
424.733	535.81
424.956	512.81
425.178	526.81
425.401	500.81
425.623	496.81
425.846	464.81
426.068	495.81
426.291	462.81
426.513	471.81
426.735	471.81
426.958	475.81
427.18	475.81
427.402	480.81
427.625	464.81
427.847	466.81
428.069	461.81
428.292	448.81
428.514	439.81
428.736	440.81
428.958	458.81
429.181	459.81
429.403	439.81
429.625	472.81
429.847	481.81
430.069	452.81
430.292	468.81
430.514	453.81
430.736	440.81
430.958	464.81
431.18	437.81
431.402	459.81
431.624	448.81
431.846	470.81
432.068	460.81
432.29	448.81
432.512	437.81
432.734	459.81
432.956	438.81
433.178	466.81
433.4	478.81
433.622	466.81
433.844	461.81
434.066	476.81
434.287	469.81
434.509	491.81
434.731	480.81
434.953	498.81
435.175	528.81
435.397	493.81
435.618	494.81
435.84	483.81
436.062	466.81
436.284	466.81
436.505	464.81
436.727	475.81
436.949	464.81
437.17	462.81
437.392	463.81
437.614	471.81
437.835	434.81
438.057	432.81
438.278	434.81
438.5	436.81
438.721	462.81
438.943	457.81
439.165	456.81
439.386	451.81
439.608	450.81
439.829	450.81
440.05	466.81
440.272	491.81
440.493	474.81
440.715	473.81
440.936	491.81
441.158	491.81
441.379	518.81
441.6	509.81
441.822	515.81
442.043	532.81
442.264	506.81
442.486	520.81
442.707	486.81
442.928	475.81
443.149	514.81
443.371	530.81
443.592	533.81
443.813	515.81
444.034	530.81
444.255	539.81
444.476	562.81
444.698	564.81
444.919	582.81
445.14	635.81
445.361	566.81
445.582	530.81
445.803	491.81
446.024	501.81
446.245	496.81
446.466	495.81
446.687	472.81
446.908	481.81
447.129	500.81
447.35	467.81
447.571	455.81
447.792	444.81
448.013	460.81
448.234	438.81
448.455	443.81
448.675	437.81
448.896	445.81
449.117	433.81
449.338	434.81
449.559	455.81
449.779	435.81
450	446.81
450.221	438.81
450.442	449.81
450.662	443.81
450.883	419.81
451.104	446.81
451.324	429.81
451.545	438.81
451.766	445.81
451.986	429.81
452.207	461.81
452.428	421.81
452.648	447.81
452.869	423.81
453.089	421.81
453.31	434.81
453.53	419.81
453.751	416.81
453.971	415.81
454.192	404.81
454.412	407.81
454.633	414.81
454.853	393.81
455.073	381.81
455.294	421.81
455.514	397.81
455.734	406.81
455.955	403.81
456.175	398.81
456.395	404.81
456.616	395.81
456.836	399.81
457.056	399.81
457.276	401.81
457.497	395.81
457.717	408.81
457.937	407.81
458.157	412.81
458.377	400.81
458.598	419.81
458.818	442.81
459.038	438.81
459.258	440.81
459.478	462.81
459.698	469.81
459.918	476.81
460.138	509.81
460.358	544.81
460.578	526.81
460.798	509.81
461.018	538.81
461.238	552.81
461.458	527.81
461.678	531.81
461.898	543.81
462.118	528.81
462.338	572.81
462.558	580.81
462.777	589.81
462.997	628.81
463.217	677.81
463.437	661.81
463.657	638.81
463.876	605.81
464.096	573.81
464.316	594.81
464.536	590.81
464.755	581.81
464.975	588.81
465.195	543.81
465.414	508.81
465.634	486.81
465.854	486.81
466.073	484.81
466.293	454.81
466.512	438.81
466.732	439.81
466.951	473.81
467.171	445.81
467.391	455.81
467.61	439.81
467.829	460.81
468.049	468.81
468.268	426.81
468.488	437.81
468.707	442.81
468.927	416.81
469.146	435.81
469.365	451.81
469.585	465.81
469.804	448.81
470.023	447.81
470.243	429.81
470.462	455.81
470.681	459.81
470.901	442.81
471.12	449.81
471.339	474.81
471.558	416.81
471.777	421.81
471.997	418.81
472.216	436.81
472.435	430.81
472.654	430.81
472.873	428.81
473.092	415.81
473.311	440.81
473.53	440.81
473.749	419.81
473.968	415.81
474.187	404.81
474.406	406.81
474.625	423.81
474.844	426.81
475.063	426.81
475.282	436.81
475.501	420.81
475.72	421.81
475.939	438.81
476.158	444.81
476.377	434.81
476.596	450.81
476.814	450.81
477.033	435.81
477.252	448.81
477.471	454.81
477.69	493.81
477.908	471.81
478.127	476.81
478.346	500.81
478.564	501.81
478.783	495.81
479.002	519.81
479.22	508.81
479.439	505.81
479.658	494.81
479.876	498.81
480.095	509.81
480.313	508.81
480.532	555.81
480.751	533.81
480.969	486.81
481.188	506.81
481.406	488.81
481.624	496.81
481.843	450.81
482.061	478.81
482.28	464.81
482.498	475.81
482.717	446.81
482.935	463.81
483.153	467.81
483.372	469.81
483.59	479.81
483.808	464.81
484.027	480.81
484.245	493.81
484.463	478.81
484.681	490.81
484.9	497.81
485.118	494.81
485.336	502.81
485.554	478.81
485.772	484.81
485.99	475.81
486.209	476.81
486.427	474.81
486.645	471.81
486.863	476.81
487.081	493.81
487.299	487.81
487.517	472.81
487.735	484.81
487.953	484.81
488.171	499.81
488.389	483.81
488.607	471.81
488.825	490.81
489.043	480.81
489.261	496.81
489.479	500.81
489.696	476.81
489.914	487.81
490.132	481.81
490.35	490.81
490.568	518.81
490.786	514.81
491.003	509.81
491.221	492.81
491.439	494.81
491.657	486.81
491.874	487.81
492.092	521.81
492.31	512.81
492.527	504.81
492.745	507.81
492.963	503.81
493.18	511.81
493.398	509.81
493.615	511.81
493.833	498.81
494.05	521.81
494.268	534.81
494.485	512.81
494.703	520.81
494.92	522.81
495.138	520.81
495.355	500.81
495.573	508.81
495.79	523.81
496.008	545.81
496.225	561.81
496.442	537.81
496.66	530.81
496.877	542.81
497.094	564.81
497.312	566.81
497.529	569.81
497.746	586.81
497.963	595.81
498.181	620.81
498.398	627.81
498.615	663.81
498.832	691.81
499.049	749.81
499.267	793.81
499.484	889.81
499.701	954.81
499.918	1013.81
500.135	1137.81
500.352	1256.81
500.569	1280.81
500.786	1274.81
501.003	1173.81
501.22	1072.81
501.437	992.81
501.654	898.81
501.871	831.81
