Data from Fe(NO3)3@0.0125M.TitratingCurve.Agarose3%dH2O.NegLispCup.LampEnergy10.LIBS07252019_HRD10591_17-00-35-337.txt Node
Date: Thu Jul 25 17:00:35 EDT 2019
User: cochatt
Spectrometer: HR+D1059
Trigger mode: 1
Integration Time (sec): 1.000000E-1
Scans to average: 1
Electric dark correction enabled: true
Nonlinearity correction enabled: false
Boxcar width: 0
XAxis mode: Wavelengths
Number of Pixels in Spectrum: 2048
>>>>>Begin Spectral Data<<<<<
223.165	-21.38
223.4	-21.38
223.635	-21.38
223.869	-17.38
224.104	-16.38
224.338	-16.38
224.573	-29.38
224.808	-20.38
225.042	-1.38
225.277	-1.38
225.511	-5.38
225.746	6.62
225.98	7.62
226.215	8.62
226.449	19.62
226.683	24.62
226.918	26.62
227.152	35.62
227.387	41.62
227.621	27.62
227.856	39.62
228.09	30.62
228.324	58.62
228.559	62.62
228.793	53.62
229.027	84.62
229.262	69.62
229.496	90.62
229.73	92.62
229.964	84.62
230.199	84.62
230.433	80.62
230.667	84.62
230.901	81.62
231.136	94.62
231.37	101.62
231.604	99.62
231.838	87.62
232.072	100.62
232.306	86.62
232.541	111.62
232.775	100.62
233.009	91.62
233.243	106.62
233.477	114.62
233.711	102.62
233.945	108.62
234.179	104.62
234.413	104.62
234.647	90.62
234.881	116.62
235.115	92.62
235.349	97.62
235.583	100.62
235.817	97.62
236.051	99.62
236.285	106.62
236.519	108.62
236.753	114.62
236.987	101.62
237.221	82.62
237.455	99.62
237.689	97.62
237.922	107.62
238.156	107.62
238.39	104.62
238.624	114.62
238.858	100.62
239.091	105.62
239.325	114.62
239.559	118.62
239.793	97.62
240.027	100.62
240.26	116.62
240.494	126.62
240.728	110.62
240.961	120.62
241.195	129.62
241.429	116.62
241.662	97.62
241.896	113.62
242.13	105.62
242.363	117.62
242.597	105.62
242.83	133.62
243.064	122.62
243.298	120.62
243.531	113.62
243.765	118.62
243.998	123.62
244.232	116.62
244.465	122.62
244.699	117.62
244.932	125.62
245.166	116.62
245.399	108.62
245.633	116.62
245.866	132.62
246.099	130.62
246.333	127.62
246.566	123.62
246.8	118.62
247.033	121.62
247.266	117.62
247.5	123.62
247.733	133.62
247.966	121.62
248.2	122.62
248.433	127.62
248.666	132.62
248.899	136.62
249.133	139.62
249.366	144.62
249.599	130.62
249.832	122.62
250.066	143.62
250.299	136.62
250.532	143.62
250.765	150.62
250.998	137.62
251.231	131.62
251.465	139.62
251.698	121.62
251.931	140.62
252.164	129.62
252.397	124.62
252.63	145.62
252.863	131.62
253.096	146.62
253.329	159.62
253.562	153.62
253.795	137.62
254.028	156.62
254.261	133.62
254.494	144.62
254.727	148.62
254.96	145.62
255.193	146.62
255.426	149.62
255.659	151.62
255.892	158.62
256.124	138.62
256.357	163.62
256.59	144.62
256.823	138.62
257.056	143.62
257.289	159.62
257.521	154.62
257.754	155.62
257.987	146.62
258.22	159.62
258.452	141.62
258.685	135.62
258.918	145.62
259.151	174.62
259.383	145.62
259.616	152.62
259.849	157.62
260.081	174.62
260.314	176.62
260.547	183.62
260.779	168.62
261.012	163.62
261.244	177.62
261.477	178.62
261.71	166.62
261.942	164.62
262.175	169.62
262.407	153.62
262.64	155.62
262.872	154.62
263.105	175.62
263.337	182.62
263.57	176.62
263.802	170.62
264.035	158.62
264.267	158.62
264.499	170.62
264.732	174.62
264.964	162.62
265.197	155.62
265.429	165.62
265.661	170.62
265.894	178.62
266.126	178.62
266.358	186.62
266.591	186.62
266.823	155.62
267.055	163.62
267.287	167.62
267.52	175.62
267.752	173.62
267.984	180.62
268.216	185.62
268.448	180.62
268.681	170.62
268.913	183.62
269.145	178.62
269.377	160.62
269.609	186.62
269.841	188.62
270.073	196.62
270.306	200.62
270.538	180.62
270.77	182.62
271.002	174.62
271.234	194.62
271.466	187.62
271.698	186.62
271.93	184.62
272.162	184.62
272.394	179.62
272.626	195.62
272.858	206.62
273.09	186.62
273.322	208.62
273.553	203.62
273.785	197.62
274.017	212.62
274.249	209.62
274.481	210.62
274.713	219.62
274.945	233.62
275.176	210.62
275.408	206.62
275.64	224.62
275.872	210.62
276.104	200.62
276.335	205.62
276.567	202.62
276.799	200.62
277.031	210.62
277.262	205.62
277.494	194.62
277.726	207.62
277.957	205.62
278.189	190.62
278.421	190.62
278.652	201.62
278.884	214.62
279.115	212.62
279.347	203.62
279.579	195.62
279.81	215.62
280.042	210.62
280.273	223.62
280.505	208.62
280.736	208.62
280.968	207.62
281.199	201.62
281.431	202.62
281.662	215.62
281.894	216.62
282.125	222.62
282.356	224.62
282.588	226.62
282.819	228.62
283.051	224.62
283.282	221.62
283.513	234.62
283.745	213.62
283.976	220.62
284.207	222.62
284.439	231.62
284.67	227.62
284.901	227.62
285.132	222.62
285.364	227.62
285.595	224.62
285.826	218.62
286.057	228.62
286.288	217.62
286.52	227.62
286.751	229.62
286.982	211.62
287.213	239.62
287.444	229.62
287.675	235.62
287.906	220.62
288.138	234.62
288.369	225.62
288.6	223.62
288.831	239.62
289.062	235.62
289.293	254.62
289.524	240.62
289.755	234.62
289.986	242.62
290.217	255.62
290.448	222.62
290.679	236.62
290.91	261.62
291.141	248.62
291.371	250.62
291.602	250.62
291.833	245.62
292.064	214.62
292.295	227.62
292.526	224.62
292.757	234.62
292.987	233.62
293.218	239.62
293.449	249.62
293.68	264.62
293.91	253.62
294.141	274.62
294.372	244.62
294.603	250.62
294.833	244.62
295.064	232.62
295.295	253.62
295.525	233.62
295.756	251.62
295.987	262.62
296.217	254.62
296.448	267.62
296.679	258.62
296.909	258.62
297.14	240.62
297.37	245.62
297.601	243.62
297.831	254.62
298.062	257.62
298.292	262.62
298.523	263.62
298.753	279.62
298.984	272.62
299.214	277.62
299.445	279.62
299.675	277.62
299.905	265.62
300.136	266.62
300.366	276.62
300.597	277.62
300.827	279.62
301.057	274.62
301.288	270.62
301.518	267.62
301.748	274.62
301.979	270.62
302.209	291.62
302.439	286.62
302.669	282.62
302.9	270.62
303.13	287.62
303.36	266.62
303.59	273.62
303.82	286.62
304.051	276.62
304.281	278.62
304.511	279.62
304.741	273.62
304.971	267.62
305.201	271.62
305.431	274.62
305.661	270.62
305.891	284.62
306.121	294.62
306.352	278.62
306.582	283.62
306.812	283.62
307.042	266.62
307.272	286.62
307.502	280.62
307.731	294.62
307.961	267.62
308.191	279.62
308.421	286.62
308.651	277.62
308.881	299.62
309.111	294.62
309.341	286.62
309.571	276.62
309.8	283.62
310.03	293.62
310.26	291.62
310.49	297.62
310.72	287.62
310.949	299.62
311.179	306.62
311.409	284.62
311.639	288.62
311.868	290.62
312.098	289.62
312.328	281.62
312.557	276.62
312.787	287.62
313.017	295.62
313.246	300.62
313.476	292.62
313.706	305.62
313.935	308.62
314.165	298.62
314.394	293.62
314.624	297.62
314.853	285.62
315.083	303.62
315.312	310.62
315.542	313.62
315.771	295.62
316.001	314.62
316.23	298.62
316.46	306.62
316.689	295.62
316.919	308.62
317.148	313.62
317.377	308.62
317.607	316.62
317.836	314.62
318.065	312.62
318.295	302.62
318.524	322.62
318.753	315.62
318.983	320.62
319.212	304.62
319.441	316.62
319.67	310.62
319.9	318.62
320.129	316.62
320.358	318.62
320.587	323.62
320.816	325.62
321.046	314.62
321.275	343.62
321.504	319.62
321.733	323.62
321.962	312.62
322.191	318.62
322.42	302.62
322.649	320.62
322.878	327.62
323.108	321.62
323.337	332.62
323.566	330.62
323.795	307.62
324.024	335.62
324.253	331.62
324.482	325.62
324.71	330.62
324.939	339.62
325.168	346.62
325.397	335.62
325.626	348.62
325.855	338.62
326.084	334.62
326.313	332.62
326.542	342.62
326.77	338.62
326.999	338.62
327.228	339.62
327.457	331.62
327.686	334.62
327.914	331.62
328.143	344.62
328.372	329.62
328.6	351.62
328.829	330.62
329.058	320.62
329.287	340.62
329.515	343.62
329.744	347.62
329.972	327.62
330.201	348.62
330.43	349.62
330.658	341.62
330.887	353.62
331.115	347.62
331.344	340.62
331.572	352.62
331.801	359.62
332.03	347.62
332.258	362.62
332.486	360.62
332.715	357.62
332.943	371.62
333.172	371.62
333.4	376.62
333.629	376.62
333.857	388.62
334.085	377.62
334.314	375.62
334.542	387.62
334.771	393.62
334.999	400.62
335.227	392.62
335.455	395.62
335.684	389.62
335.912	394.62
336.14	384.62
336.369	378.62
336.597	386.62
336.825	396.62
337.053	379.62
337.281	382.62
337.51	384.62
337.738	379.62
337.966	373.62
338.194	399.62
338.422	385.62
338.65	379.62
338.878	362.62
339.106	374.62
339.334	367.62
339.562	384.62
339.79	372.62
340.018	368.62
340.246	361.62
340.474	361.62
340.702	378.62
340.93	373.62
341.158	381.62
341.386	363.62
341.614	361.62
341.842	354.62
342.07	347.62
342.298	342.62
342.526	356.62
342.754	356.62
342.981	365.62
343.209	355.62
343.437	386.62
343.665	372.62
343.893	396.62
344.12	380.62
344.348	385.62
344.576	388.62
344.804	370.62
345.031	390.62
345.259	392.62
345.487	362.62
345.714	377.62
345.942	376.62
346.17	364.62
346.397	355.62
346.625	376.62
346.853	356.62
347.08	368.62
347.308	357.62
347.535	358.62
347.763	368.62
347.99	362.62
348.218	342.62
348.445	329.62
348.673	358.62
348.9	351.62
349.128	355.62
349.355	346.62
349.583	360.62
349.81	351.62
350.037	375.62
350.265	352.62
350.492	334.62
350.72	354.62
350.947	348.62
351.174	358.62
351.402	350.62
351.629	354.62
351.856	347.62
352.083	357.62
352.311	348.62
352.538	349.62
352.765	359.62
352.992	356.62
353.22	361.62
353.447	327.62
353.674	349.62
353.901	357.62
354.128	331.62
354.355	356.62
354.583	339.62
354.81	364.62
355.037	347.62
355.264	358.62
355.491	355.62
355.718	356.62
355.945	363.62
356.172	345.62
356.399	367.62
356.626	354.62
356.853	370.62
357.08	357.62
357.307	363.62
357.534	355.62
357.761	352.62
357.988	374.62
358.215	366.62
358.441	362.62
358.668	363.62
358.895	362.62
359.122	362.62
359.349	375.62
359.576	346.62
359.802	342.62
360.029	354.62
360.256	347.62
360.483	358.62
360.709	379.62
360.936	358.62
361.163	354.62
361.39	340.62
361.616	350.62
361.843	370.62
362.07	356.62
362.296	360.62
362.523	365.62
362.749	362.62
362.976	364.62
363.203	367.62
363.429	370.62
363.656	341.62
363.882	364.62
364.109	366.62
364.335	374.62
364.562	361.62
364.788	388.62
365.015	372.62
365.241	375.62
365.468	362.62
365.694	373.62
365.92	360.62
366.147	378.62
366.373	360.62
366.599	376.62
366.826	378.62
367.052	374.62
367.278	378.62
367.505	378.62
367.731	376.62
367.957	378.62
368.184	374.62
368.41	384.62
368.636	389.62
368.862	390.62
369.089	372.62
369.315	373.62
369.541	391.62
369.767	376.62
369.993	378.62
370.219	377.62
370.445	373.62
370.672	389.62
370.898	397.62
371.124	381.62
371.35	386.62
371.576	376.62
371.802	373.62
372.028	382.62
372.254	400.62
372.48	390.62
372.706	408.62
372.932	388.62
373.158	405.62
373.384	425.62
373.61	406.62
373.835	408.62
374.061	396.62
374.287	389.62
374.513	406.62
374.739	410.62
374.965	422.62
375.191	420.62
375.416	403.62
375.642	395.62
375.868	387.62
376.094	405.62
376.319	391.62
376.545	411.62
376.771	396.62
376.997	403.62
377.222	400.62
377.448	382.62
377.674	386.62
377.899	383.62
378.125	393.62
378.35	410.62
378.576	388.62
378.802	390.62
379.027	384.62
379.253	401.62
379.478	382.62
379.704	395.62
379.929	395.62
380.155	397.62
380.38	395.62
380.606	380.62
380.831	391.62
381.057	400.62
381.282	385.62
381.507	404.62
381.733	399.62
381.958	405.62
382.184	406.62
382.409	416.62
382.634	420.62
382.86	414.62
383.085	427.62
383.31	388.62
383.535	423.62
383.761	440.62
383.986	419.62
384.211	412.62
384.436	430.62
384.662	422.62
384.887	431.62
385.112	436.62
385.337	438.62
385.562	423.62
385.787	443.62
386.013	464.62
386.238	434.62
386.463	439.62
386.688	458.62
386.913	447.62
387.138	457.62
387.363	441.62
387.588	456.62
387.813	437.62
388.038	471.62
388.263	457.62
388.488	468.62
388.713	456.62
388.938	460.62
389.163	457.62
389.387	451.62
389.612	449.62
389.837	451.62
390.062	443.62
390.287	451.62
390.512	465.62
390.736	474.62
390.961	459.62
391.186	462.62
391.411	466.62
391.636	475.62
391.86	472.62
392.085	469.62
392.31	474.62
392.534	458.62
392.759	471.62
392.984	462.62
393.208	507.62
393.433	496.62
393.658	501.62
393.882	444.62
394.107	459.62
394.331	472.62
394.556	469.62
394.78	472.62
395.005	472.62
395.229	470.62
395.454	494.62
395.678	493.62
395.903	483.62
396.127	464.62
396.352	472.62
396.576	477.62
396.801	489.62
397.025	509.62
397.249	503.62
397.474	490.62
397.698	491.62
397.922	489.62
398.147	499.62
398.371	519.62
398.595	502.62
398.82	521.62
399.044	531.62
399.268	540.62
399.492	551.62
399.717	594.62
399.941	598.62
400.165	601.62
400.389	567.62
400.613	554.62
400.837	562.62
401.062	541.62
401.286	544.62
401.51	515.62
401.734	528.62
401.958	503.62
402.182	516.62
402.406	526.62
402.63	522.62
402.854	524.62
403.078	542.62
403.302	532.62
403.526	531.62
403.75	519.62
403.974	537.62
404.198	530.62
404.422	521.62
404.645	524.62
404.869	551.62
405.093	542.62
405.317	532.62
405.541	562.62
405.765	534.62
405.988	550.62
406.212	554.62
406.436	572.62
406.66	560.62
406.883	562.62
407.107	586.62
407.331	586.62
407.555	607.62
407.778	611.62
408.002	604.62
408.226	583.62
408.449	628.62
408.673	596.62
408.896	584.62
409.12	574.62
409.344	598.62
409.567	571.62
409.791	587.62
410.014	582.62
410.238	565.62
410.461	571.62
410.685	554.62
410.908	535.62
411.132	562.62
411.355	542.62
411.578	564.62
411.802	559.62
412.025	536.62
412.249	558.62
412.472	551.62
412.695	532.62
412.919	553.62
413.142	552.62
413.365	539.62
413.589	544.62
413.812	523.62
414.035	510.62
414.258	508.62
414.482	507.62
414.705	528.62
414.928	544.62
415.151	545.62
415.374	523.62
415.597	523.62
415.821	543.62
416.044	501.62
416.267	535.62
416.49	532.62
416.713	507.62
416.936	538.62
417.159	511.62
417.382	514.62
417.605	512.62
417.828	514.62
418.051	516.62
418.274	527.62
418.497	515.62
418.72	529.62
418.943	516.62
419.166	540.62
419.389	545.62
419.611	550.62
419.834	526.62
420.057	540.62
420.28	524.62
420.503	523.62
420.726	522.62
420.948	515.62
421.171	489.62
421.394	498.62
421.617	524.62
421.839	522.62
422.062	506.62
422.285	488.62
422.507	513.62
422.73	507.62
422.953	494.62
423.175	499.62
423.398	506.62
423.621	518.62
423.843	506.62
424.066	523.62
424.288	487.62
424.511	522.62
424.733	491.62
424.956	510.62
425.178	514.62
425.401	506.62
425.623	515.62
425.846	528.62
426.068	519.62
426.291	505.62
426.513	516.62
426.735	509.62
426.958	511.62
427.18	507.62
427.402	528.62
427.625	490.62
427.847	473.62
428.069	503.62
428.292	479.62
428.514	482.62
428.736	490.62
428.958	524.62
429.181	473.62
429.403	478.62
429.625	509.62
429.847	491.62
430.069	508.62
430.292	486.62
430.514	483.62
430.736	486.62
430.958	509.62
431.18	489.62
431.402	482.62
431.624	491.62
431.846	472.62
432.068	485.62
432.29	488.62
432.512	463.62
432.734	480.62
432.956	472.62
433.178	503.62
433.4	498.62
433.622	513.62
433.844	496.62
434.066	506.62
434.287	503.62
434.509	529.62
434.731	495.62
434.953	499.62
435.175	527.62
435.397	519.62
435.618	503.62
435.84	508.62
436.062	517.62
436.284	496.62
436.505	499.62
436.727	499.62
436.949	506.62
437.17	482.62
437.392	502.62
437.614	485.62
437.835	469.62
438.057	476.62
438.278	470.62
438.5	494.62
438.721	497.62
438.943	499.62
439.165	499.62
439.386	455.62
439.608	471.62
439.829	486.62
440.05	490.62
440.272	495.62
440.493	494.62
440.715	491.62
440.936	501.62
441.158	520.62
441.379	512.62
441.6	488.62
441.822	505.62
442.043	518.62
442.264	518.62
442.486	503.62
442.707	481.62
442.928	480.62
443.149	509.62
443.371	520.62
443.592	487.62
443.813	530.62
444.034	514.62
444.255	487.62
444.476	518.62
444.698	546.62
444.919	524.62
445.14	608.62
445.361	547.62
445.582	511.62
445.803	487.62
446.024	511.62
446.245	513.62
446.466	483.62
446.687	486.62
446.908	480.62
447.129	505.62
447.35	468.62
447.571	500.62
447.792	472.62
448.013	466.62
448.234	455.62
448.455	467.62
448.675	450.62
448.896	459.62
449.117	466.62
449.338	460.62
449.559	446.62
449.779	471.62
450	497.62
450.221	456.62
450.442	463.62
450.662	450.62
450.883	458.62
451.104	460.62
451.324	467.62
451.545	457.62
451.766	452.62
451.986	441.62
452.207	478.62
452.428	457.62
452.648	461.62
452.869	433.62
453.089	446.62
453.31	467.62
453.53	436.62
453.751	451.62
453.971	445.62
454.192	449.62
454.412	430.62
454.633	447.62
454.853	451.62
455.073	459.62
455.294	436.62
455.514	443.62
455.734	427.62
455.955	444.62
456.175	469.62
456.395	447.62
456.616	440.62
456.836	451.62
457.056	463.62
457.276	441.62
457.497	465.62
457.717	459.62
457.937	442.62
458.157	470.62
458.377	454.62
458.598	455.62
458.818	473.62
459.038	469.62
459.258	496.62
459.478	500.62
459.698	490.62
459.918	516.62
460.138	493.62
460.358	500.62
460.578	510.62
460.798	550.62
461.018	526.62
461.238	567.62
461.458	561.62
461.678	534.62
461.898	549.62
462.118	537.62
462.338	558.62
462.558	553.62
462.777	579.62
462.997	594.62
463.217	598.62
463.437	593.62
463.657	593.62
463.876	592.62
464.096	595.62
464.316	574.62
464.536	562.62
464.755	559.62
464.975	563.62
465.195	539.62
465.414	523.62
465.634	519.62
465.854	522.62
466.073	514.62
466.293	521.62
466.512	498.62
466.732	490.62
466.951	482.62
467.171	501.62
467.391	487.62
467.61	486.62
467.829	456.62
468.049	492.62
468.268	486.62
468.488	507.62
468.707	470.62
468.927	485.62
469.146	486.62
469.365	487.62
469.585	474.62
469.804	475.62
470.023	477.62
470.243	499.62
470.462	522.62
470.681	523.62
470.901	517.62
471.12	491.62
471.339	500.62
471.558	497.62
471.777	497.62
471.997	498.62
472.216	499.62
472.435	538.62
472.654	495.62
472.873	499.62
473.092	485.62
473.311	506.62
473.53	515.62
473.749	485.62
473.968	492.62
474.187	488.62
474.406	492.62
474.625	518.62
474.844	511.62
475.063	477.62
475.282	512.62
475.501	523.62
475.72	530.62
475.939	539.62
476.158	518.62
476.377	530.62
476.596	537.62
476.814	542.62
477.033	527.62
477.252	532.62
477.471	555.62
477.69	540.62
477.908	539.62
478.127	551.62
478.346	544.62
478.564	555.62
478.783	580.62
479.002	568.62
479.22	593.62
479.439	605.62
479.658	598.62
479.876	594.62
480.095	561.62
480.313	595.62
480.532	581.62
480.751	593.62
480.969	600.62
481.188	596.62
481.406	599.62
481.624	615.62
481.843	582.62
482.061	598.62
482.28	580.62
482.498	595.62
482.717	581.62
482.935	590.62
483.153	592.62
483.372	583.62
483.59	610.62
483.808	607.62
484.027	592.62
484.245	582.62
484.463	601.62
484.681	629.62
484.9	586.62
485.118	596.62
485.336	597.62
485.554	593.62
485.772	619.62
485.99	619.62
486.209	598.62
486.427	584.62
486.645	607.62
486.863	615.62
487.081	598.62
487.299	618.62
487.517	623.62
487.735	607.62
487.953	617.62
488.171	619.62
488.389	623.62
488.607	605.62
488.825	627.62
489.043	607.62
489.261	617.62
489.479	628.62
489.696	621.62
489.914	607.62
490.132	605.62
490.35	607.62
490.568	620.62
490.786	617.62
491.003	623.62
491.221	620.62
491.439	623.62
491.657	606.62
491.874	611.62
492.092	636.62
492.31	636.62
492.527	643.62
492.745	671.62
492.963	647.62
493.18	635.62
493.398	622.62
493.615	637.62
493.833	628.62
494.05	628.62
494.268	634.62
494.485	644.62
494.703	642.62
494.92	655.62
495.138	660.62
495.355	648.62
495.573	651.62
495.79	680.62
496.008	655.62
496.225	672.62
496.442	661.62
496.66	676.62
496.877	658.62
497.094	671.62
497.312	690.62
497.529	726.62
497.746	715.62
497.963	713.62
498.181	736.62
498.398	735.62
498.615	756.62
498.832	785.62
499.049	825.62
499.267	833.62
499.484	880.62
499.701	873.62
499.918	912.62
500.135	964.62
500.352	997.62
500.569	984.62
500.786	980.62
501.003	994.62
501.22	984.62
501.437	922.62
501.654	860.62
501.871	857.62
