Data from Fe(NO3)3@0.1M.TitratingCurve.Agarose3%dH2O.NegLispCup.LampEnergy10.LIBS07252019_HRD10591_16-38-22-332.txt Node
Date: Thu Jul 25 16:38:22 EDT 2019
User: cochatt
Spectrometer: HR+D1059
Trigger mode: 1
Integration Time (sec): 1.000000E-1
Scans to average: 1
Electric dark correction enabled: true
Nonlinearity correction enabled: false
Boxcar width: 0
XAxis mode: Wavelengths
Number of Pixels in Spectrum: 2048
>>>>>Begin Spectral Data<<<<<
223.165	-17.38
223.4	-17.38
223.635	-17.38
223.869	-10.38
224.104	-14.38
224.338	-20.38
224.573	-10.38
224.808	-17.38
225.042	-13.38
225.277	-2.38
225.511	16.62
225.746	3.62
225.98	-2.38
226.215	0.62
226.449	18.62
226.683	5.62
226.918	32.62
227.152	30.62
227.387	41.62
227.621	22.62
227.856	35.62
228.09	44.62
228.324	50.62
228.559	53.62
228.793	58.62
229.027	65.62
229.262	85.62
229.496	77.62
229.73	67.62
229.964	86.62
230.199	83.62
230.433	97.62
230.667	78.62
230.901	76.62
231.136	95.62
231.37	84.62
231.604	86.62
231.838	109.62
232.072	110.62
232.306	88.62
232.541	85.62
232.775	77.62
233.009	97.62
233.243	98.62
233.477	97.62
233.711	89.62
233.945	84.62
234.179	84.62
234.413	93.62
234.647	101.62
234.881	90.62
235.115	88.62
235.349	88.62
235.583	90.62
235.817	93.62
236.051	88.62
236.285	98.62
236.519	89.62
236.753	90.62
236.987	95.62
237.221	76.62
237.455	96.62
237.689	100.62
237.922	93.62
238.156	76.62
238.39	103.62
238.624	87.62
238.858	93.62
239.091	98.62
239.325	89.62
239.559	93.62
239.793	88.62
240.027	79.62
240.26	86.62
240.494	99.62
240.728	86.62
240.961	92.62
241.195	94.62
241.429	87.62
241.662	94.62
241.896	85.62
242.13	102.62
242.363	96.62
242.597	103.62
242.83	105.62
243.064	103.62
243.298	104.62
243.531	89.62
243.765	87.62
243.998	100.62
244.232	113.62
244.465	104.62
244.699	95.62
244.932	115.62
245.166	78.62
245.399	91.62
245.633	116.62
245.866	100.62
246.099	102.62
246.333	86.62
246.566	91.62
246.8	110.62
247.033	90.62
247.266	83.62
247.5	101.62
247.733	99.62
247.966	105.62
248.2	102.62
248.433	97.62
248.666	85.62
248.899	104.62
249.133	117.62
249.366	116.62
249.599	104.62
249.832	100.62
250.066	117.62
250.299	98.62
250.532	109.62
250.765	103.62
250.998	111.62
251.231	102.62
251.465	117.62
251.698	102.62
251.931	110.62
252.164	113.62
252.397	122.62
252.63	113.62
252.863	122.62
253.096	129.62
253.329	101.62
253.562	101.62
253.795	114.62
254.028	114.62
254.261	115.62
254.494	124.62
254.727	125.62
254.96	135.62
255.193	116.62
255.426	117.62
255.659	116.62
255.892	115.62
256.124	117.62
256.357	130.62
256.59	120.62
256.823	115.62
257.056	120.62
257.289	105.62
257.521	111.62
257.754	100.62
257.987	121.62
258.22	112.62
258.452	109.62
258.685	117.62
258.918	129.62
259.151	100.62
259.383	116.62
259.616	131.62
259.849	123.62
260.081	118.62
260.314	127.62
260.547	120.62
260.779	115.62
261.012	120.62
261.244	111.62
261.477	129.62
261.71	133.62
261.942	123.62
262.175	131.62
262.407	129.62
262.64	127.62
262.872	114.62
263.105	135.62
263.337	135.62
263.57	138.62
263.802	125.62
264.035	136.62
264.267	129.62
264.499	129.62
264.732	122.62
264.964	106.62
265.197	118.62
265.429	117.62
265.661	108.62
265.894	123.62
266.126	124.62
266.358	118.62
266.591	123.62
266.823	139.62
267.055	115.62
267.287	114.62
267.52	125.62
267.752	110.62
267.984	139.62
268.216	126.62
268.448	135.62
268.681	129.62
268.913	133.62
269.145	126.62
269.377	130.62
269.609	125.62
269.841	129.62
270.073	130.62
270.306	126.62
270.538	125.62
270.77	126.62
271.002	122.62
271.234	133.62
271.466	138.62
271.698	127.62
271.93	131.62
272.162	139.62
272.394	125.62
272.626	134.62
272.858	119.62
273.09	129.62
273.322	134.62
273.553	133.62
273.785	139.62
274.017	125.62
274.249	144.62
274.481	134.62
274.713	127.62
274.945	139.62
275.176	136.62
275.408	139.62
275.64	127.62
275.872	150.62
276.104	131.62
276.335	135.62
276.567	123.62
276.799	133.62
277.031	138.62
277.262	148.62
277.494	141.62
277.726	135.62
277.957	135.62
278.189	144.62
278.421	134.62
278.652	139.62
278.884	151.62
279.115	139.62
279.347	145.62
279.579	147.62
279.81	139.62
280.042	133.62
280.273	149.62
280.505	148.62
280.736	147.62
280.968	133.62
281.199	150.62
281.431	151.62
281.662	141.62
281.894	147.62
282.125	128.62
282.356	145.62
282.588	148.62
282.819	134.62
283.051	149.62
283.282	145.62
283.513	141.62
283.745	156.62
283.976	152.62
284.207	142.62
284.439	159.62
284.67	142.62
284.901	155.62
285.132	142.62
285.364	149.62
285.595	165.62
285.826	149.62
286.057	164.62
286.288	150.62
286.52	149.62
286.751	141.62
286.982	146.62
287.213	152.62
287.444	156.62
287.675	168.62
287.906	153.62
288.138	149.62
288.369	161.62
288.6	163.62
288.831	169.62
289.062	165.62
289.293	149.62
289.524	151.62
289.755	151.62
289.986	151.62
290.217	138.62
290.448	143.62
290.679	153.62
290.91	147.62
291.141	157.62
291.371	152.62
291.602	146.62
291.833	157.62
292.064	157.62
292.295	150.62
292.526	154.62
292.757	158.62
292.987	164.62
293.218	165.62
293.449	158.62
293.68	162.62
293.91	163.62
294.141	175.62
294.372	141.62
294.603	149.62
294.833	154.62
295.064	168.62
295.295	168.62
295.525	175.62
295.756	170.62
295.987	165.62
296.217	169.62
296.448	164.62
296.679	155.62
296.909	180.62
297.14	162.62
297.37	169.62
297.601	163.62
297.831	169.62
298.062	156.62
298.292	172.62
298.523	171.62
298.753	150.62
298.984	157.62
299.214	177.62
299.445	162.62
299.675	142.62
299.905	156.62
300.136	152.62
300.366	172.62
300.597	176.62
300.827	170.62
301.057	175.62
301.288	177.62
301.518	168.62
301.748	163.62
301.979	167.62
302.209	183.62
302.439	183.62
302.669	175.62
302.9	156.62
303.13	175.62
303.36	183.62
303.59	171.62
303.82	160.62
304.051	162.62
304.281	159.62
304.511	173.62
304.741	172.62
304.971	175.62
305.201	175.62
305.431	180.62
305.661	160.62
305.891	169.62
306.121	178.62
306.352	167.62
306.582	157.62
306.812	168.62
307.042	172.62
307.272	158.62
307.502	165.62
307.731	172.62
307.961	169.62
308.191	175.62
308.421	159.62
308.651	159.62
308.881	179.62
309.111	173.62
309.341	187.62
309.571	173.62
309.8	171.62
310.03	168.62
310.26	170.62
310.49	166.62
310.72	171.62
310.949	169.62
311.179	184.62
311.409	179.62
311.639	160.62
311.868	181.62
312.098	188.62
312.328	171.62
312.557	184.62
312.787	172.62
313.017	176.62
313.246	185.62
313.476	177.62
313.706	170.62
313.935	170.62
314.165	185.62
314.394	169.62
314.624	169.62
314.853	173.62
315.083	183.62
315.312	167.62
315.542	185.62
315.771	180.62
316.001	184.62
316.23	179.62
316.46	157.62
316.689	161.62
316.919	172.62
317.148	179.62
317.377	167.62
317.607	178.62
317.836	174.62
318.065	179.62
318.295	170.62
318.524	189.62
318.753	163.62
318.983	178.62
319.212	166.62
319.441	161.62
319.67	170.62
319.9	170.62
320.129	158.62
320.358	159.62
320.587	181.62
320.816	177.62
321.046	193.62
321.275	181.62
321.504	182.62
321.733	180.62
321.962	181.62
322.191	175.62
322.42	189.62
322.649	174.62
322.878	201.62
323.108	176.62
323.337	170.62
323.566	187.62
323.795	170.62
324.024	194.62
324.253	178.62
324.482	163.62
324.71	182.62
324.939	181.62
325.168	169.62
325.397	188.62
325.626	182.62
325.855	182.62
326.084	192.62
326.313	191.62
326.542	178.62
326.77	193.62
326.999	169.62
327.228	164.62
327.457	190.62
327.686	176.62
327.914	182.62
328.143	185.62
328.372	182.62
328.6	199.62
328.829	199.62
329.058	182.62
329.287	197.62
329.515	190.62
329.744	177.62
329.972	195.62
330.201	195.62
330.43	203.62
330.658	185.62
330.887	193.62
331.115	196.62
331.344	191.62
331.572	177.62
331.801	202.62
332.03	196.62
332.258	192.62
332.486	202.62
332.715	216.62
332.943	217.62
333.172	197.62
333.4	213.62
333.629	221.62
333.857	223.62
334.085	213.62
334.314	236.62
334.542	210.62
334.771	219.62
334.999	228.62
335.227	227.62
335.455	217.62
335.684	217.62
335.912	215.62
336.14	198.62
336.369	220.62
336.597	216.62
336.825	221.62
337.053	214.62
337.281	194.62
337.51	191.62
337.738	212.62
337.966	208.62
338.194	202.62
338.422	198.62
338.65	198.62
338.878	191.62
339.106	207.62
339.334	223.62
339.562	206.62
339.79	207.62
340.018	204.62
340.246	183.62
340.474	195.62
340.702	189.62
340.93	190.62
341.158	179.62
341.386	185.62
341.614	195.62
341.842	202.62
342.07	198.62
342.298	200.62
342.526	194.62
342.754	177.62
342.981	178.62
343.209	194.62
343.437	190.62
343.665	206.62
343.893	214.62
344.12	231.62
344.348	231.62
344.576	211.62
344.804	194.62
345.031	207.62
345.259	213.62
345.487	183.62
345.714	185.62
345.942	174.62
346.17	184.62
346.397	205.62
346.625	190.62
346.853	168.62
347.08	189.62
347.308	190.62
347.535	194.62
347.763	193.62
347.99	197.62
348.218	204.62
348.445	171.62
348.673	182.62
348.9	194.62
349.128	192.62
349.355	199.62
349.583	181.62
349.81	197.62
350.037	183.62
350.265	177.62
350.492	187.62
350.72	175.62
350.947	189.62
351.174	188.62
351.402	169.62
351.629	189.62
351.856	195.62
352.083	181.62
352.311	183.62
352.538	188.62
352.765	185.62
352.992	182.62
353.22	183.62
353.447	187.62
353.674	195.62
353.901	179.62
354.128	182.62
354.355	185.62
354.583	197.62
354.81	193.62
355.037	195.62
355.264	174.62
355.491	181.62
355.718	187.62
355.945	203.62
356.172	189.62
356.399	189.62
356.626	197.62
356.853	198.62
357.08	191.62
357.307	179.62
357.534	199.62
357.761	186.62
357.988	201.62
358.215	183.62
358.441	188.62
358.668	164.62
358.895	195.62
359.122	186.62
359.349	191.62
359.576	179.62
359.802	195.62
360.029	176.62
360.256	187.62
360.483	199.62
360.709	206.62
360.936	194.62
361.163	198.62
361.39	187.62
361.616	175.62
361.843	167.62
362.07	181.62
362.296	187.62
362.523	197.62
362.749	196.62
362.976	192.62
363.203	200.62
363.429	171.62
363.656	200.62
363.882	179.62
364.109	189.62
364.335	178.62
364.562	192.62
364.788	194.62
365.015	169.62
365.241	192.62
365.468	165.62
365.694	201.62
365.92	196.62
366.147	183.62
366.373	177.62
366.599	175.62
366.826	189.62
367.052	179.62
367.278	197.62
367.505	188.62
367.731	203.62
367.957	187.62
368.184	207.62
368.41	202.62
368.636	186.62
368.862	188.62
369.089	199.62
369.315	169.62
369.541	195.62
369.767	197.62
369.993	215.62
370.219	195.62
370.445	193.62
370.672	205.62
370.898	197.62
371.124	213.62
371.35	202.62
371.576	193.62
371.802	211.62
372.028	199.62
372.254	190.62
372.48	207.62
372.706	208.62
372.932	217.62
373.158	222.62
373.384	207.62
373.61	212.62
373.835	218.62
374.061	223.62
374.287	215.62
374.513	227.62
374.739	213.62
374.965	219.62
375.191	210.62
375.416	225.62
375.642	205.62
375.868	220.62
376.094	199.62
376.319	221.62
376.545	210.62
376.771	230.62
376.997	205.62
377.222	199.62
377.448	220.62
377.674	200.62
377.899	204.62
378.125	194.62
378.35	206.62
378.576	208.62
378.802	195.62
379.027	181.62
379.253	210.62
379.478	205.62
379.704	211.62
379.929	190.62
380.155	209.62
380.38	213.62
380.606	210.62
380.831	195.62
381.057	219.62
381.282	221.62
381.507	200.62
381.733	215.62
381.958	204.62
382.184	226.62
382.409	220.62
382.634	210.62
382.86	223.62
383.085	219.62
383.31	234.62
383.535	233.62
383.761	219.62
383.986	227.62
384.211	234.62
384.436	234.62
384.662	233.62
384.887	227.62
385.112	245.62
385.337	242.62
385.562	255.62
385.787	267.62
386.013	246.62
386.238	253.62
386.463	238.62
386.688	249.62
386.913	251.62
387.138	252.62
387.363	222.62
387.588	250.62
387.813	241.62
388.038	272.62
388.263	245.62
388.488	244.62
388.713	261.62
388.938	253.62
389.163	258.62
389.387	238.62
389.612	244.62
389.837	227.62
390.062	248.62
390.287	249.62
390.512	241.62
390.736	246.62
390.961	250.62
391.186	269.62
391.411	254.62
391.636	262.62
391.86	282.62
392.085	266.62
392.31	287.62
392.534	259.62
392.759	275.62
392.984	263.62
393.208	252.62
393.433	261.62
393.658	265.62
393.882	247.62
394.107	280.62
394.331	268.62
394.556	258.62
394.78	246.62
395.005	261.62
395.229	269.62
395.454	257.62
395.678	242.62
395.903	281.62
396.127	280.62
396.352	271.62
396.576	252.62
396.801	265.62
397.025	263.62
397.249	279.62
397.474	279.62
397.698	277.62
397.922	274.62
398.147	289.62
398.371	298.62
398.595	290.62
398.82	311.62
399.044	327.62
399.268	345.62
399.492	384.62
399.717	417.62
399.941	412.62
400.165	374.62
400.389	336.62
400.613	337.62
400.837	309.62
401.062	330.62
401.286	317.62
401.51	312.62
401.734	305.62
401.958	306.62
402.182	309.62
402.406	321.62
402.63	321.62
402.854	311.62
403.078	324.62
403.302	338.62
403.526	343.62
403.75	338.62
403.974	336.62
404.198	337.62
404.422	335.62
404.645	317.62
404.869	341.62
405.093	335.62
405.317	323.62
405.541	339.62
405.765	333.62
405.988	308.62
406.212	333.62
406.436	339.62
406.66	340.62
406.883	341.62
407.107	355.62
407.331	362.62
407.555	366.62
407.778	388.62
408.002	376.62
408.226	359.62
408.449	349.62
408.673	335.62
408.896	332.62
409.12	340.62
409.344	349.62
409.567	326.62
409.791	346.62
410.014	346.62
410.238	349.62
410.461	331.62
410.685	335.62
410.908	337.62
411.132	333.62
411.355	305.62
411.578	314.62
411.802	323.62
412.025	324.62
412.249	336.62
412.472	316.62
412.695	308.62
412.919	316.62
413.142	326.62
413.365	326.62
413.589	304.62
413.812	300.62
414.035	301.62
414.258	315.62
414.482	322.62
414.705	317.62
414.928	335.62
415.151	316.62
415.374	339.62
415.597	299.62
415.821	312.62
416.044	305.62
416.267	299.62
416.49	305.62
416.713	312.62
416.936	321.62
417.159	296.62
417.382	302.62
417.605	312.62
417.828	322.62
418.051	306.62
418.274	333.62
418.497	302.62
418.72	309.62
418.943	316.62
419.166	333.62
419.389	353.62
419.611	329.62
419.834	326.62
420.057	319.62
420.28	323.62
420.503	297.62
420.726	288.62
420.948	319.62
421.171	315.62
421.394	297.62
421.617	323.62
421.839	315.62
422.062	318.62
422.285	295.62
422.507	317.62
422.73	321.62
422.953	304.62
423.175	334.62
423.398	313.62
423.621	325.62
423.843	319.62
424.066	324.62
424.288	334.62
424.511	328.62
424.733	313.62
424.956	321.62
425.178	309.62
425.401	284.62
425.623	310.62
425.846	332.62
426.068	291.62
426.291	291.62
426.513	284.62
426.735	293.62
426.958	283.62
427.18	272.62
427.402	289.62
427.625	302.62
427.847	290.62
428.069	286.62
428.292	317.62
428.514	297.62
428.736	273.62
428.958	290.62
429.181	292.62
429.403	280.62
429.625	277.62
429.847	287.62
430.069	285.62
430.292	290.62
430.514	272.62
430.736	278.62
430.958	291.62
431.18	286.62
431.402	284.62
431.624	271.62
431.846	301.62
432.068	280.62
432.29	275.62
432.512	283.62
432.734	300.62
432.956	296.62
433.178	295.62
433.4	300.62
433.622	303.62
433.844	297.62
434.066	306.62
434.287	291.62
434.509	309.62
434.731	298.62
434.953	313.62
435.175	313.62
435.397	314.62
435.618	311.62
435.84	294.62
436.062	309.62
436.284	297.62
436.505	296.62
436.727	299.62
436.949	305.62
437.17	296.62
437.392	270.62
437.614	294.62
437.835	278.62
438.057	262.62
438.278	274.62
438.5	255.62
438.721	263.62
438.943	274.62
439.165	282.62
439.386	292.62
439.608	289.62
439.829	278.62
440.05	283.62
440.272	289.62
440.493	292.62
440.715	278.62
440.936	291.62
441.158	306.62
441.379	315.62
441.6	326.62
441.822	309.62
442.043	324.62
442.264	313.62
442.486	296.62
442.707	315.62
442.928	314.62
443.149	314.62
443.371	307.62
443.592	314.62
443.813	299.62
444.034	326.62
444.255	328.62
444.476	348.62
444.698	354.62
444.919	351.62
445.14	495.62
445.361	393.62
445.582	342.62
445.803	298.62
446.024	300.62
446.245	281.62
446.466	305.62
446.687	309.62
446.908	302.62
447.129	301.62
447.35	286.62
447.571	277.62
447.792	270.62
448.013	278.62
448.234	287.62
448.455	279.62
448.675	265.62
448.896	273.62
449.117	275.62
449.338	282.62
449.559	288.62
449.779	267.62
450	271.62
450.221	279.62
450.442	268.62
450.662	289.62
450.883	274.62
451.104	270.62
451.324	291.62
451.545	271.62
451.766	273.62
451.986	266.62
452.207	269.62
452.428	261.62
452.648	266.62
452.869	255.62
453.089	259.62
453.31	267.62
453.53	273.62
453.751	269.62
453.971	269.62
454.192	248.62
454.412	243.62
454.633	271.62
454.853	275.62
455.073	269.62
455.294	251.62
455.514	271.62
455.734	256.62
455.955	246.62
456.175	248.62
456.395	261.62
456.616	241.62
456.836	265.62
457.056	255.62
457.276	248.62
457.497	275.62
457.717	262.62
457.937	258.62
458.157	271.62
458.377	253.62
458.598	279.62
458.818	272.62
459.038	286.62
459.258	298.62
459.478	285.62
459.698	284.62
459.918	326.62
460.138	284.62
460.358	324.62
460.578	327.62
460.798	324.62
461.018	305.62
461.238	331.62
461.458	328.62
461.678	325.62
461.898	329.62
462.118	327.62
462.338	343.62
462.558	367.62
462.777	362.62
462.997	405.62
463.217	409.62
463.437	399.62
463.657	371.62
463.876	369.62
464.096	361.62
464.316	345.62
464.536	355.62
464.755	344.62
464.975	339.62
465.195	330.62
465.414	314.62
465.634	313.62
465.854	303.62
466.073	299.62
466.293	294.62
466.512	303.62
466.732	283.62
466.951	291.62
467.171	281.62
467.391	300.62
467.61	265.62
467.829	290.62
468.049	282.62
468.268	273.62
468.488	287.62
468.707	275.62
468.927	271.62
469.146	277.62
469.365	297.62
469.585	270.62
469.804	266.62
470.023	289.62
470.243	289.62
470.462	283.62
470.681	286.62
470.901	274.62
471.12	271.62
471.339	287.62
471.558	275.62
471.777	267.62
471.997	275.62
472.216	257.62
472.435	241.62
472.654	275.62
472.873	283.62
473.092	267.62
473.311	267.62
473.53	270.62
473.749	269.62
473.968	254.62
474.187	272.62
474.406	251.62
474.625	260.62
474.844	277.62
475.063	276.62
475.282	276.62
475.501	265.62
475.72	264.62
475.939	267.62
476.158	257.62
476.377	257.62
476.596	274.62
476.814	275.62
477.033	259.62
477.252	278.62
477.471	296.62
477.69	295.62
477.908	297.62
478.127	296.62
478.346	303.62
478.564	328.62
478.783	314.62
479.002	319.62
479.22	317.62
479.439	310.62
479.658	307.62
479.876	313.62
480.095	317.62
480.313	322.62
480.532	344.62
480.751	319.62
480.969	314.62
481.188	321.62
481.406	296.62
481.624	311.62
481.843	286.62
482.061	298.62
482.28	298.62
482.498	290.62
482.717	290.62
482.935	303.62
483.153	291.62
483.372	291.62
483.59	291.62
483.808	307.62
484.027	297.62
484.245	302.62
484.463	311.62
484.681	322.62
484.9	280.62
485.118	294.62
485.336	309.62
485.554	313.62
485.772	309.62
485.99	297.62
486.209	304.62
486.427	293.62
486.645	293.62
486.863	327.62
487.081	301.62
487.299	300.62
487.517	309.62
487.735	305.62
487.953	314.62
488.171	330.62
488.389	299.62
488.607	307.62
488.825	311.62
489.043	305.62
489.261	307.62
489.479	320.62
489.696	311.62
489.914	305.62
490.132	311.62
490.35	309.62
490.568	312.62
490.786	306.62
491.003	313.62
491.221	317.62
491.439	323.62
491.657	315.62
491.874	298.62
492.092	324.62
492.31	317.62
492.527	307.62
492.745	332.62
492.963	349.62
493.18	325.62
493.398	309.62
493.615	327.62
493.833	328.62
494.05	326.62
494.268	316.62
494.485	327.62
494.703	333.62
494.92	325.62
495.138	327.62
495.355	331.62
495.573	341.62
495.79	347.62
496.008	325.62
496.225	333.62
496.442	345.62
496.66	338.62
496.877	350.62
497.094	361.62
497.312	373.62
497.529	372.62
497.746	374.62
497.963	375.62
498.181	390.62
498.398	393.62
498.615	423.62
498.832	454.62
499.049	466.62
499.267	488.62
499.484	549.62
499.701	574.62
499.918	627.62
500.135	677.62
500.352	761.62
500.569	815.62
500.786	768.62
501.003	718.62
501.22	695.62
501.437	603.62
501.654	531.62
501.871	492.62
502.088	479.62
502.305	463.62
502.522	443.62
