Data from Fe(NO3)3@0.025M.TitratingCurve.Agarose3%dH2O.NegLispCup.LampEnergy10.LIBS07252019_HRD10591_16-56-18-336.txt Node
Date: Thu Jul 25 16:56:18 EDT 2019
User: cochatt
Spectrometer: HR+D1059
Trigger mode: 1
Integration Time (sec): 1.000000E-1
Scans to average: 1
Electric dark correction enabled: true
Nonlinearity correction enabled: false
Boxcar width: 0
XAxis mode: Wavelengths
Number of Pixels in Spectrum: 2048
>>>>>Begin Spectral Data<<<<<
223.165	-16.81
223.4	-16.81
223.635	-16.81
223.869	-3.81
224.104	-21.81
224.338	-9.81
224.573	-20.81
224.808	-18.81
225.042	-7.81
225.277	-0.81
225.511	2.19
225.746	-8.81
225.98	8.19
226.215	16.19
226.449	19.19
226.683	15.19
226.918	30.19
227.152	18.19
227.387	44.19
227.621	36.19
227.856	27.19
228.09	37.19
228.324	58.19
228.559	60.19
228.793	70.19
229.027	69.19
229.262	76.19
229.496	92.19
229.73	86.19
229.964	75.19
230.199	90.19
230.433	87.19
230.667	99.19
230.901	96.19
231.136	74.19
231.37	97.19
231.604	105.19
231.838	107.19
232.072	90.19
232.306	96.19
232.541	105.19
232.775	92.19
233.009	104.19
233.243	109.19
233.477	99.19
233.711	93.19
233.945	92.19
234.179	95.19
234.413	99.19
234.647	105.19
234.881	97.19
235.115	81.19
235.349	90.19
235.583	112.19
235.817	94.19
236.051	96.19
236.285	82.19
236.519	104.19
236.753	98.19
236.987	119.19
237.221	93.19
237.455	76.19
237.689	96.19
237.922	89.19
238.156	91.19
238.39	91.19
238.624	91.19
238.858	99.19
239.091	102.19
239.325	106.19
239.559	99.19
239.793	98.19
240.027	109.19
240.26	106.19
240.494	104.19
240.728	107.19
240.961	119.19
241.195	117.19
241.429	117.19
241.662	114.19
241.896	106.19
242.13	114.19
242.363	120.19
242.597	91.19
242.83	109.19
243.064	105.19
243.298	107.19
243.531	98.19
243.765	115.19
243.998	116.19
244.232	104.19
244.465	109.19
244.699	99.19
244.932	108.19
245.166	111.19
245.399	115.19
245.633	116.19
245.866	120.19
246.099	103.19
246.333	107.19
246.566	121.19
246.8	121.19
247.033	109.19
247.266	107.19
247.5	122.19
247.733	111.19
247.966	113.19
248.2	113.19
248.433	116.19
248.666	127.19
248.899	119.19
249.133	124.19
249.366	123.19
249.599	123.19
249.832	115.19
250.066	116.19
250.299	117.19
250.532	137.19
250.765	115.19
250.998	124.19
251.231	131.19
251.465	140.19
251.698	127.19
251.931	125.19
252.164	130.19
252.397	124.19
252.63	125.19
252.863	133.19
253.096	150.19
253.329	124.19
253.562	100.19
253.795	127.19
254.028	141.19
254.261	132.19
254.494	114.19
254.727	127.19
254.96	127.19
255.193	125.19
255.426	137.19
255.659	126.19
255.892	135.19
256.124	135.19
256.357	129.19
256.59	128.19
256.823	140.19
257.056	144.19
257.289	137.19
257.521	147.19
257.754	142.19
257.987	129.19
258.22	139.19
258.452	128.19
258.685	146.19
258.918	122.19
259.151	142.19
259.383	157.19
259.616	142.19
259.849	148.19
260.081	144.19
260.314	139.19
260.547	131.19
260.779	146.19
261.012	127.19
261.244	147.19
261.477	145.19
261.71	153.19
261.942	149.19
262.175	154.19
262.407	150.19
262.64	149.19
262.872	133.19
263.105	142.19
263.337	156.19
263.57	152.19
263.802	159.19
264.035	149.19
264.267	143.19
264.499	166.19
264.732	160.19
264.964	134.19
265.197	146.19
265.429	164.19
265.661	144.19
265.894	163.19
266.126	171.19
266.358	151.19
266.591	147.19
266.823	155.19
267.055	153.19
267.287	154.19
267.52	166.19
267.752	157.19
267.984	168.19
268.216	157.19
268.448	156.19
268.681	139.19
268.913	152.19
269.145	157.19
269.377	145.19
269.609	167.19
269.841	177.19
270.073	173.19
270.306	163.19
270.538	166.19
270.77	152.19
271.002	167.19
271.234	170.19
271.466	170.19
271.698	165.19
271.93	184.19
272.162	180.19
272.394	182.19
272.626	171.19
272.858	170.19
273.09	178.19
273.322	170.19
273.553	183.19
273.785	181.19
274.017	175.19
274.249	175.19
274.481	148.19
274.713	162.19
274.945	185.19
275.176	184.19
275.408	182.19
275.64	199.19
275.872	186.19
276.104	179.19
276.335	183.19
276.567	173.19
276.799	178.19
277.031	191.19
277.262	173.19
277.494	178.19
277.726	177.19
277.957	189.19
278.189	179.19
278.421	177.19
278.652	181.19
278.884	173.19
279.115	191.19
279.347	203.19
279.579	180.19
279.81	188.19
280.042	186.19
280.273	188.19
280.505	179.19
280.736	175.19
280.968	183.19
281.199	189.19
281.431	189.19
281.662	201.19
281.894	201.19
282.125	191.19
282.356	194.19
282.588	187.19
282.819	204.19
283.051	206.19
283.282	183.19
283.513	177.19
283.745	191.19
283.976	211.19
284.207	218.19
284.439	201.19
284.67	208.19
284.901	202.19
285.132	197.19
285.364	205.19
285.595	207.19
285.826	199.19
286.057	218.19
286.288	207.19
286.52	186.19
286.751	191.19
286.982	198.19
287.213	188.19
287.444	208.19
287.675	203.19
287.906	209.19
288.138	213.19
288.369	213.19
288.6	202.19
288.831	225.19
289.062	204.19
289.293	181.19
289.524	190.19
289.755	202.19
289.986	199.19
290.217	232.19
290.448	216.19
290.679	211.19
290.91	215.19
291.141	220.19
291.371	205.19
291.602	217.19
291.833	211.19
292.064	217.19
292.295	218.19
292.526	213.19
292.757	212.19
292.987	232.19
293.218	223.19
293.449	209.19
293.68	209.19
293.91	223.19
294.141	227.19
294.372	204.19
294.603	196.19
294.833	233.19
295.064	211.19
295.295	196.19
295.525	210.19
295.756	218.19
295.987	199.19
296.217	205.19
296.448	193.19
296.679	221.19
296.909	216.19
297.14	239.19
297.37	229.19
297.601	225.19
297.831	228.19
298.062	247.19
298.292	220.19
298.523	245.19
298.753	236.19
298.984	210.19
299.214	236.19
299.445	236.19
299.675	218.19
299.905	244.19
300.136	235.19
300.366	241.19
300.597	252.19
300.827	247.19
301.057	244.19
301.288	265.19
301.518	249.19
301.748	250.19
301.979	238.19
302.209	245.19
302.439	241.19
302.669	243.19
302.9	246.19
303.13	237.19
303.36	239.19
303.59	257.19
303.82	246.19
304.051	254.19
304.281	248.19
304.511	270.19
304.741	236.19
304.971	244.19
305.201	245.19
305.431	244.19
305.661	252.19
305.891	235.19
306.121	254.19
306.352	235.19
306.582	244.19
306.812	239.19
307.042	246.19
307.272	241.19
307.502	239.19
307.731	247.19
307.961	235.19
308.191	251.19
308.421	246.19
308.651	243.19
308.881	261.19
309.111	253.19
309.341	231.19
309.571	236.19
309.8	255.19
310.03	250.19
310.26	235.19
310.49	234.19
310.72	255.19
310.949	252.19
311.179	246.19
311.409	246.19
311.639	248.19
311.868	258.19
312.098	248.19
312.328	239.19
312.557	257.19
312.787	235.19
313.017	260.19
313.246	277.19
313.476	270.19
313.706	247.19
313.935	269.19
314.165	247.19
314.394	269.19
314.624	257.19
314.853	261.19
315.083	275.19
315.312	269.19
315.542	271.19
315.771	259.19
316.001	253.19
316.23	257.19
316.46	259.19
316.689	259.19
316.919	263.19
317.148	260.19
317.377	276.19
317.607	281.19
317.836	280.19
318.065	278.19
318.295	262.19
318.524	243.19
318.753	265.19
318.983	272.19
319.212	272.19
319.441	252.19
319.67	263.19
319.9	261.19
320.129	283.19
320.358	276.19
320.587	252.19
320.816	274.19
321.046	284.19
321.275	292.19
321.504	276.19
321.733	278.19
321.962	255.19
322.191	275.19
322.42	278.19
322.649	263.19
322.878	263.19
323.108	271.19
323.337	269.19
323.566	283.19
323.795	257.19
324.024	266.19
324.253	268.19
324.482	269.19
324.71	274.19
324.939	267.19
325.168	287.19
325.397	283.19
325.626	275.19
325.855	291.19
326.084	279.19
326.313	284.19
326.542	280.19
326.77	308.19
326.999	285.19
327.228	295.19
327.457	277.19
327.686	297.19
327.914	304.19
328.143	300.19
328.372	290.19
328.6	284.19
328.829	294.19
329.058	287.19
329.287	297.19
329.515	311.19
329.744	296.19
329.972	276.19
330.201	292.19
330.43	307.19
330.658	295.19
330.887	289.19
331.115	331.19
331.344	304.19
331.572	293.19
331.801	296.19
332.03	319.19
332.258	320.19
332.486	322.19
332.715	324.19
332.943	328.19
333.172	342.19
333.4	344.19
333.629	360.19
333.857	373.19
334.085	363.19
334.314	352.19
334.542	336.19
334.771	356.19
334.999	343.19
335.227	360.19
335.455	328.19
335.684	326.19
335.912	331.19
336.14	326.19
336.369	335.19
336.597	328.19
336.825	329.19
337.053	330.19
337.281	336.19
337.51	332.19
337.738	335.19
337.966	300.19
338.194	309.19
338.422	334.19
338.65	325.19
338.878	345.19
339.106	319.19
339.334	311.19
339.562	316.19
339.79	321.19
340.018	310.19
340.246	332.19
340.474	309.19
340.702	316.19
340.93	311.19
341.158	307.19
341.386	308.19
341.614	311.19
341.842	313.19
342.07	313.19
342.298	328.19
342.526	323.19
342.754	321.19
342.981	322.19
343.209	321.19
343.437	336.19
343.665	354.19
343.893	345.19
344.12	356.19
344.348	339.19
344.576	335.19
344.804	321.19
345.031	330.19
345.259	338.19
345.487	309.19
345.714	307.19
345.942	314.19
346.17	304.19
346.397	318.19
346.625	319.19
346.853	306.19
347.08	299.19
347.308	303.19
347.535	309.19
347.763	295.19
347.99	314.19
348.218	309.19
348.445	300.19
348.673	303.19
348.9	287.19
349.128	307.19
349.355	296.19
349.583	317.19
349.81	303.19
350.037	322.19
350.265	309.19
350.492	292.19
350.72	295.19
350.947	290.19
351.174	309.19
351.402	303.19
351.629	316.19
351.856	299.19
352.083	303.19
352.311	291.19
352.538	301.19
352.765	292.19
352.992	308.19
353.22	308.19
353.447	303.19
353.674	295.19
353.901	294.19
354.128	284.19
354.355	280.19
354.583	296.19
354.81	303.19
355.037	294.19
355.264	302.19
355.491	286.19
355.718	285.19
355.945	299.19
356.172	303.19
356.399	312.19
356.626	303.19
356.853	299.19
357.08	308.19
357.307	299.19
357.534	296.19
357.761	316.19
357.988	297.19
358.215	300.19
358.441	287.19
358.668	315.19
358.895	298.19
359.122	302.19
359.349	296.19
359.576	309.19
359.802	295.19
360.029	295.19
360.256	292.19
360.483	296.19
360.709	306.19
360.936	305.19
361.163	291.19
361.39	303.19
361.616	306.19
361.843	307.19
362.07	301.19
362.296	283.19
362.523	288.19
362.749	311.19
362.976	303.19
363.203	315.19
363.429	307.19
363.656	321.19
363.882	293.19
364.109	298.19
364.335	311.19
364.562	296.19
364.788	297.19
365.015	341.19
365.241	308.19
365.468	320.19
365.694	307.19
365.92	301.19
366.147	291.19
366.373	306.19
366.599	312.19
366.826	319.19
367.052	336.19
367.278	322.19
367.505	308.19
367.731	300.19
367.957	295.19
368.184	304.19
368.41	305.19
368.636	321.19
368.862	341.19
369.089	329.19
369.315	313.19
369.541	317.19
369.767	313.19
369.993	308.19
370.219	307.19
370.445	305.19
370.672	325.19
370.898	325.19
371.124	315.19
371.35	331.19
371.576	316.19
371.802	332.19
372.028	342.19
372.254	311.19
372.48	330.19
372.706	323.19
372.932	339.19
373.158	343.19
373.384	336.19
373.61	336.19
373.835	337.19
374.061	337.19
374.287	341.19
374.513	328.19
374.739	343.19
374.965	330.19
375.191	352.19
375.416	357.19
375.642	333.19
375.868	343.19
376.094	345.19
376.319	343.19
376.545	328.19
376.771	344.19
376.997	315.19
377.222	325.19
377.448	337.19
377.674	323.19
377.899	326.19
378.125	331.19
378.35	338.19
378.576	325.19
378.802	316.19
379.027	341.19
379.253	325.19
379.478	310.19
379.704	319.19
379.929	336.19
380.155	346.19
380.38	338.19
380.606	324.19
380.831	327.19
381.057	349.19
381.282	331.19
381.507	347.19
381.733	339.19
381.958	330.19
382.184	357.19
382.409	347.19
382.634	356.19
382.86	336.19
383.085	352.19
383.31	344.19
383.535	345.19
383.761	343.19
383.986	340.19
384.211	356.19
384.436	352.19
384.662	356.19
384.887	366.19
385.112	365.19
385.337	376.19
385.562	365.19
385.787	381.19
386.013	387.19
386.238	376.19
386.463	373.19
386.688	377.19
386.913	363.19
387.138	363.19
387.363	396.19
387.588	379.19
387.813	400.19
388.038	383.19
388.263	369.19
388.488	379.19
388.713	376.19
388.938	375.19
389.163	364.19
389.387	385.19
389.612	383.19
389.837	376.19
390.062	387.19
390.287	379.19
390.512	388.19
390.736	397.19
390.961	385.19
391.186	395.19
391.411	418.19
391.636	401.19
391.86	403.19
392.085	397.19
392.31	424.19
392.534	375.19
392.759	411.19
392.984	408.19
393.208	399.19
393.433	388.19
393.658	389.19
393.882	409.19
394.107	389.19
394.331	398.19
394.556	395.19
394.78	411.19
395.005	403.19
395.229	417.19
395.454	406.19
395.678	424.19
395.903	429.19
396.127	424.19
396.352	420.19
396.576	416.19
396.801	416.19
397.025	424.19
397.249	426.19
397.474	437.19
397.698	431.19
397.922	424.19
398.147	422.19
398.371	425.19
398.595	465.19
398.82	446.19
399.044	498.19
399.268	527.19
399.492	565.19
399.717	577.19
399.941	567.19
400.165	573.19
400.389	525.19
400.613	499.19
400.837	468.19
401.062	480.19
401.286	449.19
401.51	482.19
401.734	460.19
401.958	460.19
402.182	478.19
402.406	453.19
402.63	447.19
402.854	477.19
403.078	483.19
403.302	482.19
403.526	488.19
403.75	468.19
403.974	499.19
404.198	488.19
404.422	496.19
404.645	491.19
404.869	475.19
405.093	479.19
405.317	490.19
405.541	489.19
405.765	484.19
405.988	486.19
406.212	488.19
406.436	497.19
406.66	515.19
406.883	519.19
407.107	500.19
407.331	554.19
407.555	568.19
407.778	550.19
408.002	533.19
408.226	523.19
408.449	531.19
408.673	521.19
408.896	503.19
409.12	519.19
409.344	506.19
409.567	462.19
409.791	474.19
410.014	484.19
410.238	472.19
410.461	485.19
410.685	501.19
410.908	495.19
411.132	469.19
411.355	444.19
411.578	484.19
411.802	474.19
412.025	475.19
412.249	471.19
412.472	486.19
412.695	485.19
412.919	461.19
413.142	465.19
413.365	479.19
413.589	465.19
413.812	441.19
414.035	458.19
414.258	457.19
414.482	454.19
414.705	468.19
414.928	461.19
415.151	443.19
415.374	444.19
415.597	437.19
415.821	433.19
416.044	447.19
416.267	456.19
416.49	434.19
416.713	459.19
416.936	451.19
417.159	431.19
417.382	415.19
417.605	442.19
417.828	444.19
418.051	456.19
418.274	459.19
418.497	421.19
418.72	449.19
418.943	443.19
419.166	473.19
419.389	494.19
419.611	488.19
419.834	455.19
420.057	464.19
420.28	449.19
420.503	444.19
420.726	445.19
420.948	435.19
421.171	456.19
421.394	438.19
421.617	447.19
421.839	450.19
422.062	449.19
422.285	426.19
422.507	454.19
422.73	446.19
422.953	461.19
423.175	450.19
423.398	442.19
423.621	437.19
423.843	459.19
424.066	447.19
424.288	447.19
424.511	452.19
424.733	476.19
424.956	435.19
425.178	449.19
425.401	426.19
425.623	449.19
425.846	450.19
426.068	428.19
426.291	417.19
426.513	427.19
426.735	431.19
426.958	436.19
427.18	419.19
427.402	415.19
427.625	434.19
427.847	406.19
428.069	427.19
428.292	431.19
428.514	392.19
428.736	385.19
428.958	407.19
429.181	403.19
429.403	389.19
429.625	390.19
429.847	398.19
430.069	416.19
430.292	404.19
430.514	404.19
430.736	405.19
430.958	401.19
431.18	405.19
431.402	401.19
431.624	400.19
431.846	407.19
432.068	396.19
432.29	394.19
432.512	428.19
432.734	405.19
432.956	396.19
433.178	415.19
433.4	410.19
433.622	426.19
433.844	417.19
434.066	411.19
434.287	403.19
434.509	423.19
434.731	438.19
434.953	427.19
435.175	433.19
435.397	427.19
435.618	438.19
435.84	402.19
436.062	409.19
436.284	433.19
436.505	403.19
436.727	415.19
436.949	408.19
437.17	384.19
437.392	391.19
437.614	393.19
437.835	392.19
438.057	392.19
438.278	397.19
438.5	401.19
438.721	397.19
438.943	395.19
439.165	382.19
439.386	393.19
439.608	384.19
439.829	399.19
440.05	411.19
440.272	409.19
440.493	420.19
440.715	406.19
440.936	415.19
441.158	426.19
441.379	419.19
441.6	416.19
441.822	428.19
442.043	439.19
442.264	425.19
442.486	408.19
442.707	429.19
442.928	429.19
443.149	414.19
443.371	429.19
443.592	427.19
443.813	440.19
444.034	428.19
444.255	443.19
444.476	460.19
444.698	476.19
444.919	499.19
445.14	536.19
445.361	487.19
445.582	435.19
445.803	434.19
446.024	424.19
446.245	425.19
446.466	411.19
446.687	421.19
446.908	414.19
447.129	382.19
447.35	392.19
447.571	385.19
447.792	389.19
448.013	389.19
448.234	393.19
448.455	388.19
448.675	361.19
448.896	353.19
449.117	380.19
449.338	375.19
449.559	380.19
449.779	370.19
450	374.19
450.221	369.19
450.442	387.19
450.662	378.19
450.883	389.19
451.104	371.19
451.324	355.19
451.545	366.19
451.766	383.19
451.986	359.19
452.207	374.19
452.428	372.19
452.648	369.19
452.869	367.19
453.089	351.19
453.31	361.19
453.53	363.19
453.751	360.19
453.971	356.19
454.192	358.19
454.412	345.19
454.633	357.19
454.853	356.19
455.073	343.19
455.294	364.19
455.514	347.19
455.734	351.19
455.955	360.19
456.175	357.19
456.395	356.19
456.616	348.19
456.836	357.19
457.056	342.19
457.276	351.19
457.497	370.19
457.717	363.19
457.937	370.19
458.157	377.19
458.377	370.19
458.598	384.19
458.818	389.19
459.038	399.19
459.258	384.19
459.478	421.19
459.698	418.19
459.918	424.19
460.138	435.19
460.358	459.19
460.578	447.19
460.798	453.19
461.018	460.19
461.238	457.19
461.458	463.19
461.678	459.19
461.898	474.19
462.118	458.19
462.338	482.19
462.558	481.19
462.777	508.19
462.997	529.19
463.217	544.19
463.437	547.19
463.657	513.19
463.876	524.19
464.096	529.19
464.316	504.19
464.536	505.19
464.755	508.19
464.975	481.19
465.195	464.19
465.414	450.19
465.634	449.19
465.854	420.19
466.073	411.19
466.293	394.19
466.512	383.19
466.732	396.19
466.951	394.19
467.171	383.19
467.391	385.19
467.61	411.19
467.829	393.19
468.049	407.19
468.268	379.19
468.488	365.19
468.707	388.19
468.927	364.19
469.146	375.19
469.365	393.19
469.585	369.19
469.804	380.19
470.023	396.19
470.243	385.19
470.462	412.19
470.681	397.19
470.901	403.19
471.12	393.19
471.339	394.19
471.558	399.19
471.777	377.19
471.997	379.19
472.216	384.19
472.435	396.19
472.654	373.19
472.873	389.19
473.092	396.19
473.311	384.19
473.53	401.19
473.749	375.19
473.968	392.19
474.187	387.19
474.406	367.19
474.625	380.19
474.844	382.19
475.063	406.19
475.282	397.19
475.501	396.19
475.72	387.19
475.939	402.19
476.158	411.19
476.377	396.19
476.596	398.19
476.814	395.19
477.033	397.19
477.252	409.19
477.471	427.19
477.69	422.19
477.908	440.19
478.127	425.19
478.346	451.19
478.564	441.19
478.783	452.19
479.002	450.19
479.22	441.19
479.439	459.19
479.658	448.19
479.876	469.19
480.095	482.19
480.313	455.19
480.532	485.19
480.751	460.19
480.969	452.19
481.188	462.19
481.406	460.19
481.624	453.19
481.843	449.19
482.061	454.19
482.28	456.19
482.498	439.19
482.717	432.19
482.935	435.19
483.153	437.19
483.372	433.19
483.59	431.19
483.808	440.19
484.027	428.19
484.245	457.19
484.463	467.19
484.681	457.19
484.9	481.19
485.118	444.19
485.336	441.19
485.554	449.19
485.772	453.19
485.99	453.19
486.209	458.19
486.427	447.19
486.645	448.19
486.863	455.19
487.081	457.19
487.299	433.19
487.517	455.19
487.735	468.19
487.953	445.19
488.171	463.19
488.389	462.19
488.607	442.19
488.825	474.19
489.043	465.19
489.261	447.19
489.479	451.19
489.696	464.19
489.914	455.19
490.132	470.19
490.35	450.19
490.568	462.19
490.786	457.19
491.003	479.19
491.221	446.19
491.439	455.19
491.657	443.19
491.874	452.19
492.092	444.19
492.31	453.19
492.527	461.19
492.745	472.19
492.963	452.19
493.18	466.19
493.398	479.19
493.615	461.19
493.833	473.19
494.05	464.19
494.268	475.19
494.485	481.19
494.703	492.19
494.92	478.19
495.138	490.19
495.355	472.19
495.573	484.19
495.79	480.19
496.008	482.19
496.225	503.19
496.442	522.19
496.66	503.19
496.877	525.19
497.094	537.19
497.312	541.19
497.529	548.19
497.746	561.19
497.963	573.19
498.181	579.19
498.398	591.19
498.615	658.19
498.832	643.19
499.049	664.19
499.267	704.19
499.484	765.19
499.701	825.19
499.918	885.19
500.135	943.19
500.352	1023.19
500.569	1029.19
500.786	1035.19
501.003	960.19
501.22	880.19
501.437	871.19
501.654	769.19
501.871	757.19
502.088	715.19
