Data from Fe(NO3)3@0.1M.TitratingCurve.Agarose3%dH2O.NegLispCup.LampEnergy10.LIBS07252019_HRD10591_16-40-01-333.txt Node
Date: Thu Jul 25 16:40:01 EDT 2019
User: cochatt
Spectrometer: HR+D1059
Trigger mode: 1
Integration Time (sec): 1.000000E-1
Scans to average: 1
Electric dark correction enabled: true
Nonlinearity correction enabled: false
Boxcar width: 0
XAxis mode: Wavelengths
Number of Pixels in Spectrum: 2048
>>>>>Begin Spectral Data<<<<<
223.165	-12.5
223.4	-12.5
223.635	-12.5
223.869	-12.5
224.104	-14.5
224.338	-15.5
224.573	-10.5
224.808	-9.5
225.042	-9.5
225.277	0.5
225.511	-19.5
225.746	1.5
225.98	-1.5
226.215	8.5
226.449	17.5
226.683	26.5
226.918	34.5
227.152	16.5
227.387	33.5
227.621	34.5
227.856	55.5
228.09	46.5
228.324	55.5
228.559	42.5
228.793	51.5
229.027	77.5
229.262	70.5
229.496	90.5
229.73	89.5
229.964	81.5
230.199	96.5
230.433	103.5
230.667	105.5
230.901	101.5
231.136	96.5
231.37	106.5
231.604	112.5
231.838	104.5
232.072	109.5
232.306	98.5
232.541	101.5
232.775	98.5
233.009	93.5
233.243	104.5
233.477	127.5
233.711	107.5
233.945	103.5
234.179	95.5
234.413	104.5
234.647	110.5
234.881	104.5
235.115	94.5
235.349	99.5
235.583	103.5
235.817	98.5
236.051	86.5
236.285	96.5
236.519	94.5
236.753	109.5
236.987	104.5
237.221	119.5
237.455	103.5
237.689	112.5
237.922	111.5
238.156	103.5
238.39	113.5
238.624	94.5
238.858	98.5
239.091	124.5
239.325	115.5
239.559	119.5
239.793	110.5
240.027	112.5
240.26	109.5
240.494	122.5
240.728	113.5
240.961	112.5
241.195	117.5
241.429	121.5
241.662	118.5
241.896	114.5
242.13	122.5
242.363	120.5
242.597	127.5
242.83	125.5
243.064	124.5
243.298	121.5
243.531	105.5
243.765	114.5
243.998	125.5
244.232	129.5
244.465	134.5
244.699	114.5
244.932	129.5
245.166	143.5
245.399	138.5
245.633	131.5
245.866	113.5
246.099	112.5
246.333	128.5
246.566	123.5
246.8	139.5
247.033	132.5
247.266	123.5
247.5	135.5
247.733	134.5
247.966	123.5
248.2	135.5
248.433	134.5
248.666	129.5
248.899	135.5
249.133	133.5
249.366	140.5
249.599	140.5
249.832	149.5
250.066	137.5
250.299	137.5
250.532	147.5
250.765	137.5
250.998	139.5
251.231	138.5
251.465	138.5
251.698	136.5
251.931	132.5
252.164	149.5
252.397	130.5
252.63	143.5
252.863	154.5
253.096	138.5
253.329	135.5
253.562	153.5
253.795	150.5
254.028	151.5
254.261	162.5
254.494	165.5
254.727	157.5
254.96	150.5
255.193	167.5
255.426	140.5
255.659	145.5
255.892	150.5
256.124	148.5
256.357	146.5
256.59	161.5
256.823	160.5
257.056	151.5
257.289	145.5
257.521	156.5
257.754	159.5
257.987	165.5
258.22	174.5
258.452	161.5
258.685	159.5
258.918	173.5
259.151	163.5
259.383	173.5
259.616	149.5
259.849	174.5
260.081	175.5
260.314	162.5
260.547	160.5
260.779	153.5
261.012	166.5
261.244	163.5
261.477	191.5
261.71	167.5
261.942	164.5
262.175	152.5
262.407	167.5
262.64	162.5
262.872	159.5
263.105	178.5
263.337	183.5
263.57	170.5
263.802	173.5
264.035	173.5
264.267	190.5
264.499	185.5
264.732	185.5
264.964	169.5
265.197	180.5
265.429	178.5
265.661	182.5
265.894	184.5
266.126	169.5
266.358	187.5
266.591	205.5
266.823	199.5
267.055	190.5
267.287	188.5
267.52	184.5
267.752	195.5
267.984	191.5
268.216	200.5
268.448	190.5
268.681	179.5
268.913	207.5
269.145	190.5
269.377	183.5
269.609	191.5
269.841	188.5
270.073	201.5
270.306	190.5
270.538	178.5
270.77	193.5
271.002	204.5
271.234	203.5
271.466	210.5
271.698	196.5
271.93	219.5
272.162	196.5
272.394	194.5
272.626	199.5
272.858	197.5
273.09	200.5
273.322	195.5
273.553	205.5
273.785	191.5
274.017	192.5
274.249	206.5
274.481	222.5
274.713	205.5
274.945	185.5
275.176	218.5
275.408	230.5
275.64	199.5
275.872	214.5
276.104	220.5
276.335	197.5
276.567	206.5
276.799	207.5
277.031	206.5
277.262	208.5
277.494	213.5
277.726	207.5
277.957	198.5
278.189	203.5
278.421	212.5
278.652	201.5
278.884	213.5
279.115	228.5
279.347	212.5
279.579	211.5
279.81	230.5
280.042	213.5
280.273	208.5
280.505	215.5
280.736	224.5
280.968	218.5
281.199	231.5
281.431	202.5
281.662	222.5
281.894	223.5
282.125	218.5
282.356	233.5
282.588	249.5
282.819	239.5
283.051	228.5
283.282	231.5
283.513	217.5
283.745	249.5
283.976	227.5
284.207	230.5
284.439	241.5
284.67	241.5
284.901	239.5
285.132	241.5
285.364	254.5
285.595	238.5
285.826	225.5
286.057	238.5
286.288	229.5
286.52	241.5
286.751	237.5
286.982	248.5
287.213	244.5
287.444	235.5
287.675	244.5
287.906	255.5
288.138	273.5
288.369	238.5
288.6	255.5
288.831	240.5
289.062	245.5
289.293	253.5
289.524	252.5
289.755	246.5
289.986	241.5
290.217	245.5
290.448	246.5
290.679	238.5
290.91	258.5
291.141	262.5
291.371	247.5
291.602	251.5
291.833	240.5
292.064	241.5
292.295	235.5
292.526	244.5
292.757	240.5
292.987	231.5
293.218	263.5
293.449	251.5
293.68	246.5
293.91	255.5
294.141	264.5
294.372	244.5
294.603	249.5
294.833	251.5
295.064	244.5
295.295	257.5
295.525	246.5
295.756	261.5
295.987	262.5
296.217	262.5
296.448	263.5
296.679	285.5
296.909	273.5
297.14	274.5
297.37	249.5
297.601	277.5
297.831	274.5
298.062	271.5
298.292	276.5
298.523	281.5
298.753	294.5
298.984	280.5
299.214	258.5
299.445	274.5
299.675	295.5
299.905	282.5
300.136	278.5
300.366	278.5
300.597	263.5
300.827	290.5
301.057	293.5
301.288	276.5
301.518	275.5
301.748	284.5
301.979	291.5
302.209	274.5
302.439	297.5
302.669	296.5
302.9	284.5
303.13	288.5
303.36	291.5
303.59	282.5
303.82	273.5
304.051	285.5
304.281	295.5
304.511	291.5
304.741	290.5
304.971	296.5
305.201	269.5
305.431	285.5
305.661	306.5
305.891	298.5
306.121	275.5
306.352	282.5
306.582	291.5
306.812	271.5
307.042	278.5
307.272	275.5
307.502	282.5
307.731	292.5
307.961	269.5
308.191	273.5
308.421	279.5
308.651	286.5
308.881	281.5
309.111	284.5
309.341	269.5
309.571	279.5
309.8	293.5
310.03	286.5
310.26	285.5
310.49	285.5
310.72	265.5
310.949	289.5
311.179	309.5
311.409	278.5
311.639	292.5
311.868	286.5
312.098	289.5
312.328	289.5
312.557	293.5
312.787	277.5
313.017	305.5
313.246	301.5
313.476	306.5
313.706	288.5
313.935	301.5
314.165	298.5
314.394	291.5
314.624	299.5
314.853	289.5
315.083	298.5
315.312	300.5
315.542	299.5
315.771	315.5
316.001	303.5
316.23	291.5
316.46	301.5
316.689	305.5
316.919	303.5
317.148	314.5
317.377	294.5
317.607	296.5
317.836	292.5
318.065	285.5
318.295	299.5
318.524	294.5
318.753	303.5
318.983	311.5
319.212	302.5
319.441	306.5
319.67	288.5
319.9	305.5
320.129	307.5
320.358	308.5
320.587	293.5
320.816	294.5
321.046	311.5
321.275	309.5
321.504	303.5
321.733	290.5
321.962	296.5
322.191	307.5
322.42	301.5
322.649	310.5
322.878	319.5
323.108	312.5
323.337	305.5
323.566	307.5
323.795	314.5
324.024	322.5
324.253	315.5
324.482	313.5
324.71	326.5
324.939	320.5
325.168	335.5
325.397	322.5
325.626	325.5
325.855	319.5
326.084	330.5
326.313	340.5
326.542	317.5
326.77	318.5
326.999	334.5
327.228	318.5
327.457	329.5
327.686	324.5
327.914	326.5
328.143	331.5
328.372	310.5
328.6	328.5
328.829	333.5
329.058	317.5
329.287	325.5
329.515	347.5
329.744	338.5
329.972	329.5
330.201	324.5
330.43	349.5
330.658	336.5
330.887	338.5
331.115	337.5
331.344	346.5
331.572	342.5
331.801	366.5
332.03	365.5
332.258	354.5
332.486	387.5
332.715	397.5
332.943	377.5
333.172	393.5
333.4	403.5
333.629	402.5
333.857	422.5
334.085	419.5
334.314	418.5
334.542	410.5
334.771	405.5
334.999	394.5
335.227	417.5
335.455	408.5
335.684	396.5
335.912	394.5
336.14	396.5
336.369	386.5
336.597	383.5
336.825	386.5
337.053	378.5
337.281	389.5
337.51	368.5
337.738	357.5
337.966	349.5
338.194	356.5
338.422	351.5
338.65	361.5
338.878	370.5
339.106	346.5
339.334	352.5
339.562	360.5
339.79	359.5
340.018	358.5
340.246	354.5
340.474	332.5
340.702	353.5
340.93	357.5
341.158	367.5
341.386	356.5
341.614	325.5
341.842	354.5
342.07	347.5
342.298	359.5
342.526	353.5
342.754	346.5
342.981	361.5
343.209	359.5
343.437	361.5
343.665	361.5
343.893	388.5
344.12	395.5
344.348	376.5
344.576	375.5
344.804	381.5
345.031	365.5
345.259	352.5
345.487	349.5
345.714	356.5
345.942	337.5
346.17	335.5
346.397	353.5
346.625	331.5
346.853	345.5
347.08	330.5
347.308	344.5
347.535	328.5
347.763	338.5
347.99	346.5
348.218	351.5
348.445	331.5
348.673	334.5
348.9	344.5
349.128	350.5
349.355	334.5
349.583	348.5
349.81	334.5
350.037	327.5
350.265	325.5
350.492	349.5
350.72	338.5
350.947	331.5
351.174	341.5
351.402	321.5
351.629	325.5
351.856	338.5
352.083	322.5
352.311	307.5
352.538	310.5
352.765	309.5
352.992	326.5
353.22	321.5
353.447	342.5
353.674	328.5
353.901	323.5
354.128	320.5
354.355	339.5
354.583	323.5
354.81	325.5
355.037	346.5
355.264	335.5
355.491	344.5
355.718	333.5
355.945	324.5
356.172	322.5
356.399	337.5
356.626	350.5
356.853	366.5
357.08	335.5
357.307	324.5
357.534	328.5
357.761	325.5
357.988	327.5
358.215	337.5
358.441	340.5
358.668	322.5
358.895	314.5
359.122	326.5
359.349	329.5
359.576	330.5
359.802	324.5
360.029	318.5
360.256	347.5
360.483	343.5
360.709	326.5
360.936	345.5
361.163	342.5
361.39	346.5
361.616	338.5
361.843	330.5
362.07	314.5
362.296	334.5
362.523	336.5
362.749	338.5
362.976	340.5
363.203	321.5
363.429	339.5
363.656	304.5
363.882	333.5
364.109	337.5
364.335	314.5
364.562	313.5
364.788	318.5
365.015	337.5
365.241	332.5
365.468	329.5
365.694	303.5
365.92	341.5
366.147	314.5
366.373	332.5
366.599	329.5
366.826	315.5
367.052	334.5
367.278	339.5
367.505	338.5
367.731	358.5
367.957	335.5
368.184	343.5
368.41	351.5
368.636	332.5
368.862	343.5
369.089	338.5
369.315	350.5
369.541	340.5
369.767	365.5
369.993	332.5
370.219	344.5
370.445	359.5
370.672	363.5
370.898	360.5
371.124	367.5
371.35	362.5
371.576	371.5
371.802	381.5
372.028	355.5
372.254	370.5
372.48	376.5
372.706	366.5
372.932	366.5
373.158	360.5
373.384	352.5
373.61	369.5
373.835	375.5
374.061	363.5
374.287	367.5
374.513	376.5
374.739	389.5
374.965	391.5
375.191	398.5
375.416	394.5
375.642	379.5
375.868	392.5
376.094	370.5
376.319	382.5
376.545	378.5
376.771	358.5
376.997	381.5
377.222	368.5
377.448	350.5
377.674	351.5
377.899	343.5
378.125	338.5
378.35	344.5
378.576	357.5
378.802	368.5
379.027	342.5
379.253	356.5
379.478	357.5
379.704	356.5
379.929	381.5
380.155	365.5
380.38	351.5
380.606	350.5
380.831	357.5
381.057	367.5
381.282	373.5
381.507	366.5
381.733	374.5
381.958	366.5
382.184	371.5
382.409	365.5
382.634	396.5
382.86	387.5
383.085	385.5
383.31	390.5
383.535	393.5
383.761	392.5
383.986	415.5
384.211	407.5
384.436	405.5
384.662	415.5
384.887	413.5
385.112	440.5
385.337	439.5
385.562	437.5
385.787	427.5
386.013	433.5
386.238	433.5
386.463	430.5
386.688	441.5
386.913	427.5
387.138	417.5
387.363	437.5
387.588	431.5
387.813	425.5
388.038	419.5
388.263	425.5
388.488	428.5
388.713	449.5
388.938	420.5
389.163	431.5
389.387	429.5
389.612	429.5
389.837	414.5
390.062	427.5
390.287	420.5
390.512	440.5
390.736	423.5
390.961	441.5
391.186	445.5
391.411	459.5
391.636	479.5
391.86	487.5
392.085	464.5
392.31	483.5
392.534	469.5
392.759	481.5
392.984	445.5
393.208	457.5
393.433	447.5
393.658	439.5
393.882	462.5
394.107	455.5
394.331	464.5
394.556	465.5
394.78	474.5
395.005	459.5
395.229	463.5
395.454	468.5
395.678	501.5
395.903	480.5
396.127	480.5
396.352	462.5
396.576	454.5
396.801	466.5
397.025	481.5
397.249	471.5
397.474	520.5
397.698	486.5
397.922	482.5
398.147	484.5
398.371	507.5
398.595	513.5
398.82	529.5
399.044	578.5
399.268	610.5
399.492	655.5
399.717	745.5
399.941	756.5
400.165	677.5
400.389	631.5
400.613	594.5
400.837	567.5
401.062	547.5
401.286	553.5
401.51	544.5
401.734	521.5
401.958	533.5
402.182	563.5
402.406	542.5
402.63	543.5
402.854	546.5
403.078	569.5
403.302	583.5
403.526	571.5
403.75	608.5
403.974	606.5
404.198	605.5
404.422	580.5
404.645	603.5
404.869	591.5
405.093	610.5
405.317	584.5
405.541	594.5
405.765	577.5
405.988	594.5
406.212	579.5
406.436	599.5
406.66	591.5
406.883	612.5
407.107	631.5
407.331	637.5
407.555	669.5
407.778	673.5
408.002	688.5
408.226	641.5
408.449	634.5
408.673	617.5
408.896	610.5
409.12	621.5
409.344	603.5
409.567	605.5
409.791	613.5
410.014	615.5
410.238	604.5
410.461	609.5
410.685	595.5
410.908	601.5
411.132	578.5
411.355	547.5
411.578	554.5
411.802	560.5
412.025	553.5
412.249	580.5
412.472	606.5
412.695	555.5
412.919	560.5
413.142	554.5
413.365	559.5
413.589	545.5
413.812	537.5
414.035	562.5
414.258	551.5
414.482	570.5
414.705	552.5
414.928	567.5
415.151	565.5
415.374	569.5
415.597	540.5
415.821	552.5
416.044	531.5
416.267	545.5
416.49	547.5
416.713	510.5
416.936	543.5
417.159	563.5
417.382	557.5
417.605	566.5
417.828	550.5
418.051	565.5
418.274	544.5
418.497	548.5
418.72	543.5
418.943	561.5
419.166	587.5
419.389	610.5
419.611	609.5
419.834	571.5
420.057	567.5
420.28	542.5
420.503	543.5
420.726	541.5
420.948	536.5
421.171	529.5
421.394	551.5
421.617	524.5
421.839	549.5
422.062	539.5
422.285	522.5
422.507	562.5
422.73	534.5
422.953	551.5
423.175	551.5
423.398	565.5
423.621	557.5
423.843	552.5
424.066	559.5
424.288	553.5
424.511	561.5
424.733	567.5
424.956	536.5
425.178	561.5
425.401	545.5
425.623	510.5
425.846	519.5
426.068	523.5
426.291	514.5
426.513	499.5
426.735	529.5
426.958	486.5
427.18	518.5
427.402	507.5
427.625	507.5
427.847	485.5
428.069	492.5
428.292	523.5
428.514	489.5
428.736	491.5
428.958	480.5
429.181	471.5
429.403	466.5
429.625	478.5
429.847	478.5
430.069	491.5
430.292	497.5
430.514	490.5
430.736	490.5
430.958	509.5
431.18	506.5
431.402	484.5
431.624	488.5
431.846	506.5
432.068	501.5
432.29	497.5
432.512	495.5
432.734	487.5
432.956	499.5
433.178	475.5
433.4	495.5
433.622	507.5
433.844	490.5
434.066	515.5
434.287	503.5
434.509	516.5
434.731	534.5
434.953	545.5
435.175	562.5
435.397	548.5
435.618	527.5
435.84	510.5
436.062	505.5
436.284	501.5
436.505	505.5
436.727	499.5
436.949	494.5
437.17	475.5
437.392	470.5
437.614	480.5
437.835	465.5
438.057	482.5
438.278	478.5
438.5	472.5
438.721	480.5
438.943	485.5
439.165	482.5
439.386	470.5
439.608	499.5
439.829	525.5
440.05	526.5
440.272	507.5
440.493	504.5
440.715	526.5
440.936	541.5
441.158	529.5
441.379	542.5
441.6	562.5
441.822	555.5
442.043	548.5
442.264	550.5
442.486	528.5
442.707	523.5
442.928	536.5
443.149	547.5
443.371	548.5
443.592	549.5
443.813	541.5
444.034	567.5
444.255	581.5
444.476	568.5
444.698	591.5
444.919	631.5
445.14	702.5
445.361	627.5
445.582	579.5
445.803	547.5
446.024	530.5
446.245	550.5
446.466	521.5
446.687	519.5
446.908	511.5
447.129	494.5
447.35	493.5
447.571	494.5
447.792	512.5
448.013	477.5
448.234	458.5
448.455	478.5
448.675	477.5
448.896	459.5
449.117	472.5
449.338	485.5
449.559	451.5
449.779	456.5
450	467.5
450.221	466.5
450.442	465.5
450.662	457.5
450.883	465.5
451.104	482.5
451.324	475.5
451.545	466.5
451.766	474.5
451.986	455.5
452.207	465.5
452.428	465.5
452.648	451.5
452.869	431.5
453.089	446.5
453.31	444.5
453.53	448.5
453.751	435.5
453.971	438.5
454.192	434.5
454.412	433.5
454.633	443.5
454.853	420.5
455.073	436.5
455.294	428.5
455.514	450.5
455.734	449.5
455.955	403.5
456.175	439.5
456.395	414.5
456.616	442.5
456.836	439.5
457.056	439.5
457.276	421.5
457.497	433.5
457.717	423.5
457.937	455.5
458.157	442.5
458.377	442.5
458.598	434.5
458.818	466.5
459.038	463.5
459.258	468.5
459.478	487.5
459.698	515.5
459.918	505.5
460.138	516.5
460.358	549.5
460.578	549.5
460.798	552.5
461.018	562.5
461.238	574.5
461.458	573.5
461.678	570.5
461.898	589.5
462.118	565.5
462.338	596.5
462.558	605.5
462.777	630.5
462.997	671.5
463.217	732.5
463.437	701.5
463.657	664.5
463.876	640.5
464.096	647.5
464.316	646.5
464.536	650.5
464.755	613.5
464.975	615.5
465.195	592.5
465.414	558.5
465.634	533.5
465.854	534.5
466.073	523.5
466.293	519.5
466.512	484.5
466.732	458.5
466.951	481.5
467.171	481.5
467.391	470.5
467.61	477.5
467.829	455.5
468.049	480.5
468.268	483.5
468.488	460.5
468.707	462.5
468.927	468.5
469.146	455.5
469.365	466.5
469.585	475.5
469.804	480.5
470.023	473.5
470.243	479.5
470.462	481.5
470.681	486.5
470.901	479.5
471.12	498.5
471.339	472.5
471.558	468.5
471.777	465.5
471.997	453.5
472.216	447.5
472.435	465.5
472.654	413.5
472.873	445.5
473.092	444.5
473.311	442.5
473.53	449.5
473.749	446.5
473.968	449.5
474.187	448.5
474.406	439.5
474.625	441.5
474.844	445.5
475.063	419.5
475.282	465.5
475.501	445.5
475.72	446.5
475.939	447.5
476.158	447.5
476.377	450.5
476.596	461.5
476.814	482.5
477.033	463.5
477.252	462.5
477.471	496.5
477.69	518.5
477.908	528.5
478.127	513.5
478.346	495.5
478.564	518.5
478.783	532.5
479.002	543.5
479.22	539.5
479.439	543.5
479.658	533.5
479.876	531.5
480.095	541.5
480.313	550.5
480.532	585.5
480.751	555.5
480.969	541.5
481.188	534.5
481.406	512.5
481.624	511.5
481.843	517.5
482.061	493.5
482.28	505.5
482.498	515.5
482.717	495.5
482.935	498.5
483.153	512.5
483.372	494.5
483.59	517.5
483.808	484.5
484.027	499.5
484.245	516.5
484.463	488.5
484.681	534.5
484.9	519.5
485.118	497.5
485.336	521.5
485.554	516.5
485.772	526.5
485.99	525.5
486.209	521.5
486.427	511.5
486.645	529.5
486.863	528.5
487.081	542.5
487.299	535.5
487.517	503.5
487.735	506.5
487.953	532.5
488.171	533.5
488.389	535.5
488.607	520.5
488.825	529.5
489.043	505.5
489.261	520.5
489.479	511.5
489.696	519.5
489.914	518.5
490.132	535.5
490.35	523.5
490.568	521.5
490.786	494.5
491.003	515.5
491.221	526.5
491.439	553.5
491.657	525.5
491.874	537.5
492.092	520.5
492.31	538.5
492.527	539.5
492.745	511.5
492.963	538.5
493.18	549.5
493.398	558.5
493.615	520.5
493.833	563.5
494.05	527.5
494.268	557.5
494.485	551.5
494.703	549.5
494.92	541.5
495.138	536.5
495.355	537.5
495.573	549.5
495.79	557.5
496.008	583.5
496.225	569.5
496.442	575.5
496.66	594.5
496.877	590.5
497.094	609.5
497.312	598.5
497.529	617.5
497.746	628.5
497.963	621.5
498.181	673.5
498.398	675.5
498.615	688.5
498.832	775.5
499.049	798.5
499.267	854.5
499.484	907.5
499.701	1000.5
499.918	1089.5
500.135	1211.5
500.352	1363.5
500.569	1400.5
500.786	1332.5
501.003	1303.5
501.22	1188.5
501.437	1069.5
501.654	978.5
501.871	929.5
502.088	888.5
502.305	817.5
502.522	763.5
502.739	697.5
502.956	674.5
503.172	667.5
503.389	657.5
503.606	618.5
503.823	614.5
504.04	624.5
504.256	602.5
504.473	615.5
504.69	637.5
504.907	613.5
505.123	582.5
505.34	571.5
505.557	547.5
505.773	545.5
505.99	520.5
506.207	507.5
506.423	527.5
506.64	518.5
506.856	493.5
507.073	475.5
507.289	478.5
507.506	520.5
507.722	502.5
507.939	479.5
508.155	474.5
508.372	480.5
508.588	479.5
508.805	455.5
509.021	472.5
509.238	457.5
509.454	445.5
509.67	496.5
509.887	454.5
510.103	463.5
510.319	439.5
510.536	454.5
510.752	411.5
510.968	454.5
511.184	449.5
511.401	447.5
511.617	449.5
511.833	435.5
512.049	445.5
512.265	437.5
512.481	440.5
512.698	449.5
512.914	446.5
513.13	444.5
513.346	446.5
513.562	423.5
513.778	450.5
513.994	448.5
514.21	472.5
514.426	462.5
514.642	438.5
514.858	448.5
515.074	444.5
515.29	477.5
515.506	435.5
515.721	453.5
515.937	470.5
516.153	455.5
516.369	506.5
516.585	514.5
516.801	518.5
517.016	529.5
517.232	567.5
517.448	561.5
517.664	573.5
517.879	557.5
518.095	573.5
518.311	577.5
518.527	568.5
518.742	526.5
518.958	520.5
519.173	491.5
519.389	495.5
519.605	503.5
