Data from Fe(NO3)3@0.025M.TitratingCurve.Agarose3%dH2O.NegLispCup.LampEnergy10.LIBS07252019_HRD10591_16-56-31-336.txt Node
Date: Thu Jul 25 16:56:31 EDT 2019
User: cochatt
Spectrometer: HR+D1059
Trigger mode: 1
Integration Time (sec): 1.000000E-1
Scans to average: 1
Electric dark correction enabled: true
Nonlinearity correction enabled: false
Boxcar width: 0
XAxis mode: Wavelengths
Number of Pixels in Spectrum: 2048
>>>>>Begin Spectral Data<<<<<
223.165	-0.44
223.4	-0.44
223.635	-0.44
223.869	-18.44
224.104	-11.44
224.338	-6.44
224.573	-10.44
224.808	-19.44
225.042	-2.44
225.277	-11.44
225.511	-6.44
225.746	-8.44
225.98	13.56
226.215	-7.44
226.449	6.56
226.683	17.56
226.918	26.56
227.152	38.56
227.387	36.56
227.621	41.56
227.856	37.56
228.09	43.56
228.324	60.56
228.559	65.56
228.793	67.56
229.027	71.56
229.262	79.56
229.496	64.56
229.73	83.56
229.964	79.56
230.199	79.56
230.433	101.56
230.667	101.56
230.901	96.56
231.136	92.56
231.37	99.56
231.604	103.56
231.838	104.56
232.072	91.56
232.306	109.56
232.541	104.56
232.775	108.56
233.009	106.56
233.243	99.56
233.477	110.56
233.711	100.56
233.945	101.56
234.179	109.56
234.413	97.56
234.647	105.56
234.881	99.56
235.115	106.56
235.349	100.56
235.583	96.56
235.817	94.56
236.051	98.56
236.285	95.56
236.519	102.56
236.753	90.56
236.987	98.56
237.221	87.56
237.455	113.56
237.689	93.56
237.922	102.56
238.156	121.56
238.39	101.56
238.624	106.56
238.858	110.56
239.091	97.56
239.325	101.56
239.559	117.56
239.793	109.56
240.027	117.56
240.26	107.56
240.494	107.56
240.728	99.56
240.961	104.56
241.195	108.56
241.429	115.56
241.662	113.56
241.896	115.56
242.13	107.56
242.363	111.56
242.597	127.56
242.83	118.56
243.064	101.56
243.298	121.56
243.531	121.56
243.765	110.56
243.998	120.56
244.232	118.56
244.465	101.56
244.699	123.56
244.932	123.56
245.166	115.56
245.399	129.56
245.633	120.56
245.866	126.56
246.099	126.56
246.333	127.56
246.566	119.56
246.8	117.56
247.033	116.56
247.266	120.56
247.5	125.56
247.733	114.56
247.966	118.56
248.2	123.56
248.433	115.56
248.666	121.56
248.899	131.56
249.133	134.56
249.366	116.56
249.599	130.56
249.832	140.56
250.066	134.56
250.299	127.56
250.532	133.56
250.765	126.56
250.998	121.56
251.231	135.56
251.465	118.56
251.698	148.56
251.931	139.56
252.164	131.56
252.397	144.56
252.63	125.56
252.863	132.56
253.096	135.56
253.329	144.56
253.562	133.56
253.795	152.56
254.028	139.56
254.261	144.56
254.494	132.56
254.727	128.56
254.96	139.56
255.193	153.56
255.426	153.56
255.659	149.56
255.892	138.56
256.124	143.56
256.357	148.56
256.59	135.56
256.823	143.56
257.056	147.56
257.289	142.56
257.521	155.56
257.754	155.56
257.987	138.56
258.22	156.56
258.452	140.56
258.685	151.56
258.918	141.56
259.151	143.56
259.383	145.56
259.616	149.56
259.849	157.56
260.081	157.56
260.314	149.56
260.547	141.56
260.779	163.56
261.012	143.56
261.244	145.56
261.477	154.56
261.71	151.56
261.942	150.56
262.175	153.56
262.407	158.56
262.64	141.56
262.872	155.56
263.105	153.56
263.337	171.56
263.57	155.56
263.802	152.56
264.035	155.56
264.267	136.56
264.499	155.56
264.732	152.56
264.964	151.56
265.197	152.56
265.429	154.56
265.661	157.56
265.894	160.56
266.126	181.56
266.358	159.56
266.591	162.56
266.823	173.56
267.055	159.56
267.287	173.56
267.52	159.56
267.752	164.56
267.984	155.56
268.216	175.56
268.448	169.56
268.681	171.56
268.913	175.56
269.145	158.56
269.377	164.56
269.609	170.56
269.841	193.56
270.073	171.56
270.306	159.56
270.538	172.56
270.77	171.56
271.002	173.56
271.234	166.56
271.466	177.56
271.698	166.56
271.93	187.56
272.162	163.56
272.394	180.56
272.626	185.56
272.858	177.56
273.09	192.56
273.322	194.56
273.553	178.56
273.785	181.56
274.017	196.56
274.249	205.56
274.481	185.56
274.713	163.56
274.945	171.56
275.176	181.56
275.408	189.56
275.64	184.56
275.872	190.56
276.104	184.56
276.335	187.56
276.567	195.56
276.799	187.56
277.031	191.56
277.262	196.56
277.494	187.56
277.726	179.56
277.957	203.56
278.189	197.56
278.421	187.56
278.652	195.56
278.884	200.56
279.115	189.56
279.347	188.56
279.579	179.56
279.81	198.56
280.042	189.56
280.273	197.56
280.505	209.56
280.736	206.56
280.968	195.56
281.199	215.56
281.431	198.56
281.662	207.56
281.894	213.56
282.125	223.56
282.356	209.56
282.588	217.56
282.819	210.56
283.051	198.56
283.282	209.56
283.513	209.56
283.745	206.56
283.976	205.56
284.207	210.56
284.439	207.56
284.67	213.56
284.901	202.56
285.132	213.56
285.364	213.56
285.595	216.56
285.826	209.56
286.057	210.56
286.288	214.56
286.52	210.56
286.751	212.56
286.982	215.56
287.213	219.56
287.444	226.56
287.675	214.56
287.906	209.56
288.138	230.56
288.369	222.56
288.6	220.56
288.831	218.56
289.062	216.56
289.293	230.56
289.524	209.56
289.755	215.56
289.986	222.56
290.217	204.56
290.448	216.56
290.679	238.56
290.91	224.56
291.141	217.56
291.371	217.56
291.602	219.56
291.833	216.56
292.064	229.56
292.295	217.56
292.526	233.56
292.757	212.56
292.987	229.56
293.218	208.56
293.449	241.56
293.68	237.56
293.91	230.56
294.141	221.56
294.372	224.56
294.603	233.56
294.833	235.56
295.064	222.56
295.295	225.56
295.525	220.56
295.756	210.56
295.987	241.56
296.217	233.56
296.448	231.56
296.679	231.56
296.909	218.56
297.14	222.56
297.37	234.56
297.601	226.56
297.831	236.56
298.062	233.56
298.292	235.56
298.523	246.56
298.753	233.56
298.984	244.56
299.214	247.56
299.445	255.56
299.675	245.56
299.905	229.56
300.136	254.56
300.366	245.56
300.597	232.56
300.827	247.56
301.057	253.56
301.288	248.56
301.518	245.56
301.748	247.56
301.979	263.56
302.209	243.56
302.439	238.56
302.669	251.56
302.9	263.56
303.13	251.56
303.36	254.56
303.59	272.56
303.82	263.56
304.051	271.56
304.281	259.56
304.511	268.56
304.741	265.56
304.971	254.56
305.201	271.56
305.431	267.56
305.661	272.56
305.891	277.56
306.121	235.56
306.352	249.56
306.582	262.56
306.812	251.56
307.042	267.56
307.272	281.56
307.502	261.56
307.731	241.56
307.961	265.56
308.191	276.56
308.421	267.56
308.651	265.56
308.881	268.56
309.111	254.56
309.341	241.56
309.571	241.56
309.8	255.56
310.03	249.56
310.26	257.56
310.49	252.56
310.72	279.56
310.949	268.56
311.179	266.56
311.409	261.56
311.639	275.56
311.868	272.56
312.098	272.56
312.328	296.56
312.557	269.56
312.787	291.56
313.017	286.56
313.246	264.56
313.476	262.56
313.706	260.56
313.935	285.56
314.165	261.56
314.394	279.56
314.624	275.56
314.853	271.56
315.083	277.56
315.312	281.56
315.542	285.56
315.771	277.56
316.001	265.56
316.23	282.56
316.46	281.56
316.689	283.56
316.919	290.56
317.148	275.56
317.377	278.56
317.607	286.56
317.836	291.56
318.065	292.56
318.295	283.56
318.524	268.56
318.753	285.56
318.983	286.56
319.212	269.56
319.441	279.56
319.67	291.56
319.9	295.56
320.129	309.56
320.358	317.56
320.587	286.56
320.816	296.56
321.046	279.56
321.275	284.56
321.504	276.56
321.733	315.56
321.962	299.56
322.191	275.56
322.42	284.56
322.649	291.56
322.878	287.56
323.108	301.56
323.337	301.56
323.566	307.56
323.795	277.56
324.024	284.56
324.253	287.56
324.482	293.56
324.71	311.56
324.939	298.56
325.168	316.56
325.397	319.56
325.626	305.56
325.855	298.56
326.084	324.56
326.313	309.56
326.542	310.56
326.77	295.56
326.999	302.56
327.228	301.56
327.457	313.56
327.686	316.56
327.914	295.56
328.143	298.56
328.372	299.56
328.6	331.56
328.829	325.56
329.058	317.56
329.287	318.56
329.515	332.56
329.744	325.56
329.972	320.56
330.201	326.56
330.43	337.56
330.658	331.56
330.887	325.56
331.115	323.56
331.344	324.56
331.572	337.56
331.801	322.56
332.03	336.56
332.258	331.56
332.486	337.56
332.715	334.56
332.943	324.56
333.172	351.56
333.4	336.56
333.629	374.56
333.857	352.56
334.085	357.56
334.314	349.56
334.542	364.56
334.771	377.56
334.999	361.56
335.227	369.56
335.455	361.56
335.684	345.56
335.912	338.56
336.14	349.56
336.369	345.56
336.597	352.56
336.825	365.56
337.053	353.56
337.281	351.56
337.51	348.56
337.738	348.56
337.966	338.56
338.194	337.56
338.422	332.56
338.65	349.56
338.878	342.56
339.106	327.56
339.334	341.56
339.562	323.56
339.79	339.56
340.018	335.56
340.246	337.56
340.474	318.56
340.702	318.56
340.93	330.56
341.158	340.56
341.386	321.56
341.614	319.56
341.842	324.56
342.07	342.56
342.298	342.56
342.526	326.56
342.754	315.56
342.981	319.56
343.209	334.56
343.437	339.56
343.665	358.56
343.893	362.56
344.12	357.56
344.348	369.56
344.576	355.56
344.804	330.56
345.031	339.56
345.259	325.56
345.487	309.56
345.714	317.56
345.942	328.56
346.17	311.56
346.397	320.56
346.625	327.56
346.853	331.56
347.08	312.56
347.308	346.56
347.535	318.56
347.763	312.56
347.99	335.56
348.218	327.56
348.445	305.56
348.673	317.56
348.9	300.56
349.128	325.56
349.355	320.56
349.583	330.56
349.81	306.56
350.037	305.56
350.265	307.56
350.492	313.56
350.72	339.56
350.947	309.56
351.174	297.56
351.402	316.56
351.629	331.56
351.856	318.56
352.083	310.56
352.311	307.56
352.538	334.56
352.765	299.56
352.992	327.56
353.22	308.56
353.447	311.56
353.674	322.56
353.901	311.56
354.128	328.56
354.355	328.56
354.583	306.56
354.81	296.56
355.037	301.56
355.264	307.56
355.491	319.56
355.718	327.56
355.945	321.56
356.172	324.56
356.399	298.56
356.626	308.56
356.853	297.56
357.08	326.56
357.307	333.56
357.534	321.56
357.761	317.56
357.988	328.56
358.215	323.56
358.441	317.56
358.668	337.56
358.895	329.56
359.122	326.56
359.349	318.56
359.576	315.56
359.802	319.56
360.029	317.56
360.256	323.56
360.483	323.56
360.709	340.56
360.936	323.56
361.163	311.56
361.39	316.56
361.616	318.56
361.843	317.56
362.07	317.56
362.296	314.56
362.523	317.56
362.749	320.56
362.976	329.56
363.203	318.56
363.429	327.56
363.656	342.56
363.882	333.56
364.109	334.56
364.335	325.56
364.562	314.56
364.788	323.56
365.015	333.56
365.241	320.56
365.468	317.56
365.694	325.56
365.92	324.56
366.147	319.56
366.373	329.56
366.599	332.56
366.826	309.56
367.052	336.56
367.278	331.56
367.505	332.56
367.731	313.56
367.957	339.56
368.184	341.56
368.41	329.56
368.636	330.56
368.862	341.56
369.089	329.56
369.315	331.56
369.541	330.56
369.767	334.56
369.993	333.56
370.219	342.56
370.445	337.56
370.672	318.56
370.898	331.56
371.124	345.56
371.35	355.56
371.576	355.56
371.802	356.56
372.028	351.56
372.254	343.56
372.48	351.56
372.706	359.56
372.932	355.56
373.158	359.56
373.384	354.56
373.61	343.56
373.835	335.56
374.061	371.56
374.287	334.56
374.513	357.56
374.739	356.56
374.965	382.56
375.191	367.56
375.416	377.56
375.642	359.56
375.868	343.56
376.094	338.56
376.319	351.56
376.545	345.56
376.771	361.56
376.997	349.56
377.222	348.56
377.448	328.56
377.674	343.56
377.899	329.56
378.125	343.56
378.35	348.56
378.576	344.56
378.802	357.56
379.027	360.56
379.253	340.56
379.478	349.56
379.704	339.56
379.929	327.56
380.155	333.56
380.38	336.56
380.606	339.56
380.831	351.56
381.057	345.56
381.282	347.56
381.507	342.56
381.733	349.56
381.958	337.56
382.184	340.56
382.409	358.56
382.634	376.56
382.86	353.56
383.085	365.56
383.31	377.56
383.535	354.56
383.761	358.56
383.986	363.56
384.211	357.56
384.436	387.56
384.662	374.56
384.887	366.56
385.112	369.56
385.337	371.56
385.562	397.56
385.787	377.56
386.013	407.56
386.238	381.56
386.463	397.56
386.688	386.56
386.913	409.56
387.138	389.56
387.363	396.56
387.588	385.56
387.813	424.56
388.038	408.56
388.263	395.56
388.488	387.56
388.713	409.56
388.938	381.56
389.163	418.56
389.387	395.56
389.612	393.56
389.837	395.56
390.062	390.56
390.287	432.56
390.512	397.56
390.736	411.56
390.961	419.56
391.186	397.56
391.411	415.56
391.636	415.56
391.86	414.56
392.085	424.56
392.31	406.56
392.534	410.56
392.759	411.56
392.984	425.56
393.208	413.56
393.433	390.56
393.658	415.56
393.882	402.56
394.107	387.56
394.331	407.56
394.556	438.56
394.78	442.56
395.005	415.56
395.229	417.56
395.454	424.56
395.678	414.56
395.903	443.56
396.127	421.56
396.352	414.56
396.576	440.56
396.801	428.56
397.025	448.56
397.249	427.56
397.474	442.56
397.698	437.56
397.922	445.56
398.147	437.56
398.371	463.56
398.595	443.56
398.82	452.56
399.044	484.56
399.268	551.56
399.492	543.56
399.717	567.56
399.941	540.56
400.165	553.56
400.389	522.56
400.613	507.56
400.837	504.56
401.062	486.56
401.286	472.56
401.51	486.56
401.734	481.56
401.958	472.56
402.182	458.56
402.406	466.56
402.63	453.56
402.854	462.56
403.078	469.56
403.302	478.56
403.526	473.56
403.75	502.56
403.974	506.56
404.198	485.56
404.422	488.56
404.645	500.56
404.869	471.56
405.093	483.56
405.317	491.56
405.541	492.56
405.765	489.56
405.988	494.56
406.212	503.56
406.436	520.56
406.66	527.56
406.883	506.56
407.107	507.56
407.331	537.56
407.555	519.56
407.778	538.56
408.002	517.56
408.226	519.56
408.449	526.56
408.673	528.56
408.896	513.56
409.12	527.56
409.344	501.56
409.567	486.56
409.791	517.56
410.014	478.56
410.238	515.56
410.461	492.56
410.685	477.56
410.908	484.56
411.132	477.56
411.355	465.56
411.578	478.56
411.802	481.56
412.025	476.56
412.249	492.56
412.472	475.56
412.695	466.56
412.919	470.56
413.142	469.56
413.365	454.56
413.589	478.56
413.812	462.56
414.035	463.56
414.258	481.56
414.482	457.56
414.705	468.56
414.928	479.56
415.151	455.56
415.374	445.56
415.597	441.56
415.821	457.56
416.044	467.56
416.267	470.56
416.49	461.56
416.713	444.56
416.936	472.56
417.159	463.56
417.382	442.56
417.605	462.56
417.828	450.56
418.051	465.56
418.274	450.56
418.497	453.56
418.72	463.56
418.943	451.56
419.166	449.56
419.389	493.56
419.611	488.56
419.834	473.56
420.057	458.56
420.28	454.56
420.503	463.56
420.726	450.56
420.948	438.56
421.171	449.56
421.394	447.56
421.617	444.56
421.839	421.56
422.062	449.56
422.285	438.56
422.507	450.56
422.73	449.56
422.953	445.56
423.175	449.56
423.398	447.56
423.621	446.56
423.843	436.56
424.066	467.56
424.288	437.56
424.511	437.56
424.733	444.56
424.956	451.56
425.178	441.56
425.401	445.56
425.623	468.56
425.846	446.56
426.068	426.56
426.291	431.56
426.513	424.56
426.735	409.56
426.958	422.56
427.18	428.56
427.402	428.56
427.625	438.56
427.847	423.56
428.069	419.56
428.292	410.56
428.514	403.56
428.736	405.56
428.958	414.56
429.181	408.56
429.403	390.56
429.625	395.56
429.847	402.56
430.069	414.56
430.292	402.56
430.514	422.56
430.736	406.56
430.958	427.56
431.18	410.56
431.402	393.56
431.624	419.56
431.846	414.56
432.068	417.56
432.29	416.56
432.512	433.56
432.734	398.56
432.956	420.56
433.178	415.56
433.4	411.56
433.622	410.56
433.844	418.56
434.066	422.56
434.287	435.56
434.509	420.56
434.731	443.56
434.953	439.56
435.175	451.56
435.397	429.56
435.618	420.56
435.84	410.56
436.062	426.56
436.284	407.56
436.505	422.56
436.727	429.56
436.949	433.56
437.17	435.56
437.392	415.56
437.614	414.56
437.835	396.56
438.057	396.56
438.278	381.56
438.5	404.56
438.721	402.56
438.943	390.56
439.165	385.56
439.386	393.56
439.608	410.56
439.829	407.56
440.05	429.56
440.272	417.56
440.493	427.56
440.715	390.56
440.936	413.56
441.158	433.56
441.379	406.56
441.6	442.56
441.822	424.56
442.043	416.56
442.264	445.56
442.486	430.56
442.707	441.56
442.928	430.56
443.149	419.56
443.371	393.56
443.592	418.56
443.813	430.56
444.034	430.56
444.255	445.56
444.476	457.56
444.698	479.56
444.919	448.56
445.14	535.56
445.361	499.56
445.582	459.56
445.803	431.56
446.024	414.56
446.245	438.56
446.466	409.56
446.687	411.56
446.908	405.56
447.129	407.56
447.35	398.56
447.571	418.56
447.792	393.56
448.013	389.56
448.234	390.56
448.455	388.56
448.675	384.56
448.896	391.56
449.117	375.56
449.338	371.56
449.559	374.56
449.779	366.56
450	367.56
450.221	363.56
450.442	392.56
450.662	384.56
450.883	370.56
451.104	372.56
451.324	376.56
451.545	366.56
451.766	383.56
451.986	355.56
452.207	361.56
452.428	369.56
452.648	363.56
452.869	378.56
453.089	352.56
453.31	354.56
453.53	356.56
453.751	375.56
453.971	373.56
454.192	378.56
454.412	361.56
454.633	350.56
454.853	348.56
455.073	372.56
455.294	370.56
455.514	337.56
455.734	375.56
455.955	346.56
456.175	370.56
456.395	358.56
456.616	334.56
456.836	374.56
457.056	356.56
457.276	363.56
457.497	363.56
457.717	372.56
457.937	361.56
458.157	363.56
458.377	373.56
458.598	373.56
458.818	381.56
459.038	396.56
459.258	388.56
459.478	414.56
459.698	421.56
459.918	425.56
460.138	427.56
460.358	440.56
460.578	455.56
460.798	428.56
461.018	461.56
461.238	464.56
461.458	462.56
461.678	446.56
461.898	451.56
462.118	467.56
462.338	470.56
462.558	493.56
462.777	494.56
462.997	523.56
463.217	523.56
463.437	530.56
463.657	509.56
463.876	501.56
464.096	503.56
464.316	491.56
464.536	485.56
464.755	477.56
464.975	468.56
465.195	446.56
465.414	445.56
465.634	460.56
465.854	414.56
466.073	423.56
466.293	421.56
466.512	414.56
466.732	409.56
466.951	388.56
467.171	408.56
467.391	389.56
467.61	394.56
467.829	383.56
468.049	399.56
468.268	377.56
468.488	385.56
468.707	375.56
468.927	385.56
469.146	391.56
469.365	384.56
469.585	409.56
469.804	431.56
470.023	413.56
470.243	388.56
470.462	388.56
470.681	407.56
470.901	411.56
471.12	409.56
471.339	394.56
471.558	398.56
471.777	414.56
471.997	402.56
472.216	395.56
472.435	387.56
472.654	384.56
472.873	387.56
473.092	407.56
473.311	400.56
473.53	398.56
473.749	384.56
473.968	389.56
474.187	393.56
474.406	398.56
474.625	397.56
474.844	402.56
475.063	385.56
475.282	379.56
475.501	378.56
475.72	402.56
475.939	390.56
476.158	410.56
476.377	402.56
476.596	423.56
476.814	406.56
477.033	411.56
477.252	430.56
477.471	408.56
477.69	454.56
477.908	441.56
478.127	439.56
478.346	451.56
478.564	453.56
478.783	439.56
479.002	464.56
479.22	464.56
479.439	476.56
479.658	480.56
479.876	463.56
480.095	467.56
480.313	469.56
480.532	479.56
480.751	478.56
480.969	487.56
481.188	468.56
481.406	457.56
481.624	460.56
481.843	487.56
482.061	432.56
482.28	443.56
482.498	455.56
482.717	439.56
482.935	460.56
483.153	446.56
483.372	458.56
483.59	461.56
483.808	463.56
484.027	479.56
484.245	464.56
484.463	454.56
484.681	451.56
484.9	474.56
485.118	475.56
485.336	451.56
485.554	473.56
485.772	472.56
485.99	466.56
486.209	479.56
486.427	481.56
486.645	477.56
486.863	476.56
487.081	478.56
487.299	452.56
487.517	471.56
487.735	462.56
487.953	492.56
488.171	469.56
488.389	473.56
488.607	466.56
488.825	450.56
489.043	460.56
489.261	483.56
489.479	466.56
489.696	476.56
489.914	469.56
490.132	481.56
490.35	475.56
490.568	447.56
490.786	449.56
491.003	470.56
491.221	461.56
491.439	457.56
491.657	451.56
491.874	496.56
492.092	481.56
492.31	480.56
492.527	495.56
492.745	497.56
492.963	481.56
493.18	499.56
493.398	505.56
493.615	487.56
493.833	495.56
494.05	488.56
494.268	490.56
494.485	474.56
494.703	497.56
494.92	503.56
495.138	477.56
495.355	475.56
495.573	495.56
495.79	490.56
496.008	509.56
496.225	513.56
496.442	503.56
496.66	512.56
496.877	535.56
497.094	520.56
497.312	555.56
497.529	547.56
497.746	554.56
497.963	582.56
498.181	599.56
498.398	618.56
498.615	626.56
498.832	650.56
499.049	690.56
499.267	718.56
499.484	737.56
499.701	799.56
499.918	817.56
500.135	895.56
500.352	899.56
500.569	942.56
500.786	940.56
501.003	926.56
501.22	863.56
501.437	796.56
501.654	726.56
501.871	711.56
