Data from Fe(NO3)3@0.1M.TitratingCurve.Agarose3%dH2O.NegLispCup.LampEnergy10.LIBS07252019_HRD10591_16-39-46-332.txt Node
Date: Thu Jul 25 16:39:46 EDT 2019
User: cochatt
Spectrometer: HR+D1059
Trigger mode: 1
Integration Time (sec): 1.000000E-1
Scans to average: 1
Electric dark correction enabled: true
Nonlinearity correction enabled: false
Boxcar width: 0
XAxis mode: Wavelengths
Number of Pixels in Spectrum: 2048
>>>>>Begin Spectral Data<<<<<
223.165	2.44
223.4	2.44
223.635	2.44
223.869	-17.56
224.104	-32.56
224.338	-17.56
224.573	-22.56
224.808	-14.56
225.042	-6.56
225.277	-14.56
225.511	8.44
225.746	9.44
225.98	10.44
226.215	11.44
226.449	21.44
226.683	19.44
226.918	27.44
227.152	15.44
227.387	45.44
227.621	36.44
227.856	44.44
228.09	39.44
228.324	44.44
228.559	53.44
228.793	60.44
229.027	78.44
229.262	84.44
229.496	77.44
229.73	83.44
229.964	85.44
230.199	84.44
230.433	83.44
230.667	99.44
230.901	108.44
231.136	97.44
231.37	108.44
231.604	108.44
231.838	106.44
232.072	101.44
232.306	94.44
232.541	103.44
232.775	102.44
233.009	98.44
233.243	104.44
233.477	104.44
233.711	109.44
233.945	107.44
234.179	107.44
234.413	112.44
234.647	113.44
234.881	117.44
235.115	99.44
235.349	98.44
235.583	102.44
235.817	109.44
236.051	119.44
236.285	106.44
236.519	112.44
236.753	118.44
236.987	106.44
237.221	98.44
237.455	98.44
237.689	110.44
237.922	114.44
238.156	123.44
238.39	104.44
238.624	97.44
238.858	113.44
239.091	105.44
239.325	106.44
239.559	95.44
239.793	102.44
240.027	101.44
240.26	113.44
240.494	122.44
240.728	126.44
240.961	100.44
241.195	108.44
241.429	113.44
241.662	108.44
241.896	117.44
242.13	106.44
242.363	122.44
242.597	100.44
242.83	130.44
243.064	107.44
243.298	121.44
243.531	110.44
243.765	129.44
243.998	125.44
244.232	121.44
244.465	131.44
244.699	134.44
244.932	124.44
245.166	117.44
245.399	123.44
245.633	113.44
245.866	123.44
246.099	114.44
246.333	129.44
246.566	119.44
246.8	124.44
247.033	109.44
247.266	118.44
247.5	124.44
247.733	125.44
247.966	143.44
248.2	125.44
248.433	120.44
248.666	117.44
248.899	134.44
249.133	143.44
249.366	135.44
249.599	118.44
249.832	137.44
250.066	137.44
250.299	129.44
250.532	152.44
250.765	129.44
250.998	131.44
251.231	123.44
251.465	155.44
251.698	137.44
251.931	147.44
252.164	135.44
252.397	155.44
252.63	149.44
252.863	137.44
253.096	140.44
253.329	133.44
253.562	133.44
253.795	148.44
254.028	156.44
254.261	143.44
254.494	147.44
254.727	159.44
254.96	140.44
255.193	138.44
255.426	141.44
255.659	152.44
255.892	154.44
256.124	143.44
256.357	143.44
256.59	141.44
256.823	151.44
257.056	138.44
257.289	151.44
257.521	152.44
257.754	142.44
257.987	162.44
258.22	152.44
258.452	148.44
258.685	156.44
258.918	138.44
259.151	153.44
259.383	140.44
259.616	159.44
259.849	155.44
260.081	154.44
260.314	163.44
260.547	154.44
260.779	163.44
261.012	178.44
261.244	153.44
261.477	153.44
261.71	154.44
261.942	169.44
262.175	160.44
262.407	166.44
262.64	152.44
262.872	162.44
263.105	170.44
263.337	165.44
263.57	170.44
263.802	157.44
264.035	151.44
264.267	159.44
264.499	148.44
264.732	160.44
264.964	165.44
265.197	140.44
265.429	158.44
265.661	158.44
265.894	159.44
266.126	163.44
266.358	158.44
266.591	166.44
266.823	181.44
267.055	161.44
267.287	149.44
267.52	148.44
267.752	170.44
267.984	185.44
268.216	170.44
268.448	170.44
268.681	180.44
268.913	174.44
269.145	166.44
269.377	163.44
269.609	183.44
269.841	173.44
270.073	175.44
270.306	164.44
270.538	162.44
270.77	171.44
271.002	181.44
271.234	185.44
271.466	177.44
271.698	178.44
271.93	186.44
272.162	190.44
272.394	182.44
272.626	175.44
272.858	173.44
273.09	184.44
273.322	178.44
273.553	181.44
273.785	187.44
274.017	171.44
274.249	194.44
274.481	201.44
274.713	181.44
274.945	196.44
275.176	177.44
275.408	195.44
275.64	204.44
275.872	192.44
276.104	196.44
276.335	199.44
276.567	186.44
276.799	194.44
277.031	194.44
277.262	198.44
277.494	201.44
277.726	189.44
277.957	190.44
278.189	203.44
278.421	187.44
278.652	194.44
278.884	197.44
279.115	195.44
279.347	197.44
279.579	205.44
279.81	197.44
280.042	197.44
280.273	185.44
280.505	190.44
280.736	203.44
280.968	201.44
281.199	201.44
281.431	213.44
281.662	207.44
281.894	216.44
282.125	215.44
282.356	216.44
282.588	190.44
282.819	202.44
283.051	193.44
283.282	213.44
283.513	201.44
283.745	206.44
283.976	217.44
284.207	212.44
284.439	227.44
284.67	214.44
284.901	225.44
285.132	207.44
285.364	219.44
285.595	232.44
285.826	218.44
286.057	208.44
286.288	223.44
286.52	223.44
286.751	209.44
286.982	206.44
287.213	208.44
287.444	219.44
287.675	228.44
287.906	248.44
288.138	225.44
288.369	221.44
288.6	230.44
288.831	202.44
289.062	229.44
289.293	212.44
289.524	218.44
289.755	233.44
289.986	238.44
290.217	234.44
290.448	211.44
290.679	237.44
290.91	228.44
291.141	238.44
291.371	228.44
291.602	222.44
291.833	229.44
292.064	226.44
292.295	231.44
292.526	227.44
292.757	243.44
292.987	221.44
293.218	219.44
293.449	245.44
293.68	239.44
293.91	239.44
294.141	224.44
294.372	229.44
294.603	233.44
294.833	232.44
295.064	219.44
295.295	242.44
295.525	241.44
295.756	241.44
295.987	226.44
296.217	238.44
296.448	227.44
296.679	230.44
296.909	236.44
297.14	249.44
297.37	236.44
297.601	257.44
297.831	251.44
298.062	236.44
298.292	240.44
298.523	253.44
298.753	231.44
298.984	235.44
299.214	265.44
299.445	234.44
299.675	245.44
299.905	248.44
300.136	236.44
300.366	237.44
300.597	246.44
300.827	257.44
301.057	255.44
301.288	257.44
301.518	271.44
301.748	268.44
301.979	261.44
302.209	266.44
302.439	256.44
302.669	257.44
302.9	249.44
303.13	267.44
303.36	252.44
303.59	269.44
303.82	266.44
304.051	257.44
304.281	262.44
304.511	265.44
304.741	270.44
304.971	274.44
305.201	269.44
305.431	255.44
305.661	243.44
305.891	263.44
306.121	263.44
306.352	282.44
306.582	260.44
306.812	241.44
307.042	252.44
307.272	265.44
307.502	251.44
307.731	247.44
307.961	262.44
308.191	229.44
308.421	257.44
308.651	261.44
308.881	267.44
309.111	248.44
309.341	253.44
309.571	253.44
309.8	242.44
310.03	259.44
310.26	244.44
310.49	246.44
310.72	270.44
310.949	247.44
311.179	245.44
311.409	256.44
311.639	275.44
311.868	256.44
312.098	268.44
312.328	279.44
312.557	275.44
312.787	268.44
313.017	261.44
313.246	277.44
313.476	267.44
313.706	274.44
313.935	279.44
314.165	279.44
314.394	276.44
314.624	283.44
314.853	279.44
315.083	269.44
315.312	281.44
315.542	277.44
315.771	254.44
316.001	279.44
316.23	278.44
316.46	262.44
316.689	271.44
316.919	270.44
317.148	274.44
317.377	277.44
317.607	270.44
317.836	276.44
318.065	257.44
318.295	269.44
318.524	266.44
318.753	302.44
318.983	282.44
319.212	291.44
319.441	275.44
319.67	266.44
319.9	277.44
320.129	278.44
320.358	266.44
320.587	299.44
320.816	284.44
321.046	280.44
321.275	268.44
321.504	261.44
321.733	261.44
321.962	283.44
322.191	279.44
322.42	285.44
322.649	295.44
322.878	291.44
323.108	280.44
323.337	293.44
323.566	287.44
323.795	272.44
324.024	287.44
324.253	286.44
324.482	272.44
324.71	275.44
324.939	294.44
325.168	293.44
325.397	302.44
325.626	293.44
325.855	292.44
326.084	300.44
326.313	309.44
326.542	295.44
326.77	298.44
326.999	306.44
327.228	297.44
327.457	308.44
327.686	313.44
327.914	311.44
328.143	316.44
328.372	315.44
328.6	305.44
328.829	295.44
329.058	330.44
329.287	307.44
329.515	295.44
329.744	298.44
329.972	297.44
330.201	301.44
330.43	307.44
330.658	309.44
330.887	327.44
331.115	309.44
331.344	325.44
331.572	307.44
331.801	311.44
332.03	313.44
332.258	316.44
332.486	345.44
332.715	365.44
332.943	354.44
333.172	390.44
333.4	385.44
333.629	379.44
333.857	382.44
334.085	375.44
334.314	360.44
334.542	377.44
334.771	353.44
334.999	363.44
335.227	379.44
335.455	366.44
335.684	364.44
335.912	367.44
336.14	332.44
336.369	342.44
336.597	338.44
336.825	368.44
337.053	360.44
337.281	341.44
337.51	325.44
337.738	336.44
337.966	335.44
338.194	325.44
338.422	340.44
338.65	351.44
338.878	328.44
339.106	315.44
339.334	326.44
339.562	326.44
339.79	325.44
340.018	311.44
340.246	311.44
340.474	309.44
340.702	332.44
340.93	309.44
341.158	327.44
341.386	335.44
341.614	313.44
341.842	307.44
342.07	321.44
342.298	327.44
342.526	305.44
342.754	309.44
342.981	326.44
343.209	332.44
343.437	342.44
343.665	355.44
343.893	379.44
344.12	383.44
344.348	368.44
344.576	359.44
344.804	350.44
345.031	337.44
345.259	321.44
345.487	307.44
345.714	325.44
345.942	303.44
346.17	325.44
346.397	310.44
346.625	310.44
346.853	334.44
347.08	316.44
347.308	305.44
347.535	305.44
347.763	311.44
347.99	303.44
348.218	309.44
348.445	309.44
348.673	310.44
348.9	295.44
349.128	330.44
349.355	318.44
349.583	308.44
349.81	314.44
350.037	311.44
350.265	293.44
350.492	304.44
350.72	310.44
350.947	302.44
351.174	315.44
351.402	302.44
351.629	309.44
351.856	314.44
352.083	300.44
352.311	307.44
352.538	285.44
352.765	289.44
352.992	311.44
353.22	294.44
353.447	305.44
353.674	301.44
353.901	297.44
354.128	297.44
354.355	307.44
354.583	298.44
354.81	309.44
355.037	321.44
355.264	302.44
355.491	306.44
355.718	305.44
355.945	313.44
356.172	308.44
356.399	307.44
356.626	309.44
356.853	300.44
357.08	305.44
357.307	315.44
357.534	291.44
357.761	291.44
357.988	298.44
358.215	311.44
358.441	315.44
358.668	310.44
358.895	310.44
359.122	300.44
359.349	310.44
359.576	299.44
359.802	310.44
360.029	295.44
360.256	312.44
360.483	301.44
360.709	325.44
360.936	319.44
361.163	297.44
361.39	291.44
361.616	297.44
361.843	328.44
362.07	315.44
362.296	289.44
362.523	313.44
362.749	322.44
362.976	313.44
363.203	295.44
363.429	295.44
363.656	312.44
363.882	295.44
364.109	292.44
364.335	310.44
364.562	286.44
364.788	303.44
365.015	320.44
365.241	304.44
365.468	311.44
365.694	300.44
365.92	315.44
366.147	303.44
366.373	304.44
366.599	305.44
366.826	299.44
367.052	307.44
367.278	292.44
367.505	313.44
367.731	318.44
367.957	303.44
368.184	311.44
368.41	313.44
368.636	303.44
368.862	307.44
369.089	321.44
369.315	301.44
369.541	314.44
369.767	326.44
369.993	322.44
370.219	331.44
370.445	323.44
370.672	322.44
370.898	316.44
371.124	337.44
371.35	347.44
371.576	330.44
371.802	349.44
372.028	323.44
372.254	352.44
372.48	341.44
372.706	342.44
372.932	370.44
373.158	341.44
373.384	327.44
373.61	335.44
373.835	335.44
374.061	319.44
374.287	353.44
374.513	352.44
374.739	357.44
374.965	358.44
375.191	341.44
375.416	359.44
375.642	329.44
375.868	362.44
376.094	338.44
376.319	331.44
376.545	340.44
376.771	347.44
376.997	321.44
377.222	342.44
377.448	343.44
377.674	334.44
377.899	344.44
378.125	339.44
378.35	321.44
378.576	321.44
378.802	324.44
379.027	343.44
379.253	343.44
379.478	334.44
379.704	345.44
379.929	330.44
380.155	313.44
380.38	335.44
380.606	336.44
380.831	339.44
381.057	341.44
381.282	346.44
381.507	341.44
381.733	321.44
381.958	344.44
382.184	356.44
382.409	358.44
382.634	368.44
382.86	363.44
383.085	340.44
383.31	373.44
383.535	355.44
383.761	389.44
383.986	379.44
384.211	380.44
384.436	383.44
384.662	382.44
384.887	403.44
385.112	404.44
385.337	380.44
385.562	403.44
385.787	399.44
386.013	410.44
386.238	408.44
386.463	385.44
386.688	411.44
386.913	393.44
387.138	405.44
387.363	406.44
387.588	378.44
387.813	387.44
388.038	378.44
388.263	393.44
388.488	389.44
388.713	381.44
388.938	397.44
389.163	390.44
389.387	379.44
389.612	369.44
389.837	407.44
390.062	381.44
390.287	389.44
390.512	380.44
390.736	403.44
390.961	408.44
391.186	422.44
391.411	428.44
391.636	429.44
391.86	450.44
392.085	453.44
392.31	444.44
392.534	427.44
392.759	421.44
392.984	424.44
393.208	434.44
393.433	425.44
393.658	414.44
393.882	411.44
394.107	418.44
394.331	435.44
394.556	438.44
394.78	411.44
395.005	425.44
395.229	419.44
395.454	452.44
395.678	441.44
395.903	445.44
396.127	433.44
396.352	438.44
396.576	439.44
396.801	416.44
397.025	419.44
397.249	448.44
397.474	437.44
397.698	454.44
397.922	423.44
398.147	444.44
398.371	455.44
398.595	486.44
398.82	497.44
399.044	539.44
399.268	577.44
399.492	635.44
399.717	683.44
399.941	698.44
400.165	604.44
400.389	571.44
400.613	515.44
400.837	519.44
401.062	490.44
401.286	479.44
401.51	474.44
401.734	476.44
401.958	502.44
402.182	487.44
402.406	490.44
402.63	497.44
402.854	533.44
403.078	523.44
403.302	550.44
403.526	546.44
403.75	549.44
403.974	551.44
404.198	542.44
404.422	551.44
404.645	547.44
404.869	539.44
405.093	536.44
405.317	510.44
405.541	537.44
405.765	527.44
405.988	519.44
406.212	525.44
406.436	526.44
406.66	574.44
406.883	552.44
407.107	575.44
407.331	594.44
407.555	618.44
407.778	616.44
408.002	587.44
408.226	570.44
408.449	572.44
408.673	553.44
408.896	542.44
409.12	548.44
409.344	557.44
409.567	554.44
409.791	534.44
410.014	531.44
410.238	538.44
410.461	525.44
410.685	532.44
410.908	511.44
411.132	509.44
411.355	504.44
411.578	503.44
411.802	513.44
412.025	518.44
412.249	522.44
412.472	521.44
412.695	510.44
412.919	493.44
413.142	476.44
413.365	493.44
413.589	496.44
413.812	483.44
414.035	502.44
414.258	521.44
414.482	495.44
414.705	495.44
414.928	497.44
415.151	499.44
415.374	513.44
415.597	493.44
415.821	507.44
416.044	490.44
416.267	486.44
416.49	513.44
416.713	468.44
416.936	485.44
417.159	486.44
417.382	486.44
417.605	501.44
417.828	501.44
418.051	467.44
418.274	517.44
418.497	500.44
418.72	490.44
418.943	511.44
419.166	533.44
419.389	536.44
419.611	537.44
419.834	505.44
420.057	506.44
420.28	497.44
420.503	468.44
420.726	469.44
420.948	476.44
421.171	493.44
421.394	492.44
421.617	489.44
421.839	497.44
422.062	525.44
422.285	505.44
422.507	500.44
422.73	482.44
422.953	500.44
423.175	498.44
423.398	508.44
423.621	502.44
423.843	529.44
424.066	521.44
424.288	519.44
424.511	523.44
424.733	498.44
424.956	503.44
425.178	485.44
425.401	488.44
425.623	483.44
425.846	471.44
426.068	457.44
426.291	446.44
426.513	472.44
426.735	454.44
426.958	467.44
427.18	468.44
427.402	437.44
427.625	444.44
427.847	457.44
428.069	438.44
428.292	451.44
428.514	446.44
428.736	431.44
428.958	472.44
429.181	415.44
429.403	435.44
429.625	424.44
429.847	421.44
430.069	432.44
430.292	419.44
430.514	458.44
430.736	432.44
430.958	443.44
431.18	451.44
431.402	426.44
431.624	445.44
431.846	449.44
432.068	437.44
432.29	449.44
432.512	444.44
432.734	444.44
432.956	443.44
433.178	465.44
433.4	449.44
433.622	425.44
433.844	460.44
434.066	441.44
434.287	451.44
434.509	479.44
434.731	467.44
434.953	497.44
435.175	505.44
435.397	505.44
435.618	449.44
435.84	470.44
436.062	460.44
436.284	445.44
436.505	431.44
436.727	467.44
436.949	451.44
437.17	439.44
437.392	453.44
437.614	435.44
437.835	445.44
438.057	446.44
438.278	422.44
438.5	446.44
438.721	447.44
438.943	466.44
439.165	450.44
439.386	443.44
439.608	440.44
439.829	467.44
440.05	457.44
440.272	453.44
440.493	470.44
440.715	471.44
440.936	498.44
441.158	490.44
441.379	476.44
441.6	481.44
441.822	480.44
442.043	500.44
442.264	502.44
442.486	510.44
442.707	504.44
442.928	503.44
443.149	500.44
443.371	499.44
443.592	502.44
443.813	509.44
444.034	495.44
444.255	538.44
444.476	546.44
444.698	582.44
444.919	578.44
445.14	666.44
445.361	573.44
445.582	519.44
445.803	473.44
446.024	465.44
446.245	487.44
446.466	476.44
446.687	447.44
446.908	466.44
447.129	448.44
447.35	443.44
447.571	442.44
447.792	456.44
448.013	446.44
448.234	422.44
448.455	436.44
448.675	405.44
448.896	424.44
449.117	447.44
449.338	429.44
449.559	399.44
449.779	423.44
450	421.44
450.221	426.44
450.442	427.44
450.662	427.44
450.883	443.44
451.104	420.44
451.324	428.44
451.545	442.44
451.766	453.44
451.986	417.44
452.207	397.44
452.428	429.44
452.648	380.44
452.869	403.44
453.089	402.44
453.31	417.44
453.53	407.44
453.751	392.44
453.971	397.44
454.192	401.44
454.412	402.44
454.633	400.44
454.853	418.44
455.073	401.44
455.294	396.44
455.514	414.44
455.734	414.44
455.955	395.44
456.175	407.44
456.395	377.44
456.616	378.44
456.836	373.44
457.056	403.44
457.276	405.44
457.497	384.44
457.717	396.44
457.937	382.44
458.157	397.44
458.377	389.44
458.598	401.44
458.818	410.44
459.038	420.44
459.258	440.44
459.478	460.44
459.698	436.44
459.918	459.44
460.138	487.44
460.358	507.44
460.578	513.44
460.798	529.44
461.018	522.44
461.238	534.44
461.458	503.44
461.678	478.44
461.898	511.44
462.118	528.44
462.338	551.44
462.558	564.44
462.777	579.44
462.997	615.44
463.217	672.44
463.437	657.44
463.657	610.44
463.876	569.44
464.096	609.44
464.316	605.44
464.536	602.44
464.755	556.44
464.975	552.44
465.195	518.44
465.414	495.44
465.634	475.44
465.854	443.44
466.073	450.44
466.293	447.44
466.512	446.44
466.732	436.44
466.951	428.44
467.171	432.44
467.391	441.44
467.61	424.44
467.829	439.44
468.049	423.44
468.268	411.44
468.488	411.44
468.707	425.44
468.927	420.44
469.146	422.44
469.365	411.44
469.585	430.44
469.804	445.44
470.023	446.44
470.243	453.44
470.462	455.44
470.681	446.44
470.901	432.44
471.12	454.44
471.339	442.44
471.558	427.44
471.777	441.44
471.997	407.44
472.216	426.44
472.435	421.44
472.654	409.44
472.873	412.44
473.092	412.44
473.311	399.44
473.53	422.44
473.749	424.44
473.968	418.44
474.187	382.44
474.406	411.44
474.625	421.44
474.844	409.44
475.063	403.44
475.282	415.44
475.501	426.44
475.72	417.44
475.939	411.44
476.158	403.44
476.377	443.44
476.596	430.44
476.814	435.44
477.033	430.44
477.252	420.44
477.471	422.44
477.69	463.44
477.908	467.44
478.127	451.44
478.346	471.44
478.564	470.44
478.783	478.44
479.002	474.44
479.22	493.44
479.439	482.44
479.658	463.44
479.876	489.44
480.095	487.44
480.313	505.44
480.532	531.44
480.751	513.44
480.969	487.44
481.188	480.44
481.406	461.44
481.624	463.44
481.843	456.44
482.061	452.44
482.28	438.44
482.498	449.44
482.717	429.44
482.935	458.44
483.153	448.44
483.372	456.44
483.59	456.44
483.808	445.44
484.027	460.44
484.245	451.44
484.463	457.44
484.681	490.44
484.9	489.44
485.118	459.44
485.336	462.44
485.554	453.44
485.772	451.44
485.99	459.44
486.209	455.44
486.427	462.44
486.645	468.44
486.863	443.44
487.081	460.44
487.299	449.44
487.517	472.44
487.735	477.44
487.953	476.44
488.171	491.44
488.389	469.44
488.607	493.44
488.825	459.44
489.043	449.44
489.261	461.44
489.479	477.44
489.696	449.44
489.914	480.44
490.132	483.44
490.35	476.44
490.568	463.44
490.786	463.44
491.003	455.44
491.221	469.44
491.439	485.44
491.657	489.44
491.874	473.44
492.092	483.44
492.31	487.44
492.527	501.44
492.745	482.44
492.963	464.44
493.18	484.44
493.398	500.44
493.615	486.44
493.833	487.44
494.05	486.44
494.268	502.44
494.485	513.44
494.703	497.44
494.92	486.44
495.138	490.44
495.355	476.44
495.573	508.44
495.79	495.44
496.008	495.44
496.225	517.44
496.442	531.44
496.66	514.44
496.877	520.44
497.094	540.44
497.312	529.44
497.529	553.44
497.746	569.44
497.963	584.44
498.181	593.44
498.398	597.44
498.615	631.44
498.832	679.44
499.049	732.44
499.267	752.44
499.484	881.44
499.701	933.44
499.918	1024.44
500.135	1181.44
500.352	1318.44
500.569	1352.44
500.786	1335.44
501.003	1194.44
501.22	1086.44
501.437	972.44
501.654	871.44
501.871	783.44
