Data from Fe(NO3)3@0.0125M.TitratingCurve.Agarose3%dH2O.NegLispCup.LampEnergy10.LIBS07252019_HRD10591_16-59-34-338.txt Node
Date: Thu Jul 25 16:59:34 EDT 2019
User: cochatt
Spectrometer: HR+D1059
Trigger mode: 1
Integration Time (sec): 1.000000E-1
Scans to average: 1
Electric dark correction enabled: true
Nonlinearity correction enabled: false
Boxcar width: 0
XAxis mode: Wavelengths
Number of Pixels in Spectrum: 2048
>>>>>Begin Spectral Data<<<<<
223.165	-20.56
223.4	-20.56
223.635	-20.56
223.869	-18.56
224.104	-17.56
224.338	-9.56
224.573	-12.56
224.808	-23.56
225.042	-8.56
225.277	5.44
225.511	4.44
225.746	12.44
225.98	-5.56
226.215	4.44
226.449	17.44
226.683	12.44
226.918	20.44
227.152	39.44
227.387	32.44
227.621	34.44
227.856	31.44
228.09	25.44
228.324	37.44
228.559	62.44
228.793	57.44
229.027	86.44
229.262	70.44
229.496	87.44
229.73	82.44
229.964	93.44
230.199	85.44
230.433	83.44
230.667	98.44
230.901	94.44
231.136	88.44
231.37	95.44
231.604	84.44
231.838	99.44
232.072	92.44
232.306	99.44
232.541	90.44
232.775	102.44
233.009	101.44
233.243	87.44
233.477	92.44
233.711	85.44
233.945	94.44
234.179	99.44
234.413	97.44
234.647	101.44
234.881	91.44
235.115	86.44
235.349	93.44
235.583	101.44
235.817	107.44
236.051	108.44
236.285	97.44
236.519	87.44
236.753	100.44
236.987	84.44
237.221	99.44
237.455	104.44
237.689	97.44
237.922	94.44
238.156	95.44
238.39	97.44
238.624	108.44
238.858	93.44
239.091	98.44
239.325	102.44
239.559	121.44
239.793	114.44
240.027	114.44
240.26	115.44
240.494	110.44
240.728	99.44
240.961	106.44
241.195	105.44
241.429	106.44
241.662	110.44
241.896	104.44
242.13	104.44
242.363	105.44
242.597	128.44
242.83	104.44
243.064	106.44
243.298	101.44
243.531	119.44
243.765	118.44
243.998	115.44
244.232	105.44
244.465	120.44
244.699	118.44
244.932	125.44
245.166	119.44
245.399	114.44
245.633	124.44
245.866	124.44
246.099	102.44
246.333	124.44
246.566	110.44
246.8	116.44
247.033	118.44
247.266	113.44
247.5	116.44
247.733	114.44
247.966	128.44
248.2	133.44
248.433	134.44
248.666	134.44
248.899	135.44
249.133	122.44
249.366	131.44
249.599	139.44
249.832	142.44
250.066	125.44
250.299	135.44
250.532	121.44
250.765	126.44
250.998	137.44
251.231	135.44
251.465	125.44
251.698	144.44
251.931	130.44
252.164	123.44
252.397	136.44
252.63	130.44
252.863	122.44
253.096	128.44
253.329	152.44
253.562	143.44
253.795	145.44
254.028	147.44
254.261	130.44
254.494	139.44
254.727	128.44
254.96	147.44
255.193	138.44
255.426	126.44
255.659	133.44
255.892	134.44
256.124	134.44
256.357	134.44
256.59	141.44
256.823	155.44
257.056	145.44
257.289	151.44
257.521	153.44
257.754	162.44
257.987	148.44
258.22	163.44
258.452	158.44
258.685	141.44
258.918	152.44
259.151	152.44
259.383	146.44
259.616	148.44
259.849	158.44
260.081	153.44
260.314	150.44
260.547	157.44
260.779	156.44
261.012	171.44
261.244	159.44
261.477	193.44
261.71	155.44
261.942	166.44
262.175	172.44
262.407	163.44
262.64	165.44
262.872	169.44
263.105	155.44
263.337	165.44
263.57	175.44
263.802	170.44
264.035	149.44
264.267	162.44
264.499	168.44
264.732	182.44
264.964	188.44
265.197	172.44
265.429	158.44
265.661	161.44
265.894	166.44
266.126	180.44
266.358	178.44
266.591	181.44
266.823	171.44
267.055	188.44
267.287	193.44
267.52	197.44
267.752	169.44
267.984	193.44
268.216	193.44
268.448	190.44
268.681	165.44
268.913	182.44
269.145	180.44
269.377	189.44
269.609	185.44
269.841	197.44
270.073	178.44
270.306	168.44
270.538	187.44
270.77	187.44
271.002	199.44
271.234	205.44
271.466	194.44
271.698	205.44
271.93	230.44
272.162	205.44
272.394	204.44
272.626	201.44
272.858	204.44
273.09	215.44
273.322	201.44
273.553	209.44
273.785	213.44
274.017	206.44
274.249	222.44
274.481	213.44
274.713	210.44
274.945	214.44
275.176	228.44
275.408	214.44
275.64	219.44
275.872	208.44
276.104	214.44
276.335	213.44
276.567	216.44
276.799	210.44
277.031	213.44
277.262	233.44
277.494	227.44
277.726	225.44
277.957	233.44
278.189	226.44
278.421	242.44
278.652	244.44
278.884	232.44
279.115	214.44
279.347	221.44
279.579	240.44
279.81	217.44
280.042	237.44
280.273	256.44
280.505	253.44
280.736	246.44
280.968	247.44
281.199	235.44
281.431	247.44
281.662	236.44
281.894	245.44
282.125	242.44
282.356	255.44
282.588	269.44
282.819	266.44
283.051	267.44
283.282	264.44
283.513	262.44
283.745	271.44
283.976	269.44
284.207	274.44
284.439	270.44
284.67	270.44
284.901	284.44
285.132	253.44
285.364	269.44
285.595	261.44
285.826	270.44
286.057	254.44
286.288	274.44
286.52	277.44
286.751	279.44
286.982	266.44
287.213	283.44
287.444	291.44
287.675	278.44
287.906	282.44
288.138	290.44
288.369	278.44
288.6	277.44
288.831	291.44
289.062	295.44
289.293	292.44
289.524	301.44
289.755	302.44
289.986	285.44
290.217	302.44
290.448	291.44
290.679	293.44
290.91	285.44
291.141	309.44
291.371	299.44
291.602	318.44
291.833	326.44
292.064	316.44
292.295	320.44
292.526	287.44
292.757	308.44
292.987	321.44
293.218	306.44
293.449	295.44
293.68	305.44
293.91	298.44
294.141	302.44
294.372	306.44
294.603	314.44
294.833	309.44
295.064	321.44
295.295	317.44
295.525	296.44
295.756	318.44
295.987	327.44
296.217	318.44
296.448	320.44
296.679	323.44
296.909	325.44
297.14	315.44
297.37	329.44
297.601	342.44
297.831	328.44
298.062	330.44
298.292	334.44
298.523	340.44
298.753	315.44
298.984	339.44
299.214	356.44
299.445	360.44
299.675	347.44
299.905	342.44
300.136	338.44
300.366	343.44
300.597	345.44
300.827	350.44
301.057	365.44
301.288	352.44
301.518	352.44
301.748	342.44
301.979	347.44
302.209	355.44
302.439	362.44
302.669	362.44
302.9	364.44
303.13	386.44
303.36	380.44
303.59	355.44
303.82	372.44
304.051	372.44
304.281	366.44
304.511	386.44
304.741	380.44
304.971	382.44
305.201	377.44
305.431	390.44
305.661	384.44
305.891	394.44
306.121	384.44
306.352	397.44
306.582	370.44
306.812	374.44
307.042	381.44
307.272	390.44
307.502	383.44
307.731	404.44
307.961	378.44
308.191	386.44
308.421	384.44
308.651	397.44
308.881	392.44
309.111	391.44
309.341	388.44
309.571	385.44
309.8	382.44
310.03	397.44
310.26	378.44
310.49	383.44
310.72	404.44
310.949	404.44
311.179	417.44
311.409	400.44
311.639	401.44
311.868	404.44
312.098	417.44
312.328	421.44
312.557	422.44
312.787	412.44
313.017	414.44
313.246	424.44
313.476	425.44
313.706	429.44
313.935	412.44
314.165	418.44
314.394	422.44
314.624	437.44
314.853	442.44
315.083	423.44
315.312	448.44
315.542	442.44
315.771	436.44
316.001	442.44
316.23	447.44
316.46	452.44
316.689	438.44
316.919	452.44
317.148	462.44
317.377	449.44
317.607	452.44
317.836	454.44
318.065	445.44
318.295	452.44
318.524	460.44
318.753	455.44
318.983	460.44
319.212	477.44
319.441	470.44
319.67	452.44
319.9	457.44
320.129	454.44
320.358	470.44
320.587	467.44
320.816	484.44
321.046	464.44
321.275	466.44
321.504	472.44
321.733	467.44
321.962	481.44
322.191	477.44
322.42	458.44
322.649	479.44
322.878	494.44
323.108	480.44
323.337	474.44
323.566	478.44
323.795	484.44
324.024	472.44
324.253	491.44
324.482	488.44
324.71	498.44
324.939	500.44
325.168	476.44
325.397	482.44
325.626	514.44
325.855	508.44
326.084	512.44
326.313	493.44
326.542	491.44
326.77	524.44
326.999	522.44
327.228	528.44
327.457	531.44
327.686	498.44
327.914	510.44
328.143	508.44
328.372	497.44
328.6	496.44
328.829	514.44
329.058	512.44
329.287	505.44
329.515	523.44
329.744	510.44
329.972	510.44
330.201	512.44
330.43	493.44
330.658	518.44
330.887	535.44
331.115	526.44
331.344	522.44
331.572	535.44
331.801	514.44
332.03	533.44
332.258	520.44
332.486	514.44
332.715	524.44
332.943	502.44
333.172	533.44
333.4	531.44
333.629	525.44
333.857	532.44
334.085	522.44
334.314	540.44
334.542	540.44
334.771	533.44
334.999	549.44
335.227	524.44
335.455	526.44
335.684	537.44
335.912	554.44
336.14	582.44
336.369	539.44
336.597	539.44
336.825	552.44
337.053	540.44
337.281	553.44
337.51	551.44
337.738	546.44
337.966	538.44
338.194	549.44
338.422	573.44
338.65	562.44
338.878	549.44
339.106	552.44
339.334	559.44
339.562	543.44
339.79	556.44
340.018	561.44
340.246	540.44
340.474	556.44
340.702	541.44
340.93	554.44
341.158	558.44
341.386	577.44
341.614	554.44
341.842	545.44
342.07	532.44
342.298	532.44
342.526	555.44
342.754	552.44
342.981	554.44
343.209	554.44
343.437	558.44
343.665	574.44
343.893	561.44
344.12	572.44
344.348	564.44
344.576	558.44
344.804	549.44
345.031	553.44
345.259	557.44
345.487	562.44
345.714	556.44
345.942	560.44
346.17	558.44
346.397	550.44
346.625	550.44
346.853	552.44
347.08	553.44
347.308	548.44
347.535	579.44
347.763	554.44
347.99	578.44
348.218	552.44
348.445	552.44
348.673	559.44
348.9	551.44
349.128	539.44
349.355	561.44
349.583	554.44
349.81	552.44
350.037	573.44
350.265	552.44
350.492	551.44
350.72	567.44
350.947	541.44
351.174	543.44
351.402	540.44
351.629	556.44
351.856	530.44
352.083	542.44
352.311	539.44
352.538	557.44
352.765	544.44
352.992	557.44
353.22	569.44
353.447	555.44
353.674	568.44
353.901	560.44
354.128	539.44
354.355	547.44
354.583	555.44
354.81	552.44
355.037	588.44
355.264	572.44
355.491	552.44
355.718	550.44
355.945	578.44
356.172	566.44
356.399	552.44
356.626	548.44
356.853	560.44
357.08	568.44
357.307	561.44
357.534	571.44
357.761	563.44
357.988	550.44
358.215	578.44
358.441	565.44
358.668	550.44
358.895	554.44
359.122	569.44
359.349	554.44
359.576	580.44
359.802	573.44
360.029	573.44
360.256	589.44
360.483	567.44
360.709	583.44
360.936	566.44
361.163	571.44
361.39	573.44
361.616	579.44
361.843	584.44
362.07	571.44
362.296	562.44
362.523	589.44
362.749	621.44
362.976	556.44
363.203	576.44
363.429	568.44
363.656	590.44
363.882	595.44
364.109	557.44
364.335	565.44
364.562	565.44
364.788	578.44
365.015	593.44
365.241	580.44
365.468	563.44
365.694	594.44
365.92	603.44
366.147	604.44
366.373	597.44
366.599	606.44
366.826	586.44
367.052	601.44
367.278	603.44
367.505	597.44
367.731	627.44
367.957	586.44
368.184	584.44
368.41	589.44
368.636	608.44
368.862	610.44
369.089	597.44
369.315	600.44
369.541	613.44
369.767	628.44
369.993	589.44
370.219	605.44
370.445	582.44
370.672	598.44
370.898	604.44
371.124	613.44
371.35	615.44
371.576	605.44
371.802	613.44
372.028	625.44
372.254	634.44
372.48	591.44
372.706	635.44
372.932	638.44
373.158	609.44
373.384	619.44
373.61	608.44
373.835	608.44
374.061	604.44
374.287	620.44
374.513	616.44
374.739	628.44
374.965	634.44
375.191	613.44
375.416	624.44
375.642	622.44
375.868	624.44
376.094	616.44
376.319	620.44
376.545	592.44
376.771	626.44
376.997	598.44
377.222	615.44
377.448	620.44
377.674	632.44
377.899	605.44
378.125	604.44
378.35	617.44
378.576	576.44
378.802	613.44
379.027	615.44
379.253	597.44
379.478	608.44
379.704	624.44
379.929	605.44
380.155	612.44
380.38	617.44
380.606	616.44
380.831	618.44
381.057	620.44
381.282	604.44
381.507	604.44
381.733	618.44
381.958	610.44
382.184	630.44
382.409	629.44
382.634	627.44
382.86	614.44
383.085	624.44
383.31	620.44
383.535	650.44
383.761	652.44
383.986	630.44
384.211	641.44
384.436	630.44
384.662	626.44
384.887	641.44
385.112	641.44
385.337	663.44
385.562	634.44
385.787	652.44
386.013	651.44
386.238	661.44
386.463	648.44
386.688	650.44
386.913	654.44
387.138	659.44
387.363	671.44
387.588	654.44
387.813	669.44
388.038	665.44
388.263	684.44
388.488	675.44
388.713	682.44
388.938	669.44
389.163	650.44
389.387	654.44
389.612	678.44
389.837	677.44
390.062	663.44
390.287	662.44
390.512	668.44
390.736	655.44
390.961	650.44
391.186	662.44
391.411	673.44
391.636	656.44
391.86	663.44
392.085	639.44
392.31	670.44
392.534	656.44
392.759	672.44
392.984	676.44
393.208	673.44
393.433	650.44
393.658	672.44
393.882	656.44
394.107	664.44
394.331	672.44
394.556	678.44
394.78	653.44
395.005	680.44
395.229	652.44
395.454	688.44
395.678	679.44
395.903	690.44
396.127	687.44
396.352	661.44
396.576	668.44
396.801	698.44
397.025	698.44
397.249	699.44
397.474	692.44
397.698	681.44
397.922	698.44
398.147	683.44
398.371	704.44
398.595	679.44
398.82	705.44
399.044	686.44
399.268	712.44
399.492	724.44
399.717	733.44
399.941	710.44
400.165	765.44
400.389	708.44
400.613	733.44
400.837	711.44
401.062	709.44
401.286	709.44
401.51	732.44
401.734	720.44
401.958	704.44
402.182	718.44
402.406	710.44
402.63	729.44
402.854	733.44
403.078	712.44
403.302	743.44
403.526	717.44
403.75	705.44
403.974	732.44
404.198	706.44
404.422	735.44
404.645	744.44
404.869	742.44
405.093	725.44
405.317	691.44
405.541	718.44
405.765	739.44
405.988	734.44
406.212	747.44
406.436	746.44
406.66	757.44
406.883	747.44
407.107	757.44
407.331	736.44
407.555	746.44
407.778	725.44
408.002	736.44
408.226	742.44
408.449	746.44
408.673	772.44
408.896	768.44
409.12	745.44
409.344	742.44
409.567	721.44
409.791	755.44
410.014	777.44
410.238	752.44
410.461	727.44
410.685	750.44
410.908	746.44
411.132	745.44
411.355	712.44
411.578	736.44
411.802	738.44
412.025	744.44
412.249	731.44
412.472	721.44
412.695	698.44
412.919	720.44
413.142	736.44
413.365	699.44
413.589	734.44
413.812	726.44
414.035	693.44
414.258	721.44
414.482	726.44
414.705	736.44
414.928	734.44
415.151	729.44
415.374	706.44
415.597	730.44
415.821	717.44
416.044	696.44
416.267	701.44
416.49	692.44
416.713	699.44
416.936	704.44
417.159	695.44
417.382	698.44
417.605	689.44
417.828	681.44
418.051	681.44
418.274	663.44
418.497	702.44
418.72	696.44
418.943	691.44
419.166	720.44
419.389	756.44
419.611	720.44
419.834	709.44
420.057	703.44
420.28	684.44
420.503	689.44
420.726	669.44
420.948	697.44
421.171	700.44
421.394	696.44
421.617	680.44
421.839	697.44
422.062	701.44
422.285	673.44
422.507	688.44
422.73	674.44
422.953	705.44
423.175	692.44
423.398	685.44
423.621	655.44
423.843	707.44
424.066	679.44
424.288	664.44
424.511	668.44
424.733	688.44
424.956	682.44
425.178	684.44
425.401	692.44
425.623	706.44
425.846	669.44
426.068	676.44
426.291	679.44
426.513	691.44
426.735	708.44
426.958	687.44
427.18	674.44
427.402	683.44
427.625	692.44
427.847	674.44
428.069	672.44
428.292	681.44
428.514	668.44
428.736	673.44
428.958	684.44
429.181	679.44
429.403	667.44
429.625	690.44
429.847	677.44
430.069	712.44
430.292	680.44
430.514	714.44
430.736	674.44
430.958	693.44
431.18	663.44
431.402	715.44
431.624	677.44
431.846	682.44
432.068	667.44
432.29	675.44
432.512	662.44
432.734	704.44
432.956	680.44
433.178	689.44
433.4	670.44
433.622	682.44
433.844	694.44
434.066	669.44
434.287	689.44
434.509	693.44
434.731	713.44
434.953	700.44
435.175	685.44
435.397	713.44
435.618	687.44
435.84	692.44
436.062	675.44
436.284	693.44
436.505	715.44
436.727	692.44
436.949	677.44
437.17	695.44
437.392	686.44
437.614	673.44
437.835	668.44
438.057	682.44
438.278	708.44
438.5	669.44
438.721	685.44
438.943	674.44
439.165	649.44
439.386	690.44
439.608	691.44
439.829	697.44
440.05	682.44
440.272	670.44
440.493	672.44
440.715	682.44
440.936	667.44
441.158	693.44
441.379	672.44
441.6	672.44
441.822	666.44
442.043	662.44
442.264	664.44
442.486	679.44
442.707	680.44
442.928	694.44
443.149	681.44
443.371	661.44
443.592	655.44
443.813	676.44
444.034	681.44
444.255	672.44
444.476	656.44
444.698	662.44
444.919	687.44
445.14	772.44
445.361	714.44
445.582	662.44
445.803	688.44
446.024	665.44
446.245	681.44
446.466	684.44
446.687	670.44
446.908	685.44
447.129	678.44
447.35	653.44
447.571	661.44
447.792	655.44
448.013	672.44
448.234	644.44
448.455	667.44
448.675	632.44
448.896	665.44
449.117	649.44
449.338	653.44
449.559	661.44
449.779	650.44
450	633.44
450.221	652.44
450.442	646.44
450.662	646.44
450.883	638.44
451.104	642.44
451.324	656.44
451.545	641.44
451.766	636.44
451.986	644.44
452.207	614.44
452.428	654.44
452.648	627.44
452.869	650.44
453.089	622.44
453.31	631.44
453.53	662.44
453.751	666.44
453.971	636.44
454.192	644.44
454.412	615.44
454.633	619.44
454.853	640.44
455.073	616.44
455.294	640.44
455.514	634.44
455.734	622.44
455.955	632.44
456.175	662.44
456.395	628.44
456.616	636.44
456.836	649.44
457.056	621.44
457.276	625.44
457.497	639.44
457.717	633.44
457.937	650.44
458.157	645.44
458.377	625.44
458.598	660.44
458.818	648.44
459.038	636.44
459.258	627.44
459.478	660.44
459.698	642.44
459.918	633.44
460.138	639.44
460.358	683.44
460.578	665.44
460.798	697.44
461.018	687.44
461.238	684.44
461.458	676.44
461.678	690.44
461.898	698.44
462.118	665.44
462.338	678.44
462.558	663.44
462.777	671.44
462.997	690.44
463.217	682.44
463.437	710.44
463.657	689.44
463.876	694.44
464.096	695.44
464.316	678.44
464.536	690.44
464.755	685.44
464.975	699.44
465.195	691.44
465.414	660.44
465.634	674.44
465.854	680.44
466.073	658.44
466.293	680.44
466.512	667.44
466.732	689.44
466.951	690.44
467.171	667.44
467.391	694.44
467.61	692.44
467.829	686.44
468.049	684.44
468.268	677.44
468.488	663.44
468.707	672.44
468.927	672.44
469.146	681.44
469.365	711.44
469.585	662.44
469.804	664.44
470.023	682.44
470.243	707.44
470.462	674.44
470.681	698.44
470.901	704.44
471.12	695.44
471.339	718.44
471.558	660.44
471.777	690.44
471.997	700.44
472.216	705.44
472.435	704.44
472.654	701.44
472.873	719.44
473.092	699.44
473.311	698.44
473.53	712.44
473.749	701.44
473.968	715.44
474.187	721.44
474.406	704.44
474.625	741.44
474.844	727.44
475.063	739.44
475.282	741.44
475.501	726.44
475.72	748.44
475.939	752.44
476.158	752.44
476.377	769.44
476.596	753.44
476.814	760.44
477.033	782.44
477.252	785.44
477.471	772.44
477.69	758.44
477.908	791.44
478.127	805.44
478.346	808.44
478.564	827.44
478.783	799.44
479.002	774.44
479.22	836.44
479.439	830.44
479.658	817.44
479.876	847.44
480.095	800.44
480.313	822.44
480.532	854.44
480.751	818.44
480.969	861.44
481.188	862.44
481.406	846.44
481.624	879.44
481.843	852.44
482.061	856.44
482.28	873.44
482.498	877.44
482.717	835.44
482.935	853.44
483.153	884.44
483.372	854.44
483.59	866.44
483.808	872.44
484.027	885.44
484.245	874.44
484.463	866.44
484.681	890.44
484.9	886.44
485.118	901.44
485.336	864.44
485.554	884.44
485.772	882.44
485.99	887.44
486.209	866.44
486.427	884.44
486.645	911.44
486.863	881.44
487.081	883.44
487.299	916.44
487.517	889.44
487.735	880.44
487.953	906.44
488.171	902.44
488.389	893.44
488.607	906.44
488.825	900.44
489.043	901.44
489.261	880.44
489.479	907.44
489.696	895.44
489.914	895.44
490.132	908.44
490.35	900.44
490.568	914.44
490.786	928.44
491.003	906.44
491.221	923.44
491.439	924.44
491.657	934.44
491.874	917.44
492.092	906.44
492.31	940.44
492.527	929.44
492.745	930.44
492.963	921.44
493.18	931.44
493.398	904.44
493.615	905.44
493.833	924.44
494.05	926.44
494.268	914.44
494.485	949.44
494.703	937.44
494.92	927.44
495.138	942.44
495.355	953.44
495.573	943.44
495.79	922.44
496.008	934.44
496.225	919.44
496.442	939.44
496.66	940.44
496.877	959.44
497.094	957.44
497.312	970.44
497.529	948.44
497.746	963.44
497.963	953.44
498.181	986.44
498.398	987.44
498.615	996.44
498.832	998.44
499.049	1011.44
499.267	973.44
499.484	1019.44
499.701	1009.44
499.918	1029.44
500.135	1030.44
500.352	1059.44
500.569	1054.44
500.786	1040.44
501.003	1048.44
501.22	1062.44
501.437	1031.44
501.654	1014.44
501.871	1018.44
