Data from Fe(NO3)3@0.05M.TitratingCurve.Agarose3%dH2O.NegLispCup.LampEnergy10.LIBS07252019_HRD10591_16-48-19-334.txt Node
Date: Thu Jul 25 16:48:19 EDT 2019
User: cochatt
Spectrometer: HR+D1059
Trigger mode: 1
Integration Time (sec): 1.000000E-1
Scans to average: 1
Electric dark correction enabled: true
Nonlinearity correction enabled: false
Boxcar width: 0
XAxis mode: Wavelengths
Number of Pixels in Spectrum: 2048
>>>>>Begin Spectral Data<<<<<
223.165	-22.5
223.4	-22.5
223.635	-22.5
223.869	-16.5
224.104	-27.5
224.338	-22.5
224.573	-3.5
224.808	-22.5
225.042	-12.5
225.277	1.5
225.511	11.5
225.746	1.5
225.98	14.5
226.215	6.5
226.449	10.5
226.683	29.5
226.918	18.5
227.152	33.5
227.387	39.5
227.621	53.5
227.856	56.5
228.09	43.5
228.324	69.5
228.559	62.5
228.793	65.5
229.027	65.5
229.262	82.5
229.496	76.5
229.73	71.5
229.964	84.5
230.199	82.5
230.433	78.5
230.667	90.5
230.901	82.5
231.136	95.5
231.37	92.5
231.604	91.5
231.838	98.5
232.072	104.5
232.306	86.5
232.541	102.5
232.775	89.5
233.009	91.5
233.243	92.5
233.477	93.5
233.711	101.5
233.945	90.5
234.179	97.5
234.413	99.5
234.647	88.5
234.881	90.5
235.115	101.5
235.349	79.5
235.583	94.5
235.817	74.5
236.051	97.5
236.285	100.5
236.519	96.5
236.753	85.5
236.987	97.5
237.221	93.5
237.455	74.5
237.689	78.5
237.922	97.5
238.156	93.5
238.39	90.5
238.624	83.5
238.858	85.5
239.091	114.5
239.325	80.5
239.559	91.5
239.793	96.5
240.027	79.5
240.26	85.5
240.494	101.5
240.728	93.5
240.961	89.5
241.195	89.5
241.429	96.5
241.662	100.5
241.896	85.5
242.13	84.5
242.363	91.5
242.597	93.5
242.83	98.5
243.064	104.5
243.298	89.5
243.531	95.5
243.765	97.5
243.998	99.5
244.232	82.5
244.465	89.5
244.699	83.5
244.932	91.5
245.166	106.5
245.399	94.5
245.633	100.5
245.866	88.5
246.099	90.5
246.333	94.5
246.566	98.5
246.8	90.5
247.033	93.5
247.266	102.5
247.5	97.5
247.733	95.5
247.966	97.5
248.2	85.5
248.433	101.5
248.666	97.5
248.899	102.5
249.133	111.5
249.366	107.5
249.599	91.5
249.832	93.5
250.066	102.5
250.299	109.5
250.532	101.5
250.765	102.5
250.998	96.5
251.231	120.5
251.465	101.5
251.698	104.5
251.931	104.5
252.164	96.5
252.397	109.5
252.63	94.5
252.863	95.5
253.096	105.5
253.329	100.5
253.562	114.5
253.795	102.5
254.028	123.5
254.261	100.5
254.494	108.5
254.727	106.5
254.96	105.5
255.193	97.5
255.426	98.5
255.659	122.5
255.892	101.5
256.124	106.5
256.357	84.5
256.59	110.5
256.823	108.5
257.056	110.5
257.289	110.5
257.521	113.5
257.754	94.5
257.987	93.5
258.22	100.5
258.452	104.5
258.685	89.5
258.918	96.5
259.151	106.5
259.383	109.5
259.616	109.5
259.849	119.5
260.081	108.5
260.314	126.5
260.547	115.5
260.779	106.5
261.012	115.5
261.244	115.5
261.477	111.5
261.71	107.5
261.942	122.5
262.175	115.5
262.407	116.5
262.64	115.5
262.872	116.5
263.105	113.5
263.337	118.5
263.57	115.5
263.802	119.5
264.035	92.5
264.267	121.5
264.499	101.5
264.732	123.5
264.964	117.5
265.197	110.5
265.429	102.5
265.661	106.5
265.894	103.5
266.126	125.5
266.358	113.5
266.591	115.5
266.823	111.5
267.055	102.5
267.287	123.5
267.52	118.5
267.752	124.5
267.984	116.5
268.216	114.5
268.448	132.5
268.681	117.5
268.913	117.5
269.145	135.5
269.377	109.5
269.609	126.5
269.841	135.5
270.073	118.5
270.306	113.5
270.538	115.5
270.77	119.5
271.002	101.5
271.234	110.5
271.466	132.5
271.698	131.5
271.93	122.5
272.162	125.5
272.394	125.5
272.626	105.5
272.858	121.5
273.09	116.5
273.322	121.5
273.553	105.5
273.785	129.5
274.017	131.5
274.249	125.5
274.481	121.5
274.713	126.5
274.945	129.5
275.176	104.5
275.408	113.5
275.64	127.5
275.872	122.5
276.104	125.5
276.335	114.5
276.567	133.5
276.799	133.5
277.031	131.5
277.262	153.5
277.494	121.5
277.726	130.5
277.957	123.5
278.189	126.5
278.421	140.5
278.652	136.5
278.884	120.5
279.115	126.5
279.347	128.5
279.579	127.5
279.81	117.5
280.042	135.5
280.273	128.5
280.505	139.5
280.736	121.5
280.968	130.5
281.199	131.5
281.431	126.5
281.662	133.5
281.894	146.5
282.125	135.5
282.356	125.5
282.588	139.5
282.819	135.5
283.051	139.5
283.282	138.5
283.513	130.5
283.745	139.5
283.976	131.5
284.207	126.5
284.439	126.5
284.67	126.5
284.901	122.5
285.132	117.5
285.364	131.5
285.595	136.5
285.826	141.5
286.057	137.5
286.288	142.5
286.52	139.5
286.751	149.5
286.982	127.5
287.213	139.5
287.444	142.5
287.675	140.5
287.906	137.5
288.138	133.5
288.369	125.5
288.6	131.5
288.831	131.5
289.062	130.5
289.293	135.5
289.524	136.5
289.755	145.5
289.986	133.5
290.217	135.5
290.448	151.5
290.679	142.5
290.91	139.5
291.141	130.5
291.371	127.5
291.602	133.5
291.833	138.5
292.064	129.5
292.295	144.5
292.526	136.5
292.757	140.5
292.987	126.5
293.218	140.5
293.449	138.5
293.68	139.5
293.91	133.5
294.141	133.5
294.372	151.5
294.603	154.5
294.833	138.5
295.064	134.5
295.295	141.5
295.525	137.5
295.756	140.5
295.987	146.5
296.217	155.5
296.448	153.5
296.679	143.5
296.909	138.5
297.14	153.5
297.37	142.5
297.601	125.5
297.831	152.5
298.062	132.5
298.292	153.5
298.523	135.5
298.753	154.5
298.984	130.5
299.214	150.5
299.445	143.5
299.675	134.5
299.905	151.5
300.136	143.5
300.366	144.5
300.597	148.5
300.827	154.5
301.057	155.5
301.288	156.5
301.518	148.5
301.748	153.5
301.979	151.5
302.209	143.5
302.439	150.5
302.669	155.5
302.9	137.5
303.13	154.5
303.36	139.5
303.59	141.5
303.82	147.5
304.051	158.5
304.281	153.5
304.511	136.5
304.741	149.5
304.971	150.5
305.201	156.5
305.431	155.5
305.661	147.5
305.891	142.5
306.121	145.5
306.352	136.5
306.582	142.5
306.812	151.5
307.042	147.5
307.272	153.5
307.502	143.5
307.731	153.5
307.961	136.5
308.191	143.5
308.421	150.5
308.651	149.5
308.881	161.5
309.111	148.5
309.341	143.5
309.571	144.5
309.8	141.5
310.03	153.5
310.26	145.5
310.49	166.5
310.72	148.5
310.949	149.5
311.179	165.5
311.409	142.5
311.639	135.5
311.868	154.5
312.098	145.5
312.328	158.5
312.557	162.5
312.787	155.5
313.017	145.5
313.246	162.5
313.476	143.5
313.706	141.5
313.935	150.5
314.165	143.5
314.394	166.5
314.624	157.5
314.853	149.5
315.083	158.5
315.312	139.5
315.542	137.5
315.771	147.5
316.001	151.5
316.23	165.5
316.46	160.5
316.689	171.5
316.919	153.5
317.148	165.5
317.377	166.5
317.607	165.5
317.836	155.5
318.065	165.5
318.295	143.5
318.524	151.5
318.753	155.5
318.983	161.5
319.212	166.5
319.441	155.5
319.67	159.5
319.9	156.5
320.129	157.5
320.358	163.5
320.587	162.5
320.816	156.5
321.046	140.5
321.275	152.5
321.504	177.5
321.733	155.5
321.962	150.5
322.191	154.5
322.42	156.5
322.649	167.5
322.878	154.5
323.108	156.5
323.337	162.5
323.566	160.5
323.795	165.5
324.024	162.5
324.253	154.5
324.482	135.5
324.71	153.5
324.939	169.5
325.168	161.5
325.397	155.5
325.626	159.5
325.855	169.5
326.084	153.5
326.313	167.5
326.542	159.5
326.77	157.5
326.999	170.5
327.228	149.5
327.457	165.5
327.686	172.5
327.914	152.5
328.143	167.5
328.372	164.5
328.6	147.5
328.829	150.5
329.058	170.5
329.287	181.5
329.515	155.5
329.744	161.5
329.972	167.5
330.201	171.5
330.43	164.5
330.658	168.5
330.887	154.5
331.115	163.5
331.344	183.5
331.572	174.5
331.801	180.5
332.03	169.5
332.258	179.5
332.486	167.5
332.715	180.5
332.943	179.5
333.172	181.5
333.4	187.5
333.629	165.5
333.857	196.5
334.085	202.5
334.314	177.5
334.542	190.5
334.771	189.5
334.999	180.5
335.227	161.5
335.455	180.5
335.684	197.5
335.912	179.5
336.14	195.5
336.369	187.5
336.597	187.5
336.825	172.5
337.053	163.5
337.281	169.5
337.51	177.5
337.738	165.5
337.966	170.5
338.194	164.5
338.422	166.5
338.65	186.5
338.878	202.5
339.106	181.5
339.334	165.5
339.562	172.5
339.79	175.5
340.018	185.5
340.246	168.5
340.474	173.5
340.702	177.5
340.93	162.5
341.158	164.5
341.386	178.5
341.614	166.5
341.842	157.5
342.07	156.5
342.298	175.5
342.526	165.5
342.754	173.5
342.981	163.5
343.209	169.5
343.437	175.5
343.665	186.5
343.893	181.5
344.12	187.5
344.348	196.5
344.576	164.5
344.804	160.5
345.031	180.5
345.259	177.5
345.487	160.5
345.714	169.5
345.942	163.5
346.17	173.5
346.397	183.5
346.625	163.5
346.853	166.5
347.08	164.5
347.308	174.5
347.535	171.5
347.763	174.5
347.99	171.5
348.218	175.5
348.445	156.5
348.673	167.5
348.9	161.5
349.128	171.5
349.355	174.5
349.583	161.5
349.81	177.5
350.037	175.5
350.265	175.5
350.492	181.5
350.72	164.5
350.947	159.5
351.174	172.5
351.402	158.5
351.629	166.5
351.856	167.5
352.083	162.5
352.311	163.5
352.538	191.5
352.765	169.5
352.992	190.5
353.22	181.5
353.447	163.5
353.674	164.5
353.901	182.5
354.128	169.5
354.355	152.5
354.583	175.5
354.81	175.5
355.037	171.5
355.264	180.5
355.491	169.5
355.718	167.5
355.945	169.5
356.172	160.5
356.399	171.5
356.626	167.5
356.853	164.5
357.08	175.5
357.307	175.5
357.534	164.5
357.761	170.5
357.988	170.5
358.215	179.5
358.441	179.5
358.668	174.5
358.895	164.5
359.122	183.5
359.349	157.5
359.576	166.5
359.802	168.5
360.029	191.5
360.256	174.5
360.483	171.5
360.709	181.5
360.936	161.5
361.163	186.5
361.39	165.5
361.616	168.5
361.843	164.5
362.07	185.5
362.296	172.5
362.523	159.5
362.749	186.5
362.976	153.5
363.203	181.5
363.429	167.5
363.656	166.5
363.882	182.5
364.109	178.5
364.335	155.5
364.562	167.5
364.788	170.5
365.015	179.5
365.241	162.5
365.468	175.5
365.694	173.5
365.92	167.5
366.147	177.5
366.373	164.5
366.599	175.5
366.826	178.5
367.052	184.5
367.278	188.5
367.505	195.5
367.731	190.5
367.957	179.5
368.184	201.5
368.41	173.5
368.636	169.5
368.862	177.5
369.089	179.5
369.315	173.5
369.541	187.5
369.767	193.5
369.993	180.5
370.219	179.5
370.445	196.5
370.672	177.5
370.898	179.5
371.124	179.5
371.35	188.5
371.576	188.5
371.802	188.5
372.028	177.5
372.254	185.5
372.48	183.5
372.706	178.5
372.932	187.5
373.158	177.5
373.384	195.5
373.61	188.5
373.835	200.5
374.061	189.5
374.287	185.5
374.513	178.5
374.739	183.5
374.965	190.5
375.191	197.5
375.416	198.5
375.642	194.5
375.868	196.5
376.094	188.5
376.319	195.5
376.545	193.5
376.771	196.5
376.997	203.5
377.222	185.5
377.448	199.5
377.674	197.5
377.899	186.5
378.125	176.5
378.35	189.5
378.576	172.5
378.802	183.5
379.027	198.5
379.253	196.5
379.478	191.5
379.704	195.5
379.929	193.5
380.155	194.5
380.38	192.5
380.606	197.5
380.831	184.5
381.057	197.5
381.282	201.5
381.507	192.5
381.733	203.5
381.958	204.5
382.184	212.5
382.409	203.5
382.634	199.5
382.86	210.5
383.085	226.5
383.31	207.5
383.535	203.5
383.761	199.5
383.986	218.5
384.211	207.5
384.436	212.5
384.662	226.5
384.887	209.5
385.112	214.5
385.337	222.5
385.562	229.5
385.787	211.5
386.013	226.5
386.238	230.5
386.463	200.5
386.688	224.5
386.913	214.5
387.138	221.5
387.363	226.5
387.588	227.5
387.813	220.5
388.038	226.5
388.263	225.5
388.488	207.5
388.713	219.5
388.938	235.5
389.163	233.5
389.387	226.5
389.612	225.5
389.837	227.5
390.062	230.5
390.287	214.5
390.512	226.5
390.736	258.5
390.961	232.5
391.186	231.5
391.411	223.5
391.636	226.5
391.86	232.5
392.085	259.5
392.31	241.5
392.534	227.5
392.759	234.5
392.984	241.5
393.208	241.5
393.433	250.5
393.658	253.5
393.882	237.5
394.107	234.5
394.331	246.5
394.556	237.5
394.78	237.5
395.005	266.5
395.229	245.5
395.454	247.5
395.678	244.5
395.903	237.5
396.127	255.5
396.352	237.5
396.576	241.5
396.801	245.5
397.025	233.5
397.249	262.5
397.474	255.5
397.698	246.5
397.922	255.5
398.147	257.5
398.371	257.5
398.595	256.5
398.82	264.5
399.044	295.5
399.268	291.5
399.492	336.5
399.717	341.5
399.941	342.5
400.165	303.5
400.389	295.5
400.613	284.5
400.837	281.5
401.062	279.5
401.286	289.5
401.51	267.5
401.734	271.5
401.958	273.5
402.182	285.5
402.406	285.5
402.63	274.5
402.854	272.5
403.078	298.5
403.302	313.5
403.526	305.5
403.75	302.5
403.974	309.5
404.198	297.5
404.422	287.5
404.645	284.5
404.869	297.5
405.093	272.5
405.317	301.5
405.541	303.5
405.765	289.5
405.988	295.5
406.212	296.5
406.436	296.5
406.66	302.5
406.883	289.5
407.107	302.5
407.331	306.5
407.555	301.5
407.778	341.5
408.002	326.5
408.226	287.5
408.449	304.5
408.673	286.5
408.896	300.5
409.12	297.5
409.344	302.5
409.567	297.5
409.791	311.5
410.014	279.5
410.238	302.5
410.461	300.5
410.685	285.5
410.908	287.5
411.132	293.5
411.355	289.5
411.578	293.5
411.802	279.5
412.025	300.5
412.249	289.5
412.472	300.5
412.695	279.5
412.919	273.5
413.142	277.5
413.365	284.5
413.589	285.5
413.812	283.5
414.035	290.5
414.258	278.5
414.482	291.5
414.705	286.5
414.928	280.5
415.151	289.5
415.374	293.5
415.597	292.5
415.821	292.5
416.044	276.5
416.267	278.5
416.49	281.5
416.713	302.5
416.936	297.5
417.159	283.5
417.382	295.5
417.605	302.5
417.828	285.5
418.051	294.5
418.274	285.5
418.497	290.5
418.72	295.5
418.943	274.5
419.166	293.5
419.389	300.5
419.611	309.5
419.834	293.5
420.057	294.5
420.28	291.5
420.503	300.5
420.726	284.5
420.948	298.5
421.171	286.5
421.394	296.5
421.617	287.5
421.839	292.5
422.062	306.5
422.285	300.5
422.507	297.5
422.73	299.5
422.953	274.5
423.175	294.5
423.398	296.5
423.621	280.5
423.843	290.5
424.066	291.5
424.288	286.5
424.511	305.5
424.733	291.5
424.956	288.5
425.178	293.5
425.401	296.5
425.623	285.5
425.846	274.5
426.068	289.5
426.291	274.5
426.513	278.5
426.735	268.5
426.958	294.5
427.18	276.5
427.402	269.5
427.625	280.5
427.847	273.5
428.069	278.5
428.292	274.5
428.514	280.5
428.736	269.5
428.958	265.5
429.181	288.5
429.403	270.5
429.625	254.5
429.847	278.5
430.069	266.5
430.292	275.5
430.514	270.5
430.736	270.5
430.958	269.5
431.18	286.5
431.402	279.5
431.624	263.5
431.846	254.5
432.068	258.5
432.29	280.5
432.512	285.5
432.734	301.5
432.956	277.5
433.178	283.5
433.4	296.5
433.622	290.5
433.844	289.5
434.066	282.5
434.287	276.5
434.509	278.5
434.731	300.5
434.953	293.5
435.175	300.5
435.397	315.5
435.618	281.5
435.84	311.5
436.062	291.5
436.284	274.5
436.505	280.5
436.727	275.5
436.949	277.5
437.17	292.5
437.392	278.5
437.614	263.5
437.835	280.5
438.057	292.5
438.278	270.5
438.5	292.5
438.721	274.5
438.943	275.5
439.165	283.5
439.386	293.5
439.608	295.5
439.829	296.5
440.05	294.5
440.272	292.5
440.493	300.5
440.715	274.5
440.936	291.5
441.158	299.5
441.379	312.5
441.6	321.5
441.822	307.5
442.043	294.5
442.264	297.5
442.486	317.5
442.707	290.5
442.928	307.5
443.149	302.5
443.371	326.5
443.592	323.5
443.813	325.5
444.034	309.5
444.255	325.5
444.476	333.5
444.698	311.5
444.919	341.5
445.14	461.5
445.361	373.5
445.582	341.5
445.803	319.5
446.024	316.5
446.245	318.5
446.466	297.5
446.687	281.5
446.908	298.5
447.129	300.5
447.35	301.5
447.571	293.5
447.792	275.5
448.013	312.5
448.234	271.5
448.455	280.5
448.675	284.5
448.896	275.5
449.117	280.5
449.338	297.5
449.559	278.5
449.779	282.5
450	272.5
450.221	277.5
450.442	287.5
450.662	299.5
450.883	291.5
451.104	276.5
451.324	284.5
451.545	278.5
451.766	284.5
451.986	274.5
452.207	274.5
452.428	255.5
452.648	290.5
452.869	278.5
453.089	259.5
453.31	269.5
453.53	268.5
453.751	245.5
453.971	281.5
454.192	249.5
454.412	270.5
454.633	260.5
454.853	257.5
455.073	287.5
455.294	265.5
455.514	259.5
455.734	268.5
455.955	286.5
456.175	265.5
456.395	252.5
456.616	268.5
456.836	255.5
457.056	269.5
457.276	247.5
457.497	265.5
457.717	250.5
457.937	259.5
458.157	259.5
458.377	281.5
458.598	278.5
458.818	251.5
459.038	278.5
459.258	293.5
459.478	291.5
459.698	311.5
459.918	311.5
460.138	319.5
460.358	313.5
460.578	327.5
460.798	316.5
461.018	320.5
461.238	317.5
461.458	324.5
461.678	319.5
461.898	311.5
462.118	340.5
462.338	314.5
462.558	348.5
462.777	349.5
462.997	376.5
463.217	373.5
463.437	375.5
463.657	334.5
463.876	348.5
464.096	334.5
464.316	342.5
464.536	353.5
464.755	363.5
464.975	295.5
465.195	314.5
465.414	313.5
465.634	307.5
465.854	305.5
466.073	282.5
466.293	294.5
466.512	301.5
466.732	305.5
466.951	303.5
467.171	284.5
467.391	282.5
467.61	273.5
467.829	279.5
468.049	282.5
468.268	265.5
468.488	268.5
468.707	299.5
468.927	281.5
469.146	278.5
469.365	289.5
469.585	283.5
469.804	296.5
470.023	279.5
470.243	294.5
470.462	292.5
470.681	292.5
470.901	310.5
471.12	302.5
471.339	300.5
471.558	304.5
471.777	301.5
471.997	283.5
472.216	295.5
472.435	281.5
472.654	299.5
472.873	276.5
473.092	264.5
473.311	279.5
473.53	262.5
473.749	290.5
473.968	289.5
474.187	283.5
474.406	293.5
474.625	305.5
474.844	299.5
475.063	292.5
475.282	296.5
475.501	266.5
475.72	273.5
475.939	279.5
476.158	299.5
476.377	301.5
476.596	313.5
476.814	297.5
477.033	301.5
477.252	311.5
477.471	328.5
477.69	311.5
477.908	331.5
478.127	310.5
478.346	329.5
478.564	311.5
478.783	327.5
479.002	334.5
479.22	327.5
479.439	340.5
479.658	331.5
479.876	323.5
480.095	339.5
480.313	330.5
480.532	350.5
480.751	331.5
480.969	326.5
481.188	307.5
481.406	317.5
481.624	321.5
481.843	299.5
482.061	309.5
482.28	314.5
482.498	308.5
482.717	313.5
482.935	314.5
483.153	330.5
483.372	329.5
483.59	332.5
483.808	319.5
484.027	318.5
484.245	301.5
484.463	321.5
484.681	324.5
484.9	326.5
485.118	346.5
485.336	331.5
485.554	313.5
485.772	330.5
485.99	319.5
486.209	313.5
486.427	329.5
486.645	311.5
486.863	309.5
487.081	340.5
487.299	319.5
487.517	315.5
487.735	345.5
487.953	325.5
488.171	335.5
488.389	317.5
488.607	325.5
488.825	323.5
489.043	340.5
489.261	313.5
489.479	318.5
489.696	338.5
489.914	321.5
490.132	338.5
490.35	324.5
490.568	324.5
490.786	343.5
491.003	335.5
491.221	339.5
491.439	355.5
491.657	343.5
491.874	343.5
492.092	351.5
492.31	379.5
492.527	361.5
492.745	355.5
492.963	349.5
493.18	340.5
493.398	353.5
493.615	334.5
493.833	358.5
494.05	370.5
494.268	341.5
494.485	340.5
494.703	363.5
494.92	343.5
495.138	354.5
495.355	360.5
495.573	346.5
495.79	345.5
496.008	375.5
496.225	373.5
496.442	342.5
496.66	385.5
496.877	350.5
497.094	374.5
497.312	375.5
497.529	373.5
497.746	385.5
497.963	371.5
498.181	391.5
498.398	410.5
498.615	415.5
498.832	418.5
499.049	412.5
499.267	454.5
499.484	471.5
499.701	522.5
499.918	561.5
500.135	607.5
500.352	633.5
500.569	655.5
500.786	641.5
501.003	623.5
501.22	580.5
501.437	547.5
501.654	505.5
501.871	467.5
502.088	458.5
502.305	447.5
502.522	419.5
502.739	409.5
502.956	415.5
503.172	410.5
503.389	375.5
503.606	363.5
503.823	366.5
504.04	381.5
504.256	350.5
504.473	354.5
504.69	358.5
504.907	363.5
505.123	347.5
505.34	343.5
505.557	332.5
505.773	327.5
505.99	324.5
506.207	309.5
506.423	324.5
506.64	322.5
506.856	316.5
507.073	311.5
507.289	320.5
507.506	311.5
507.722	312.5
507.939	317.5
508.155	300.5
508.372	286.5
508.588	301.5
508.805	312.5
509.021	315.5
509.238	299.5
509.454	286.5
509.67	286.5
509.887	298.5
510.103	294.5
510.319	296.5
510.536	283.5
510.752	278.5
510.968	290.5
511.184	298.5
511.401	274.5
511.617	282.5
511.833	282.5
512.049	281.5
512.265	275.5
512.481	292.5
512.698	287.5
512.914	288.5
513.13	299.5
513.346	279.5
513.562	272.5
513.778	290.5
513.994	296.5
514.21	295.5
514.426	289.5
514.642	278.5
514.858	285.5
515.074	298.5
515.29	298.5
515.506	292.5
515.721	289.5
515.937	294.5
516.153	293.5
516.369	286.5
516.585	302.5
516.801	316.5
517.016	311.5
517.232	308.5
517.448	318.5
517.664	338.5
517.879	315.5
518.095	335.5
518.311	335.5
518.527	330.5
518.742	317.5
518.958	300.5
519.173	306.5
519.389	307.5
519.605	284.5
519.82	292.5
520.036	292.5
520.251	281.5
520.467	295.5
520.682	302.5
