Data from Fe(NO3)3@0.0125M.TitratingCurve.Agarose3%dH2O.NegLispCup.LampEnergy10.LIBS07252019_HRD10591_17-00-14-336.txt Node
Date: Thu Jul 25 17:00:14 EDT 2019
User: cochatt
Spectrometer: HR+D1059
Trigger mode: 1
Integration Time (sec): 1.000000E-1
Scans to average: 1
Electric dark correction enabled: true
Nonlinearity correction enabled: false
Boxcar width: 0
XAxis mode: Wavelengths
Number of Pixels in Spectrum: 2048
>>>>>Begin Spectral Data<<<<<
223.165	-12.38
223.4	-12.38
223.635	-12.38
223.869	-8.38
224.104	-13.38
224.338	-21.38
224.573	-10.38
224.808	-20.38
225.042	-0.38
225.277	-13.38
225.511	6.62
225.746	-1.38
225.98	2.62
226.215	7.62
226.449	16.62
226.683	16.62
226.918	24.62
227.152	26.62
227.387	40.62
227.621	44.62
227.856	46.62
228.09	55.62
228.324	59.62
228.559	56.62
228.793	59.62
229.027	55.62
229.262	78.62
229.496	80.62
229.73	97.62
229.964	80.62
230.199	89.62
230.433	97.62
230.667	101.62
230.901	90.62
231.136	96.62
231.37	87.62
231.604	96.62
231.838	97.62
232.072	88.62
232.306	110.62
232.541	84.62
232.775	97.62
233.009	93.62
233.243	108.62
233.477	109.62
233.711	93.62
233.945	97.62
234.179	90.62
234.413	92.62
234.647	114.62
234.881	97.62
235.115	94.62
235.349	117.62
235.583	96.62
235.817	95.62
236.051	105.62
236.285	90.62
236.519	92.62
236.753	102.62
236.987	101.62
237.221	97.62
237.455	104.62
237.689	93.62
237.922	102.62
238.156	112.62
238.39	109.62
238.624	98.62
238.858	102.62
239.091	89.62
239.325	106.62
239.559	110.62
239.793	109.62
240.027	114.62
240.26	119.62
240.494	114.62
240.728	113.62
240.961	121.62
241.195	117.62
241.429	115.62
241.662	117.62
241.896	115.62
242.13	104.62
242.363	98.62
242.597	86.62
242.83	118.62
243.064	121.62
243.298	113.62
243.531	132.62
243.765	113.62
243.998	108.62
244.232	113.62
244.465	121.62
244.699	121.62
244.932	109.62
245.166	109.62
245.399	130.62
245.633	120.62
245.866	119.62
246.099	133.62
246.333	126.62
246.566	102.62
246.8	102.62
247.033	126.62
247.266	128.62
247.5	116.62
247.733	122.62
247.966	118.62
248.2	118.62
248.433	133.62
248.666	131.62
248.899	132.62
249.133	111.62
249.366	145.62
249.599	136.62
249.832	125.62
250.066	126.62
250.299	118.62
250.532	119.62
250.765	132.62
250.998	129.62
251.231	124.62
251.465	130.62
251.698	131.62
251.931	129.62
252.164	143.62
252.397	129.62
252.63	124.62
252.863	144.62
253.096	133.62
253.329	129.62
253.562	146.62
253.795	131.62
254.028	140.62
254.261	157.62
254.494	132.62
254.727	135.62
254.96	153.62
255.193	135.62
255.426	133.62
255.659	135.62
255.892	139.62
256.124	148.62
256.357	154.62
256.59	148.62
256.823	135.62
257.056	133.62
257.289	145.62
257.521	138.62
257.754	146.62
257.987	144.62
258.22	135.62
258.452	144.62
258.685	167.62
258.918	151.62
259.151	155.62
259.383	156.62
259.616	149.62
259.849	169.62
260.081	178.62
260.314	170.62
260.547	156.62
260.779	149.62
261.012	162.62
261.244	166.62
261.477	173.62
261.71	167.62
261.942	161.62
262.175	161.62
262.407	152.62
262.64	168.62
262.872	151.62
263.105	161.62
263.337	161.62
263.57	167.62
263.802	157.62
264.035	163.62
264.267	147.62
264.499	174.62
264.732	153.62
264.964	164.62
265.197	157.62
265.429	154.62
265.661	145.62
265.894	162.62
266.126	156.62
266.358	155.62
266.591	159.62
266.823	157.62
267.055	181.62
267.287	165.62
267.52	159.62
267.752	166.62
267.984	156.62
268.216	152.62
268.448	173.62
268.681	165.62
268.913	157.62
269.145	166.62
269.377	166.62
269.609	183.62
269.841	162.62
270.073	179.62
270.306	172.62
270.538	156.62
270.77	158.62
271.002	181.62
271.234	166.62
271.466	177.62
271.698	173.62
271.93	163.62
272.162	164.62
272.394	170.62
272.626	179.62
272.858	193.62
273.09	189.62
273.322	185.62
273.553	166.62
273.785	179.62
274.017	184.62
274.249	204.62
274.481	221.62
274.713	217.62
274.945	214.62
275.176	228.62
275.408	212.62
275.64	213.62
275.872	198.62
276.104	189.62
276.335	196.62
276.567	183.62
276.799	186.62
277.031	186.62
277.262	210.62
277.494	204.62
277.726	197.62
277.957	191.62
278.189	188.62
278.421	182.62
278.652	166.62
278.884	189.62
279.115	196.62
279.347	196.62
279.579	207.62
279.81	189.62
280.042	186.62
280.273	199.62
280.505	181.62
280.736	199.62
280.968	181.62
281.199	199.62
281.431	207.62
281.662	201.62
281.894	205.62
282.125	186.62
282.356	202.62
282.588	191.62
282.819	190.62
283.051	214.62
283.282	211.62
283.513	212.62
283.745	202.62
283.976	219.62
284.207	206.62
284.439	236.62
284.67	202.62
284.901	219.62
285.132	228.62
285.364	212.62
285.595	208.62
285.826	214.62
286.057	220.62
286.288	223.62
286.52	207.62
286.751	212.62
286.982	214.62
287.213	200.62
287.444	220.62
287.675	211.62
287.906	225.62
288.138	225.62
288.369	208.62
288.6	222.62
288.831	225.62
289.062	211.62
289.293	248.62
289.524	225.62
289.755	242.62
289.986	218.62
290.217	214.62
290.448	214.62
290.679	237.62
290.91	230.62
291.141	227.62
291.371	230.62
291.602	220.62
291.833	225.62
292.064	233.62
292.295	239.62
292.526	235.62
292.757	219.62
292.987	244.62
293.218	234.62
293.449	241.62
293.68	226.62
293.91	219.62
294.141	227.62
294.372	228.62
294.603	231.62
294.833	218.62
295.064	223.62
295.295	216.62
295.525	227.62
295.756	238.62
295.987	238.62
296.217	239.62
296.448	228.62
296.679	249.62
296.909	245.62
297.14	244.62
297.37	256.62
297.601	246.62
297.831	236.62
298.062	251.62
298.292	255.62
298.523	265.62
298.753	266.62
298.984	254.62
299.214	245.62
299.445	242.62
299.675	259.62
299.905	274.62
300.136	238.62
300.366	250.62
300.597	245.62
300.827	263.62
301.057	259.62
301.288	275.62
301.518	265.62
301.748	266.62
301.979	264.62
302.209	261.62
302.439	279.62
302.669	264.62
302.9	255.62
303.13	246.62
303.36	278.62
303.59	260.62
303.82	268.62
304.051	279.62
304.281	266.62
304.511	280.62
304.741	279.62
304.971	248.62
305.201	269.62
305.431	274.62
305.661	270.62
305.891	288.62
306.121	285.62
306.352	261.62
306.582	277.62
306.812	256.62
307.042	268.62
307.272	255.62
307.502	266.62
307.731	285.62
307.961	250.62
308.191	275.62
308.421	276.62
308.651	257.62
308.881	288.62
309.111	264.62
309.341	277.62
309.571	267.62
309.8	267.62
310.03	284.62
310.26	271.62
310.49	275.62
310.72	261.62
310.949	273.62
311.179	297.62
311.409	270.62
311.639	289.62
311.868	283.62
312.098	287.62
312.328	306.62
312.557	302.62
312.787	282.62
313.017	281.62
313.246	293.62
313.476	290.62
313.706	309.62
313.935	317.62
314.165	285.62
314.394	295.62
314.624	307.62
314.853	282.62
315.083	293.62
315.312	317.62
315.542	307.62
315.771	309.62
316.001	308.62
316.23	312.62
316.46	286.62
316.689	300.62
316.919	284.62
317.148	328.62
317.377	332.62
317.607	303.62
317.836	317.62
318.065	297.62
318.295	318.62
318.524	307.62
318.753	324.62
318.983	302.62
319.212	311.62
319.441	305.62
319.67	314.62
319.9	302.62
320.129	324.62
320.358	312.62
320.587	315.62
320.816	312.62
321.046	325.62
321.275	319.62
321.504	323.62
321.733	311.62
321.962	297.62
322.191	312.62
322.42	310.62
322.649	315.62
322.878	322.62
323.108	308.62
323.337	311.62
323.566	326.62
323.795	333.62
324.024	325.62
324.253	318.62
324.482	316.62
324.71	302.62
324.939	315.62
325.168	313.62
325.397	327.62
325.626	325.62
325.855	324.62
326.084	314.62
326.313	327.62
326.542	316.62
326.77	358.62
326.999	327.62
327.228	319.62
327.457	330.62
327.686	337.62
327.914	325.62
328.143	339.62
328.372	334.62
328.6	334.62
328.829	331.62
329.058	335.62
329.287	323.62
329.515	324.62
329.744	328.62
329.972	339.62
330.201	348.62
330.43	339.62
330.658	344.62
330.887	329.62
331.115	357.62
331.344	352.62
331.572	345.62
331.801	363.62
332.03	362.62
332.258	357.62
332.486	351.62
332.715	360.62
332.943	367.62
333.172	380.62
333.4	366.62
333.629	383.62
333.857	342.62
334.085	375.62
334.314	371.62
334.542	366.62
334.771	371.62
334.999	371.62
335.227	389.62
335.455	396.62
335.684	368.62
335.912	394.62
336.14	393.62
336.369	354.62
336.597	366.62
336.825	373.62
337.053	379.62
337.281	377.62
337.51	385.62
337.738	390.62
337.966	357.62
338.194	363.62
338.422	386.62
338.65	364.62
338.878	373.62
339.106	359.62
339.334	371.62
339.562	370.62
339.79	362.62
340.018	353.62
340.246	363.62
340.474	355.62
340.702	358.62
340.93	370.62
341.158	359.62
341.386	370.62
341.614	377.62
341.842	369.62
342.07	361.62
342.298	371.62
342.526	365.62
342.754	377.62
342.981	360.62
343.209	375.62
343.437	387.62
343.665	375.62
343.893	375.62
344.12	403.62
344.348	386.62
344.576	383.62
344.804	394.62
345.031	378.62
345.259	366.62
345.487	352.62
345.714	354.62
345.942	369.62
346.17	381.62
346.397	364.62
346.625	377.62
346.853	369.62
347.08	364.62
347.308	364.62
347.535	364.62
347.763	362.62
347.99	361.62
348.218	348.62
348.445	364.62
348.673	356.62
348.9	358.62
349.128	354.62
349.355	360.62
349.583	358.62
349.81	356.62
350.037	354.62
350.265	362.62
350.492	358.62
350.72	360.62
350.947	359.62
351.174	357.62
351.402	375.62
351.629	348.62
351.856	367.62
352.083	359.62
352.311	363.62
352.538	339.62
352.765	341.62
352.992	356.62
353.22	354.62
353.447	365.62
353.674	349.62
353.901	381.62
354.128	357.62
354.355	338.62
354.583	361.62
354.81	378.62
355.037	361.62
355.264	385.62
355.491	367.62
355.718	350.62
355.945	376.62
356.172	347.62
356.399	349.62
356.626	374.62
356.853	353.62
357.08	376.62
357.307	360.62
357.534	361.62
357.761	374.62
357.988	355.62
358.215	373.62
358.441	381.62
358.668	374.62
358.895	361.62
359.122	359.62
359.349	380.62
359.576	369.62
359.802	364.62
360.029	381.62
360.256	377.62
360.483	357.62
360.709	379.62
360.936	383.62
361.163	377.62
361.39	375.62
361.616	377.62
361.843	376.62
362.07	378.62
362.296	382.62
362.523	373.62
362.749	379.62
362.976	353.62
363.203	387.62
363.429	388.62
363.656	367.62
363.882	373.62
364.109	385.62
364.335	369.62
364.562	369.62
364.788	371.62
365.015	391.62
365.241	373.62
365.468	383.62
365.694	366.62
365.92	391.62
366.147	389.62
366.373	365.62
366.599	369.62
366.826	361.62
367.052	361.62
367.278	396.62
367.505	370.62
367.731	405.62
367.957	389.62
368.184	388.62
368.41	374.62
368.636	396.62
368.862	390.62
369.089	374.62
369.315	379.62
369.541	373.62
369.767	383.62
369.993	387.62
370.219	402.62
370.445	393.62
370.672	370.62
370.898	396.62
371.124	410.62
371.35	385.62
371.576	391.62
371.802	410.62
372.028	423.62
372.254	413.62
372.48	407.62
372.706	388.62
372.932	391.62
373.158	421.62
373.384	403.62
373.61	425.62
373.835	407.62
374.061	411.62
374.287	399.62
374.513	412.62
374.739	418.62
374.965	422.62
375.191	425.62
375.416	423.62
375.642	430.62
375.868	423.62
376.094	411.62
376.319	399.62
376.545	438.62
376.771	419.62
376.997	399.62
377.222	407.62
377.448	409.62
377.674	404.62
377.899	388.62
378.125	390.62
378.35	391.62
378.576	412.62
378.802	407.62
379.027	397.62
379.253	395.62
379.478	397.62
379.704	426.62
379.929	417.62
380.155	404.62
380.38	420.62
380.606	422.62
380.831	404.62
381.057	423.62
381.282	398.62
381.507	417.62
381.733	429.62
381.958	430.62
382.184	420.62
382.409	429.62
382.634	429.62
382.86	447.62
383.085	410.62
383.31	408.62
383.535	419.62
383.761	423.62
383.986	445.62
384.211	444.62
384.436	436.62
384.662	443.62
384.887	435.62
385.112	420.62
385.337	454.62
385.562	426.62
385.787	437.62
386.013	441.62
386.238	449.62
386.463	462.62
386.688	461.62
386.913	449.62
387.138	447.62
387.363	467.62
387.588	465.62
387.813	471.62
388.038	455.62
388.263	450.62
388.488	464.62
388.713	455.62
388.938	451.62
389.163	492.62
389.387	467.62
389.612	453.62
389.837	468.62
390.062	470.62
390.287	479.62
390.512	457.62
390.736	453.62
390.961	465.62
391.186	462.62
391.411	456.62
391.636	490.62
391.86	473.62
392.085	460.62
392.31	469.62
392.534	485.62
392.759	478.62
392.984	499.62
393.208	515.62
393.433	526.62
393.658	502.62
393.882	486.62
394.107	488.62
394.331	482.62
394.556	495.62
394.78	493.62
395.005	485.62
395.229	482.62
395.454	474.62
395.678	484.62
395.903	477.62
396.127	501.62
396.352	503.62
396.576	514.62
396.801	501.62
397.025	523.62
397.249	516.62
397.474	493.62
397.698	507.62
397.922	515.62
398.147	530.62
398.371	515.62
398.595	526.62
398.82	487.62
399.044	530.62
399.268	526.62
399.492	563.62
399.717	550.62
399.941	587.62
400.165	579.62
400.389	575.62
400.613	554.62
400.837	540.62
401.062	553.62
401.286	523.62
401.51	526.62
401.734	521.62
401.958	545.62
402.182	550.62
402.406	525.62
402.63	517.62
402.854	548.62
403.078	546.62
403.302	541.62
403.526	539.62
403.75	542.62
403.974	526.62
404.198	536.62
404.422	535.62
404.645	528.62
404.869	521.62
405.093	521.62
405.317	545.62
405.541	533.62
405.765	561.62
405.988	541.62
406.212	549.62
406.436	585.62
406.66	595.62
406.883	575.62
407.107	569.62
407.331	587.62
407.555	601.62
407.778	554.62
408.002	567.62
408.226	605.62
408.449	610.62
408.673	570.62
408.896	564.62
409.12	568.62
409.344	567.62
409.567	549.62
409.791	547.62
410.014	566.62
410.238	552.62
410.461	567.62
410.685	569.62
410.908	564.62
411.132	569.62
411.355	549.62
411.578	562.62
411.802	553.62
412.025	526.62
412.249	549.62
412.472	546.62
412.695	548.62
412.919	538.62
413.142	546.62
413.365	541.62
413.589	553.62
413.812	546.62
414.035	540.62
414.258	531.62
414.482	520.62
414.705	540.62
414.928	535.62
415.151	517.62
415.374	542.62
415.597	522.62
415.821	533.62
416.044	508.62
416.267	531.62
416.49	523.62
416.713	527.62
416.936	528.62
417.159	523.62
417.382	486.62
417.605	504.62
417.828	537.62
418.051	516.62
418.274	522.62
418.497	502.62
418.72	519.62
418.943	522.62
419.166	533.62
419.389	553.62
419.611	558.62
419.834	559.62
420.057	533.62
420.28	517.62
420.503	526.62
420.726	506.62
420.948	514.62
421.171	510.62
421.394	494.62
421.617	512.62
421.839	503.62
422.062	501.62
422.285	511.62
422.507	493.62
422.73	510.62
422.953	513.62
423.175	525.62
423.398	534.62
423.621	493.62
423.843	519.62
424.066	525.62
424.288	535.62
424.511	532.62
424.733	516.62
424.956	521.62
425.178	515.62
425.401	535.62
425.623	546.62
425.846	507.62
426.068	499.62
426.291	516.62
426.513	495.62
426.735	504.62
426.958	493.62
427.18	498.62
427.402	499.62
427.625	509.62
427.847	489.62
428.069	483.62
428.292	514.62
428.514	493.62
428.736	494.62
428.958	493.62
429.181	492.62
429.403	482.62
429.625	491.62
429.847	471.62
430.069	530.62
430.292	509.62
430.514	505.62
430.736	529.62
430.958	521.62
431.18	493.62
431.402	487.62
431.624	487.62
431.846	497.62
432.068	490.62
432.29	507.62
432.512	521.62
432.734	503.62
432.956	516.62
433.178	510.62
433.4	505.62
433.622	524.62
433.844	489.62
434.066	519.62
434.287	499.62
434.509	521.62
434.731	515.62
434.953	517.62
435.175	522.62
435.397	516.62
435.618	482.62
435.84	515.62
436.062	487.62
436.284	486.62
436.505	497.62
436.727	485.62
436.949	499.62
437.17	497.62
437.392	488.62
437.614	499.62
437.835	475.62
438.057	482.62
438.278	476.62
438.5	490.62
438.721	502.62
438.943	497.62
439.165	500.62
439.386	495.62
439.608	508.62
439.829	491.62
440.05	500.62
440.272	505.62
440.493	516.62
440.715	473.62
440.936	493.62
441.158	516.62
441.379	525.62
441.6	530.62
441.822	504.62
442.043	531.62
442.264	504.62
442.486	497.62
442.707	503.62
442.928	518.62
443.149	500.62
443.371	539.62
443.592	499.62
443.813	514.62
444.034	504.62
444.255	511.62
444.476	509.62
444.698	520.62
444.919	527.62
445.14	583.62
445.361	564.62
445.582	502.62
445.803	504.62
446.024	504.62
446.245	485.62
446.466	493.62
446.687	510.62
446.908	521.62
447.129	503.62
447.35	483.62
447.571	508.62
447.792	483.62
448.013	472.62
448.234	471.62
448.455	476.62
448.675	463.62
448.896	457.62
449.117	467.62
449.338	466.62
449.559	477.62
449.779	464.62
450	467.62
450.221	479.62
450.442	471.62
450.662	469.62
450.883	455.62
451.104	449.62
451.324	481.62
451.545	476.62
451.766	460.62
451.986	457.62
452.207	467.62
452.428	474.62
452.648	464.62
452.869	458.62
453.089	468.62
453.31	478.62
453.53	466.62
453.751	448.62
453.971	450.62
454.192	474.62
454.412	451.62
454.633	477.62
454.853	454.62
455.073	454.62
455.294	466.62
455.514	467.62
455.734	446.62
455.955	445.62
456.175	474.62
456.395	486.62
456.616	460.62
456.836	468.62
457.056	463.62
457.276	460.62
457.497	465.62
457.717	445.62
457.937	474.62
458.157	464.62
458.377	450.62
458.598	474.62
458.818	482.62
459.038	469.62
459.258	481.62
459.478	503.62
459.698	509.62
459.918	519.62
460.138	503.62
460.358	494.62
460.578	529.62
460.798	511.62
461.018	521.62
461.238	532.62
461.458	547.62
461.678	523.62
461.898	551.62
462.118	534.62
462.338	555.62
462.558	551.62
462.777	547.62
462.997	583.62
463.217	574.62
463.437	587.62
463.657	580.62
463.876	563.62
464.096	566.62
464.316	561.62
464.536	562.62
464.755	573.62
464.975	548.62
465.195	546.62
465.414	545.62
465.634	516.62
465.854	511.62
466.073	523.62
466.293	533.62
466.512	488.62
466.732	509.62
466.951	508.62
467.171	511.62
467.391	519.62
467.61	506.62
467.829	490.62
468.049	495.62
468.268	498.62
468.488	494.62
468.707	498.62
468.927	523.62
469.146	511.62
469.365	494.62
469.585	511.62
469.804	503.62
470.023	486.62
470.243	517.62
470.462	520.62
470.681	498.62
470.901	509.62
471.12	515.62
471.339	519.62
471.558	532.62
471.777	506.62
471.997	522.62
472.216	518.62
472.435	509.62
472.654	510.62
472.873	535.62
473.092	521.62
473.311	528.62
473.53	531.62
473.749	515.62
473.968	513.62
474.187	541.62
474.406	528.62
474.625	521.62
474.844	537.62
475.063	541.62
475.282	527.62
475.501	531.62
475.72	531.62
475.939	562.62
476.158	535.62
476.377	538.62
476.596	555.62
476.814	558.62
477.033	566.62
477.252	553.62
477.471	563.62
477.69	555.62
477.908	583.62
478.127	577.62
478.346	579.62
478.564	602.62
478.783	576.62
479.002	606.62
479.22	608.62
479.439	607.62
479.658	603.62
479.876	612.62
480.095	594.62
480.313	627.62
480.532	601.62
480.751	607.62
480.969	585.62
481.188	609.62
481.406	644.62
481.624	614.62
481.843	615.62
482.061	608.62
482.28	608.62
482.498	636.62
482.717	618.62
482.935	629.62
483.153	625.62
483.372	607.62
483.59	625.62
483.808	625.62
484.027	609.62
484.245	622.62
484.463	633.62
484.681	607.62
484.9	596.62
485.118	645.62
485.336	614.62
485.554	621.62
485.772	633.62
485.99	650.62
486.209	654.62
486.427	645.62
486.645	630.62
486.863	619.62
487.081	649.62
487.299	639.62
487.517	625.62
487.735	639.62
487.953	639.62
488.171	630.62
488.389	653.62
488.607	643.62
488.825	633.62
489.043	633.62
489.261	643.62
489.479	641.62
489.696	651.62
489.914	620.62
490.132	647.62
490.35	643.62
490.568	651.62
490.786	648.62
491.003	642.62
491.221	675.62
491.439	671.62
491.657	638.62
491.874	660.62
492.092	664.62
492.31	653.62
492.527	671.62
492.745	641.62
492.963	673.62
493.18	656.62
493.398	665.62
493.615	696.62
493.833	658.62
494.05	661.62
494.268	655.62
494.485	668.62
494.703	676.62
494.92	682.62
495.138	674.62
495.355	692.62
495.573	687.62
495.79	698.62
496.008	686.62
496.225	700.62
496.442	685.62
496.66	705.62
496.877	693.62
497.094	732.62
497.312	739.62
497.529	736.62
497.746	747.62
497.963	762.62
498.181	772.62
498.398	797.62
498.615	802.62
498.832	817.62
499.049	842.62
499.267	834.62
499.484	834.62
499.701	879.62
499.918	895.62
500.135	931.62
500.352	973.62
500.569	933.62
500.786	929.62
501.003	945.62
501.22	918.62
501.437	874.62
501.654	877.62
501.871	870.62
502.088	830.62
