Data from Fe(NO3)3@0.1M.TitratingCurve.Agarose3%dH2O.NegLispCup.LampEnergy10.LIBS07252019_HRD10591_16-37-27-331.txt Node
Date: Thu Jul 25 16:37:27 EDT 2019
User: cochatt
Spectrometer: HR+D1059
Trigger mode: 1
Integration Time (sec): 1.000000E-1
Scans to average: 1
Electric dark correction enabled: true
Nonlinearity correction enabled: false
Boxcar width: 0
XAxis mode: Wavelengths
Number of Pixels in Spectrum: 2048
>>>>>Begin Spectral Data<<<<<
223.165	-8.94
223.4	-8.94
223.635	-8.94
223.869	-27.94
224.104	-22.94
224.338	-17.94
224.573	-20.94
224.808	-1.94
225.042	-11.94
225.277	-11.94
225.511	-13.94
225.746	18.06
225.98	16.06
226.215	23.06
226.449	14.06
226.683	21.06
226.918	22.06
227.152	24.06
227.387	27.06
227.621	39.06
227.856	37.06
228.09	38.06
228.324	59.06
228.559	46.06
228.793	65.06
229.027	86.06
229.262	92.06
229.496	75.06
229.73	86.06
229.964	97.06
230.199	103.06
230.433	105.06
230.667	103.06
230.901	113.06
231.136	105.06
231.37	102.06
231.604	116.06
231.838	116.06
232.072	106.06
232.306	118.06
232.541	126.06
232.775	97.06
233.009	123.06
233.243	114.06
233.477	115.06
233.711	123.06
233.945	120.06
234.179	119.06
234.413	127.06
234.647	115.06
234.881	125.06
235.115	123.06
235.349	129.06
235.583	124.06
235.817	122.06
236.051	100.06
236.285	128.06
236.519	121.06
236.753	134.06
236.987	134.06
237.221	128.06
237.455	136.06
237.689	129.06
237.922	145.06
238.156	117.06
238.39	126.06
238.624	139.06
238.858	130.06
239.091	132.06
239.325	123.06
239.559	130.06
239.793	129.06
240.027	133.06
240.26	127.06
240.494	125.06
240.728	127.06
240.961	144.06
241.195	130.06
241.429	133.06
241.662	129.06
241.896	123.06
242.13	139.06
242.363	144.06
242.597	148.06
242.83	142.06
243.064	145.06
243.298	130.06
243.531	146.06
243.765	132.06
243.998	135.06
244.232	154.06
244.465	149.06
244.699	169.06
244.932	150.06
245.166	137.06
245.399	163.06
245.633	156.06
245.866	142.06
246.099	159.06
246.333	141.06
246.566	167.06
246.8	163.06
247.033	159.06
247.266	159.06
247.5	174.06
247.733	156.06
247.966	164.06
248.2	151.06
248.433	155.06
248.666	163.06
248.899	162.06
249.133	172.06
249.366	180.06
249.599	169.06
249.832	169.06
250.066	170.06
250.299	183.06
250.532	185.06
250.765	161.06
250.998	168.06
251.231	171.06
251.465	167.06
251.698	171.06
251.931	183.06
252.164	163.06
252.397	169.06
252.63	207.06
252.863	191.06
253.096	187.06
253.329	184.06
253.562	176.06
253.795	177.06
254.028	168.06
254.261	184.06
254.494	188.06
254.727	208.06
254.96	190.06
255.193	168.06
255.426	184.06
255.659	199.06
255.892	189.06
256.124	185.06
256.357	203.06
256.59	218.06
256.823	188.06
257.056	177.06
257.289	182.06
257.521	201.06
257.754	199.06
257.987	182.06
258.22	203.06
258.452	198.06
258.685	178.06
258.918	211.06
259.151	210.06
259.383	191.06
259.616	203.06
259.849	217.06
260.081	216.06
260.314	227.06
260.547	226.06
260.779	203.06
261.012	209.06
261.244	222.06
261.477	228.06
261.71	214.06
261.942	230.06
262.175	206.06
262.407	218.06
262.64	224.06
262.872	216.06
263.105	216.06
263.337	246.06
263.57	219.06
263.802	224.06
264.035	230.06
264.267	231.06
264.499	228.06
264.732	230.06
264.964	255.06
265.197	232.06
265.429	223.06
265.661	228.06
265.894	225.06
266.126	222.06
266.358	242.06
266.591	222.06
266.823	241.06
267.055	225.06
267.287	224.06
267.52	235.06
267.752	223.06
267.984	232.06
268.216	237.06
268.448	233.06
268.681	240.06
268.913	236.06
269.145	252.06
269.377	254.06
269.609	240.06
269.841	245.06
270.073	242.06
270.306	258.06
270.538	256.06
270.77	233.06
271.002	241.06
271.234	243.06
271.466	256.06
271.698	244.06
271.93	256.06
272.162	256.06
272.394	246.06
272.626	256.06
272.858	255.06
273.09	243.06
273.322	270.06
273.553	268.06
273.785	272.06
274.017	281.06
274.249	280.06
274.481	279.06
274.713	265.06
274.945	274.06
275.176	278.06
275.408	262.06
275.64	265.06
275.872	287.06
276.104	273.06
276.335	274.06
276.567	286.06
276.799	280.06
277.031	279.06
277.262	273.06
277.494	282.06
277.726	271.06
277.957	266.06
278.189	278.06
278.421	280.06
278.652	283.06
278.884	265.06
279.115	276.06
279.347	270.06
279.579	290.06
279.81	290.06
280.042	275.06
280.273	293.06
280.505	298.06
280.736	299.06
280.968	303.06
281.199	300.06
281.431	302.06
281.662	290.06
281.894	272.06
282.125	305.06
282.356	304.06
282.588	296.06
282.819	303.06
283.051	307.06
283.282	302.06
283.513	302.06
283.745	307.06
283.976	317.06
284.207	306.06
284.439	311.06
284.67	314.06
284.901	297.06
285.132	306.06
285.364	312.06
285.595	326.06
285.826	301.06
286.057	321.06
286.288	309.06
286.52	305.06
286.751	324.06
286.982	333.06
287.213	324.06
287.444	331.06
287.675	318.06
287.906	316.06
288.138	331.06
288.369	322.06
288.6	322.06
288.831	336.06
289.062	326.06
289.293	340.06
289.524	335.06
289.755	325.06
289.986	339.06
290.217	327.06
290.448	321.06
290.679	330.06
290.91	343.06
291.141	329.06
291.371	332.06
291.602	331.06
291.833	328.06
292.064	320.06
292.295	355.06
292.526	321.06
292.757	345.06
292.987	357.06
293.218	340.06
293.449	332.06
293.68	332.06
293.91	348.06
294.141	337.06
294.372	327.06
294.603	321.06
294.833	345.06
295.064	345.06
295.295	351.06
295.525	341.06
295.756	351.06
295.987	346.06
296.217	338.06
296.448	352.06
296.679	356.06
296.909	350.06
297.14	358.06
297.37	352.06
297.601	358.06
297.831	372.06
298.062	363.06
298.292	351.06
298.523	368.06
298.753	371.06
298.984	375.06
299.214	340.06
299.445	362.06
299.675	359.06
299.905	361.06
300.136	362.06
300.366	355.06
300.597	356.06
300.827	374.06
301.057	386.06
301.288	363.06
301.518	363.06
301.748	363.06
301.979	395.06
302.209	383.06
302.439	379.06
302.669	383.06
302.9	372.06
303.13	386.06
303.36	361.06
303.59	369.06
303.82	360.06
304.051	365.06
304.281	369.06
304.511	370.06
304.741	361.06
304.971	374.06
305.201	379.06
305.431	378.06
305.661	402.06
305.891	380.06
306.121	372.06
306.352	372.06
306.582	377.06
306.812	363.06
307.042	366.06
307.272	390.06
307.502	385.06
307.731	373.06
307.961	362.06
308.191	380.06
308.421	378.06
308.651	355.06
308.881	376.06
309.111	341.06
309.341	356.06
309.571	376.06
309.8	385.06
310.03	380.06
310.26	374.06
310.49	365.06
310.72	384.06
310.949	375.06
311.179	376.06
311.409	386.06
311.639	378.06
311.868	396.06
312.098	401.06
312.328	406.06
312.557	387.06
312.787	404.06
313.017	396.06
313.246	397.06
313.476	393.06
313.706	411.06
313.935	413.06
314.165	412.06
314.394	382.06
314.624	397.06
314.853	388.06
315.083	404.06
315.312	420.06
315.542	423.06
315.771	405.06
316.001	397.06
316.23	416.06
316.46	412.06
316.689	402.06
316.919	392.06
317.148	420.06
317.377	387.06
317.607	394.06
317.836	397.06
318.065	396.06
318.295	397.06
318.524	394.06
318.753	404.06
318.983	404.06
319.212	406.06
319.441	388.06
319.67	395.06
319.9	409.06
320.129	401.06
320.358	407.06
320.587	417.06
320.816	422.06
321.046	407.06
321.275	414.06
321.504	408.06
321.733	415.06
321.962	420.06
322.191	427.06
322.42	402.06
322.649	406.06
322.878	425.06
323.108	405.06
323.337	422.06
323.566	407.06
323.795	408.06
324.024	421.06
324.253	423.06
324.482	404.06
324.71	417.06
324.939	427.06
325.168	431.06
325.397	438.06
325.626	430.06
325.855	430.06
326.084	445.06
326.313	439.06
326.542	461.06
326.77	454.06
326.999	421.06
327.228	428.06
327.457	416.06
327.686	431.06
327.914	435.06
328.143	431.06
328.372	427.06
328.6	442.06
328.829	407.06
329.058	438.06
329.287	454.06
329.515	436.06
329.744	434.06
329.972	443.06
330.201	441.06
330.43	441.06
330.658	455.06
330.887	472.06
331.115	461.06
331.344	439.06
331.572	466.06
331.801	470.06
332.03	464.06
332.258	488.06
332.486	475.06
332.715	495.06
332.943	479.06
333.172	536.06
333.4	524.06
333.629	559.06
333.857	551.06
334.085	547.06
334.314	568.06
334.542	519.06
334.771	530.06
334.999	521.06
335.227	518.06
335.455	519.06
335.684	534.06
335.912	520.06
336.14	514.06
336.369	508.06
336.597	510.06
336.825	511.06
337.053	510.06
337.281	509.06
337.51	502.06
337.738	496.06
337.966	483.06
338.194	487.06
338.422	486.06
338.65	481.06
338.878	475.06
339.106	465.06
339.334	477.06
339.562	472.06
339.79	485.06
340.018	465.06
340.246	480.06
340.474	480.06
340.702	469.06
340.93	442.06
341.158	470.06
341.386	464.06
341.614	462.06
341.842	464.06
342.07	452.06
342.298	455.06
342.526	466.06
342.754	470.06
342.981	474.06
343.209	470.06
343.437	491.06
343.665	505.06
343.893	524.06
344.12	543.06
344.348	508.06
344.576	511.06
344.804	459.06
345.031	459.06
345.259	474.06
345.487	472.06
345.714	456.06
345.942	460.06
346.17	461.06
346.397	448.06
346.625	449.06
346.853	431.06
347.08	453.06
347.308	454.06
347.535	451.06
347.763	437.06
347.99	469.06
348.218	448.06
348.445	440.06
348.673	446.06
348.9	440.06
349.128	450.06
349.355	437.06
349.583	473.06
349.81	440.06
350.037	434.06
350.265	443.06
350.492	437.06
350.72	443.06
350.947	426.06
351.174	424.06
351.402	433.06
351.629	437.06
351.856	435.06
352.083	440.06
352.311	428.06
352.538	430.06
352.765	456.06
352.992	434.06
353.22	427.06
353.447	424.06
353.674	437.06
353.901	453.06
354.128	453.06
354.355	427.06
354.583	439.06
354.81	431.06
355.037	444.06
355.264	434.06
355.491	439.06
355.718	442.06
355.945	436.06
356.172	415.06
356.399	436.06
356.626	440.06
356.853	436.06
357.08	452.06
357.307	454.06
357.534	434.06
357.761	446.06
357.988	485.06
358.215	438.06
358.441	474.06
358.668	441.06
358.895	439.06
359.122	431.06
359.349	454.06
359.576	447.06
359.802	452.06
360.029	458.06
360.256	436.06
360.483	448.06
360.709	452.06
360.936	449.06
361.163	451.06
361.39	447.06
361.616	466.06
361.843	452.06
362.07	444.06
362.296	444.06
362.523	452.06
362.749	433.06
362.976	442.06
363.203	450.06
363.429	455.06
363.656	462.06
363.882	448.06
364.109	425.06
364.335	428.06
364.562	446.06
364.788	442.06
365.015	456.06
365.241	462.06
365.468	450.06
365.694	434.06
365.92	468.06
366.147	428.06
366.373	450.06
366.599	472.06
366.826	452.06
367.052	435.06
367.278	468.06
367.505	472.06
367.731	451.06
367.957	456.06
368.184	469.06
368.41	464.06
368.636	464.06
368.862	484.06
369.089	475.06
369.315	489.06
369.541	472.06
369.767	463.06
369.993	467.06
370.219	475.06
370.445	481.06
370.672	475.06
370.898	474.06
371.124	461.06
371.35	478.06
371.576	495.06
371.802	492.06
372.028	493.06
372.254	494.06
372.48	478.06
372.706	498.06
372.932	498.06
373.158	531.06
373.384	504.06
373.61	499.06
373.835	522.06
374.061	487.06
374.287	514.06
374.513	495.06
374.739	538.06
374.965	530.06
375.191	524.06
375.416	520.06
375.642	515.06
375.868	518.06
376.094	495.06
376.319	512.06
376.545	510.06
376.771	512.06
376.997	489.06
377.222	483.06
377.448	492.06
377.674	494.06
377.899	478.06
378.125	483.06
378.35	506.06
378.576	475.06
378.802	489.06
379.027	484.06
379.253	483.06
379.478	486.06
379.704	489.06
379.929	505.06
380.155	496.06
380.38	501.06
380.606	514.06
380.831	476.06
381.057	500.06
381.282	490.06
381.507	514.06
381.733	499.06
381.958	520.06
382.184	526.06
382.409	534.06
382.634	535.06
382.86	513.06
383.085	518.06
383.31	514.06
383.535	546.06
383.761	538.06
383.986	527.06
384.211	570.06
384.436	556.06
384.662	563.06
384.887	581.06
385.112	569.06
385.337	589.06
385.562	571.06
385.787	586.06
386.013	588.06
386.238	596.06
386.463	586.06
386.688	580.06
386.913	595.06
387.138	598.06
387.363	574.06
387.588	586.06
387.813	596.06
388.038	585.06
388.263	587.06
388.488	566.06
388.713	590.06
388.938	583.06
389.163	550.06
389.387	569.06
389.612	590.06
389.837	582.06
390.062	583.06
390.287	559.06
390.512	594.06
390.736	571.06
390.961	596.06
391.186	615.06
391.411	620.06
391.636	630.06
391.86	650.06
392.085	640.06
392.31	662.06
392.534	615.06
392.759	629.06
392.984	634.06
393.208	614.06
393.433	613.06
393.658	611.06
393.882	645.06
394.107	610.06
394.331	600.06
394.556	628.06
394.78	624.06
395.005	655.06
395.229	630.06
395.454	637.06
395.678	659.06
395.903	649.06
396.127	622.06
396.352	629.06
396.576	633.06
396.801	620.06
397.025	644.06
397.249	653.06
397.474	658.06
397.698	645.06
397.922	654.06
398.147	656.06
398.371	691.06
398.595	690.06
398.82	707.06
399.044	764.06
399.268	814.06
399.492	898.06
399.717	951.06
399.941	955.06
400.165	895.06
400.389	815.06
400.613	815.06
400.837	771.06
401.062	758.06
401.286	731.06
401.51	723.06
401.734	729.06
401.958	734.06
402.182	723.06
402.406	700.06
402.63	735.06
402.854	734.06
403.078	738.06
403.302	753.06
403.526	774.06
403.75	809.06
403.974	772.06
404.198	777.06
404.422	794.06
404.645	774.06
404.869	794.06
405.093	760.06
405.317	763.06
405.541	734.06
405.765	768.06
405.988	790.06
406.212	787.06
406.436	762.06
406.66	786.06
406.883	797.06
407.107	852.06
407.331	871.06
407.555	882.06
407.778	870.06
408.002	832.06
408.226	844.06
408.449	834.06
408.673	813.06
408.896	790.06
409.12	804.06
409.344	799.06
409.567	750.06
409.791	775.06
410.014	789.06
410.238	770.06
410.461	771.06
410.685	780.06
410.908	752.06
411.132	765.06
411.355	747.06
411.578	738.06
411.802	745.06
412.025	748.06
412.249	747.06
412.472	763.06
412.695	730.06
412.919	728.06
413.142	724.06
413.365	705.06
413.589	720.06
413.812	735.06
414.035	731.06
414.258	719.06
414.482	720.06
414.705	743.06
414.928	735.06
415.151	708.06
415.374	713.06
415.597	716.06
415.821	704.06
416.044	704.06
416.267	701.06
416.49	704.06
416.713	668.06
416.936	716.06
417.159	702.06
417.382	684.06
417.605	673.06
417.828	692.06
418.051	703.06
418.274	707.06
418.497	704.06
418.72	712.06
418.943	700.06
419.166	740.06
419.389	773.06
419.611	733.06
419.834	729.06
420.057	733.06
420.28	700.06
420.503	679.06
420.726	686.06
420.948	698.06
421.171	698.06
421.394	703.06
421.617	708.06
421.839	678.06
422.062	706.06
422.285	687.06
422.507	752.06
422.73	699.06
422.953	706.06
423.175	714.06
423.398	712.06
423.621	705.06
423.843	725.06
424.066	720.06
424.288	746.06
424.511	709.06
424.733	704.06
424.956	703.06
425.178	679.06
425.401	697.06
425.623	712.06
425.846	694.06
426.068	670.06
426.291	668.06
426.513	683.06
426.735	672.06
426.958	679.06
427.18	648.06
427.402	653.06
427.625	653.06
427.847	640.06
428.069	636.06
428.292	650.06
428.514	636.06
428.736	640.06
428.958	656.06
429.181	613.06
429.403	642.06
429.625	613.06
429.847	615.06
430.069	610.06
430.292	650.06
430.514	636.06
430.736	632.06
430.958	635.06
431.18	641.06
431.402	638.06
431.624	636.06
431.846	637.06
432.068	656.06
432.29	638.06
432.512	618.06
432.734	650.06
432.956	662.06
433.178	650.06
433.4	631.06
433.622	635.06
433.844	636.06
434.066	654.06
434.287	650.06
434.509	665.06
434.731	679.06
434.953	662.06
435.175	688.06
435.397	667.06
435.618	672.06
435.84	691.06
436.062	643.06
436.284	647.06
436.505	635.06
436.727	642.06
436.949	635.06
437.17	632.06
437.392	599.06
437.614	631.06
437.835	619.06
438.057	646.06
438.278	633.06
438.5	622.06
438.721	622.06
438.943	630.06
439.165	630.06
439.386	630.06
439.608	617.06
439.829	625.06
440.05	626.06
440.272	615.06
440.493	674.06
440.715	651.06
440.936	650.06
441.158	674.06
441.379	658.06
441.6	668.06
441.822	703.06
442.043	688.06
442.264	696.06
442.486	689.06
442.707	680.06
442.928	692.06
443.149	699.06
443.371	679.06
443.592	663.06
443.813	680.06
444.034	688.06
444.255	726.06
444.476	730.06
444.698	788.06
444.919	800.06
445.14	887.06
445.361	772.06
445.582	714.06
445.803	669.06
446.024	684.06
446.245	654.06
446.466	646.06
446.687	647.06
446.908	645.06
447.129	623.06
447.35	610.06
447.571	603.06
447.792	587.06
448.013	610.06
448.234	610.06
448.455	583.06
448.675	586.06
448.896	569.06
449.117	596.06
449.338	578.06
449.559	575.06
449.779	585.06
450	570.06
450.221	551.06
450.442	574.06
450.662	579.06
450.883	573.06
451.104	579.06
451.324	568.06
451.545	578.06
451.766	583.06
451.986	583.06
452.207	583.06
452.428	561.06
452.648	570.06
452.869	553.06
453.089	570.06
453.31	586.06
453.53	561.06
453.751	572.06
453.971	558.06
454.192	581.06
454.412	548.06
454.633	565.06
454.853	574.06
455.073	563.06
455.294	573.06
455.514	534.06
455.734	558.06
455.955	568.06
456.175	547.06
456.395	545.06
456.616	561.06
456.836	574.06
457.056	548.06
457.276	538.06
457.497	575.06
457.717	546.06
457.937	556.06
458.157	578.06
458.377	578.06
458.598	597.06
458.818	589.06
459.038	614.06
459.258	625.06
459.478	642.06
459.698	644.06
459.918	656.06
460.138	667.06
460.358	705.06
460.578	677.06
460.798	721.06
461.018	708.06
461.238	722.06
461.458	726.06
461.678	719.06
461.898	757.06
462.118	740.06
462.338	772.06
462.558	787.06
462.777	793.06
462.997	831.06
463.217	892.06
463.437	878.06
463.657	826.06
463.876	805.06
464.096	803.06
464.316	805.06
464.536	781.06
464.755	788.06
464.975	722.06
465.195	726.06
465.414	698.06
465.634	670.06
465.854	656.06
466.073	651.06
466.293	630.06
466.512	627.06
466.732	618.06
466.951	636.06
467.171	607.06
467.391	628.06
467.61	624.06
467.829	600.06
468.049	621.06
468.268	608.06
468.488	587.06
468.707	579.06
468.927	611.06
469.146	604.06
469.365	612.06
469.585	625.06
469.804	627.06
470.023	625.06
470.243	627.06
470.462	630.06
470.681	616.06
470.901	604.06
471.12	622.06
471.339	616.06
471.558	606.06
471.777	583.06
471.997	583.06
472.216	617.06
472.435	591.06
472.654	578.06
472.873	603.06
473.092	573.06
473.311	586.06
473.53	587.06
473.749	567.06
473.968	598.06
474.187	588.06
474.406	579.06
474.625	578.06
474.844	598.06
475.063	594.06
475.282	610.06
475.501	596.06
475.72	608.06
475.939	642.06
476.158	609.06
476.377	615.06
476.596	635.06
476.814	633.06
477.033	636.06
477.252	634.06
477.471	645.06
477.69	663.06
477.908	660.06
478.127	702.06
478.346	697.06
478.564	668.06
478.783	693.06
479.002	708.06
479.22	727.06
479.439	722.06
479.658	700.06
479.876	721.06
480.095	730.06
480.313	731.06
480.532	768.06
480.751	750.06
480.969	735.06
481.188	718.06
481.406	696.06
481.624	686.06
481.843	676.06
482.061	658.06
482.28	658.06
482.498	699.06
482.717	690.06
482.935	675.06
483.153	670.06
483.372	653.06
483.59	648.06
483.808	689.06
484.027	686.06
484.245	680.06
484.463	674.06
484.681	720.06
484.9	684.06
485.118	692.06
485.336	737.06
485.554	681.06
485.772	713.06
485.99	745.06
486.209	698.06
486.427	711.06
486.645	688.06
486.863	692.06
487.081	692.06
487.299	705.06
487.517	710.06
487.735	694.06
487.953	700.06
488.171	690.06
488.389	715.06
488.607	708.06
488.825	715.06
489.043	700.06
489.261	693.06
489.479	715.06
489.696	682.06
489.914	681.06
490.132	713.06
490.35	716.06
490.568	706.06
490.786	695.06
491.003	708.06
491.221	695.06
491.439	715.06
491.657	711.06
491.874	717.06
492.092	740.06
492.31	723.06
492.527	741.06
492.745	725.06
492.963	717.06
493.18	730.06
493.398	737.06
493.615	736.06
493.833	738.06
494.05	745.06
494.268	716.06
494.485	739.06
494.703	731.06
494.92	754.06
495.138	754.06
495.355	736.06
495.573	739.06
495.79	755.06
496.008	768.06
496.225	763.06
496.442	772.06
496.66	766.06
496.877	779.06
497.094	786.06
497.312	820.06
497.529	812.06
497.746	835.06
497.963	871.06
498.181	914.06
498.398	931.06
498.615	977.06
498.832	1002.06
499.049	1074.06
499.267	1140.06
499.484	1215.06
499.701	1278.06
499.918	1410.06
500.135	1536.06
500.352	1650.06
500.569	1743.06
500.786	1676.06
501.003	1647.06
501.22	1499.06
501.437	1374.06
