Data from Fe(NO3)3@0.05M.TitratingCurve.Agarose3%dH2O.NegLispCup.LampEnergy10.LIBS07252019_HRD10591_16-46-06-334.txt Node
Date: Thu Jul 25 16:46:06 EDT 2019
User: cochatt
Spectrometer: HR+D1059
Trigger mode: 1
Integration Time (sec): 1.000000E-1
Scans to average: 1
Electric dark correction enabled: true
Nonlinearity correction enabled: false
Boxcar width: 0
XAxis mode: Wavelengths
Number of Pixels in Spectrum: 2048
>>>>>Begin Spectral Data<<<<<
223.165	-25.81
223.4	-25.81
223.635	-25.81
223.869	-6.81
224.104	-27.81
224.338	-11.81
224.573	-26.81
224.808	9.19
225.042	-11.81
225.277	-0.81
225.511	11.19
225.746	-11.81
225.98	-11.81
226.215	15.19
226.449	27.19
226.683	13.19
226.918	21.19
227.152	38.19
227.387	29.19
227.621	28.19
227.856	49.19
228.09	38.19
228.324	56.19
228.559	48.19
228.793	76.19
229.027	151.19
229.262	142.19
229.496	147.19
229.73	148.19
229.964	154.19
230.199	168.19
230.433	168.19
230.667	165.19
230.901	175.19
231.136	172.19
231.37	180.19
231.604	192.19
231.838	166.19
232.072	185.19
232.306	189.19
232.541	177.19
232.775	191.19
233.009	192.19
233.243	189.19
233.477	207.19
233.711	210.19
233.945	216.19
234.179	221.19
234.413	210.19
234.647	222.19
234.881	241.19
235.115	233.19
235.349	221.19
235.583	227.19
235.817	222.19
236.051	219.19
236.285	229.19
236.519	247.19
236.753	234.19
236.987	233.19
237.221	248.19
237.455	248.19
237.689	249.19
237.922	248.19
238.156	274.19
238.39	280.19
238.624	317.19
238.858	304.19
239.091	266.19
239.325	265.19
239.559	269.19
239.793	306.19
240.027	327.19
240.26	316.19
240.494	298.19
240.728	284.19
240.961	323.19
241.195	302.19
241.429	304.19
241.662	305.19
241.896	288.19
242.13	300.19
242.363	285.19
242.597	286.19
242.83	274.19
243.064	307.19
243.298	308.19
243.531	299.19
243.765	330.19
243.998	327.19
244.232	333.19
244.465	317.19
244.699	306.19
244.932	337.19
245.166	326.19
245.399	317.19
245.633	324.19
245.866	308.19
246.099	313.19
246.333	349.19
246.566	364.19
246.8	376.19
247.033	379.19
247.266	365.19
247.5	336.19
247.733	360.19
247.966	395.19
248.2	358.19
248.433	372.19
248.666	371.19
248.899	364.19
249.133	402.19
249.366	419.19
249.599	453.19
249.832	431.19
250.066	395.19
250.299	404.19
250.532	406.19
250.765	388.19
250.998	394.19
251.231	381.19
251.465	411.19
251.698	416.19
251.931	411.19
252.164	414.19
252.397	397.19
252.63	453.19
252.863	445.19
253.096	472.19
253.329	438.19
253.562	446.19
253.795	473.19
254.028	515.19
254.261	516.19
254.494	469.19
254.727	456.19
254.96	434.19
255.193	455.19
255.426	469.19
255.659	436.19
255.892	425.19
256.124	439.19
256.357	456.19
256.59	468.19
256.823	481.19
257.056	459.19
257.289	458.19
257.521	457.19
257.754	478.19
257.987	462.19
258.22	472.19
258.452	485.19
258.685	509.19
258.918	544.19
259.151	516.19
259.383	496.19
259.616	514.19
259.849	570.19
260.081	650.19
260.314	704.19
260.547	588.19
260.779	520.19
261.012	555.19
261.244	566.19
261.477	600.19
261.71	587.19
261.942	518.19
262.175	527.19
262.407	534.19
262.64	535.19
262.872	590.19
263.105	577.19
263.337	626.19
263.57	584.19
263.802	514.19
264.035	510.19
264.267	521.19
264.499	502.19
264.732	492.19
264.964	519.19
265.197	529.19
265.429	521.19
265.661	524.19
265.894	540.19
266.126	539.19
266.358	541.19
266.591	538.19
266.823	577.19
267.055	560.19
267.287	563.19
267.52	552.19
267.752	542.19
267.984	552.19
268.216	552.19
268.448	566.19
268.681	548.19
268.913	569.19
269.145	574.19
269.377	577.19
269.609	562.19
269.841	584.19
270.073	567.19
270.306	589.19
270.538	592.19
270.77	573.19
271.002	608.19
271.234	585.19
271.466	609.19
271.698	612.19
271.93	627.19
272.162	615.19
272.394	614.19
272.626	601.19
272.858	637.19
273.09	648.19
273.322	653.19
273.553	642.19
273.785	680.19
274.017	731.19
274.249	795.19
274.481	776.19
274.713	804.19
274.945	906.19
275.176	901.19
275.408	840.19
275.64	796.19
275.872	822.19
276.104	736.19
276.335	666.19
276.567	666.19
276.799	666.19
277.031	701.19
277.262	671.19
277.494	675.19
277.726	674.19
277.957	675.19
278.189	694.19
278.421	672.19
278.652	684.19
278.884	688.19
279.115	696.19
279.347	681.19
279.579	695.19
279.81	694.19
280.042	675.19
280.273	688.19
280.505	690.19
280.736	699.19
280.968	673.19
281.199	677.19
281.431	684.19
281.662	698.19
281.894	669.19
282.125	717.19
282.356	713.19
282.588	679.19
282.819	708.19
283.051	719.19
283.282	712.19
283.513	743.19
283.745	736.19
283.976	720.19
284.207	711.19
284.439	724.19
284.67	717.19
284.901	749.19
285.132	736.19
285.364	726.19
285.595	752.19
285.826	743.19
286.057	742.19
286.288	733.19
286.52	727.19
286.751	763.19
286.982	746.19
287.213	761.19
287.444	756.19
287.675	780.19
287.906	757.19
288.138	765.19
288.369	747.19
288.6	744.19
288.831	758.19
289.062	770.19
289.293	769.19
289.524	758.19
289.755	742.19
289.986	776.19
290.217	757.19
290.448	742.19
290.679	772.19
290.91	771.19
291.141	776.19
291.371	779.19
291.602	768.19
291.833	781.19
292.064	776.19
292.295	776.19
292.526	768.19
292.757	778.19
292.987	788.19
293.218	762.19
293.449	789.19
293.68	797.19
293.91	804.19
294.141	792.19
294.372	774.19
294.603	782.19
294.833	802.19
295.064	817.19
295.295	790.19
295.525	793.19
295.756	813.19
295.987	789.19
296.217	801.19
296.448	797.19
296.679	818.19
296.909	804.19
297.14	834.19
297.37	832.19
297.601	844.19
297.831	814.19
298.062	817.19
298.292	800.19
298.523	845.19
298.753	862.19
298.984	848.19
299.214	812.19
299.445	824.19
299.675	830.19
299.905	843.19
300.136	821.19
300.366	880.19
300.597	858.19
300.827	832.19
301.057	872.19
301.288	851.19
301.518	851.19
301.748	864.19
301.979	897.19
302.209	904.19
302.439	912.19
302.669	886.19
302.9	870.19
303.13	882.19
303.36	868.19
303.59	864.19
303.82	853.19
304.051	884.19
304.281	892.19
304.511	885.19
304.741	893.19
304.971	902.19
305.201	890.19
305.431	880.19
305.661	896.19
305.891	887.19
306.121	882.19
306.352	894.19
306.582	879.19
306.812	897.19
307.042	895.19
307.272	857.19
307.502	880.19
307.731	884.19
307.961	885.19
308.191	916.19
308.421	901.19
308.651	916.19
308.881	896.19
309.111	901.19
309.341	895.19
309.571	888.19
309.8	885.19
310.03	891.19
310.26	894.19
310.49	920.19
310.72	903.19
310.949	931.19
311.179	906.19
311.409	948.19
311.639	908.19
311.868	905.19
312.098	907.19
312.328	929.19
312.557	947.19
312.787	916.19
313.017	915.19
313.246	928.19
313.476	919.19
313.706	949.19
313.935	955.19
314.165	941.19
314.394	961.19
314.624	980.19
314.853	950.19
315.083	984.19
315.312	978.19
315.542	989.19
315.771	992.19
316.001	982.19
316.23	979.19
316.46	969.19
316.689	1012.19
316.919	980.19
317.148	966.19
317.377	986.19
317.607	970.19
317.836	968.19
318.065	993.19
318.295	971.19
318.524	972.19
318.753	964.19
318.983	976.19
319.212	1005.19
319.441	996.19
319.67	990.19
319.9	974.19
320.129	973.19
320.358	1004.19
320.587	1005.19
320.816	981.19
321.046	980.19
321.275	1026.19
321.504	1013.19
321.733	981.19
321.962	1026.19
322.191	1020.19
322.42	1004.19
322.649	1029.19
322.878	1032.19
323.108	1053.19
323.337	1057.19
323.566	1014.19
323.795	1051.19
324.024	1034.19
324.253	1036.19
324.482	1035.19
324.71	1052.19
324.939	1030.19
325.168	1038.19
325.397	1046.19
325.626	1031.19
325.855	1062.19
326.084	1060.19
326.313	1088.19
326.542	1038.19
326.77	1051.19
326.999	1056.19
327.228	1058.19
327.457	1053.19
327.686	1045.19
327.914	1042.19
328.143	1088.19
328.372	1077.19
328.6	1034.19
328.829	1053.19
329.058	1060.19
329.287	1093.19
329.515	1091.19
329.744	1073.19
329.972	1093.19
330.201	1090.19
330.43	1084.19
330.658	1117.19
330.887	1106.19
331.115	1111.19
331.344	1104.19
331.572	1118.19
331.801	1107.19
332.03	1143.19
332.258	1152.19
332.486	1146.19
332.715	1132.19
332.943	1144.19
333.172	1153.19
333.4	1197.19
333.629	1204.19
333.857	1198.19
334.085	1212.19
334.314	1233.19
334.542	1228.19
334.771	1242.19
334.999	1219.19
335.227	1218.19
335.455	1237.19
335.684	1220.19
335.912	1229.19
336.14	1258.19
336.369	1255.19
336.597	1228.19
336.825	1268.19
337.053	1236.19
337.281	1205.19
337.51	1195.19
337.738	1194.19
337.966	1195.19
338.194	1180.19
338.422	1181.19
338.65	1159.19
338.878	1182.19
339.106	1144.19
339.334	1147.19
339.562	1161.19
339.79	1155.19
340.018	1141.19
340.246	1121.19
340.474	1136.19
340.702	1162.19
340.93	1171.19
341.158	1168.19
341.386	1154.19
341.614	1170.19
341.842	1132.19
342.07	1122.19
342.298	1140.19
342.526	1150.19
342.754	1142.19
342.981	1158.19
343.209	1158.19
343.437	1201.19
343.665	1205.19
343.893	1239.19
344.12	1261.19
344.348	1256.19
344.576	1224.19
344.804	1211.19
345.031	1189.19
345.259	1183.19
345.487	1180.19
345.714	1181.19
345.942	1156.19
346.17	1154.19
346.397	1134.19
346.625	1125.19
346.853	1144.19
347.08	1085.19
347.308	1092.19
347.535	1104.19
347.763	1141.19
347.99	1122.19
348.218	1108.19
348.445	1114.19
348.673	1085.19
348.9	1111.19
349.128	1106.19
349.355	1082.19
349.583	1095.19
349.81	1086.19
350.037	1095.19
350.265	1084.19
350.492	1088.19
350.72	1098.19
350.947	1072.19
351.174	1072.19
351.402	1073.19
351.629	1073.19
351.856	1079.19
352.083	1115.19
352.311	1106.19
352.538	1094.19
352.765	1072.19
352.992	1096.19
353.22	1099.19
353.447	1076.19
353.674	1084.19
353.901	1088.19
354.128	1100.19
354.355	1081.19
354.583	1080.19
354.81	1088.19
355.037	1086.19
355.264	1079.19
355.491	1089.19
355.718	1086.19
355.945	1090.19
356.172	1117.19
356.399	1112.19
356.626	1113.19
356.853	1109.19
357.08	1118.19
357.307	1132.19
357.534	1093.19
357.761	1147.19
357.988	1117.19
358.215	1146.19
358.441	1191.19
358.668	1115.19
358.895	1113.19
359.122	1104.19
359.349	1116.19
359.576	1105.19
359.802	1090.19
360.029	1091.19
360.256	1095.19
360.483	1101.19
360.709	1098.19
360.936	1119.19
361.163	1116.19
361.39	1115.19
361.616	1104.19
361.843	1130.19
362.07	1104.19
362.296	1110.19
362.523	1145.19
362.749	1116.19
362.976	1118.19
363.203	1113.19
363.429	1101.19
363.656	1109.19
363.882	1115.19
364.109	1123.19
364.335	1120.19
364.562	1108.19
364.788	1134.19
365.015	1148.19
365.241	1144.19
365.468	1127.19
365.694	1144.19
365.92	1128.19
366.147	1129.19
366.373	1141.19
366.599	1156.19
366.826	1126.19
367.052	1127.19
367.278	1173.19
367.505	1143.19
367.731	1149.19
367.957	1126.19
368.184	1146.19
368.41	1158.19
368.636	1152.19
368.862	1169.19
369.089	1162.19
369.315	1131.19
369.541	1168.19
369.767	1192.19
369.993	1173.19
370.219	1188.19
370.445	1205.19
370.672	1182.19
370.898	1197.19
371.124	1194.19
371.35	1205.19
371.576	1202.19
371.802	1208.19
372.028	1237.19
372.254	1248.19
372.48	1222.19
372.706	1228.19
372.932	1221.19
373.158	1253.19
373.384	1249.19
373.61	1316.19
373.835	1294.19
374.061	1268.19
374.287	1283.19
374.513	1253.19
374.739	1324.19
374.965	1330.19
375.191	1324.19
375.416	1267.19
375.642	1249.19
375.868	1232.19
376.094	1242.19
376.319	1220.19
376.545	1291.19
376.771	1244.19
376.997	1263.19
377.222	1225.19
377.448	1223.19
377.674	1204.19
377.899	1195.19
378.125	1193.19
378.35	1223.19
378.576	1205.19
378.802	1202.19
379.027	1228.19
379.253	1216.19
379.478	1203.19
379.704	1221.19
379.929	1228.19
380.155	1246.19
380.38	1215.19
380.606	1260.19
380.831	1233.19
381.057	1235.19
381.282	1244.19
381.507	1211.19
381.733	1293.19
381.958	1287.19
382.184	1304.19
382.409	1344.19
382.634	1308.19
382.86	1355.19
383.085	1291.19
383.31	1308.19
383.535	1300.19
383.761	1335.19
383.986	1320.19
384.211	1321.19
384.436	1361.19
384.662	1325.19
384.887	1380.19
385.112	1319.19
385.337	1392.19
385.562	1371.19
385.787	1401.19
386.013	1388.19
386.238	1404.19
386.463	1389.19
386.688	1404.19
386.913	1380.19
387.138	1405.19
387.363	1404.19
387.588	1379.19
387.813	1422.19
388.038	1470.19
388.263	1392.19
388.488	1438.19
388.713	1459.19
388.938	1441.19
389.163	1443.19
389.387	1440.19
389.612	1428.19
389.837	1431.19
390.062	1412.19
390.287	1467.19
390.512	1447.19
390.736	1421.19
390.961	1459.19
391.186	1470.19
391.411	1462.19
391.636	1470.19
391.86	1527.19
392.085	1470.19
392.31	1514.19
392.534	1535.19
392.759	1542.19
392.984	1494.19
393.208	1497.19
393.433	1481.19
393.658	1468.19
393.882	1464.19
394.107	1476.19
394.331	1503.19
394.556	1509.19
394.78	1469.19
395.005	1504.19
395.229	1506.19
395.454	1535.19
395.678	1543.19
395.903	1574.19
396.127	1540.19
396.352	1538.19
396.576	1524.19
396.801	1518.19
397.025	1573.19
397.249	1575.19
397.474	1564.19
397.698	1585.19
397.922	1630.19
398.147	1601.19
398.371	1613.19
398.595	1657.19
398.82	1682.19
399.044	1758.19
399.268	1787.19
399.492	1868.19
399.717	1909.19
399.941	1978.19
400.165	1935.19
400.389	1889.19
400.613	1848.19
400.837	1752.19
401.062	1737.19
401.286	1784.19
401.51	1702.19
401.734	1680.19
401.958	1725.19
402.182	1680.19
402.406	1698.19
402.63	1722.19
402.854	1708.19
403.078	1720.19
403.302	1694.19
403.526	1740.19
403.75	1688.19
403.974	1758.19
404.198	1737.19
404.422	1746.19
404.645	1774.19
404.869	1757.19
405.093	1768.19
405.317	1714.19
405.541	1778.19
405.765	1761.19
405.988	1796.19
406.212	1786.19
406.436	1803.19
406.66	1856.19
406.883	1844.19
407.107	1885.19
407.331	1909.19
407.555	1988.19
407.778	1966.19
408.002	1964.19
408.226	1959.19
408.449	1950.19
408.673	1951.19
408.896	1855.19
409.12	1829.19
409.344	1848.19
409.567	1800.19
409.791	1836.19
410.014	1844.19
410.238	1812.19
410.461	1806.19
410.685	1828.19
410.908	1776.19
411.132	1836.19
411.355	1767.19
411.578	1780.19
411.802	1781.19
412.025	1778.19
412.249	1794.19
412.472	1788.19
412.695	1733.19
412.919	1701.19
413.142	1741.19
413.365	1738.19
413.589	1729.19
413.812	1720.19
414.035	1718.19
414.258	1722.19
414.482	1735.19
414.705	1741.19
414.928	1706.19
415.151	1705.19
415.374	1684.19
415.597	1714.19
415.821	1682.19
416.044	1679.19
416.267	1696.19
416.49	1682.19
416.713	1682.19
416.936	1690.19
417.159	1637.19
417.382	1610.19
417.605	1621.19
417.828	1684.19
418.051	1666.19
418.274	1653.19
418.497	1612.19
418.72	1637.19
418.943	1627.19
419.166	1720.19
419.389	1853.19
419.611	1823.19
419.834	1742.19
420.057	1732.19
420.28	1645.19
420.503	1609.19
420.726	1596.19
420.948	1618.19
421.171	1622.19
421.394	1601.19
421.617	1611.19
421.839	1613.19
422.062	1616.19
422.285	1618.19
422.507	1621.19
422.73	1637.19
422.953	1610.19
423.175	1613.19
423.398	1620.19
423.621	1601.19
423.843	1639.19
424.066	1647.19
424.288	1640.19
424.511	1612.19
424.733	1627.19
424.956	1604.19
425.178	1648.19
425.401	1629.19
425.623	1628.19
425.846	1615.19
426.068	1637.19
426.291	1599.19
426.513	1595.19
426.735	1617.19
426.958	1636.19
427.18	1596.19
427.402	1649.19
427.625	1578.19
427.847	1560.19
428.069	1568.19
428.292	1601.19
428.514	1580.19
428.736	1584.19
428.958	1594.19
429.181	1534.19
429.403	1543.19
429.625	1554.19
429.847	1564.19
430.069	1544.19
430.292	1546.19
430.514	1538.19
430.736	1546.19
430.958	1628.19
431.18	1559.19
431.402	1599.19
431.624	1568.19
431.846	1600.19
432.068	1566.19
432.29	1618.19
432.512	1580.19
432.734	1632.19
432.956	1600.19
433.178	1625.19
433.4	1581.19
433.622	1618.19
433.844	1600.19
434.066	1603.19
434.287	1569.19
434.509	1639.19
434.731	1621.19
434.953	1675.19
435.175	1662.19
435.397	1654.19
435.618	1632.19
435.84	1619.19
436.062	1585.19
436.284	1572.19
436.505	1564.19
436.727	1549.19
436.949	1562.19
437.17	1567.19
437.392	1562.19
437.614	1557.19
437.835	1529.19
438.057	1569.19
438.278	1503.19
438.5	1577.19
438.721	1521.19
438.943	1543.19
439.165	1561.19
439.386	1522.19
439.608	1541.19
439.829	1558.19
440.05	1543.19
440.272	1540.19
440.493	1551.19
440.715	1560.19
440.936	1590.19
441.158	1603.19
441.379	1585.19
441.6	1606.19
441.822	1634.19
442.043	1633.19
442.264	1605.19
442.486	1621.19
442.707	1619.19
442.928	1603.19
443.149	1607.19
443.371	1632.19
443.592	1617.19
443.813	1636.19
444.034	1624.19
444.255	1639.19
444.476	1655.19
444.698	1664.19
444.919	1708.19
445.14	1832.19
445.361	1718.19
445.582	1630.19
445.803	1601.19
446.024	1630.19
446.245	1611.19
446.466	1571.19
446.687	1544.19
446.908	1549.19
447.129	1536.19
447.35	1498.19
447.571	1536.19
447.792	1469.19
448.013	1452.19
448.234	1479.19
448.455	1466.19
448.675	1450.19
448.896	1448.19
449.117	1453.19
449.338	1453.19
449.559	1434.19
449.779	1413.19
450	1450.19
450.221	1421.19
450.442	1442.19
450.662	1418.19
450.883	1431.19
451.104	1430.19
451.324	1408.19
451.545	1421.19
451.766	1446.19
451.986	1369.19
452.207	1396.19
452.428	1438.19
452.648	1385.19
452.869	1366.19
453.089	1379.19
453.31	1414.19
453.53	1373.19
453.751	1357.19
453.971	1355.19
454.192	1389.19
454.412	1331.19
454.633	1396.19
454.853	1399.19
455.073	1375.19
455.294	1373.19
455.514	1376.19
455.734	1340.19
455.955	1346.19
456.175	1356.19
456.395	1381.19
456.616	1377.19
456.836	1363.19
457.056	1384.19
457.276	1365.19
457.497	1415.19
457.717	1368.19
457.937	1421.19
458.157	1460.19
458.377	1421.19
458.598	1479.19
458.818	1464.19
459.038	1504.19
459.258	1470.19
459.478	1556.19
459.698	1552.19
459.918	1543.19
460.138	1576.19
460.358	1618.19
460.578	1652.19
460.798	1630.19
461.018	1653.19
461.238	1678.19
461.458	1688.19
461.678	1665.19
461.898	1739.19
462.118	1684.19
462.338	1749.19
462.558	1789.19
462.777	1793.19
462.997	1831.19
463.217	1848.19
463.437	1862.19
463.657	1837.19
463.876	1819.19
464.096	1860.19
464.316	1767.19
464.536	1774.19
464.755	1736.19
464.975	1750.19
465.195	1690.19
465.414	1649.19
465.634	1625.19
465.854	1600.19
466.073	1610.19
466.293	1619.19
466.512	1607.19
466.732	1561.19
466.951	1554.19
467.171	1560.19
467.391	1546.19
467.61	1501.19
467.829	1513.19
468.049	1507.19
468.268	1486.19
468.488	1496.19
468.707	1523.19
468.927	1541.19
469.146	1534.19
469.365	1524.19
469.585	1497.19
469.804	1521.19
470.023	1567.19
470.243	1506.19
470.462	1510.19
470.681	1554.19
470.901	1584.19
471.12	1546.19
471.339	1540.19
471.558	1561.19
471.777	1530.19
471.997	1581.19
472.216	1540.19
472.435	1554.19
472.654	1506.19
472.873	1550.19
473.092	1545.19
473.311	1529.19
473.53	1552.19
473.749	1547.19
473.968	1527.19
474.187	1550.19
474.406	1515.19
474.625	1541.19
474.844	1542.19
475.063	1573.19
475.282	1564.19
475.501	1596.19
475.72	1569.19
475.939	1598.19
476.158	1619.19
476.377	1633.19
476.596	1708.19
476.814	1756.19
477.033	1652.19
477.252	1646.19
477.471	1652.19
477.69	1694.19
477.908	1711.19
478.127	1786.19
478.346	1742.19
478.564	1805.19
478.783	1810.19
479.002	1803.19
479.22	1854.19
479.439	1929.19
479.658	1867.19
479.876	1824.19
480.095	1844.19
480.313	1881.19
480.532	1872.19
480.751	1898.19
480.969	1869.19
481.188	1928.19
481.406	1891.19
481.624	1888.19
481.843	1877.19
482.061	1846.19
482.28	1841.19
482.498	1913.19
482.717	1856.19
482.935	1858.19
483.153	1837.19
483.372	1836.19
483.59	1864.19
483.808	1875.19
484.027	1835.19
484.245	1867.19
484.463	1893.19
484.681	1924.19
484.9	1876.19
485.118	1927.19
485.336	1891.19
485.554	1890.19
485.772	1900.19
485.99	1929.19
486.209	1948.19
486.427	1938.19
486.645	1907.19
486.863	1913.19
487.081	1937.19
487.299	1938.19
487.517	1980.19
487.735	1906.19
487.953	1918.19
488.171	1957.19
488.389	1901.19
488.607	1875.19
488.825	1893.19
489.043	1901.19
489.261	1938.19
489.479	1920.19
489.696	1930.19
489.914	1912.19
490.132	1922.19
490.35	1925.19
490.568	1909.19
490.786	1926.19
491.003	1922.19
