Data from Fe(NO3)3@0.025M.TitratingCurve.Agarose3%dH2O.NegLispCup.LampEnergy10.LIBS07252019_HRD10591_16-56-55-336.txt Node
Date: Thu Jul 25 16:56:55 EDT 2019
User: cochatt
Spectrometer: HR+D1059
Trigger mode: 1
Integration Time (sec): 1.000000E-1
Scans to average: 1
Electric dark correction enabled: true
Nonlinearity correction enabled: false
Boxcar width: 0
XAxis mode: Wavelengths
Number of Pixels in Spectrum: 2048
>>>>>Begin Spectral Data<<<<<
223.165	6.31
223.4	6.31
223.635	6.31
223.869	-9.69
224.104	-2.69
224.338	-27.69
224.573	-17.69
224.808	-33.69
225.042	-0.69
225.277	-14.69
225.511	-8.69
225.746	0.31
225.98	7.31
226.215	10.31
226.449	16.31
226.683	30.31
226.918	24.31
227.152	20.31
227.387	41.31
227.621	45.31
227.856	43.31
228.09	31.31
228.324	41.31
228.559	54.31
228.793	59.31
229.027	80.31
229.262	87.31
229.496	75.31
229.73	82.31
229.964	82.31
230.199	81.31
230.433	96.31
230.667	90.31
230.901	96.31
231.136	96.31
231.37	107.31
231.604	95.31
231.838	84.31
232.072	101.31
232.306	90.31
232.541	97.31
232.775	93.31
233.009	103.31
233.243	92.31
233.477	90.31
233.711	100.31
233.945	103.31
234.179	108.31
234.413	89.31
234.647	81.31
234.881	88.31
235.115	103.31
235.349	93.31
235.583	111.31
235.817	85.31
236.051	101.31
236.285	93.31
236.519	97.31
236.753	105.31
236.987	123.31
237.221	107.31
237.455	104.31
237.689	104.31
237.922	90.31
238.156	103.31
238.39	95.31
238.624	94.31
238.858	93.31
239.091	96.31
239.325	82.31
239.559	118.31
239.793	105.31
240.027	97.31
240.26	98.31
240.494	90.31
240.728	109.31
240.961	99.31
241.195	104.31
241.429	101.31
241.662	109.31
241.896	97.31
242.13	123.31
242.363	117.31
242.597	110.31
242.83	99.31
243.064	115.31
243.298	106.31
243.531	111.31
243.765	111.31
243.998	123.31
244.232	104.31
244.465	121.31
244.699	121.31
244.932	127.31
245.166	122.31
245.399	123.31
245.633	118.31
245.866	107.31
246.099	120.31
246.333	102.31
246.566	113.31
246.8	111.31
247.033	129.31
247.266	115.31
247.5	121.31
247.733	103.31
247.966	113.31
248.2	113.31
248.433	144.31
248.666	135.31
248.899	115.31
249.133	117.31
249.366	119.31
249.599	136.31
249.832	123.31
250.066	120.31
250.299	121.31
250.532	125.31
250.765	124.31
250.998	116.31
251.231	135.31
251.465	121.31
251.698	123.31
251.931	122.31
252.164	127.31
252.397	143.31
252.63	136.31
252.863	128.31
253.096	121.31
253.329	131.31
253.562	138.31
253.795	137.31
254.028	145.31
254.261	136.31
254.494	146.31
254.727	140.31
254.96	117.31
255.193	132.31
255.426	135.31
255.659	135.31
255.892	150.31
256.124	128.31
256.357	142.31
256.59	151.31
256.823	154.31
257.056	147.31
257.289	132.31
257.521	134.31
257.754	135.31
257.987	133.31
258.22	137.31
258.452	142.31
258.685	151.31
258.918	141.31
259.151	138.31
259.383	132.31
259.616	154.31
259.849	155.31
260.081	151.31
260.314	143.31
260.547	142.31
260.779	165.31
261.012	148.31
261.244	138.31
261.477	151.31
261.71	142.31
261.942	144.31
262.175	150.31
262.407	158.31
262.64	159.31
262.872	144.31
263.105	137.31
263.337	155.31
263.57	152.31
263.802	150.31
264.035	158.31
264.267	162.31
264.499	144.31
264.732	181.31
264.964	145.31
265.197	151.31
265.429	143.31
265.661	149.31
265.894	144.31
266.126	166.31
266.358	151.31
266.591	178.31
266.823	157.31
267.055	159.31
267.287	160.31
267.52	166.31
267.752	154.31
267.984	168.31
268.216	167.31
268.448	184.31
268.681	170.31
268.913	182.31
269.145	168.31
269.377	175.31
269.609	154.31
269.841	160.31
270.073	155.31
270.306	164.31
270.538	184.31
270.77	165.31
271.002	177.31
271.234	192.31
271.466	168.31
271.698	174.31
271.93	180.31
272.162	182.31
272.394	159.31
272.626	187.31
272.858	181.31
273.09	189.31
273.322	181.31
273.553	176.31
273.785	173.31
274.017	182.31
274.249	198.31
274.481	187.31
274.713	179.31
274.945	189.31
275.176	199.31
275.408	176.31
275.64	189.31
275.872	178.31
276.104	173.31
276.335	181.31
276.567	181.31
276.799	194.31
277.031	186.31
277.262	176.31
277.494	197.31
277.726	207.31
277.957	195.31
278.189	202.31
278.421	190.31
278.652	197.31
278.884	192.31
279.115	196.31
279.347	196.31
279.579	181.31
279.81	197.31
280.042	210.31
280.273	200.31
280.505	194.31
280.736	189.31
280.968	199.31
281.199	209.31
281.431	210.31
281.662	203.31
281.894	206.31
282.125	203.31
282.356	195.31
282.588	197.31
282.819	209.31
283.051	190.31
283.282	200.31
283.513	209.31
283.745	217.31
283.976	214.31
284.207	207.31
284.439	226.31
284.67	200.31
284.901	226.31
285.132	210.31
285.364	211.31
285.595	207.31
285.826	220.31
286.057	213.31
286.288	217.31
286.52	195.31
286.751	203.31
286.982	238.31
287.213	234.31
287.444	229.31
287.675	216.31
287.906	216.31
288.138	217.31
288.369	229.31
288.6	225.31
288.831	233.31
289.062	243.31
289.293	231.31
289.524	223.31
289.755	244.31
289.986	225.31
290.217	224.31
290.448	225.31
290.679	223.31
290.91	230.31
291.141	228.31
291.371	227.31
291.602	230.31
291.833	237.31
292.064	224.31
292.295	234.31
292.526	215.31
292.757	232.31
292.987	219.31
293.218	216.31
293.449	232.31
293.68	239.31
293.91	243.31
294.141	221.31
294.372	224.31
294.603	223.31
294.833	218.31
295.064	225.31
295.295	225.31
295.525	231.31
295.756	211.31
295.987	237.31
296.217	239.31
296.448	238.31
296.679	244.31
296.909	231.31
297.14	247.31
297.37	246.31
297.601	244.31
297.831	226.31
298.062	245.31
298.292	255.31
298.523	249.31
298.753	257.31
298.984	255.31
299.214	238.31
299.445	254.31
299.675	252.31
299.905	257.31
300.136	249.31
300.366	253.31
300.597	250.31
300.827	257.31
301.057	242.31
301.288	268.31
301.518	261.31
301.748	248.31
301.979	264.31
302.209	282.31
302.439	241.31
302.669	258.31
302.9	269.31
303.13	271.31
303.36	256.31
303.59	265.31
303.82	261.31
304.051	271.31
304.281	263.31
304.511	276.31
304.741	263.31
304.971	262.31
305.201	254.31
305.431	263.31
305.661	246.31
305.891	267.31
306.121	272.31
306.352	275.31
306.582	275.31
306.812	262.31
307.042	288.31
307.272	277.31
307.502	257.31
307.731	269.31
307.961	282.31
308.191	274.31
308.421	271.31
308.651	261.31
308.881	269.31
309.111	256.31
309.341	272.31
309.571	270.31
309.8	278.31
310.03	285.31
310.26	243.31
310.49	271.31
310.72	268.31
310.949	271.31
311.179	279.31
311.409	272.31
311.639	268.31
311.868	281.31
312.098	277.31
312.328	260.31
312.557	291.31
312.787	282.31
313.017	289.31
313.246	271.31
313.476	288.31
313.706	291.31
313.935	281.31
314.165	277.31
314.394	296.31
314.624	299.31
314.853	302.31
315.083	282.31
315.312	286.31
315.542	288.31
315.771	278.31
316.001	268.31
316.23	295.31
316.46	283.31
316.689	284.31
316.919	289.31
317.148	286.31
317.377	307.31
317.607	279.31
317.836	289.31
318.065	292.31
318.295	303.31
318.524	304.31
318.753	296.31
318.983	296.31
319.212	301.31
319.441	300.31
319.67	305.31
319.9	293.31
320.129	301.31
320.358	288.31
320.587	295.31
320.816	298.31
321.046	294.31
321.275	310.31
321.504	281.31
321.733	287.31
321.962	298.31
322.191	316.31
322.42	303.31
322.649	306.31
322.878	323.31
323.108	289.31
323.337	315.31
323.566	305.31
323.795	314.31
324.024	312.31
324.253	281.31
324.482	319.31
324.71	299.31
324.939	322.31
325.168	306.31
325.397	314.31
325.626	320.31
325.855	314.31
326.084	314.31
326.313	315.31
326.542	313.31
326.77	331.31
326.999	314.31
327.228	312.31
327.457	308.31
327.686	311.31
327.914	314.31
328.143	317.31
328.372	321.31
328.6	332.31
328.829	337.31
329.058	321.31
329.287	336.31
329.515	330.31
329.744	337.31
329.972	328.31
330.201	347.31
330.43	327.31
330.658	326.31
330.887	329.31
331.115	334.31
331.344	311.31
331.572	338.31
331.801	338.31
332.03	346.31
332.258	344.31
332.486	343.31
332.715	338.31
332.943	348.31
333.172	378.31
333.4	365.31
333.629	380.31
333.857	382.31
334.085	374.31
334.314	368.31
334.542	365.31
334.771	377.31
334.999	384.31
335.227	372.31
335.455	374.31
335.684	372.31
335.912	370.31
336.14	381.31
336.369	374.31
336.597	372.31
336.825	362.31
337.053	358.31
337.281	369.31
337.51	358.31
337.738	375.31
337.966	344.31
338.194	330.31
338.422	356.31
338.65	368.31
338.878	362.31
339.106	344.31
339.334	359.31
339.562	354.31
339.79	347.31
340.018	338.31
340.246	347.31
340.474	366.31
340.702	349.31
340.93	347.31
341.158	344.31
341.386	335.31
341.614	340.31
341.842	353.31
342.07	346.31
342.298	333.31
342.526	355.31
342.754	353.31
342.981	358.31
343.209	363.31
343.437	362.31
343.665	380.31
343.893	371.31
344.12	383.31
344.348	378.31
344.576	358.31
344.804	381.31
345.031	341.31
345.259	335.31
345.487	340.31
345.714	353.31
345.942	329.31
346.17	343.31
346.397	335.31
346.625	345.31
346.853	313.31
347.08	341.31
347.308	349.31
347.535	326.31
347.763	324.31
347.99	317.31
348.218	344.31
348.445	333.31
348.673	361.31
348.9	351.31
349.128	332.31
349.355	348.31
349.583	337.31
349.81	352.31
350.037	360.31
350.265	352.31
350.492	340.31
350.72	320.31
350.947	325.31
351.174	325.31
351.402	331.31
351.629	331.31
351.856	321.31
352.083	340.31
352.311	325.31
352.538	320.31
352.765	326.31
352.992	342.31
353.22	325.31
353.447	334.31
353.674	339.31
353.901	330.31
354.128	316.31
354.355	311.31
354.583	330.31
354.81	331.31
355.037	335.31
355.264	330.31
355.491	336.31
355.718	318.31
355.945	331.31
356.172	327.31
356.399	322.31
356.626	321.31
356.853	330.31
357.08	340.31
357.307	331.31
357.534	320.31
357.761	328.31
357.988	344.31
358.215	338.31
358.441	337.31
358.668	318.31
358.895	334.31
359.122	334.31
359.349	341.31
359.576	336.31
359.802	335.31
360.029	345.31
360.256	333.31
360.483	337.31
360.709	320.31
360.936	339.31
361.163	353.31
361.39	336.31
361.616	351.31
361.843	349.31
362.07	341.31
362.296	360.31
362.523	347.31
362.749	354.31
362.976	338.31
363.203	353.31
363.429	322.31
363.656	352.31
363.882	346.31
364.109	346.31
364.335	343.31
364.562	339.31
364.788	332.31
365.015	331.31
365.241	338.31
365.468	355.31
365.694	326.31
365.92	343.31
366.147	331.31
366.373	327.31
366.599	348.31
366.826	336.31
367.052	356.31
367.278	342.31
367.505	349.31
367.731	352.31
367.957	342.31
368.184	359.31
368.41	342.31
368.636	349.31
368.862	354.31
369.089	354.31
369.315	350.31
369.541	346.31
369.767	351.31
369.993	362.31
370.219	354.31
370.445	360.31
370.672	354.31
370.898	350.31
371.124	367.31
371.35	365.31
371.576	343.31
371.802	356.31
372.028	367.31
372.254	372.31
372.48	345.31
372.706	384.31
372.932	383.31
373.158	382.31
373.384	360.31
373.61	375.31
373.835	359.31
374.061	353.31
374.287	363.31
374.513	372.31
374.739	371.31
374.965	370.31
375.191	380.31
375.416	376.31
375.642	371.31
375.868	383.31
376.094	376.31
376.319	377.31
376.545	368.31
376.771	370.31
376.997	354.31
377.222	357.31
377.448	359.31
377.674	380.31
377.899	361.31
378.125	363.31
378.35	374.31
378.576	352.31
378.802	355.31
379.027	376.31
379.253	363.31
379.478	365.31
379.704	377.31
379.929	370.31
380.155	362.31
380.38	354.31
380.606	370.31
380.831	359.31
381.057	391.31
381.282	386.31
381.507	380.31
381.733	383.31
381.958	375.31
382.184	374.31
382.409	387.31
382.634	376.31
382.86	386.31
383.085	373.31
383.31	386.31
383.535	384.31
383.761	393.31
383.986	396.31
384.211	404.31
384.436	375.31
384.662	390.31
384.887	389.31
385.112	396.31
385.337	408.31
385.562	403.31
385.787	411.31
386.013	425.31
386.238	385.31
386.463	392.31
386.688	405.31
386.913	421.31
387.138	395.31
387.363	420.31
387.588	414.31
387.813	417.31
388.038	406.31
388.263	437.31
388.488	448.31
388.713	422.31
388.938	417.31
389.163	416.31
389.387	422.31
389.612	410.31
389.837	433.31
390.062	438.31
390.287	437.31
390.512	416.31
390.736	429.31
390.961	439.31
391.186	445.31
391.411	438.31
391.636	446.31
391.86	427.31
392.085	434.31
392.31	460.31
392.534	446.31
392.759	456.31
392.984	441.31
393.208	431.31
393.433	434.31
393.658	433.31
393.882	441.31
394.107	470.31
394.331	471.31
394.556	457.31
394.78	459.31
395.005	440.31
395.229	441.31
395.454	452.31
395.678	433.31
395.903	469.31
396.127	459.31
396.352	449.31
396.576	448.31
396.801	445.31
397.025	459.31
397.249	467.31
397.474	464.31
397.698	479.31
397.922	467.31
398.147	478.31
398.371	463.31
398.595	497.31
398.82	527.31
399.044	537.31
399.268	565.31
399.492	586.31
399.717	602.31
399.941	607.31
400.165	578.31
400.389	576.31
400.613	531.31
400.837	537.31
401.062	508.31
401.286	520.31
401.51	493.31
401.734	499.31
401.958	502.31
402.182	513.31
402.406	500.31
402.63	496.31
402.854	493.31
403.078	503.31
403.302	511.31
403.526	495.31
403.75	527.31
403.974	515.31
404.198	513.31
404.422	530.31
404.645	547.31
404.869	513.31
405.093	522.31
405.317	526.31
405.541	531.31
405.765	505.31
405.988	510.31
406.212	532.31
406.436	525.31
406.66	516.31
406.883	534.31
407.107	573.31
407.331	573.31
407.555	569.31
407.778	584.31
408.002	535.31
408.226	541.31
408.449	557.31
408.673	555.31
408.896	551.31
409.12	555.31
409.344	507.31
409.567	509.31
409.791	541.31
410.014	545.31
410.238	521.31
410.461	523.31
410.685	511.31
410.908	517.31
411.132	530.31
411.355	501.31
411.578	486.31
411.802	511.31
412.025	490.31
412.249	506.31
412.472	510.31
412.695	504.31
412.919	505.31
413.142	498.31
413.365	529.31
413.589	511.31
413.812	523.31
414.035	498.31
414.258	502.31
414.482	487.31
414.705	509.31
414.928	498.31
415.151	486.31
415.374	497.31
415.597	499.31
415.821	467.31
416.044	477.31
416.267	478.31
416.49	496.31
416.713	489.31
416.936	477.31
417.159	497.31
417.382	477.31
417.605	458.31
417.828	465.31
418.051	478.31
418.274	447.31
418.497	459.31
418.72	474.31
418.943	487.31
419.166	509.31
419.389	506.31
419.611	517.31
419.834	501.31
420.057	504.31
420.28	478.31
420.503	469.31
420.726	462.31
420.948	475.31
421.171	483.31
421.394	489.31
421.617	463.31
421.839	504.31
422.062	485.31
422.285	441.31
422.507	454.31
422.73	463.31
422.953	458.31
423.175	475.31
423.398	471.31
423.621	485.31
423.843	482.31
424.066	470.31
424.288	451.31
424.511	485.31
424.733	446.31
424.956	474.31
425.178	472.31
425.401	484.31
425.623	475.31
425.846	463.31
426.068	467.31
426.291	464.31
426.513	444.31
426.735	482.31
426.958	463.31
427.18	427.31
427.402	444.31
427.625	457.31
427.847	448.31
428.069	430.31
428.292	448.31
428.514	437.31
428.736	423.31
428.958	440.31
429.181	453.31
429.403	447.31
429.625	439.31
429.847	439.31
430.069	439.31
430.292	442.31
430.514	421.31
430.736	444.31
430.958	449.31
431.18	442.31
431.402	439.31
431.624	410.31
431.846	442.31
432.068	443.31
432.29	445.31
432.512	439.31
432.734	465.31
432.956	455.31
433.178	449.31
433.4	447.31
433.622	439.31
433.844	463.31
434.066	445.31
434.287	477.31
434.509	450.31
434.731	480.31
434.953	478.31
435.175	454.31
435.397	479.31
435.618	451.31
435.84	464.31
436.062	448.31
436.284	451.31
436.505	417.31
436.727	438.31
436.949	448.31
437.17	443.31
437.392	439.31
437.614	436.31
437.835	438.31
438.057	418.31
438.278	416.31
438.5	418.31
438.721	416.31
438.943	443.31
439.165	432.31
439.386	418.31
439.608	438.31
439.829	439.31
440.05	441.31
440.272	443.31
440.493	439.31
440.715	433.31
440.936	454.31
441.158	442.31
441.379	460.31
441.6	453.31
441.822	460.31
442.043	440.31
442.264	441.31
442.486	459.31
442.707	448.31
442.928	469.31
443.149	463.31
443.371	445.31
443.592	456.31
443.813	478.31
444.034	483.31
444.255	486.31
444.476	467.31
444.698	480.31
444.919	500.31
445.14	592.31
445.361	515.31
445.582	481.31
445.803	451.31
446.024	436.31
446.245	439.31
446.466	450.31
446.687	440.31
446.908	433.31
447.129	431.31
447.35	405.31
447.571	413.31
447.792	405.31
448.013	392.31
448.234	404.31
448.455	419.31
448.675	406.31
448.896	405.31
449.117	393.31
449.338	404.31
449.559	401.31
449.779	407.31
450	399.31
450.221	399.31
450.442	386.31
450.662	419.31
450.883	401.31
451.104	421.31
451.324	403.31
451.545	405.31
451.766	401.31
451.986	413.31
452.207	387.31
452.428	398.31
452.648	404.31
452.869	378.31
453.089	386.31
453.31	398.31
453.53	380.31
453.751	399.31
453.971	390.31
454.192	381.31
454.412	374.31
454.633	379.31
454.853	369.31
455.073	375.31
455.294	391.31
455.514	369.31
455.734	368.31
455.955	371.31
456.175	383.31
456.395	404.31
456.616	371.31
456.836	374.31
457.056	382.31
457.276	370.31
457.497	378.31
457.717	390.31
457.937	369.31
458.157	384.31
458.377	382.31
458.598	405.31
458.818	418.31
459.038	402.31
459.258	434.31
459.478	441.31
459.698	431.31
459.918	431.31
460.138	456.31
460.358	461.31
460.578	468.31
460.798	466.31
461.018	469.31
461.238	483.31
461.458	513.31
461.678	477.31
461.898	486.31
462.118	465.31
462.338	513.31
462.558	507.31
462.777	505.31
462.997	540.31
463.217	550.31
463.437	547.31
463.657	542.31
463.876	505.31
464.096	540.31
464.316	522.31
464.536	521.31
464.755	528.31
464.975	477.31
465.195	473.31
465.414	448.31
465.634	465.31
465.854	427.31
466.073	447.31
466.293	422.31
466.512	430.31
466.732	427.31
466.951	426.31
467.171	428.31
467.391	423.31
467.61	425.31
467.829	439.31
468.049	412.31
468.268	417.31
468.488	407.31
468.707	422.31
468.927	426.31
469.146	423.31
469.365	422.31
469.585	411.31
469.804	409.31
470.023	398.31
470.243	415.31
470.462	419.31
470.681	429.31
470.901	433.31
471.12	421.31
471.339	411.31
471.558	436.31
471.777	413.31
471.997	419.31
472.216	424.31
472.435	429.31
472.654	404.31
472.873	421.31
473.092	432.31
473.311	424.31
473.53	422.31
473.749	388.31
473.968	431.31
474.187	395.31
474.406	418.31
474.625	408.31
474.844	408.31
475.063	426.31
475.282	417.31
475.501	409.31
475.72	431.31
475.939	413.31
476.158	418.31
476.377	440.31
476.596	437.31
476.814	442.31
477.033	437.31
477.252	449.31
477.471	472.31
477.69	473.31
477.908	478.31
478.127	490.31
478.346	477.31
478.564	494.31
478.783	472.31
479.002	476.31
479.22	485.31
479.439	505.31
479.658	491.31
479.876	509.31
480.095	511.31
480.313	527.31
480.532	527.31
480.751	502.31
480.969	495.31
481.188	513.31
481.406	488.31
481.624	496.31
481.843	508.31
482.061	501.31
482.28	499.31
482.498	492.31
482.717	497.31
482.935	503.31
483.153	509.31
483.372	494.31
483.59	500.31
483.808	491.31
484.027	501.31
484.245	516.31
484.463	512.31
484.681	501.31
484.9	488.31
485.118	523.31
485.336	489.31
485.554	507.31
485.772	537.31
485.99	490.31
486.209	491.31
486.427	521.31
486.645	524.31
486.863	505.31
487.081	503.31
487.299	509.31
487.517	519.31
487.735	498.31
487.953	525.31
488.171	527.31
488.389	522.31
488.607	513.31
488.825	479.31
489.043	521.31
489.261	505.31
489.479	493.31
489.696	492.31
489.914	510.31
490.132	503.31
490.35	518.31
490.568	508.31
490.786	523.31
491.003	490.31
491.221	521.31
491.439	492.31
491.657	483.31
491.874	517.31
492.092	524.31
492.31	517.31
492.527	510.31
492.745	498.31
492.963	520.31
493.18	515.31
493.398	527.31
493.615	528.31
493.833	514.31
494.05	517.31
494.268	527.31
494.485	533.31
494.703	528.31
494.92	513.31
495.138	524.31
495.355	540.31
495.573	538.31
495.79	533.31
496.008	553.31
496.225	563.31
496.442	560.31
496.66	551.31
496.877	561.31
497.094	559.31
497.312	602.31
497.529	579.31
497.746	606.31
497.963	607.31
498.181	629.31
498.398	645.31
498.615	663.31
498.832	698.31
499.049	727.31
499.267	791.31
499.484	829.31
499.701	862.31
499.918	902.31
500.135	947.31
500.352	981.31
500.569	989.31
500.786	989.31
501.003	961.31
501.22	930.31
501.437	884.31
501.654	816.31
501.871	771.31
502.088	731.31
