Data from Fe(NO3)3@0.025M.TitratingCurve.Agarose3%dH2O.NegLispCup.LampEnergy10.LIBS07252019_HRD10591_16-56-33-336.txt Node
Date: Thu Jul 25 16:56:33 EDT 2019
User: cochatt
Spectrometer: HR+D1059
Trigger mode: 1
Integration Time (sec): 1.000000E-1
Scans to average: 1
Electric dark correction enabled: true
Nonlinearity correction enabled: false
Boxcar width: 0
XAxis mode: Wavelengths
Number of Pixels in Spectrum: 2048
>>>>>Begin Spectral Data<<<<<
223.165	-19.44
223.4	-19.44
223.635	-19.44
223.869	-11.44
224.104	-27.44
224.338	-8.44
224.573	-14.44
224.808	-10.44
225.042	-14.44
225.277	-14.44
225.511	6.56
225.746	2.56
225.98	16.56
226.215	25.56
226.449	12.56
226.683	21.56
226.918	19.56
227.152	15.56
227.387	34.56
227.621	40.56
227.856	43.56
228.09	46.56
228.324	50.56
228.559	60.56
228.793	53.56
229.027	66.56
229.262	70.56
229.496	79.56
229.73	83.56
229.964	86.56
230.199	91.56
230.433	95.56
230.667	101.56
230.901	76.56
231.136	92.56
231.37	99.56
231.604	94.56
231.838	103.56
232.072	97.56
232.306	96.56
232.541	100.56
232.775	90.56
233.009	96.56
233.243	95.56
233.477	105.56
233.711	90.56
233.945	99.56
234.179	99.56
234.413	105.56
234.647	110.56
234.881	83.56
235.115	92.56
235.349	92.56
235.583	88.56
235.817	99.56
236.051	103.56
236.285	100.56
236.519	104.56
236.753	88.56
236.987	106.56
237.221	105.56
237.455	104.56
237.689	108.56
237.922	85.56
238.156	98.56
238.39	103.56
238.624	104.56
238.858	111.56
239.091	106.56
239.325	102.56
239.559	98.56
239.793	110.56
240.027	108.56
240.26	114.56
240.494	84.56
240.728	112.56
240.961	101.56
241.195	122.56
241.429	114.56
241.662	112.56
241.896	105.56
242.13	104.56
242.363	104.56
242.597	103.56
242.83	115.56
243.064	103.56
243.298	102.56
243.531	106.56
243.765	102.56
243.998	123.56
244.232	119.56
244.465	98.56
244.699	118.56
244.932	102.56
245.166	117.56
245.399	126.56
245.633	118.56
245.866	117.56
246.099	127.56
246.333	120.56
246.566	108.56
246.8	116.56
247.033	124.56
247.266	101.56
247.5	119.56
247.733	112.56
247.966	123.56
248.2	126.56
248.433	123.56
248.666	109.56
248.899	138.56
249.133	122.56
249.366	115.56
249.599	123.56
249.832	119.56
250.066	120.56
250.299	125.56
250.532	121.56
250.765	127.56
250.998	144.56
251.231	126.56
251.465	130.56
251.698	126.56
251.931	139.56
252.164	135.56
252.397	132.56
252.63	128.56
252.863	133.56
253.096	119.56
253.329	134.56
253.562	119.56
253.795	124.56
254.028	144.56
254.261	137.56
254.494	153.56
254.727	135.56
254.96	130.56
255.193	144.56
255.426	126.56
255.659	132.56
255.892	135.56
256.124	147.56
256.357	124.56
256.59	135.56
256.823	132.56
257.056	140.56
257.289	145.56
257.521	139.56
257.754	143.56
257.987	142.56
258.22	137.56
258.452	137.56
258.685	141.56
258.918	148.56
259.151	130.56
259.383	143.56
259.616	148.56
259.849	153.56
260.081	144.56
260.314	157.56
260.547	147.56
260.779	140.56
261.012	138.56
261.244	164.56
261.477	160.56
261.71	136.56
261.942	149.56
262.175	157.56
262.407	157.56
262.64	143.56
262.872	150.56
263.105	158.56
263.337	159.56
263.57	157.56
263.802	146.56
264.035	153.56
264.267	151.56
264.499	170.56
264.732	174.56
264.964	162.56
265.197	153.56
265.429	160.56
265.661	166.56
265.894	155.56
266.126	150.56
266.358	151.56
266.591	162.56
266.823	172.56
267.055	161.56
267.287	170.56
267.52	153.56
267.752	152.56
267.984	156.56
268.216	170.56
268.448	168.56
268.681	161.56
268.913	170.56
269.145	163.56
269.377	159.56
269.609	154.56
269.841	172.56
270.073	172.56
270.306	176.56
270.538	162.56
270.77	170.56
271.002	171.56
271.234	169.56
271.466	169.56
271.698	168.56
271.93	166.56
272.162	187.56
272.394	172.56
272.626	182.56
272.858	171.56
273.09	170.56
273.322	167.56
273.553	161.56
273.785	176.56
274.017	190.56
274.249	186.56
274.481	192.56
274.713	174.56
274.945	187.56
275.176	191.56
275.408	197.56
275.64	182.56
275.872	173.56
276.104	177.56
276.335	179.56
276.567	177.56
276.799	176.56
277.031	177.56
277.262	192.56
277.494	187.56
277.726	183.56
277.957	186.56
278.189	189.56
278.421	188.56
278.652	197.56
278.884	202.56
279.115	195.56
279.347	208.56
279.579	198.56
279.81	191.56
280.042	186.56
280.273	184.56
280.505	183.56
280.736	195.56
280.968	194.56
281.199	209.56
281.431	187.56
281.662	207.56
281.894	194.56
282.125	190.56
282.356	216.56
282.588	196.56
282.819	220.56
283.051	194.56
283.282	203.56
283.513	202.56
283.745	202.56
283.976	216.56
284.207	208.56
284.439	208.56
284.67	204.56
284.901	205.56
285.132	219.56
285.364	220.56
285.595	212.56
285.826	209.56
286.057	213.56
286.288	215.56
286.52	208.56
286.751	210.56
286.982	217.56
287.213	219.56
287.444	213.56
287.675	208.56
287.906	214.56
288.138	216.56
288.369	200.56
288.6	219.56
288.831	203.56
289.062	212.56
289.293	216.56
289.524	214.56
289.755	218.56
289.986	198.56
290.217	212.56
290.448	210.56
290.679	217.56
290.91	245.56
291.141	226.56
291.371	214.56
291.602	239.56
291.833	234.56
292.064	225.56
292.295	236.56
292.526	223.56
292.757	229.56
292.987	229.56
293.218	242.56
293.449	238.56
293.68	217.56
293.91	223.56
294.141	234.56
294.372	229.56
294.603	221.56
294.833	238.56
295.064	220.56
295.295	227.56
295.525	228.56
295.756	242.56
295.987	233.56
296.217	219.56
296.448	228.56
296.679	230.56
296.909	238.56
297.14	240.56
297.37	260.56
297.601	243.56
297.831	248.56
298.062	238.56
298.292	259.56
298.523	242.56
298.753	252.56
298.984	234.56
299.214	240.56
299.445	232.56
299.675	237.56
299.905	246.56
300.136	238.56
300.366	250.56
300.597	225.56
300.827	256.56
301.057	235.56
301.288	238.56
301.518	242.56
301.748	249.56
301.979	271.56
302.209	252.56
302.439	260.56
302.669	240.56
302.9	257.56
303.13	241.56
303.36	268.56
303.59	270.56
303.82	263.56
304.051	258.56
304.281	263.56
304.511	280.56
304.741	261.56
304.971	266.56
305.201	265.56
305.431	253.56
305.661	264.56
305.891	254.56
306.121	262.56
306.352	261.56
306.582	261.56
306.812	259.56
307.042	262.56
307.272	278.56
307.502	241.56
307.731	276.56
307.961	246.56
308.191	261.56
308.421	255.56
308.651	257.56
308.881	238.56
309.111	272.56
309.341	269.56
309.571	261.56
309.8	260.56
310.03	266.56
310.26	264.56
310.49	251.56
310.72	254.56
310.949	263.56
311.179	260.56
311.409	265.56
311.639	266.56
311.868	262.56
312.098	258.56
312.328	283.56
312.557	278.56
312.787	269.56
313.017	268.56
313.246	303.56
313.476	284.56
313.706	280.56
313.935	278.56
314.165	272.56
314.394	272.56
314.624	261.56
314.853	276.56
315.083	273.56
315.312	287.56
315.542	284.56
315.771	288.56
316.001	274.56
316.23	289.56
316.46	300.56
316.689	287.56
316.919	290.56
317.148	284.56
317.377	304.56
317.607	275.56
317.836	281.56
318.065	289.56
318.295	286.56
318.524	279.56
318.753	280.56
318.983	293.56
319.212	285.56
319.441	290.56
319.67	272.56
319.9	292.56
320.129	289.56
320.358	277.56
320.587	289.56
320.816	287.56
321.046	296.56
321.275	264.56
321.504	307.56
321.733	296.56
321.962	296.56
322.191	265.56
322.42	287.56
322.649	298.56
322.878	299.56
323.108	299.56
323.337	304.56
323.566	297.56
323.795	289.56
324.024	302.56
324.253	295.56
324.482	302.56
324.71	299.56
324.939	288.56
325.168	309.56
325.397	315.56
325.626	289.56
325.855	300.56
326.084	300.56
326.313	299.56
326.542	306.56
326.77	315.56
326.999	311.56
327.228	320.56
327.457	292.56
327.686	320.56
327.914	315.56
328.143	311.56
328.372	306.56
328.6	322.56
328.829	315.56
329.058	311.56
329.287	301.56
329.515	321.56
329.744	304.56
329.972	313.56
330.201	329.56
330.43	319.56
330.658	318.56
330.887	309.56
331.115	337.56
331.344	328.56
331.572	331.56
331.801	336.56
332.03	339.56
332.258	351.56
332.486	338.56
332.715	354.56
332.943	351.56
333.172	350.56
333.4	372.56
333.629	368.56
333.857	357.56
334.085	359.56
334.314	349.56
334.542	374.56
334.771	374.56
334.999	363.56
335.227	375.56
335.455	358.56
335.684	367.56
335.912	388.56
336.14	383.56
336.369	354.56
336.597	340.56
336.825	342.56
337.053	355.56
337.281	363.56
337.51	341.56
337.738	348.56
337.966	346.56
338.194	338.56
338.422	352.56
338.65	339.56
338.878	340.56
339.106	330.56
339.334	342.56
339.562	355.56
339.79	333.56
340.018	335.56
340.246	339.56
340.474	321.56
340.702	346.56
340.93	342.56
341.158	329.56
341.386	344.56
341.614	354.56
341.842	331.56
342.07	329.56
342.298	345.56
342.526	345.56
342.754	351.56
342.981	345.56
343.209	331.56
343.437	375.56
343.665	368.56
343.893	360.56
344.12	394.56
344.348	366.56
344.576	357.56
344.804	358.56
345.031	352.56
345.259	355.56
345.487	351.56
345.714	337.56
345.942	327.56
346.17	333.56
346.397	336.56
346.625	320.56
346.853	318.56
347.08	314.56
347.308	336.56
347.535	336.56
347.763	334.56
347.99	324.56
348.218	333.56
348.445	308.56
348.673	311.56
348.9	326.56
349.128	315.56
349.355	312.56
349.583	325.56
349.81	338.56
350.037	347.56
350.265	332.56
350.492	309.56
350.72	288.56
350.947	322.56
351.174	324.56
351.402	336.56
351.629	319.56
351.856	329.56
352.083	320.56
352.311	332.56
352.538	314.56
352.765	321.56
352.992	343.56
353.22	336.56
353.447	324.56
353.674	328.56
353.901	327.56
354.128	314.56
354.355	320.56
354.583	327.56
354.81	331.56
355.037	320.56
355.264	321.56
355.491	316.56
355.718	328.56
355.945	324.56
356.172	332.56
356.399	312.56
356.626	321.56
356.853	319.56
357.08	313.56
357.307	327.56
357.534	336.56
357.761	336.56
357.988	316.56
358.215	341.56
358.441	331.56
358.668	315.56
358.895	328.56
359.122	316.56
359.349	332.56
359.576	323.56
359.802	317.56
360.029	320.56
360.256	303.56
360.483	342.56
360.709	325.56
360.936	322.56
361.163	346.56
361.39	337.56
361.616	331.56
361.843	319.56
362.07	338.56
362.296	323.56
362.523	333.56
362.749	333.56
362.976	311.56
363.203	348.56
363.429	331.56
363.656	328.56
363.882	330.56
364.109	326.56
364.335	353.56
364.562	338.56
364.788	340.56
365.015	337.56
365.241	337.56
365.468	335.56
365.694	318.56
365.92	310.56
366.147	344.56
366.373	319.56
366.599	345.56
366.826	327.56
367.052	336.56
367.278	331.56
367.505	335.56
367.731	338.56
367.957	345.56
368.184	319.56
368.41	334.56
368.636	342.56
368.862	347.56
369.089	337.56
369.315	320.56
369.541	326.56
369.767	340.56
369.993	347.56
370.219	345.56
370.445	362.56
370.672	345.56
370.898	348.56
371.124	346.56
371.35	370.56
371.576	356.56
371.802	366.56
372.028	363.56
372.254	363.56
372.48	361.56
372.706	363.56
372.932	378.56
373.158	354.56
373.384	356.56
373.61	367.56
373.835	360.56
374.061	366.56
374.287	376.56
374.513	364.56
374.739	370.56
374.965	390.56
375.191	388.56
375.416	360.56
375.642	366.56
375.868	369.56
376.094	374.56
376.319	362.56
376.545	362.56
376.771	374.56
376.997	370.56
377.222	365.56
377.448	367.56
377.674	363.56
377.899	363.56
378.125	353.56
378.35	355.56
378.576	366.56
378.802	356.56
379.027	366.56
379.253	340.56
379.478	350.56
379.704	355.56
379.929	368.56
380.155	345.56
380.38	351.56
380.606	341.56
380.831	347.56
381.057	370.56
381.282	368.56
381.507	351.56
381.733	348.56
381.958	376.56
382.184	388.56
382.409	367.56
382.634	366.56
382.86	382.56
383.085	359.56
383.31	380.56
383.535	399.56
383.761	377.56
383.986	380.56
384.211	380.56
384.436	385.56
384.662	387.56
384.887	394.56
385.112	396.56
385.337	388.56
385.562	374.56
385.787	423.56
386.013	426.56
386.238	410.56
386.463	408.56
386.688	413.56
386.913	412.56
387.138	416.56
387.363	407.56
387.588	412.56
387.813	389.56
388.038	419.56
388.263	423.56
388.488	426.56
388.713	419.56
388.938	412.56
389.163	400.56
389.387	408.56
389.612	413.56
389.837	433.56
390.062	427.56
390.287	432.56
390.512	406.56
390.736	428.56
390.961	413.56
391.186	402.56
391.411	426.56
391.636	432.56
391.86	441.56
392.085	430.56
392.31	440.56
392.534	416.56
392.759	421.56
392.984	426.56
393.208	441.56
393.433	434.56
393.658	433.56
393.882	422.56
394.107	433.56
394.331	418.56
394.556	421.56
394.78	453.56
395.005	450.56
395.229	424.56
395.454	434.56
395.678	454.56
395.903	446.56
396.127	442.56
396.352	446.56
396.576	452.56
396.801	418.56
397.025	437.56
397.249	434.56
397.474	447.56
397.698	470.56
397.922	446.56
398.147	456.56
398.371	471.56
398.595	498.56
398.82	482.56
399.044	534.56
399.268	537.56
399.492	561.56
399.717	598.56
399.941	610.56
400.165	571.56
400.389	556.56
400.613	515.56
400.837	482.56
401.062	523.56
401.286	496.56
401.51	505.56
401.734	482.56
401.958	489.56
402.182	500.56
402.406	474.56
402.63	499.56
402.854	510.56
403.078	481.56
403.302	489.56
403.526	492.56
403.75	503.56
403.974	514.56
404.198	487.56
404.422	533.56
404.645	504.56
404.869	507.56
405.093	522.56
405.317	495.56
405.541	524.56
405.765	514.56
405.988	501.56
406.212	498.56
406.436	519.56
406.66	528.56
406.883	525.56
407.107	551.56
407.331	555.56
407.555	586.56
407.778	568.56
408.002	574.56
408.226	569.56
408.449	547.56
408.673	534.56
408.896	540.56
409.12	507.56
409.344	522.56
409.567	498.56
409.791	503.56
410.014	495.56
410.238	507.56
410.461	496.56
410.685	511.56
410.908	522.56
411.132	489.56
411.355	489.56
411.578	513.56
411.802	508.56
412.025	500.56
412.249	495.56
412.472	507.56
412.695	495.56
412.919	476.56
413.142	489.56
413.365	495.56
413.589	496.56
413.812	443.56
414.035	480.56
414.258	481.56
414.482	481.56
414.705	482.56
414.928	495.56
415.151	496.56
415.374	495.56
415.597	483.56
415.821	481.56
416.044	474.56
416.267	470.56
416.49	478.56
416.713	463.56
416.936	475.56
417.159	482.56
417.382	498.56
417.605	459.56
417.828	444.56
418.051	476.56
418.274	473.56
418.497	469.56
418.72	467.56
418.943	463.56
419.166	485.56
419.389	511.56
419.611	486.56
419.834	470.56
420.057	467.56
420.28	467.56
420.503	470.56
420.726	463.56
420.948	455.56
421.171	448.56
421.394	469.56
421.617	457.56
421.839	460.56
422.062	460.56
422.285	441.56
422.507	466.56
422.73	465.56
422.953	487.56
423.175	464.56
423.398	479.56
423.621	460.56
423.843	469.56
424.066	474.56
424.288	448.56
424.511	477.56
424.733	469.56
424.956	456.56
425.178	460.56
425.401	470.56
425.623	459.56
425.846	455.56
426.068	461.56
426.291	461.56
426.513	447.56
426.735	448.56
426.958	447.56
427.18	428.56
427.402	436.56
427.625	449.56
427.847	425.56
428.069	440.56
428.292	457.56
428.514	436.56
428.736	435.56
428.958	444.56
429.181	409.56
429.403	430.56
429.625	421.56
429.847	419.56
430.069	432.56
430.292	434.56
430.514	416.56
430.736	438.56
430.958	421.56
431.18	427.56
431.402	410.56
431.624	430.56
431.846	422.56
432.068	419.56
432.29	427.56
432.512	434.56
432.734	432.56
432.956	432.56
433.178	445.56
433.4	431.56
433.622	433.56
433.844	430.56
434.066	448.56
434.287	444.56
434.509	457.56
434.731	442.56
434.953	439.56
435.175	437.56
435.397	462.56
435.618	433.56
435.84	446.56
436.062	439.56
436.284	427.56
436.505	425.56
436.727	447.56
436.949	458.56
437.17	418.56
437.392	406.56
437.614	421.56
437.835	411.56
438.057	405.56
438.278	427.56
438.5	402.56
438.721	421.56
438.943	414.56
439.165	419.56
439.386	425.56
439.608	424.56
439.829	412.56
440.05	433.56
440.272	423.56
440.493	416.56
440.715	433.56
440.936	440.56
441.158	444.56
441.379	441.56
441.6	417.56
441.822	448.56
442.043	441.56
442.264	449.56
442.486	453.56
442.707	461.56
442.928	436.56
443.149	447.56
443.371	451.56
443.592	436.56
443.813	465.56
444.034	447.56
444.255	478.56
444.476	466.56
444.698	482.56
444.919	499.56
445.14	568.56
445.361	502.56
445.582	453.56
445.803	425.56
446.024	450.56
446.245	437.56
446.466	436.56
446.687	436.56
446.908	429.56
447.129	412.56
447.35	402.56
447.571	413.56
447.792	413.56
448.013	402.56
448.234	402.56
448.455	402.56
448.675	399.56
448.896	418.56
449.117	412.56
449.338	391.56
449.559	406.56
449.779	411.56
450	395.56
450.221	396.56
450.442	407.56
450.662	391.56
450.883	384.56
451.104	383.56
451.324	375.56
451.545	383.56
451.766	395.56
451.986	377.56
452.207	392.56
452.428	388.56
452.648	376.56
452.869	383.56
453.089	376.56
453.31	373.56
453.53	382.56
453.751	361.56
453.971	372.56
454.192	390.56
454.412	376.56
454.633	375.56
454.853	378.56
455.073	396.56
455.294	351.56
455.514	391.56
455.734	374.56
455.955	366.56
456.175	370.56
456.395	376.56
456.616	388.56
456.836	356.56
457.056	376.56
457.276	384.56
457.497	373.56
457.717	397.56
457.937	389.56
458.157	412.56
458.377	381.56
458.598	398.56
458.818	407.56
459.038	404.56
459.258	409.56
459.478	401.56
459.698	426.56
459.918	432.56
460.138	451.56
460.358	445.56
460.578	470.56
460.798	456.56
461.018	467.56
461.238	478.56
461.458	463.56
461.678	466.56
461.898	458.56
462.118	498.56
462.338	488.56
462.558	502.56
462.777	513.56
462.997	532.56
463.217	542.56
463.437	538.56
463.657	526.56
463.876	490.56
464.096	508.56
464.316	490.56
464.536	505.56
464.755	518.56
464.975	491.56
465.195	492.56
465.414	475.56
465.634	462.56
465.854	459.56
466.073	435.56
466.293	439.56
466.512	414.56
466.732	434.56
466.951	419.56
467.171	400.56
467.391	410.56
467.61	412.56
467.829	402.56
468.049	401.56
468.268	412.56
468.488	402.56
468.707	400.56
468.927	439.56
469.146	422.56
469.365	407.56
469.585	397.56
469.804	409.56
470.023	411.56
470.243	420.56
470.462	396.56
470.681	417.56
470.901	426.56
471.12	420.56
471.339	401.56
471.558	395.56
471.777	390.56
471.997	392.56
472.216	412.56
472.435	416.56
472.654	394.56
472.873	410.56
473.092	406.56
473.311	388.56
473.53	410.56
473.749	440.56
473.968	432.56
474.187	408.56
474.406	394.56
474.625	413.56
474.844	412.56
475.063	430.56
475.282	421.56
475.501	416.56
475.72	434.56
475.939	408.56
476.158	438.56
476.377	442.56
476.596	430.56
476.814	434.56
477.033	425.56
477.252	444.56
477.471	445.56
477.69	441.56
477.908	458.56
478.127	479.56
478.346	477.56
478.564	482.56
478.783	477.56
479.002	472.56
479.22	482.56
479.439	495.56
479.658	500.56
479.876	491.56
480.095	475.56
480.313	503.56
480.532	500.56
480.751	502.56
480.969	506.56
481.188	478.56
481.406	475.56
481.624	498.56
481.843	469.56
482.061	479.56
482.28	456.56
482.498	484.56
482.717	472.56
482.935	487.56
483.153	496.56
483.372	490.56
483.59	490.56
483.808	476.56
484.027	479.56
484.245	481.56
484.463	488.56
484.681	502.56
484.9	493.56
485.118	510.56
485.336	512.56
485.554	490.56
485.772	494.56
485.99	489.56
486.209	493.56
486.427	509.56
486.645	491.56
486.863	488.56
487.081	486.56
487.299	483.56
487.517	491.56
487.735	483.56
487.953	516.56
488.171	499.56
488.389	510.56
488.607	471.56
488.825	486.56
489.043	491.56
489.261	482.56
489.479	502.56
489.696	502.56
489.914	487.56
490.132	499.56
490.35	514.56
490.568	499.56
490.786	485.56
491.003	488.56
491.221	490.56
491.439	508.56
491.657	510.56
491.874	494.56
492.092	487.56
492.31	488.56
492.527	512.56
492.745	495.56
492.963	508.56
493.18	515.56
493.398	494.56
493.615	494.56
493.833	499.56
494.05	528.56
494.268	516.56
494.485	506.56
494.703	503.56
494.92	516.56
495.138	528.56
495.355	502.56
495.573	528.56
495.79	516.56
496.008	526.56
496.225	549.56
496.442	575.56
496.66	558.56
496.877	540.56
497.094	538.56
497.312	566.56
497.529	561.56
497.746	580.56
497.963	593.56
498.181	623.56
498.398	640.56
498.615	647.56
498.832	664.56
499.049	696.56
499.267	718.56
499.484	776.56
499.701	818.56
499.918	848.56
500.135	903.56
500.352	974.56
500.569	987.56
500.786	956.56
501.003	946.56
501.22	887.56
501.437	840.56
501.654	764.56
501.871	748.56
