Data from Fe(NO3)3@0.0125M.TitratingCurve.Agarose3%dH2O.NegLispCup.LampEnergy10.LIBS07252019_HRD10591_17-00-47-336.txt Node
Date: Thu Jul 25 17:00:47 EDT 2019
User: cochatt
Spectrometer: HR+D1059
Trigger mode: 1
Integration Time (sec): 1.000000E-1
Scans to average: 1
Electric dark correction enabled: true
Nonlinearity correction enabled: false
Boxcar width: 0
XAxis mode: Wavelengths
Number of Pixels in Spectrum: 2048
>>>>>Begin Spectral Data<<<<<
223.165	-21.25
223.4	-21.25
223.635	-21.25
223.869	-19.25
224.104	-18.25
224.338	-16.25
224.573	-23.25
224.808	-11.25
225.042	-2.25
225.277	-5.25
225.511	13.75
225.746	16.75
225.98	-0.25
226.215	-7.25
226.449	15.75
226.683	17.75
226.918	37.75
227.152	22.75
227.387	47.75
227.621	36.75
227.856	59.75
228.09	65.75
228.324	58.75
228.559	62.75
228.793	64.75
229.027	82.75
229.262	98.75
229.496	84.75
229.73	87.75
229.964	86.75
230.199	94.75
230.433	96.75
230.667	82.75
230.901	100.75
231.136	104.75
231.37	104.75
231.604	95.75
231.838	106.75
232.072	110.75
232.306	109.75
232.541	116.75
232.775	103.75
233.009	106.75
233.243	99.75
233.477	114.75
233.711	92.75
233.945	123.75
234.179	116.75
234.413	115.75
234.647	110.75
234.881	111.75
235.115	122.75
235.349	111.75
235.583	116.75
235.817	104.75
236.051	97.75
236.285	110.75
236.519	114.75
236.753	105.75
236.987	109.75
237.221	89.75
237.455	107.75
237.689	125.75
237.922	100.75
238.156	122.75
238.39	125.75
238.624	135.75
238.858	124.75
239.091	116.75
239.325	124.75
239.559	130.75
239.793	112.75
240.027	120.75
240.26	124.75
240.494	101.75
240.728	116.75
240.961	113.75
241.195	124.75
241.429	114.75
241.662	119.75
241.896	110.75
242.13	124.75
242.363	138.75
242.597	116.75
242.83	115.75
243.064	100.75
243.298	119.75
243.531	127.75
243.765	122.75
243.998	130.75
244.232	138.75
244.465	133.75
244.699	129.75
244.932	119.75
245.166	119.75
245.399	128.75
245.633	123.75
245.866	125.75
246.099	132.75
246.333	122.75
246.566	136.75
246.8	132.75
247.033	139.75
247.266	141.75
247.5	130.75
247.733	131.75
247.966	150.75
248.2	142.75
248.433	148.75
248.666	150.75
248.899	131.75
249.133	139.75
249.366	152.75
249.599	141.75
249.832	142.75
250.066	148.75
250.299	152.75
250.532	136.75
250.765	144.75
250.998	140.75
251.231	147.75
251.465	138.75
251.698	135.75
251.931	158.75
252.164	153.75
252.397	156.75
252.63	144.75
252.863	156.75
253.096	157.75
253.329	153.75
253.562	145.75
253.795	142.75
254.028	162.75
254.261	156.75
254.494	146.75
254.727	143.75
254.96	143.75
255.193	155.75
255.426	152.75
255.659	164.75
255.892	171.75
256.124	174.75
256.357	158.75
256.59	178.75
256.823	162.75
257.056	166.75
257.289	162.75
257.521	157.75
257.754	172.75
257.987	158.75
258.22	166.75
258.452	166.75
258.685	161.75
258.918	175.75
259.151	174.75
259.383	167.75
259.616	167.75
259.849	165.75
260.081	199.75
260.314	180.75
260.547	179.75
260.779	157.75
261.012	188.75
261.244	174.75
261.477	192.75
261.71	167.75
261.942	162.75
262.175	167.75
262.407	165.75
262.64	184.75
262.872	174.75
263.105	193.75
263.337	186.75
263.57	177.75
263.802	177.75
264.035	166.75
264.267	190.75
264.499	168.75
264.732	172.75
264.964	186.75
265.197	178.75
265.429	184.75
265.661	177.75
265.894	186.75
266.126	196.75
266.358	179.75
266.591	185.75
266.823	167.75
267.055	186.75
267.287	194.75
267.52	160.75
267.752	188.75
267.984	174.75
268.216	184.75
268.448	187.75
268.681	191.75
268.913	192.75
269.145	192.75
269.377	181.75
269.609	178.75
269.841	198.75
270.073	184.75
270.306	189.75
270.538	184.75
270.77	198.75
271.002	196.75
271.234	197.75
271.466	197.75
271.698	204.75
271.93	201.75
272.162	213.75
272.394	186.75
272.626	205.75
272.858	204.75
273.09	203.75
273.322	217.75
273.553	215.75
273.785	213.75
274.017	210.75
274.249	230.75
274.481	227.75
274.713	235.75
274.945	231.75
275.176	234.75
275.408	227.75
275.64	250.75
275.872	235.75
276.104	216.75
276.335	219.75
276.567	209.75
276.799	219.75
277.031	213.75
277.262	218.75
277.494	222.75
277.726	213.75
277.957	211.75
278.189	215.75
278.421	221.75
278.652	214.75
278.884	228.75
279.115	230.75
279.347	239.75
279.579	224.75
279.81	239.75
280.042	209.75
280.273	237.75
280.505	230.75
280.736	230.75
280.968	215.75
281.199	214.75
281.431	231.75
281.662	215.75
281.894	237.75
282.125	231.75
282.356	234.75
282.588	222.75
282.819	219.75
283.051	232.75
283.282	235.75
283.513	249.75
283.745	230.75
283.976	238.75
284.207	238.75
284.439	240.75
284.67	239.75
284.901	237.75
285.132	234.75
285.364	234.75
285.595	230.75
285.826	251.75
286.057	258.75
286.288	234.75
286.52	245.75
286.751	247.75
286.982	232.75
287.213	229.75
287.444	260.75
287.675	272.75
287.906	253.75
288.138	256.75
288.369	256.75
288.6	251.75
288.831	272.75
289.062	251.75
289.293	246.75
289.524	240.75
289.755	251.75
289.986	242.75
290.217	265.75
290.448	234.75
290.679	260.75
290.91	245.75
291.141	262.75
291.371	259.75
291.602	257.75
291.833	252.75
292.064	260.75
292.295	245.75
292.526	253.75
292.757	268.75
292.987	243.75
293.218	259.75
293.449	247.75
293.68	263.75
293.91	261.75
294.141	259.75
294.372	266.75
294.603	286.75
294.833	265.75
295.064	261.75
295.295	251.75
295.525	260.75
295.756	270.75
295.987	270.75
296.217	269.75
296.448	290.75
296.679	266.75
296.909	284.75
297.14	266.75
297.37	293.75
297.601	275.75
297.831	264.75
298.062	279.75
298.292	273.75
298.523	281.75
298.753	277.75
298.984	276.75
299.214	273.75
299.445	286.75
299.675	280.75
299.905	275.75
300.136	294.75
300.366	282.75
300.597	280.75
300.827	277.75
301.057	278.75
301.288	292.75
301.518	289.75
301.748	315.75
301.979	298.75
302.209	292.75
302.439	284.75
302.669	290.75
302.9	284.75
303.13	282.75
303.36	283.75
303.59	295.75
303.82	311.75
304.051	306.75
304.281	291.75
304.511	312.75
304.741	292.75
304.971	282.75
305.201	289.75
305.431	286.75
305.661	278.75
305.891	309.75
306.121	308.75
306.352	303.75
306.582	286.75
306.812	303.75
307.042	293.75
307.272	294.75
307.502	315.75
307.731	290.75
307.961	310.75
308.191	295.75
308.421	301.75
308.651	300.75
308.881	317.75
309.111	310.75
309.341	307.75
309.571	311.75
309.8	324.75
310.03	324.75
310.26	319.75
310.49	326.75
310.72	310.75
310.949	308.75
311.179	319.75
311.409	303.75
311.639	299.75
311.868	298.75
312.098	321.75
312.328	325.75
312.557	331.75
312.787	299.75
313.017	321.75
313.246	316.75
313.476	330.75
313.706	317.75
313.935	324.75
314.165	323.75
314.394	316.75
314.624	335.75
314.853	318.75
315.083	344.75
315.312	335.75
315.542	338.75
315.771	333.75
316.001	325.75
316.23	351.75
316.46	312.75
316.689	333.75
316.919	330.75
317.148	338.75
317.377	333.75
317.607	336.75
317.836	346.75
318.065	332.75
318.295	340.75
318.524	322.75
318.753	331.75
318.983	344.75
319.212	330.75
319.441	347.75
319.67	330.75
319.9	361.75
320.129	331.75
320.358	348.75
320.587	343.75
320.816	323.75
321.046	333.75
321.275	354.75
321.504	350.75
321.733	331.75
321.962	344.75
322.191	359.75
322.42	356.75
322.649	350.75
322.878	335.75
323.108	342.75
323.337	332.75
323.566	344.75
323.795	355.75
324.024	343.75
324.253	356.75
324.482	355.75
324.71	338.75
324.939	352.75
325.168	362.75
325.397	359.75
325.626	372.75
325.855	360.75
326.084	349.75
326.313	368.75
326.542	379.75
326.77	370.75
326.999	371.75
327.228	348.75
327.457	350.75
327.686	376.75
327.914	364.75
328.143	376.75
328.372	355.75
328.6	366.75
328.829	349.75
329.058	362.75
329.287	379.75
329.515	382.75
329.744	379.75
329.972	373.75
330.201	386.75
330.43	376.75
330.658	380.75
330.887	368.75
331.115	384.75
331.344	366.75
331.572	387.75
331.801	382.75
332.03	375.75
332.258	369.75
332.486	396.75
332.715	401.75
332.943	372.75
333.172	395.75
333.4	400.75
333.629	389.75
333.857	388.75
334.085	406.75
334.314	411.75
334.542	405.75
334.771	410.75
334.999	421.75
335.227	422.75
335.455	431.75
335.684	410.75
335.912	424.75
336.14	420.75
336.369	403.75
336.597	411.75
336.825	410.75
337.053	412.75
337.281	424.75
337.51	396.75
337.738	414.75
337.966	394.75
338.194	404.75
338.422	402.75
338.65	384.75
338.878	406.75
339.106	395.75
339.334	392.75
339.562	392.75
339.79	408.75
340.018	403.75
340.246	414.75
340.474	399.75
340.702	395.75
340.93	390.75
341.158	386.75
341.386	385.75
341.614	383.75
341.842	377.75
342.07	383.75
342.298	401.75
342.526	404.75
342.754	379.75
342.981	388.75
343.209	388.75
343.437	415.75
343.665	399.75
343.893	422.75
344.12	445.75
344.348	412.75
344.576	414.75
344.804	424.75
345.031	386.75
345.259	383.75
345.487	376.75
345.714	392.75
345.942	414.75
346.17	396.75
346.397	395.75
346.625	378.75
346.853	404.75
347.08	376.75
347.308	395.75
347.535	382.75
347.763	408.75
347.99	390.75
348.218	376.75
348.445	393.75
348.673	383.75
348.9	386.75
349.128	391.75
349.355	366.75
349.583	415.75
349.81	396.75
350.037	407.75
350.265	380.75
350.492	374.75
350.72	383.75
350.947	406.75
351.174	391.75
351.402	380.75
351.629	395.75
351.856	379.75
352.083	396.75
352.311	397.75
352.538	386.75
352.765	388.75
352.992	380.75
353.22	391.75
353.447	375.75
353.674	385.75
353.901	375.75
354.128	386.75
354.355	397.75
354.583	378.75
354.81	377.75
355.037	397.75
355.264	380.75
355.491	371.75
355.718	380.75
355.945	393.75
356.172	380.75
356.399	401.75
356.626	391.75
356.853	425.75
357.08	383.75
357.307	395.75
357.534	397.75
357.761	386.75
357.988	394.75
358.215	419.75
358.441	404.75
358.668	388.75
358.895	402.75
359.122	384.75
359.349	358.75
359.576	399.75
359.802	390.75
360.029	396.75
360.256	382.75
360.483	396.75
360.709	416.75
360.936	406.75
361.163	404.75
361.39	407.75
361.616	382.75
361.843	405.75
362.07	400.75
362.296	384.75
362.523	401.75
362.749	383.75
362.976	397.75
363.203	388.75
363.429	398.75
363.656	398.75
363.882	409.75
364.109	398.75
364.335	385.75
364.562	411.75
364.788	394.75
365.015	406.75
365.241	398.75
365.468	402.75
365.694	396.75
365.92	401.75
366.147	375.75
366.373	393.75
366.599	399.75
366.826	375.75
367.052	381.75
367.278	386.75
367.505	398.75
367.731	411.75
367.957	392.75
368.184	409.75
368.41	407.75
368.636	424.75
368.862	393.75
369.089	404.75
369.315	418.75
369.541	407.75
369.767	409.75
369.993	397.75
370.219	429.75
370.445	413.75
370.672	405.75
370.898	429.75
371.124	415.75
371.35	415.75
371.576	419.75
371.802	439.75
372.028	417.75
372.254	428.75
372.48	437.75
372.706	437.75
372.932	428.75
373.158	416.75
373.384	453.75
373.61	453.75
373.835	444.75
374.061	462.75
374.287	436.75
374.513	471.75
374.739	442.75
374.965	461.75
375.191	463.75
375.416	446.75
375.642	431.75
375.868	446.75
376.094	443.75
376.319	454.75
376.545	440.75
376.771	446.75
376.997	420.75
377.222	424.75
377.448	427.75
377.674	445.75
377.899	420.75
378.125	413.75
378.35	415.75
378.576	439.75
378.802	413.75
379.027	434.75
379.253	429.75
379.478	419.75
379.704	438.75
379.929	440.75
380.155	414.75
380.38	422.75
380.606	412.75
380.831	415.75
381.057	436.75
381.282	442.75
381.507	431.75
381.733	434.75
381.958	458.75
382.184	458.75
382.409	462.75
382.634	446.75
382.86	443.75
383.085	442.75
383.31	439.75
383.535	455.75
383.761	436.75
383.986	430.75
384.211	465.75
384.436	455.75
384.662	463.75
384.887	468.75
385.112	450.75
385.337	450.75
385.562	462.75
385.787	472.75
386.013	484.75
386.238	481.75
386.463	456.75
386.688	483.75
386.913	494.75
387.138	486.75
387.363	487.75
387.588	463.75
387.813	500.75
388.038	471.75
388.263	473.75
388.488	473.75
388.713	483.75
388.938	493.75
389.163	476.75
389.387	492.75
389.612	511.75
389.837	488.75
390.062	478.75
390.287	481.75
390.512	476.75
390.736	492.75
390.961	483.75
391.186	499.75
391.411	488.75
391.636	495.75
391.86	495.75
392.085	515.75
392.31	487.75
392.534	508.75
392.759	502.75
392.984	487.75
393.208	524.75
393.433	556.75
393.658	550.75
393.882	489.75
394.107	516.75
394.331	518.75
394.556	518.75
394.78	485.75
395.005	500.75
395.229	502.75
395.454	523.75
395.678	509.75
395.903	524.75
396.127	508.75
396.352	520.75
396.576	519.75
396.801	550.75
397.025	550.75
397.249	533.75
397.474	519.75
397.698	533.75
397.922	547.75
398.147	522.75
398.371	551.75
398.595	544.75
398.82	558.75
399.044	577.75
399.268	578.75
399.492	602.75
399.717	614.75
399.941	616.75
400.165	612.75
400.389	604.75
400.613	590.75
400.837	569.75
401.062	582.75
401.286	554.75
401.51	552.75
401.734	564.75
401.958	555.75
402.182	572.75
402.406	548.75
402.63	548.75
402.854	544.75
403.078	557.75
403.302	562.75
403.526	569.75
403.75	567.75
403.974	569.75
404.198	587.75
404.422	556.75
404.645	575.75
404.869	574.75
405.093	588.75
405.317	574.75
405.541	566.75
405.765	572.75
405.988	587.75
406.212	584.75
406.436	590.75
406.66	604.75
406.883	602.75
407.107	608.75
407.331	610.75
407.555	633.75
407.778	619.75
408.002	646.75
408.226	639.75
408.449	635.75
408.673	626.75
408.896	616.75
409.12	618.75
409.344	601.75
409.567	570.75
409.791	593.75
410.014	608.75
410.238	557.75
410.461	584.75
410.685	580.75
410.908	604.75
411.132	582.75
411.355	571.75
411.578	607.75
411.802	578.75
412.025	585.75
412.249	578.75
412.472	592.75
412.695	575.75
412.919	555.75
413.142	576.75
413.365	558.75
413.589	576.75
413.812	568.75
414.035	558.75
414.258	554.75
414.482	562.75
414.705	572.75
414.928	553.75
415.151	566.75
415.374	574.75
415.597	548.75
415.821	537.75
416.044	550.75
416.267	549.75
416.49	538.75
416.713	525.75
416.936	540.75
417.159	528.75
417.382	550.75
417.605	541.75
417.828	533.75
418.051	551.75
418.274	550.75
418.497	551.75
418.72	553.75
418.943	542.75
419.166	543.75
419.389	589.75
419.611	567.75
419.834	570.75
420.057	577.75
420.28	553.75
420.503	528.75
420.726	552.75
420.948	555.75
421.171	540.75
421.394	544.75
421.617	519.75
421.839	550.75
422.062	531.75
422.285	525.75
422.507	541.75
422.73	556.75
422.953	532.75
423.175	519.75
423.398	526.75
423.621	538.75
423.843	544.75
424.066	523.75
424.288	527.75
424.511	520.75
424.733	543.75
424.956	538.75
425.178	535.75
425.401	520.75
425.623	543.75
425.846	538.75
426.068	526.75
426.291	531.75
426.513	529.75
426.735	505.75
426.958	528.75
427.18	506.75
427.402	528.75
427.625	519.75
427.847	531.75
428.069	500.75
428.292	522.75
428.514	514.75
428.736	536.75
428.958	539.75
429.181	526.75
429.403	516.75
429.625	521.75
429.847	506.75
430.069	535.75
430.292	520.75
430.514	517.75
430.736	518.75
430.958	493.75
431.18	536.75
431.402	547.75
431.624	503.75
431.846	513.75
432.068	514.75
432.29	511.75
432.512	514.75
432.734	531.75
432.956	524.75
433.178	543.75
433.4	522.75
433.622	530.75
433.844	515.75
434.066	524.75
434.287	526.75
434.509	534.75
434.731	546.75
434.953	539.75
435.175	547.75
435.397	517.75
435.618	528.75
435.84	516.75
436.062	525.75
436.284	509.75
436.505	549.75
436.727	523.75
436.949	512.75
437.17	514.75
437.392	523.75
437.614	508.75
437.835	506.75
438.057	523.75
438.278	493.75
438.5	535.75
438.721	534.75
438.943	528.75
439.165	502.75
439.386	513.75
439.608	514.75
439.829	514.75
440.05	528.75
440.272	506.75
440.493	527.75
440.715	527.75
440.936	528.75
441.158	528.75
441.379	531.75
441.6	530.75
441.822	520.75
442.043	522.75
442.264	535.75
442.486	523.75
442.707	545.75
442.928	530.75
443.149	515.75
443.371	514.75
443.592	536.75
443.813	528.75
444.034	527.75
444.255	543.75
444.476	531.75
444.698	539.75
444.919	550.75
445.14	620.75
445.361	575.75
445.582	551.75
445.803	540.75
446.024	499.75
446.245	526.75
446.466	534.75
446.687	512.75
446.908	507.75
447.129	510.75
447.35	491.75
447.571	498.75
447.792	499.75
448.013	506.75
448.234	475.75
448.455	486.75
448.675	486.75
448.896	478.75
449.117	488.75
449.338	487.75
449.559	479.75
449.779	488.75
450	481.75
450.221	480.75
450.442	497.75
450.662	489.75
450.883	473.75
451.104	480.75
451.324	471.75
451.545	474.75
451.766	476.75
451.986	488.75
452.207	466.75
452.428	485.75
452.648	473.75
452.869	468.75
453.089	469.75
453.31	466.75
453.53	484.75
453.751	447.75
453.971	450.75
454.192	470.75
454.412	463.75
454.633	468.75
454.853	474.75
455.073	488.75
455.294	458.75
455.514	463.75
455.734	456.75
455.955	494.75
456.175	476.75
456.395	468.75
456.616	484.75
456.836	459.75
457.056	454.75
457.276	456.75
457.497	484.75
457.717	458.75
457.937	473.75
458.157	466.75
458.377	498.75
458.598	501.75
458.818	474.75
459.038	515.75
459.258	495.75
459.478	520.75
459.698	494.75
459.918	540.75
460.138	534.75
460.358	524.75
460.578	532.75
460.798	545.75
461.018	548.75
461.238	547.75
461.458	549.75
461.678	571.75
461.898	562.75
462.118	560.75
462.338	565.75
462.558	594.75
462.777	585.75
462.997	590.75
463.217	581.75
463.437	602.75
463.657	619.75
463.876	596.75
464.096	593.75
464.316	559.75
464.536	570.75
464.755	596.75
464.975	569.75
465.195	554.75
465.414	557.75
465.634	530.75
465.854	526.75
466.073	524.75
466.293	532.75
466.512	538.75
466.732	540.75
466.951	524.75
467.171	519.75
467.391	501.75
467.61	502.75
467.829	526.75
468.049	501.75
468.268	500.75
468.488	493.75
468.707	478.75
468.927	510.75
469.146	511.75
469.365	521.75
469.585	493.75
469.804	500.75
470.023	518.75
470.243	509.75
470.462	528.75
470.681	532.75
470.901	521.75
471.12	524.75
471.339	499.75
471.558	510.75
471.777	541.75
471.997	520.75
472.216	524.75
472.435	525.75
472.654	508.75
472.873	520.75
473.092	518.75
473.311	543.75
473.53	503.75
473.749	515.75
473.968	532.75
474.187	535.75
474.406	537.75
474.625	512.75
474.844	539.75
475.063	522.75
475.282	514.75
475.501	541.75
475.72	524.75
475.939	501.75
476.158	547.75
476.377	557.75
476.596	560.75
476.814	567.75
477.033	556.75
477.252	526.75
477.471	580.75
477.69	563.75
477.908	583.75
478.127	572.75
478.346	593.75
478.564	612.75
478.783	576.75
479.002	597.75
479.22	606.75
479.439	604.75
479.658	611.75
479.876	598.75
480.095	615.75
480.313	619.75
480.532	602.75
480.751	623.75
480.969	618.75
481.188	606.75
481.406	601.75
481.624	623.75
481.843	610.75
482.061	605.75
482.28	616.75
482.498	595.75
482.717	616.75
482.935	613.75
483.153	596.75
483.372	612.75
483.59	617.75
483.808	600.75
484.027	598.75
484.245	602.75
484.463	612.75
484.681	615.75
484.9	642.75
485.118	612.75
485.336	626.75
485.554	618.75
485.772	635.75
485.99	631.75
486.209	615.75
486.427	616.75
486.645	636.75
486.863	638.75
487.081	632.75
487.299	616.75
487.517	638.75
487.735	627.75
487.953	643.75
488.171	669.75
488.389	630.75
488.607	605.75
488.825	610.75
489.043	618.75
489.261	634.75
489.479	644.75
489.696	635.75
489.914	624.75
490.132	635.75
490.35	654.75
490.568	648.75
490.786	644.75
491.003	652.75
491.221	654.75
491.439	641.75
491.657	656.75
491.874	666.75
492.092	656.75
492.31	666.75
492.527	672.75
492.745	668.75
492.963	612.75
493.18	654.75
493.398	652.75
493.615	660.75
493.833	624.75
494.05	666.75
494.268	668.75
494.485	644.75
494.703	662.75
494.92	666.75
495.138	698.75
495.355	671.75
495.573	684.75
495.79	687.75
496.008	663.75
496.225	718.75
496.442	690.75
496.66	699.75
496.877	701.75
497.094	699.75
497.312	721.75
497.529	723.75
497.746	737.75
497.963	758.75
498.181	757.75
498.398	787.75
498.615	828.75
498.832	807.75
499.049	859.75
499.267	862.75
499.484	864.75
499.701	888.75
499.918	952.75
500.135	960.75
500.352	971.75
500.569	989.75
500.786	991.75
501.003	996.75
501.22	983.75
501.437	935.75
501.654	915.75
