Data from Fe(NO3)3@0.1M.TitratingCurve.Agarose3%dH2O.NegLispCup.LampEnergy10.LIBS07252019_HRD10591_16-40-36-332.txt Node
Date: Thu Jul 25 16:40:36 EDT 2019
User: cochatt
Spectrometer: HR+D1059
Trigger mode: 1
Integration Time (sec): 1.000000E-1
Scans to average: 1
Electric dark correction enabled: true
Nonlinearity correction enabled: false
Boxcar width: 0
XAxis mode: Wavelengths
Number of Pixels in Spectrum: 2048
>>>>>Begin Spectral Data<<<<<
223.165	1.19
223.4	1.19
223.635	1.19
223.869	-15.81
224.104	-7.81
224.338	-28.81
224.573	-5.81
224.808	-36.81
225.042	-14.81
225.277	-2.81
225.511	1.19
225.746	3.19
225.98	13.19
226.215	19.19
226.449	11.19
226.683	18.19
226.918	26.19
227.152	19.19
227.387	30.19
227.621	31.19
227.856	42.19
228.09	51.19
228.324	38.19
228.559	61.19
228.793	51.19
229.027	69.19
229.262	78.19
229.496	79.19
229.73	84.19
229.964	77.19
230.199	82.19
230.433	108.19
230.667	85.19
230.901	87.19
231.136	93.19
231.37	97.19
231.604	87.19
231.838	87.19
232.072	98.19
232.306	115.19
232.541	114.19
232.775	92.19
233.009	85.19
233.243	105.19
233.477	91.19
233.711	114.19
233.945	98.19
234.179	100.19
234.413	101.19
234.647	90.19
234.881	90.19
235.115	97.19
235.349	92.19
235.583	98.19
235.817	100.19
236.051	108.19
236.285	98.19
236.519	93.19
236.753	100.19
236.987	104.19
237.221	88.19
237.455	116.19
237.689	99.19
237.922	91.19
238.156	110.19
238.39	112.19
238.624	106.19
238.858	111.19
239.091	113.19
239.325	110.19
239.559	113.19
239.793	93.19
240.027	109.19
240.26	116.19
240.494	119.19
240.728	105.19
240.961	126.19
241.195	99.19
241.429	106.19
241.662	106.19
241.896	109.19
242.13	103.19
242.363	107.19
242.597	114.19
242.83	105.19
243.064	108.19
243.298	109.19
243.531	110.19
243.765	106.19
243.998	115.19
244.232	108.19
244.465	118.19
244.699	107.19
244.932	123.19
245.166	120.19
245.399	114.19
245.633	122.19
245.866	120.19
246.099	118.19
246.333	122.19
246.566	110.19
246.8	123.19
247.033	117.19
247.266	118.19
247.5	123.19
247.733	128.19
247.966	127.19
248.2	122.19
248.433	119.19
248.666	122.19
248.899	135.19
249.133	123.19
249.366	130.19
249.599	125.19
249.832	125.19
250.066	127.19
250.299	131.19
250.532	147.19
250.765	137.19
250.998	137.19
251.231	125.19
251.465	128.19
251.698	127.19
251.931	114.19
252.164	123.19
252.397	128.19
252.63	133.19
252.863	124.19
253.096	139.19
253.329	126.19
253.562	124.19
253.795	142.19
254.028	137.19
254.261	129.19
254.494	148.19
254.727	123.19
254.96	145.19
255.193	126.19
255.426	130.19
255.659	148.19
255.892	132.19
256.124	149.19
256.357	142.19
256.59	141.19
256.823	137.19
257.056	137.19
257.289	140.19
257.521	135.19
257.754	143.19
257.987	141.19
258.22	154.19
258.452	149.19
258.685	125.19
258.918	155.19
259.151	147.19
259.383	147.19
259.616	124.19
259.849	139.19
260.081	148.19
260.314	147.19
260.547	154.19
260.779	138.19
261.012	144.19
261.244	140.19
261.477	152.19
261.71	167.19
261.942	153.19
262.175	140.19
262.407	145.19
262.64	149.19
262.872	169.19
263.105	153.19
263.337	168.19
263.57	165.19
263.802	140.19
264.035	163.19
264.267	140.19
264.499	155.19
264.732	162.19
264.964	158.19
265.197	142.19
265.429	148.19
265.661	142.19
265.894	152.19
266.126	171.19
266.358	157.19
266.591	156.19
266.823	165.19
267.055	163.19
267.287	161.19
267.52	155.19
267.752	162.19
267.984	151.19
268.216	178.19
268.448	147.19
268.681	164.19
268.913	164.19
269.145	159.19
269.377	158.19
269.609	153.19
269.841	168.19
270.073	171.19
270.306	166.19
270.538	173.19
270.77	168.19
271.002	183.19
271.234	184.19
271.466	177.19
271.698	165.19
271.93	181.19
272.162	178.19
272.394	163.19
272.626	171.19
272.858	171.19
273.09	189.19
273.322	178.19
273.553	164.19
273.785	175.19
274.017	175.19
274.249	177.19
274.481	185.19
274.713	175.19
274.945	170.19
275.176	179.19
275.408	190.19
275.64	187.19
275.872	196.19
276.104	195.19
276.335	180.19
276.567	197.19
276.799	177.19
277.031	167.19
277.262	187.19
277.494	185.19
277.726	189.19
277.957	167.19
278.189	195.19
278.421	189.19
278.652	208.19
278.884	182.19
279.115	187.19
279.347	194.19
279.579	205.19
279.81	199.19
280.042	193.19
280.273	198.19
280.505	192.19
280.736	193.19
280.968	196.19
281.199	185.19
281.431	197.19
281.662	190.19
281.894	197.19
282.125	186.19
282.356	204.19
282.588	190.19
282.819	202.19
283.051	187.19
283.282	199.19
283.513	188.19
283.745	215.19
283.976	209.19
284.207	199.19
284.439	217.19
284.67	203.19
284.901	207.19
285.132	219.19
285.364	214.19
285.595	212.19
285.826	203.19
286.057	199.19
286.288	213.19
286.52	207.19
286.751	201.19
286.982	216.19
287.213	210.19
287.444	214.19
287.675	221.19
287.906	202.19
288.138	198.19
288.369	206.19
288.6	214.19
288.831	219.19
289.062	234.19
289.293	217.19
289.524	219.19
289.755	221.19
289.986	219.19
290.217	212.19
290.448	199.19
290.679	217.19
290.91	220.19
291.141	210.19
291.371	227.19
291.602	209.19
291.833	210.19
292.064	210.19
292.295	221.19
292.526	212.19
292.757	210.19
292.987	210.19
293.218	214.19
293.449	192.19
293.68	219.19
293.91	221.19
294.141	231.19
294.372	211.19
294.603	214.19
294.833	212.19
295.064	243.19
295.295	227.19
295.525	216.19
295.756	230.19
295.987	200.19
296.217	239.19
296.448	236.19
296.679	222.19
296.909	231.19
297.14	214.19
297.37	221.19
297.601	226.19
297.831	215.19
298.062	234.19
298.292	230.19
298.523	242.19
298.753	227.19
298.984	235.19
299.214	246.19
299.445	241.19
299.675	229.19
299.905	237.19
300.136	228.19
300.366	237.19
300.597	235.19
300.827	246.19
301.057	226.19
301.288	234.19
301.518	235.19
301.748	229.19
301.979	232.19
302.209	247.19
302.439	217.19
302.669	234.19
302.9	243.19
303.13	229.19
303.36	248.19
303.59	229.19
303.82	236.19
304.051	251.19
304.281	257.19
304.511	232.19
304.741	226.19
304.971	238.19
305.201	243.19
305.431	261.19
305.661	242.19
305.891	242.19
306.121	238.19
306.352	255.19
306.582	248.19
306.812	246.19
307.042	232.19
307.272	235.19
307.502	254.19
307.731	238.19
307.961	233.19
308.191	247.19
308.421	247.19
308.651	250.19
308.881	254.19
309.111	249.19
309.341	234.19
309.571	253.19
309.8	244.19
310.03	234.19
310.26	246.19
310.49	241.19
310.72	264.19
310.949	245.19
311.179	268.19
311.409	245.19
311.639	267.19
311.868	264.19
312.098	249.19
312.328	237.19
312.557	261.19
312.787	241.19
313.017	254.19
313.246	253.19
313.476	248.19
313.706	271.19
313.935	259.19
314.165	253.19
314.394	251.19
314.624	263.19
314.853	263.19
315.083	270.19
315.312	259.19
315.542	278.19
315.771	273.19
316.001	244.19
316.23	257.19
316.46	265.19
316.689	257.19
316.919	261.19
317.148	249.19
317.377	253.19
317.607	252.19
317.836	264.19
318.065	250.19
318.295	258.19
318.524	248.19
318.753	251.19
318.983	246.19
319.212	247.19
319.441	263.19
319.67	250.19
319.9	245.19
320.129	276.19
320.358	272.19
320.587	269.19
320.816	265.19
321.046	237.19
321.275	268.19
321.504	272.19
321.733	266.19
321.962	269.19
322.191	269.19
322.42	251.19
322.649	255.19
322.878	264.19
323.108	281.19
323.337	258.19
323.566	280.19
323.795	261.19
324.024	253.19
324.253	256.19
324.482	278.19
324.71	279.19
324.939	281.19
325.168	277.19
325.397	276.19
325.626	282.19
325.855	279.19
326.084	269.19
326.313	297.19
326.542	291.19
326.77	271.19
326.999	281.19
327.228	270.19
327.457	274.19
327.686	285.19
327.914	285.19
328.143	280.19
328.372	277.19
328.6	279.19
328.829	294.19
329.058	277.19
329.287	270.19
329.515	291.19
329.744	289.19
329.972	294.19
330.201	275.19
330.43	296.19
330.658	281.19
330.887	294.19
331.115	298.19
331.344	298.19
331.572	306.19
331.801	302.19
332.03	299.19
332.258	305.19
332.486	317.19
332.715	328.19
332.943	338.19
333.172	349.19
333.4	337.19
333.629	359.19
333.857	355.19
334.085	367.19
334.314	351.19
334.542	344.19
334.771	357.19
334.999	338.19
335.227	336.19
335.455	338.19
335.684	344.19
335.912	340.19
336.14	321.19
336.369	318.19
336.597	331.19
336.825	306.19
337.053	333.19
337.281	324.19
337.51	316.19
337.738	322.19
337.966	322.19
338.194	306.19
338.422	296.19
338.65	301.19
338.878	322.19
339.106	309.19
339.334	285.19
339.562	283.19
339.79	297.19
340.018	298.19
340.246	300.19
340.474	300.19
340.702	296.19
340.93	306.19
341.158	300.19
341.386	284.19
341.614	303.19
341.842	299.19
342.07	297.19
342.298	318.19
342.526	305.19
342.754	288.19
342.981	297.19
343.209	295.19
343.437	311.19
343.665	338.19
343.893	340.19
344.12	350.19
344.348	344.19
344.576	325.19
344.804	318.19
345.031	303.19
345.259	285.19
345.487	301.19
345.714	278.19
345.942	284.19
346.17	294.19
346.397	288.19
346.625	294.19
346.853	300.19
347.08	285.19
347.308	267.19
347.535	294.19
347.763	296.19
347.99	299.19
348.218	298.19
348.445	291.19
348.673	279.19
348.9	294.19
349.128	289.19
349.355	280.19
349.583	282.19
349.81	294.19
350.037	269.19
350.265	285.19
350.492	294.19
350.72	289.19
350.947	270.19
351.174	287.19
351.402	254.19
351.629	301.19
351.856	276.19
352.083	299.19
352.311	291.19
352.538	275.19
352.765	270.19
352.992	295.19
353.22	293.19
353.447	276.19
353.674	280.19
353.901	272.19
354.128	281.19
354.355	283.19
354.583	282.19
354.81	292.19
355.037	280.19
355.264	270.19
355.491	300.19
355.718	274.19
355.945	283.19
356.172	275.19
356.399	297.19
356.626	296.19
356.853	286.19
357.08	282.19
357.307	269.19
357.534	270.19
357.761	275.19
357.988	285.19
358.215	289.19
358.441	278.19
358.668	271.19
358.895	282.19
359.122	271.19
359.349	292.19
359.576	268.19
359.802	293.19
360.029	284.19
360.256	274.19
360.483	289.19
360.709	278.19
360.936	289.19
361.163	298.19
361.39	279.19
361.616	265.19
361.843	289.19
362.07	274.19
362.296	275.19
362.523	291.19
362.749	290.19
362.976	278.19
363.203	280.19
363.429	280.19
363.656	293.19
363.882	288.19
364.109	296.19
364.335	289.19
364.562	283.19
364.788	271.19
365.015	280.19
365.241	281.19
365.468	277.19
365.694	295.19
365.92	270.19
366.147	280.19
366.373	280.19
366.599	299.19
366.826	301.19
367.052	295.19
367.278	307.19
367.505	287.19
367.731	303.19
367.957	295.19
368.184	287.19
368.41	278.19
368.636	277.19
368.862	281.19
369.089	286.19
369.315	278.19
369.541	290.19
369.767	317.19
369.993	301.19
370.219	302.19
370.445	303.19
370.672	303.19
370.898	309.19
371.124	308.19
371.35	307.19
371.576	308.19
371.802	299.19
372.028	307.19
372.254	301.19
372.48	311.19
372.706	324.19
372.932	325.19
373.158	331.19
373.384	329.19
373.61	311.19
373.835	325.19
374.061	296.19
374.287	297.19
374.513	331.19
374.739	337.19
374.965	338.19
375.191	349.19
375.416	353.19
375.642	335.19
375.868	331.19
376.094	298.19
376.319	313.19
376.545	330.19
376.771	301.19
376.997	310.19
377.222	308.19
377.448	293.19
377.674	300.19
377.899	309.19
378.125	306.19
378.35	316.19
378.576	319.19
378.802	308.19
379.027	307.19
379.253	308.19
379.478	331.19
379.704	302.19
379.929	319.19
380.155	317.19
380.38	308.19
380.606	315.19
380.831	329.19
381.057	308.19
381.282	328.19
381.507	311.19
381.733	297.19
381.958	337.19
382.184	307.19
382.409	328.19
382.634	324.19
382.86	325.19
383.085	324.19
383.31	346.19
383.535	331.19
383.761	330.19
383.986	334.19
384.211	348.19
384.436	375.19
384.662	354.19
384.887	348.19
385.112	359.19
385.337	369.19
385.562	373.19
385.787	378.19
386.013	379.19
386.238	369.19
386.463	355.19
386.688	353.19
386.913	350.19
387.138	339.19
387.363	349.19
387.588	352.19
387.813	360.19
388.038	357.19
388.263	354.19
388.488	374.19
388.713	342.19
388.938	362.19
389.163	356.19
389.387	369.19
389.612	363.19
389.837	339.19
390.062	352.19
390.287	350.19
390.512	350.19
390.736	378.19
390.961	372.19
391.186	362.19
391.411	381.19
391.636	393.19
391.86	400.19
392.085	400.19
392.31	413.19
392.534	388.19
392.759	402.19
392.984	386.19
393.208	377.19
393.433	401.19
393.658	388.19
393.882	364.19
394.107	386.19
394.331	389.19
394.556	377.19
394.78	391.19
395.005	379.19
395.229	387.19
395.454	380.19
395.678	397.19
395.903	385.19
396.127	391.19
396.352	386.19
396.576	385.19
396.801	371.19
397.025	420.19
397.249	394.19
397.474	413.19
397.698	407.19
397.922	407.19
398.147	399.19
398.371	425.19
398.595	411.19
398.82	456.19
399.044	475.19
399.268	504.19
399.492	586.19
399.717	606.19
399.941	606.19
400.165	562.19
400.389	518.19
400.613	490.19
400.837	455.19
401.062	441.19
401.286	435.19
401.51	447.19
401.734	442.19
401.958	443.19
402.182	439.19
402.406	457.19
402.63	466.19
402.854	467.19
403.078	466.19
403.302	520.19
403.526	491.19
403.75	514.19
403.974	504.19
404.198	511.19
404.422	511.19
404.645	472.19
404.869	518.19
405.093	478.19
405.317	478.19
405.541	475.19
405.765	485.19
405.988	492.19
406.212	478.19
406.436	479.19
406.66	522.19
406.883	517.19
407.107	525.19
407.331	552.19
407.555	554.19
407.778	545.19
408.002	541.19
408.226	533.19
408.449	531.19
408.673	492.19
408.896	524.19
409.12	507.19
409.344	504.19
409.567	488.19
409.791	509.19
410.014	515.19
410.238	496.19
410.461	502.19
410.685	518.19
410.908	469.19
411.132	490.19
411.355	472.19
411.578	481.19
411.802	471.19
412.025	487.19
412.249	493.19
412.472	467.19
412.695	462.19
412.919	461.19
413.142	462.19
413.365	447.19
413.589	469.19
413.812	455.19
414.035	454.19
414.258	463.19
414.482	462.19
414.705	454.19
414.928	457.19
415.151	447.19
415.374	467.19
415.597	443.19
415.821	446.19
416.044	436.19
416.267	451.19
416.49	457.19
416.713	452.19
416.936	473.19
417.159	441.19
417.382	430.19
417.605	454.19
417.828	445.19
418.051	454.19
418.274	458.19
418.497	454.19
418.72	477.19
418.943	485.19
419.166	473.19
419.389	514.19
419.611	495.19
419.834	482.19
420.057	463.19
420.28	460.19
420.503	441.19
420.726	439.19
420.948	458.19
421.171	451.19
421.394	444.19
421.617	450.19
421.839	448.19
422.062	462.19
422.285	451.19
422.507	483.19
422.73	457.19
422.953	461.19
423.175	483.19
423.398	477.19
423.621	462.19
423.843	464.19
424.066	472.19
424.288	484.19
424.511	466.19
424.733	494.19
424.956	468.19
425.178	476.19
425.401	449.19
425.623	473.19
425.846	439.19
426.068	470.19
426.291	431.19
426.513	419.19
426.735	427.19
426.958	434.19
427.18	427.19
427.402	409.19
427.625	409.19
427.847	388.19
428.069	405.19
428.292	415.19
428.514	434.19
428.736	429.19
428.958	401.19
429.181	395.19
429.403	413.19
429.625	396.19
429.847	388.19
430.069	414.19
430.292	393.19
430.514	395.19
430.736	409.19
430.958	406.19
431.18	411.19
431.402	411.19
431.624	399.19
431.846	417.19
432.068	404.19
432.29	402.19
432.512	404.19
432.734	423.19
432.956	424.19
433.178	419.19
433.4	433.19
433.622	420.19
433.844	410.19
434.066	407.19
434.287	444.19
434.509	418.19
434.731	450.19
434.953	456.19
435.175	452.19
435.397	452.19
435.618	433.19
435.84	430.19
436.062	413.19
436.284	399.19
436.505	412.19
436.727	407.19
436.949	416.19
437.17	439.19
437.392	425.19
437.614	423.19
437.835	405.19
438.057	414.19
438.278	408.19
438.5	394.19
438.721	405.19
438.943	421.19
439.165	411.19
439.386	414.19
439.608	429.19
439.829	439.19
440.05	403.19
440.272	414.19
440.493	419.19
440.715	396.19
440.936	447.19
441.158	453.19
441.379	453.19
441.6	456.19
441.822	475.19
442.043	468.19
442.264	458.19
442.486	443.19
442.707	471.19
442.928	470.19
443.149	460.19
443.371	457.19
443.592	459.19
443.813	482.19
444.034	472.19
444.255	503.19
444.476	498.19
444.698	509.19
444.919	538.19
445.14	606.19
445.361	525.19
445.582	475.19
445.803	451.19
446.024	476.19
446.245	460.19
446.466	439.19
446.687	449.19
446.908	413.19
447.129	409.19
447.35	420.19
447.571	409.19
447.792	425.19
448.013	398.19
448.234	405.19
448.455	414.19
448.675	408.19
448.896	399.19
449.117	372.19
449.338	405.19
449.559	390.19
449.779	401.19
450	414.19
450.221	383.19
450.442	413.19
450.662	409.19
450.883	410.19
451.104	397.19
451.324	409.19
451.545	393.19
451.766	416.19
451.986	395.19
452.207	400.19
452.428	391.19
452.648	379.19
452.869	378.19
453.089	379.19
453.31	382.19
453.53	365.19
453.751	377.19
453.971	376.19
454.192	361.19
454.412	375.19
454.633	373.19
454.853	381.19
455.073	371.19
455.294	370.19
455.514	366.19
455.734	353.19
455.955	341.19
456.175	357.19
456.395	365.19
456.616	369.19
456.836	369.19
457.056	371.19
457.276	342.19
457.497	377.19
457.717	357.19
457.937	380.19
458.157	365.19
458.377	377.19
458.598	387.19
458.818	403.19
459.038	414.19
459.258	397.19
459.478	429.19
459.698	429.19
459.918	422.19
460.138	451.19
460.358	480.19
460.578	478.19
460.798	481.19
461.018	487.19
461.238	480.19
461.458	470.19
461.678	481.19
461.898	493.19
462.118	482.19
462.338	492.19
462.558	511.19
462.777	541.19
462.997	553.19
463.217	602.19
463.437	633.19
463.657	556.19
463.876	548.19
464.096	544.19
464.316	546.19
464.536	522.19
464.755	537.19
464.975	499.19
465.195	482.19
465.414	465.19
465.634	458.19
465.854	423.19
466.073	410.19
466.293	427.19
466.512	417.19
466.732	411.19
466.951	419.19
467.171	386.19
467.391	402.19
467.61	390.19
467.829	389.19
468.049	397.19
468.268	374.19
468.488	360.19
468.707	391.19
468.927	387.19
469.146	375.19
469.365	398.19
469.585	400.19
469.804	415.19
470.023	427.19
470.243	415.19
470.462	428.19
470.681	400.19
470.901	407.19
471.12	403.19
471.339	391.19
471.558	376.19
471.777	385.19
471.997	402.19
472.216	386.19
472.435	364.19
472.654	379.19
472.873	381.19
473.092	374.19
473.311	367.19
473.53	370.19
473.749	376.19
473.968	381.19
474.187	387.19
474.406	369.19
474.625	360.19
474.844	385.19
475.063	385.19
475.282	378.19
475.501	385.19
475.72	371.19
475.939	381.19
476.158	399.19
476.377	404.19
476.596	382.19
476.814	387.19
477.033	393.19
477.252	399.19
477.471	383.19
477.69	427.19
477.908	427.19
478.127	434.19
478.346	442.19
478.564	429.19
478.783	441.19
479.002	451.19
479.22	440.19
479.439	455.19
479.658	441.19
479.876	452.19
480.095	453.19
480.313	467.19
480.532	478.19
480.751	465.19
480.969	452.19
481.188	450.19
481.406	426.19
481.624	417.19
481.843	435.19
482.061	405.19
482.28	412.19
482.498	398.19
482.717	403.19
482.935	414.19
483.153	416.19
483.372	437.19
483.59	425.19
483.808	401.19
484.027	435.19
484.245	417.19
484.463	425.19
484.681	431.19
484.9	449.19
485.118	435.19
485.336	425.19
485.554	419.19
485.772	424.19
485.99	425.19
486.209	442.19
486.427	424.19
486.645	423.19
486.863	444.19
487.081	439.19
487.299	444.19
487.517	426.19
487.735	435.19
487.953	419.19
488.171	458.19
488.389	429.19
488.607	441.19
488.825	427.19
489.043	419.19
489.261	425.19
489.479	437.19
489.696	437.19
489.914	419.19
490.132	428.19
490.35	438.19
490.568	422.19
490.786	442.19
491.003	437.19
491.221	436.19
491.439	473.19
491.657	451.19
491.874	457.19
492.092	445.19
492.31	441.19
492.527	456.19
492.745	468.19
492.963	433.19
493.18	439.19
493.398	435.19
493.615	435.19
493.833	450.19
494.05	474.19
494.268	455.19
494.485	425.19
494.703	461.19
494.92	449.19
495.138	431.19
495.355	455.19
495.573	473.19
495.79	467.19
496.008	463.19
496.225	460.19
496.442	476.19
496.66	481.19
496.877	469.19
497.094	482.19
497.312	485.19
497.529	516.19
497.746	515.19
497.963	537.19
498.181	533.19
498.398	535.19
498.615	598.19
498.832	645.19
499.049	652.19
499.267	710.19
499.484	748.19
499.701	831.19
499.918	931.19
500.135	1051.19
500.352	1142.19
500.569	1210.19
500.786	1214.19
501.003	1123.19
501.22	1000.19
501.437	912.19
501.654	784.19
501.871	717.19
502.088	682.19
