Data from Fe(NO3)3@0.0125M.TitratingCurve.Agarose3%dH2O.NegLispCup.LampEnergy10.LIBS07252019_HRD10591_17-01-30-337.txt Node
Date: Thu Jul 25 17:01:30 EDT 2019
User: cochatt
Spectrometer: HR+D1059
Trigger mode: 1
Integration Time (sec): 1.000000E-1
Scans to average: 1
Electric dark correction enabled: true
Nonlinearity correction enabled: false
Boxcar width: 0
XAxis mode: Wavelengths
Number of Pixels in Spectrum: 2048
>>>>>Begin Spectral Data<<<<<
223.165	-11.81
223.4	-11.81
223.635	-11.81
223.869	-23.81
224.104	-22.81
224.338	-13.81
224.573	-0.81
224.808	-14.81
225.042	0.19
225.277	-10.81
225.511	-1.81
225.746	-8.81
225.98	0.19
226.215	20.19
226.449	21.19
226.683	13.19
226.918	15.19
227.152	39.19
227.387	22.19
227.621	36.19
227.856	42.19
228.09	55.19
228.324	45.19
228.559	52.19
228.793	67.19
229.027	78.19
229.262	72.19
229.496	83.19
229.73	98.19
229.964	84.19
230.199	87.19
230.433	98.19
230.667	83.19
230.901	96.19
231.136	82.19
231.37	90.19
231.604	90.19
231.838	107.19
232.072	79.19
232.306	93.19
232.541	95.19
232.775	100.19
233.009	95.19
233.243	91.19
233.477	86.19
233.711	92.19
233.945	105.19
234.179	89.19
234.413	108.19
234.647	90.19
234.881	105.19
235.115	89.19
235.349	84.19
235.583	106.19
235.817	109.19
236.051	91.19
236.285	94.19
236.519	102.19
236.753	96.19
236.987	106.19
237.221	102.19
237.455	95.19
237.689	86.19
237.922	96.19
238.156	86.19
238.39	100.19
238.624	90.19
238.858	89.19
239.091	92.19
239.325	99.19
239.559	101.19
239.793	122.19
240.027	100.19
240.26	83.19
240.494	106.19
240.728	108.19
240.961	101.19
241.195	94.19
241.429	102.19
241.662	98.19
241.896	125.19
242.13	109.19
242.363	108.19
242.597	111.19
242.83	114.19
243.064	101.19
243.298	102.19
243.531	101.19
243.765	106.19
243.998	115.19
244.232	107.19
244.465	112.19
244.699	102.19
244.932	116.19
245.166	105.19
245.399	119.19
245.633	115.19
245.866	120.19
246.099	117.19
246.333	114.19
246.566	113.19
246.8	107.19
247.033	131.19
247.266	123.19
247.5	105.19
247.733	109.19
247.966	141.19
248.2	117.19
248.433	126.19
248.666	128.19
248.899	127.19
249.133	123.19
249.366	135.19
249.599	123.19
249.832	139.19
250.066	131.19
250.299	120.19
250.532	122.19
250.765	126.19
250.998	125.19
251.231	122.19
251.465	128.19
251.698	124.19
251.931	125.19
252.164	138.19
252.397	128.19
252.63	125.19
252.863	143.19
253.096	131.19
253.329	133.19
253.562	126.19
253.795	131.19
254.028	150.19
254.261	135.19
254.494	117.19
254.727	130.19
254.96	131.19
255.193	131.19
255.426	125.19
255.659	123.19
255.892	143.19
256.124	139.19
256.357	155.19
256.59	140.19
256.823	144.19
257.056	112.19
257.289	136.19
257.521	147.19
257.754	118.19
257.987	131.19
258.22	136.19
258.452	133.19
258.685	142.19
258.918	153.19
259.151	147.19
259.383	139.19
259.616	148.19
259.849	134.19
260.081	146.19
260.314	163.19
260.547	143.19
260.779	153.19
261.012	156.19
261.244	154.19
261.477	143.19
261.71	148.19
261.942	138.19
262.175	147.19
262.407	144.19
262.64	137.19
262.872	145.19
263.105	151.19
263.337	161.19
263.57	145.19
263.802	139.19
264.035	149.19
264.267	158.19
264.499	152.19
264.732	148.19
264.964	163.19
265.197	149.19
265.429	149.19
265.661	156.19
265.894	156.19
266.126	151.19
266.358	156.19
266.591	177.19
266.823	162.19
267.055	157.19
267.287	167.19
267.52	151.19
267.752	174.19
267.984	175.19
268.216	147.19
268.448	154.19
268.681	157.19
268.913	157.19
269.145	160.19
269.377	148.19
269.609	169.19
269.841	154.19
270.073	166.19
270.306	155.19
270.538	160.19
270.77	167.19
271.002	153.19
271.234	168.19
271.466	158.19
271.698	179.19
271.93	159.19
272.162	182.19
272.394	192.19
272.626	156.19
272.858	175.19
273.09	185.19
273.322	197.19
273.553	172.19
273.785	170.19
274.017	194.19
274.249	172.19
274.481	191.19
274.713	190.19
274.945	195.19
275.176	189.19
275.408	185.19
275.64	182.19
275.872	187.19
276.104	173.19
276.335	186.19
276.567	180.19
276.799	170.19
277.031	183.19
277.262	188.19
277.494	178.19
277.726	180.19
277.957	178.19
278.189	173.19
278.421	182.19
278.652	169.19
278.884	188.19
279.115	186.19
279.347	182.19
279.579	196.19
279.81	187.19
280.042	179.19
280.273	193.19
280.505	192.19
280.736	200.19
280.968	189.19
281.199	182.19
281.431	204.19
281.662	180.19
281.894	193.19
282.125	200.19
282.356	216.19
282.588	209.19
282.819	212.19
283.051	191.19
283.282	212.19
283.513	220.19
283.745	193.19
283.976	212.19
284.207	192.19
284.439	211.19
284.67	219.19
284.901	213.19
285.132	221.19
285.364	204.19
285.595	192.19
285.826	207.19
286.057	199.19
286.288	207.19
286.52	219.19
286.751	194.19
286.982	191.19
287.213	204.19
287.444	202.19
287.675	221.19
287.906	205.19
288.138	213.19
288.369	197.19
288.6	218.19
288.831	204.19
289.062	215.19
289.293	209.19
289.524	219.19
289.755	216.19
289.986	223.19
290.217	205.19
290.448	221.19
290.679	236.19
290.91	220.19
291.141	222.19
291.371	209.19
291.602	212.19
291.833	215.19
292.064	210.19
292.295	231.19
292.526	231.19
292.757	225.19
292.987	215.19
293.218	214.19
293.449	221.19
293.68	211.19
293.91	219.19
294.141	221.19
294.372	225.19
294.603	236.19
294.833	229.19
295.064	223.19
295.295	233.19
295.525	239.19
295.756	231.19
295.987	224.19
296.217	224.19
296.448	239.19
296.679	230.19
296.909	243.19
297.14	232.19
297.37	226.19
297.601	218.19
297.831	229.19
298.062	226.19
298.292	226.19
298.523	241.19
298.753	223.19
298.984	247.19
299.214	229.19
299.445	232.19
299.675	230.19
299.905	242.19
300.136	236.19
300.366	233.19
300.597	220.19
300.827	235.19
301.057	225.19
301.288	240.19
301.518	239.19
301.748	257.19
301.979	246.19
302.209	236.19
302.439	253.19
302.669	244.19
302.9	239.19
303.13	255.19
303.36	225.19
303.59	232.19
303.82	249.19
304.051	263.19
304.281	255.19
304.511	251.19
304.741	243.19
304.971	232.19
305.201	249.19
305.431	244.19
305.661	252.19
305.891	235.19
306.121	243.19
306.352	232.19
306.582	244.19
306.812	245.19
307.042	269.19
307.272	266.19
307.502	256.19
307.731	254.19
307.961	247.19
308.191	240.19
308.421	252.19
308.651	259.19
308.881	244.19
309.111	255.19
309.341	253.19
309.571	247.19
309.8	256.19
310.03	275.19
310.26	267.19
310.49	260.19
310.72	278.19
310.949	275.19
311.179	264.19
311.409	253.19
311.639	284.19
311.868	258.19
312.098	279.19
312.328	277.19
312.557	273.19
312.787	256.19
313.017	280.19
313.246	260.19
313.476	278.19
313.706	266.19
313.935	276.19
314.165	272.19
314.394	273.19
314.624	264.19
314.853	264.19
315.083	281.19
315.312	284.19
315.542	275.19
315.771	265.19
316.001	273.19
316.23	280.19
316.46	268.19
316.689	272.19
316.919	271.19
317.148	287.19
317.377	292.19
317.607	288.19
317.836	288.19
318.065	275.19
318.295	281.19
318.524	299.19
318.753	261.19
318.983	285.19
319.212	288.19
319.441	281.19
319.67	292.19
319.9	292.19
320.129	286.19
320.358	276.19
320.587	271.19
320.816	275.19
321.046	278.19
321.275	298.19
321.504	279.19
321.733	295.19
321.962	283.19
322.191	288.19
322.42	271.19
322.649	280.19
322.878	278.19
323.108	284.19
323.337	279.19
323.566	295.19
323.795	295.19
324.024	297.19
324.253	287.19
324.482	289.19
324.71	300.19
324.939	296.19
325.168	304.19
325.397	301.19
325.626	293.19
325.855	308.19
326.084	300.19
326.313	307.19
326.542	307.19
326.77	326.19
326.999	301.19
327.228	298.19
327.457	311.19
327.686	311.19
327.914	309.19
328.143	311.19
328.372	295.19
328.6	313.19
328.829	311.19
329.058	283.19
329.287	293.19
329.515	297.19
329.744	320.19
329.972	321.19
330.201	322.19
330.43	318.19
330.658	329.19
330.887	315.19
331.115	322.19
331.344	327.19
331.572	331.19
331.801	331.19
332.03	336.19
332.258	317.19
332.486	333.19
332.715	305.19
332.943	344.19
333.172	315.19
333.4	343.19
333.629	334.19
333.857	338.19
334.085	342.19
334.314	341.19
334.542	360.19
334.771	339.19
334.999	346.19
335.227	338.19
335.455	339.19
335.684	356.19
335.912	351.19
336.14	347.19
336.369	363.19
336.597	335.19
336.825	339.19
337.053	336.19
337.281	330.19
337.51	341.19
337.738	351.19
337.966	332.19
338.194	319.19
338.422	340.19
338.65	353.19
338.878	354.19
339.106	345.19
339.334	346.19
339.562	346.19
339.79	338.19
340.018	331.19
340.246	321.19
340.474	344.19
340.702	327.19
340.93	327.19
341.158	326.19
341.386	328.19
341.614	317.19
341.842	338.19
342.07	322.19
342.298	339.19
342.526	339.19
342.754	320.19
342.981	337.19
343.209	339.19
343.437	348.19
343.665	339.19
343.893	362.19
344.12	345.19
344.348	354.19
344.576	351.19
344.804	347.19
345.031	323.19
345.259	336.19
345.487	333.19
345.714	330.19
345.942	312.19
346.17	346.19
346.397	346.19
346.625	314.19
346.853	323.19
347.08	315.19
347.308	316.19
347.535	323.19
347.763	344.19
347.99	321.19
348.218	335.19
348.445	323.19
348.673	308.19
348.9	325.19
349.128	321.19
349.355	314.19
349.583	320.19
349.81	333.19
350.037	311.19
350.265	313.19
350.492	325.19
350.72	327.19
350.947	309.19
351.174	319.19
351.402	316.19
351.629	312.19
351.856	314.19
352.083	317.19
352.311	322.19
352.538	310.19
352.765	309.19
352.992	327.19
353.22	310.19
353.447	307.19
353.674	328.19
353.901	340.19
354.128	324.19
354.355	321.19
354.583	324.19
354.81	315.19
355.037	328.19
355.264	302.19
355.491	298.19
355.718	305.19
355.945	323.19
356.172	332.19
356.399	327.19
356.626	327.19
356.853	315.19
357.08	337.19
357.307	331.19
357.534	323.19
357.761	333.19
357.988	331.19
358.215	349.19
358.441	340.19
358.668	326.19
358.895	333.19
359.122	321.19
359.349	315.19
359.576	324.19
359.802	339.19
360.029	325.19
360.256	330.19
360.483	321.19
360.709	335.19
360.936	313.19
361.163	339.19
361.39	321.19
361.616	324.19
361.843	332.19
362.07	331.19
362.296	313.19
362.523	331.19
362.749	339.19
362.976	346.19
363.203	339.19
363.429	338.19
363.656	338.19
363.882	317.19
364.109	343.19
364.335	339.19
364.562	312.19
364.788	320.19
365.015	329.19
365.241	336.19
365.468	327.19
365.694	340.19
365.92	332.19
366.147	354.19
366.373	331.19
366.599	314.19
366.826	337.19
367.052	320.19
367.278	338.19
367.505	319.19
367.731	352.19
367.957	336.19
368.184	340.19
368.41	325.19
368.636	330.19
368.862	345.19
369.089	332.19
369.315	327.19
369.541	331.19
369.767	341.19
369.993	344.19
370.219	338.19
370.445	362.19
370.672	354.19
370.898	338.19
371.124	348.19
371.35	376.19
371.576	353.19
371.802	349.19
372.028	356.19
372.254	345.19
372.48	362.19
372.706	352.19
372.932	371.19
373.158	375.19
373.384	365.19
373.61	363.19
373.835	377.19
374.061	371.19
374.287	358.19
374.513	361.19
374.739	353.19
374.965	378.19
375.191	369.19
375.416	379.19
375.642	372.19
375.868	360.19
376.094	365.19
376.319	345.19
376.545	345.19
376.771	350.19
376.997	356.19
377.222	344.19
377.448	335.19
377.674	357.19
377.899	335.19
378.125	348.19
378.35	355.19
378.576	344.19
378.802	340.19
379.027	328.19
379.253	351.19
379.478	333.19
379.704	331.19
379.929	343.19
380.155	342.19
380.38	359.19
380.606	353.19
380.831	342.19
381.057	357.19
381.282	346.19
381.507	355.19
381.733	378.19
381.958	361.19
382.184	362.19
382.409	371.19
382.634	377.19
382.86	377.19
383.085	362.19
383.31	383.19
383.535	393.19
383.761	384.19
383.986	360.19
384.211	375.19
384.436	388.19
384.662	372.19
384.887	376.19
385.112	377.19
385.337	387.19
385.562	408.19
385.787	387.19
386.013	416.19
386.238	403.19
386.463	409.19
386.688	411.19
386.913	389.19
387.138	387.19
387.363	404.19
387.588	395.19
387.813	391.19
388.038	419.19
388.263	398.19
388.488	391.19
388.713	385.19
388.938	389.19
389.163	410.19
389.387	386.19
389.612	393.19
389.837	389.19
390.062	415.19
390.287	382.19
390.512	401.19
390.736	416.19
390.961	420.19
391.186	400.19
391.411	408.19
391.636	418.19
391.86	409.19
392.085	432.19
392.31	389.19
392.534	421.19
392.759	449.19
392.984	405.19
393.208	417.19
393.433	403.19
393.658	418.19
393.882	403.19
394.107	423.19
394.331	396.19
394.556	412.19
394.78	441.19
395.005	410.19
395.229	421.19
395.454	424.19
395.678	454.19
395.903	421.19
396.127	414.19
396.352	429.19
396.576	424.19
396.801	439.19
397.025	443.19
397.249	428.19
397.474	433.19
397.698	448.19
397.922	455.19
398.147	449.19
398.371	441.19
398.595	467.19
398.82	480.19
399.044	490.19
399.268	503.19
399.492	525.19
399.717	522.19
399.941	530.19
400.165	519.19
400.389	525.19
400.613	493.19
400.837	497.19
401.062	465.19
401.286	468.19
401.51	481.19
401.734	458.19
401.958	468.19
402.182	459.19
402.406	472.19
402.63	457.19
402.854	465.19
403.078	447.19
403.302	453.19
403.526	460.19
403.75	466.19
403.974	470.19
404.198	451.19
404.422	460.19
404.645	463.19
404.869	486.19
405.093	487.19
405.317	469.19
405.541	473.19
405.765	495.19
405.988	487.19
406.212	484.19
406.436	487.19
406.66	523.19
406.883	492.19
407.107	504.19
407.331	534.19
407.555	521.19
407.778	514.19
408.002	499.19
408.226	510.19
408.449	511.19
408.673	501.19
408.896	496.19
409.12	498.19
409.344	505.19
409.567	507.19
409.791	498.19
410.014	511.19
410.238	511.19
410.461	481.19
410.685	479.19
410.908	485.19
411.132	488.19
411.355	485.19
411.578	481.19
411.802	482.19
412.025	495.19
412.249	497.19
412.472	478.19
412.695	462.19
412.919	472.19
413.142	471.19
413.365	457.19
413.589	484.19
413.812	445.19
414.035	475.19
414.258	478.19
414.482	470.19
414.705	441.19
414.928	447.19
415.151	456.19
415.374	466.19
415.597	464.19
415.821	445.19
416.044	451.19
416.267	441.19
416.49	445.19
416.713	437.19
416.936	436.19
417.159	451.19
417.382	436.19
417.605	453.19
417.828	436.19
418.051	443.19
418.274	435.19
418.497	450.19
418.72	457.19
418.943	449.19
419.166	461.19
419.389	484.19
419.611	476.19
419.834	460.19
420.057	443.19
420.28	452.19
420.503	425.19
420.726	431.19
420.948	445.19
421.171	446.19
421.394	423.19
421.617	431.19
421.839	452.19
422.062	444.19
422.285	462.19
422.507	450.19
422.73	430.19
422.953	452.19
423.175	447.19
423.398	455.19
423.621	455.19
423.843	458.19
424.066	436.19
424.288	461.19
424.511	419.19
424.733	444.19
424.956	430.19
425.178	428.19
425.401	431.19
425.623	460.19
425.846	463.19
426.068	428.19
426.291	425.19
426.513	440.19
426.735	423.19
426.958	429.19
427.18	410.19
427.402	411.19
427.625	416.19
427.847	433.19
428.069	422.19
428.292	422.19
428.514	435.19
428.736	411.19
428.958	408.19
429.181	418.19
429.403	423.19
429.625	416.19
429.847	400.19
430.069	412.19
430.292	424.19
430.514	429.19
430.736	442.19
430.958	426.19
431.18	433.19
431.402	415.19
431.624	435.19
431.846	426.19
432.068	416.19
432.29	430.19
432.512	417.19
432.734	443.19
432.956	438.19
433.178	421.19
433.4	423.19
433.622	429.19
433.844	412.19
434.066	416.19
434.287	425.19
434.509	447.19
434.731	448.19
434.953	448.19
435.175	434.19
435.397	464.19
435.618	437.19
435.84	439.19
436.062	442.19
436.284	412.19
436.505	425.19
436.727	419.19
436.949	435.19
437.17	412.19
437.392	426.19
437.614	412.19
437.835	412.19
438.057	418.19
438.278	418.19
438.5	409.19
438.721	409.19
438.943	409.19
439.165	413.19
439.386	401.19
439.608	418.19
439.829	428.19
440.05	420.19
440.272	404.19
440.493	401.19
440.715	405.19
440.936	410.19
441.158	423.19
441.379	436.19
441.6	420.19
441.822	422.19
442.043	425.19
442.264	441.19
442.486	421.19
442.707	425.19
442.928	428.19
443.149	425.19
443.371	441.19
443.592	455.19
443.813	448.19
444.034	428.19
444.255	437.19
444.476	452.19
444.698	453.19
444.919	455.19
445.14	528.19
445.361	489.19
445.582	439.19
445.803	423.19
446.024	449.19
446.245	427.19
446.466	424.19
446.687	421.19
446.908	421.19
447.129	416.19
447.35	411.19
447.571	403.19
447.792	419.19
448.013	394.19
448.234	404.19
448.455	397.19
448.675	387.19
448.896	385.19
449.117	398.19
449.338	400.19
449.559	387.19
449.779	382.19
450	379.19
450.221	399.19
450.442	393.19
450.662	396.19
450.883	377.19
451.104	390.19
451.324	385.19
451.545	360.19
451.766	375.19
451.986	401.19
452.207	378.19
452.428	389.19
452.648	373.19
452.869	389.19
453.089	385.19
453.31	381.19
453.53	401.19
453.751	377.19
453.971	377.19
454.192	379.19
454.412	379.19
454.633	372.19
454.853	365.19
455.073	361.19
455.294	380.19
455.514	379.19
455.734	372.19
455.955	371.19
456.175	376.19
456.395	385.19
456.616	367.19
456.836	375.19
457.056	389.19
457.276	359.19
457.497	379.19
457.717	359.19
457.937	389.19
458.157	364.19
458.377	383.19
458.598	391.19
458.818	383.19
459.038	405.19
459.258	408.19
459.478	432.19
459.698	432.19
459.918	432.19
460.138	432.19
460.358	431.19
460.578	441.19
460.798	440.19
461.018	453.19
461.238	445.19
461.458	465.19
461.678	448.19
461.898	468.19
462.118	460.19
462.338	480.19
462.558	471.19
462.777	496.19
462.997	487.19
463.217	493.19
463.437	502.19
463.657	492.19
463.876	495.19
464.096	495.19
464.316	463.19
464.536	487.19
464.755	479.19
464.975	476.19
465.195	482.19
465.414	443.19
465.634	435.19
465.854	441.19
466.073	443.19
466.293	434.19
466.512	416.19
466.732	421.19
466.951	421.19
467.171	405.19
467.391	436.19
467.61	420.19
467.829	424.19
468.049	398.19
468.268	391.19
468.488	424.19
468.707	406.19
468.927	408.19
469.146	392.19
469.365	403.19
469.585	387.19
469.804	410.19
470.023	413.19
470.243	427.19
470.462	422.19
470.681	413.19
470.901	426.19
471.12	417.19
471.339	419.19
471.558	426.19
471.777	420.19
471.997	407.19
472.216	413.19
472.435	419.19
472.654	413.19
472.873	406.19
473.092	397.19
473.311	415.19
473.53	393.19
473.749	390.19
473.968	402.19
474.187	387.19
474.406	389.19
474.625	434.19
474.844	397.19
475.063	434.19
475.282	400.19
475.501	436.19
475.72	426.19
475.939	427.19
476.158	425.19
476.377	424.19
476.596	439.19
476.814	438.19
477.033	447.19
477.252	438.19
477.471	459.19
477.69	469.19
477.908	470.19
478.127	450.19
478.346	474.19
478.564	502.19
478.783	464.19
479.002	492.19
479.22	485.19
479.439	465.19
479.658	484.19
479.876	490.19
480.095	480.19
480.313	515.19
480.532	499.19
480.751	479.19
480.969	481.19
481.188	487.19
481.406	493.19
481.624	481.19
481.843	507.19
482.061	493.19
482.28	497.19
482.498	495.19
482.717	460.19
482.935	490.19
483.153	500.19
483.372	466.19
483.59	501.19
483.808	489.19
484.027	485.19
484.245	501.19
484.463	507.19
484.681	510.19
484.9	499.19
485.118	508.19
485.336	493.19
485.554	496.19
485.772	487.19
485.99	501.19
486.209	519.19
486.427	527.19
486.645	507.19
486.863	518.19
487.081	532.19
487.299	492.19
487.517	508.19
487.735	540.19
487.953	501.19
488.171	514.19
488.389	508.19
488.607	493.19
488.825	496.19
489.043	527.19
489.261	507.19
489.479	492.19
489.696	481.19
489.914	490.19
490.132	501.19
490.35	485.19
490.568	523.19
490.786	496.19
491.003	489.19
491.221	523.19
491.439	505.19
491.657	509.19
491.874	505.19
492.092	523.19
492.31	523.19
492.527	534.19
492.745	531.19
492.963	537.19
493.18	538.19
493.398	520.19
493.615	517.19
493.833	513.19
494.05	516.19
494.268	531.19
494.485	526.19
494.703	525.19
494.92	525.19
495.138	525.19
495.355	525.19
495.573	544.19
495.79	538.19
496.008	526.19
496.225	544.19
496.442	540.19
496.66	554.19
496.877	565.19
497.094	587.19
497.312	580.19
497.529	580.19
497.746	610.19
497.963	599.19
498.181	604.19
498.398	609.19
498.615	639.19
498.832	689.19
499.049	703.19
499.267	716.19
499.484	724.19
499.701	772.19
499.918	828.19
500.135	817.19
500.352	847.19
500.569	844.19
500.786	861.19
501.003	845.19
501.22	806.19
501.437	777.19
501.654	741.19
501.871	736.19
502.088	709.19
