Data from Fe(NO3)3@0.1M.TitratingCurve.Agarose3%dH2O.NegLispCup.LampEnergy10.LIBS07252019_HRD10591_16-41-38-333.txt Node
Date: Thu Jul 25 16:41:38 EDT 2019
User: cochatt
Spectrometer: HR+D1059
Trigger mode: 1
Integration Time (sec): 1.000000E-1
Scans to average: 1
Electric dark correction enabled: true
Nonlinearity correction enabled: false
Boxcar width: 0
XAxis mode: Wavelengths
Number of Pixels in Spectrum: 2048
>>>>>Begin Spectral Data<<<<<
223.165	-14.88
223.4	-14.88
223.635	-14.88
223.869	-15.88
224.104	-20.88
224.338	-22.88
224.573	-13.88
224.808	1.12
225.042	-12.88
225.277	-12.88
225.511	-15.88
225.746	16.12
225.98	9.12
226.215	6.12
226.449	14.12
226.683	28.12
226.918	27.12
227.152	28.12
227.387	36.12
227.621	45.12
227.856	47.12
228.09	58.12
228.324	51.12
228.559	60.12
228.793	58.12
229.027	80.12
229.262	78.12
229.496	75.12
229.73	88.12
229.964	66.12
230.199	68.12
230.433	77.12
230.667	73.12
230.901	97.12
231.136	92.12
231.37	81.12
231.604	102.12
231.838	103.12
232.072	97.12
232.306	97.12
232.541	88.12
232.775	88.12
233.009	97.12
233.243	94.12
233.477	90.12
233.711	102.12
233.945	110.12
234.179	101.12
234.413	95.12
234.647	92.12
234.881	108.12
235.115	109.12
235.349	82.12
235.583	101.12
235.817	90.12
236.051	88.12
236.285	101.12
236.519	91.12
236.753	95.12
236.987	89.12
237.221	87.12
237.455	92.12
237.689	86.12
237.922	99.12
238.156	97.12
238.39	115.12
238.624	95.12
238.858	86.12
239.091	97.12
239.325	107.12
239.559	115.12
239.793	95.12
240.027	81.12
240.26	116.12
240.494	100.12
240.728	97.12
240.961	104.12
241.195	106.12
241.429	100.12
241.662	94.12
241.896	105.12
242.13	112.12
242.363	101.12
242.597	113.12
242.83	104.12
243.064	102.12
243.298	116.12
243.531	95.12
243.765	101.12
243.998	118.12
244.232	100.12
244.465	99.12
244.699	106.12
244.932	109.12
245.166	118.12
245.399	105.12
245.633	113.12
245.866	111.12
246.099	101.12
246.333	121.12
246.566	109.12
246.8	119.12
247.033	104.12
247.266	103.12
247.5	96.12
247.733	101.12
247.966	107.12
248.2	102.12
248.433	109.12
248.666	103.12
248.899	107.12
249.133	107.12
249.366	139.12
249.599	118.12
249.832	118.12
250.066	123.12
250.299	121.12
250.532	130.12
250.765	124.12
250.998	107.12
251.231	129.12
251.465	113.12
251.698	121.12
251.931	115.12
252.164	109.12
252.397	114.12
252.63	129.12
252.863	131.12
253.096	131.12
253.329	133.12
253.562	97.12
253.795	133.12
254.028	121.12
254.261	119.12
254.494	132.12
254.727	127.12
254.96	129.12
255.193	128.12
255.426	119.12
255.659	101.12
255.892	119.12
256.124	129.12
256.357	139.12
256.59	127.12
256.823	121.12
257.056	128.12
257.289	142.12
257.521	127.12
257.754	125.12
257.987	129.12
258.22	127.12
258.452	127.12
258.685	133.12
258.918	132.12
259.151	144.12
259.383	125.12
259.616	125.12
259.849	126.12
260.081	143.12
260.314	133.12
260.547	123.12
260.779	139.12
261.012	127.12
261.244	124.12
261.477	134.12
261.71	132.12
261.942	132.12
262.175	146.12
262.407	129.12
262.64	119.12
262.872	120.12
263.105	129.12
263.337	144.12
263.57	122.12
263.802	138.12
264.035	142.12
264.267	147.12
264.499	133.12
264.732	145.12
264.964	143.12
265.197	142.12
265.429	138.12
265.661	150.12
265.894	148.12
266.126	147.12
266.358	134.12
266.591	133.12
266.823	142.12
267.055	148.12
267.287	152.12
267.52	139.12
267.752	149.12
267.984	156.12
268.216	139.12
268.448	159.12
268.681	147.12
268.913	156.12
269.145	154.12
269.377	137.12
269.609	164.12
269.841	142.12
270.073	162.12
270.306	151.12
270.538	151.12
270.77	135.12
271.002	136.12
271.234	143.12
271.466	155.12
271.698	151.12
271.93	136.12
272.162	142.12
272.394	148.12
272.626	152.12
272.858	151.12
273.09	149.12
273.322	160.12
273.553	148.12
273.785	133.12
274.017	156.12
274.249	167.12
274.481	161.12
274.713	155.12
274.945	168.12
275.176	150.12
275.408	156.12
275.64	160.12
275.872	167.12
276.104	160.12
276.335	156.12
276.567	157.12
276.799	158.12
277.031	147.12
277.262	155.12
277.494	161.12
277.726	173.12
277.957	162.12
278.189	163.12
278.421	163.12
278.652	164.12
278.884	148.12
279.115	160.12
279.347	160.12
279.579	173.12
279.81	171.12
280.042	155.12
280.273	162.12
280.505	167.12
280.736	176.12
280.968	183.12
281.199	178.12
281.431	196.12
281.662	172.12
281.894	178.12
282.125	170.12
282.356	175.12
282.588	176.12
282.819	164.12
283.051	177.12
283.282	162.12
283.513	181.12
283.745	173.12
283.976	184.12
284.207	173.12
284.439	170.12
284.67	166.12
284.901	183.12
285.132	172.12
285.364	178.12
285.595	193.12
285.826	157.12
286.057	184.12
286.288	177.12
286.52	176.12
286.751	170.12
286.982	186.12
287.213	187.12
287.444	173.12
287.675	191.12
287.906	195.12
288.138	196.12
288.369	183.12
288.6	189.12
288.831	194.12
289.062	179.12
289.293	169.12
289.524	168.12
289.755	172.12
289.986	192.12
290.217	194.12
290.448	199.12
290.679	186.12
290.91	193.12
291.141	181.12
291.371	184.12
291.602	187.12
291.833	184.12
292.064	184.12
292.295	178.12
292.526	194.12
292.757	177.12
292.987	203.12
293.218	185.12
293.449	197.12
293.68	190.12
293.91	186.12
294.141	203.12
294.372	191.12
294.603	184.12
294.833	173.12
295.064	197.12
295.295	201.12
295.525	215.12
295.756	205.12
295.987	202.12
296.217	184.12
296.448	198.12
296.679	186.12
296.909	188.12
297.14	196.12
297.37	207.12
297.601	201.12
297.831	190.12
298.062	206.12
298.292	195.12
298.523	218.12
298.753	195.12
298.984	208.12
299.214	193.12
299.445	203.12
299.675	207.12
299.905	210.12
300.136	205.12
300.366	207.12
300.597	194.12
300.827	200.12
301.057	214.12
301.288	201.12
301.518	201.12
301.748	198.12
301.979	209.12
302.209	202.12
302.439	203.12
302.669	199.12
302.9	220.12
303.13	206.12
303.36	199.12
303.59	216.12
303.82	201.12
304.051	229.12
304.281	210.12
304.511	206.12
304.741	202.12
304.971	216.12
305.201	202.12
305.431	202.12
305.661	207.12
305.891	206.12
306.121	192.12
306.352	217.12
306.582	188.12
306.812	207.12
307.042	207.12
307.272	211.12
307.502	210.12
307.731	206.12
307.961	215.12
308.191	207.12
308.421	200.12
308.651	217.12
308.881	213.12
309.111	219.12
309.341	218.12
309.571	209.12
309.8	216.12
310.03	229.12
310.26	218.12
310.49	218.12
310.72	215.12
310.949	216.12
311.179	227.12
311.409	215.12
311.639	224.12
311.868	229.12
312.098	218.12
312.328	211.12
312.557	214.12
312.787	226.12
313.017	229.12
313.246	240.12
313.476	222.12
313.706	214.12
313.935	223.12
314.165	215.12
314.394	227.12
314.624	231.12
314.853	232.12
315.083	224.12
315.312	226.12
315.542	223.12
315.771	228.12
316.001	218.12
316.23	229.12
316.46	226.12
316.689	245.12
316.919	229.12
317.148	235.12
317.377	240.12
317.607	230.12
317.836	216.12
318.065	219.12
318.295	242.12
318.524	228.12
318.753	224.12
318.983	224.12
319.212	222.12
319.441	229.12
319.67	229.12
319.9	209.12
320.129	228.12
320.358	225.12
320.587	219.12
320.816	212.12
321.046	231.12
321.275	247.12
321.504	215.12
321.733	232.12
321.962	217.12
322.191	248.12
322.42	241.12
322.649	236.12
322.878	229.12
323.108	220.12
323.337	219.12
323.566	224.12
323.795	223.12
324.024	217.12
324.253	223.12
324.482	228.12
324.71	232.12
324.939	226.12
325.168	229.12
325.397	219.12
325.626	235.12
325.855	245.12
326.084	262.12
326.313	242.12
326.542	252.12
326.77	233.12
326.999	255.12
327.228	232.12
327.457	235.12
327.686	236.12
327.914	263.12
328.143	243.12
328.372	241.12
328.6	249.12
328.829	243.12
329.058	244.12
329.287	252.12
329.515	255.12
329.744	230.12
329.972	249.12
330.201	251.12
330.43	232.12
330.658	263.12
330.887	262.12
331.115	230.12
331.344	248.12
331.572	264.12
331.801	250.12
332.03	268.12
332.258	276.12
332.486	293.12
332.715	287.12
332.943	305.12
333.172	295.12
333.4	297.12
333.629	319.12
333.857	319.12
334.085	318.12
334.314	292.12
334.542	307.12
334.771	301.12
334.999	296.12
335.227	283.12
335.455	301.12
335.684	301.12
335.912	275.12
336.14	283.12
336.369	295.12
336.597	295.12
336.825	284.12
337.053	268.12
337.281	284.12
337.51	263.12
337.738	281.12
337.966	260.12
338.194	273.12
338.422	281.12
338.65	256.12
338.878	260.12
339.106	239.12
339.334	274.12
339.562	246.12
339.79	267.12
340.018	256.12
340.246	259.12
340.474	268.12
340.702	259.12
340.93	252.12
341.158	266.12
341.386	242.12
341.614	266.12
341.842	267.12
342.07	250.12
342.298	257.12
342.526	265.12
342.754	247.12
342.981	245.12
343.209	270.12
343.437	280.12
343.665	282.12
343.893	303.12
344.12	276.12
344.348	300.12
344.576	275.12
344.804	276.12
345.031	267.12
345.259	268.12
345.487	258.12
345.714	258.12
345.942	259.12
346.17	253.12
346.397	273.12
346.625	252.12
346.853	256.12
347.08	244.12
347.308	252.12
347.535	262.12
347.763	257.12
347.99	246.12
348.218	281.12
348.445	251.12
348.673	238.12
348.9	244.12
349.128	259.12
349.355	251.12
349.583	244.12
349.81	278.12
350.037	243.12
350.265	237.12
350.492	255.12
350.72	239.12
350.947	235.12
351.174	251.12
351.402	267.12
351.629	245.12
351.856	241.12
352.083	246.12
352.311	257.12
352.538	245.12
352.765	242.12
352.992	239.12
353.22	236.12
353.447	260.12
353.674	253.12
353.901	252.12
354.128	255.12
354.355	239.12
354.583	224.12
354.81	233.12
355.037	243.12
355.264	252.12
355.491	249.12
355.718	256.12
355.945	249.12
356.172	241.12
356.399	265.12
356.626	257.12
356.853	267.12
357.08	249.12
357.307	243.12
357.534	238.12
357.761	245.12
357.988	264.12
358.215	251.12
358.441	233.12
358.668	245.12
358.895	263.12
359.122	248.12
359.349	233.12
359.576	255.12
359.802	241.12
360.029	242.12
360.256	248.12
360.483	263.12
360.709	251.12
360.936	259.12
361.163	244.12
361.39	258.12
361.616	259.12
361.843	245.12
362.07	258.12
362.296	244.12
362.523	245.12
362.749	263.12
362.976	253.12
363.203	254.12
363.429	232.12
363.656	250.12
363.882	265.12
364.109	261.12
364.335	255.12
364.562	256.12
364.788	247.12
365.015	267.12
365.241	248.12
365.468	236.12
365.694	251.12
365.92	253.12
366.147	242.12
366.373	250.12
366.599	254.12
366.826	238.12
367.052	261.12
367.278	245.12
367.505	260.12
367.731	262.12
367.957	280.12
368.184	266.12
368.41	257.12
368.636	261.12
368.862	267.12
369.089	255.12
369.315	270.12
369.541	261.12
369.767	242.12
369.993	244.12
370.219	254.12
370.445	260.12
370.672	278.12
370.898	285.12
371.124	262.12
371.35	266.12
371.576	257.12
371.802	277.12
372.028	278.12
372.254	285.12
372.48	289.12
372.706	261.12
372.932	278.12
373.158	280.12
373.384	268.12
373.61	267.12
373.835	281.12
374.061	280.12
374.287	281.12
374.513	287.12
374.739	285.12
374.965	293.12
375.191	275.12
375.416	293.12
375.642	279.12
375.868	295.12
376.094	279.12
376.319	276.12
376.545	263.12
376.771	259.12
376.997	266.12
377.222	293.12
377.448	287.12
377.674	266.12
377.899	265.12
378.125	285.12
378.35	271.12
378.576	281.12
378.802	266.12
379.027	274.12
379.253	255.12
379.478	255.12
379.704	284.12
379.929	275.12
380.155	274.12
380.38	269.12
380.606	255.12
380.831	278.12
381.057	266.12
381.282	268.12
381.507	275.12
381.733	280.12
381.958	278.12
382.184	286.12
382.409	278.12
382.634	295.12
382.86	277.12
383.085	278.12
383.31	288.12
383.535	299.12
383.761	303.12
383.986	300.12
384.211	300.12
384.436	307.12
384.662	316.12
384.887	312.12
385.112	316.12
385.337	309.12
385.562	299.12
385.787	311.12
386.013	323.12
386.238	331.12
386.463	332.12
386.688	311.12
386.913	305.12
387.138	305.12
387.363	316.12
387.588	317.12
387.813	316.12
388.038	319.12
388.263	316.12
388.488	301.12
388.713	326.12
388.938	308.12
389.163	304.12
389.387	307.12
389.612	306.12
389.837	310.12
390.062	330.12
390.287	302.12
390.512	323.12
390.736	320.12
390.961	324.12
391.186	332.12
391.411	358.12
391.636	341.12
391.86	353.12
392.085	349.12
392.31	338.12
392.534	332.12
392.759	345.12
392.984	336.12
393.208	338.12
393.433	325.12
393.658	338.12
393.882	347.12
394.107	340.12
394.331	340.12
394.556	354.12
394.78	338.12
395.005	336.12
395.229	338.12
395.454	358.12
395.678	360.12
395.903	354.12
396.127	352.12
396.352	333.12
396.576	337.12
396.801	337.12
397.025	352.12
397.249	346.12
397.474	355.12
397.698	354.12
397.922	358.12
398.147	361.12
398.371	363.12
398.595	376.12
398.82	386.12
399.044	420.12
399.268	437.12
399.492	511.12
399.717	567.12
399.941	531.12
400.165	456.12
400.389	433.12
400.613	419.12
400.837	387.12
401.062	387.12
401.286	389.12
401.51	406.12
401.734	375.12
401.958	401.12
402.182	398.12
402.406	390.12
402.63	420.12
402.854	420.12
403.078	425.12
403.302	411.12
403.526	422.12
403.75	437.12
403.974	447.12
404.198	444.12
404.422	423.12
404.645	425.12
404.869	416.12
405.093	411.12
405.317	433.12
405.541	425.12
405.765	414.12
405.988	407.12
406.212	423.12
406.436	411.12
406.66	439.12
406.883	443.12
407.107	442.12
407.331	484.12
407.555	477.12
407.778	471.12
408.002	458.12
408.226	452.12
408.449	452.12
408.673	455.12
408.896	451.12
409.12	424.12
409.344	424.12
409.567	436.12
409.791	457.12
410.014	459.12
410.238	425.12
410.461	410.12
410.685	421.12
410.908	437.12
411.132	428.12
411.355	404.12
411.578	423.12
411.802	407.12
412.025	388.12
412.249	434.12
412.472	425.12
412.695	395.12
412.919	412.12
413.142	398.12
413.365	409.12
413.589	393.12
413.812	384.12
414.035	395.12
414.258	399.12
414.482	390.12
414.705	424.12
414.928	412.12
415.151	396.12
415.374	402.12
415.597	404.12
415.821	389.12
416.044	395.12
416.267	397.12
416.49	390.12
416.713	390.12
416.936	378.12
417.159	350.12
417.382	387.12
417.605	391.12
417.828	385.12
418.051	384.12
418.274	411.12
418.497	394.12
418.72	421.12
418.943	408.12
419.166	434.12
419.389	415.12
419.611	426.12
419.834	404.12
420.057	396.12
420.28	380.12
420.503	400.12
420.726	375.12
420.948	399.12
421.171	389.12
421.394	396.12
421.617	395.12
421.839	389.12
422.062	415.12
422.285	409.12
422.507	419.12
422.73	400.12
422.953	402.12
423.175	401.12
423.398	418.12
423.621	399.12
423.843	393.12
424.066	409.12
424.288	394.12
424.511	426.12
424.733	418.12
424.956	393.12
425.178	406.12
425.401	399.12
425.623	377.12
425.846	389.12
426.068	376.12
426.291	396.12
426.513	371.12
426.735	369.12
426.958	371.12
427.18	380.12
427.402	383.12
427.625	379.12
427.847	344.12
428.069	370.12
428.292	357.12
428.514	366.12
428.736	341.12
428.958	339.12
429.181	355.12
429.403	332.12
429.625	348.12
429.847	356.12
430.069	352.12
430.292	353.12
430.514	370.12
430.736	359.12
430.958	362.12
431.18	345.12
431.402	371.12
431.624	378.12
431.846	377.12
432.068	359.12
432.29	371.12
432.512	369.12
432.734	351.12
432.956	362.12
433.178	359.12
433.4	372.12
433.622	367.12
433.844	379.12
434.066	347.12
434.287	377.12
434.509	372.12
434.731	382.12
434.953	389.12
435.175	413.12
435.397	405.12
435.618	375.12
435.84	388.12
436.062	357.12
436.284	382.12
436.505	359.12
436.727	370.12
436.949	373.12
437.17	361.12
437.392	360.12
437.614	356.12
437.835	339.12
438.057	357.12
438.278	346.12
438.5	352.12
438.721	396.12
438.943	363.12
439.165	386.12
439.386	352.12
439.608	385.12
439.829	371.12
440.05	378.12
440.272	355.12
440.493	373.12
440.715	381.12
440.936	399.12
441.158	377.12
441.379	397.12
441.6	416.12
441.822	417.12
442.043	422.12
442.264	395.12
442.486	408.12
442.707	400.12
442.928	418.12
443.149	408.12
443.371	418.12
443.592	411.12
443.813	401.12
444.034	424.12
444.255	419.12
444.476	441.12
444.698	467.12
444.919	508.12
445.14	551.12
445.361	461.12
445.582	408.12
445.803	413.12
446.024	391.12
446.245	405.12
446.466	397.12
446.687	389.12
446.908	386.12
447.129	385.12
447.35	378.12
447.571	378.12
447.792	364.12
448.013	369.12
448.234	373.12
448.455	342.12
448.675	328.12
448.896	343.12
449.117	348.12
449.338	340.12
449.559	371.12
449.779	360.12
450	350.12
450.221	340.12
450.442	348.12
450.662	344.12
450.883	368.12
451.104	363.12
451.324	370.12
451.545	351.12
451.766	375.12
451.986	362.12
452.207	346.12
452.428	360.12
452.648	353.12
452.869	341.12
453.089	351.12
453.31	342.12
453.53	326.12
453.751	334.12
453.971	317.12
454.192	345.12
454.412	312.12
454.633	327.12
454.853	324.12
455.073	330.12
455.294	340.12
455.514	334.12
455.734	316.12
455.955	312.12
456.175	337.12
456.395	319.12
456.616	299.12
456.836	303.12
457.056	330.12
457.276	320.12
457.497	342.12
457.717	323.12
457.937	327.12
458.157	338.12
458.377	334.12
458.598	328.12
458.818	329.12
459.038	344.12
459.258	355.12
459.478	354.12
459.698	374.12
459.918	363.12
460.138	395.12
460.358	408.12
460.578	408.12
460.798	409.12
461.018	426.12
461.238	434.12
461.458	427.12
461.678	402.12
461.898	417.12
462.118	435.12
462.338	441.12
462.558	458.12
462.777	460.12
462.997	498.12
463.217	517.12
463.437	535.12
463.657	476.12
463.876	473.12
464.096	453.12
464.316	468.12
464.536	473.12
464.755	452.12
464.975	452.12
465.195	435.12
465.414	401.12
465.634	379.12
465.854	376.12
466.073	371.12
466.293	373.12
466.512	367.12
466.732	353.12
466.951	364.12
467.171	374.12
467.391	372.12
467.61	355.12
467.829	346.12
468.049	352.12
468.268	341.12
468.488	361.12
468.707	367.12
468.927	346.12
469.146	347.12
469.365	353.12
469.585	342.12
469.804	358.12
470.023	356.12
470.243	373.12
470.462	375.12
470.681	373.12
470.901	391.12
471.12	375.12
471.339	353.12
471.558	345.12
471.777	351.12
471.997	339.12
472.216	334.12
472.435	355.12
472.654	343.12
472.873	345.12
473.092	344.12
473.311	345.12
473.53	336.12
473.749	340.12
473.968	333.12
474.187	335.12
474.406	321.12
474.625	361.12
474.844	343.12
475.063	351.12
475.282	356.12
475.501	338.12
475.72	353.12
475.939	331.12
476.158	336.12
476.377	351.12
476.596	338.12
476.814	361.12
477.033	335.12
477.252	358.12
477.471	374.12
477.69	370.12
477.908	378.12
478.127	381.12
478.346	404.12
478.564	389.12
478.783	392.12
479.002	402.12
479.22	405.12
479.439	395.12
479.658	403.12
479.876	406.12
480.095	395.12
480.313	414.12
480.532	417.12
480.751	427.12
480.969	389.12
481.188	376.12
481.406	380.12
481.624	360.12
481.843	375.12
482.061	365.12
482.28	361.12
482.498	367.12
482.717	372.12
482.935	355.12
483.153	373.12
483.372	369.12
483.59	378.12
483.808	368.12
484.027	346.12
484.245	391.12
484.463	383.12
484.681	389.12
484.9	369.12
485.118	384.12
485.336	372.12
485.554	375.12
485.772	375.12
485.99	374.12
486.209	410.12
486.427	362.12
486.645	354.12
486.863	378.12
487.081	371.12
487.299	356.12
487.517	403.12
487.735	382.12
487.953	395.12
488.171	403.12
488.389	391.12
488.607	391.12
488.825	363.12
489.043	383.12
489.261	379.12
489.479	396.12
489.696	372.12
489.914	391.12
490.132	372.12
490.35	387.12
490.568	391.12
490.786	398.12
491.003	399.12
491.221	396.12
491.439	381.12
491.657	374.12
491.874	401.12
492.092	413.12
492.31	416.12
492.527	403.12
492.745	412.12
492.963	396.12
493.18	390.12
493.398	397.12
493.615	392.12
493.833	408.12
494.05	381.12
494.268	401.12
494.485	405.12
494.703	398.12
494.92	392.12
495.138	397.12
495.355	401.12
495.573	415.12
495.79	418.12
496.008	409.12
496.225	405.12
496.442	423.12
496.66	417.12
496.877	425.12
497.094	450.12
497.312	449.12
497.529	436.12
497.746	444.12
497.963	480.12
498.181	496.12
498.398	512.12
498.615	525.12
498.832	543.12
499.049	572.12
499.267	639.12
499.484	695.12
499.701	727.12
499.918	795.12
500.135	893.12
500.352	977.12
500.569	1012.12
500.786	992.12
501.003	943.12
501.22	854.12
501.437	764.12
501.654	666.12
501.871	630.12
502.088	578.12
