Data from Fe(NO3)3@0.05M.TitratingCurve.Agarose3%dH2O.NegLispCup.LampEnergy10.LIBS07252019_HRD10591_16-48-49-334.txt Node
Date: Thu Jul 25 16:48:49 EDT 2019
User: cochatt
Spectrometer: HR+D1059
Trigger mode: 1
Integration Time (sec): 1.000000E-1
Scans to average: 1
Electric dark correction enabled: true
Nonlinearity correction enabled: false
Boxcar width: 0
XAxis mode: Wavelengths
Number of Pixels in Spectrum: 2048
>>>>>Begin Spectral Data<<<<<
223.165	-33.88
223.4	-33.88
223.635	-33.88
223.869	-18.88
224.104	-28.88
224.338	-16.88
224.573	-12.88
224.808	-2.88
225.042	-7.88
225.277	6.12
225.511	7.12
225.746	14.12
225.98	2.12
226.215	12.12
226.449	11.12
226.683	21.12
226.918	24.12
227.152	24.12
227.387	38.12
227.621	46.12
227.856	45.12
228.09	45.12
228.324	57.12
228.559	63.12
228.793	58.12
229.027	86.12
229.262	82.12
229.496	68.12
229.73	90.12
229.964	85.12
230.199	96.12
230.433	98.12
230.667	104.12
230.901	102.12
231.136	99.12
231.37	95.12
231.604	98.12
231.838	93.12
232.072	98.12
232.306	102.12
232.541	116.12
232.775	82.12
233.009	98.12
233.243	116.12
233.477	98.12
233.711	98.12
233.945	98.12
234.179	114.12
234.413	114.12
234.647	108.12
234.881	109.12
235.115	93.12
235.349	109.12
235.583	107.12
235.817	103.12
236.051	98.12
236.285	95.12
236.519	118.12
236.753	108.12
236.987	104.12
237.221	100.12
237.455	109.12
237.689	97.12
237.922	110.12
238.156	114.12
238.39	107.12
238.624	98.12
238.858	116.12
239.091	100.12
239.325	104.12
239.559	113.12
239.793	98.12
240.027	117.12
240.26	105.12
240.494	110.12
240.728	122.12
240.961	108.12
241.195	106.12
241.429	108.12
241.662	112.12
241.896	111.12
242.13	101.12
242.363	118.12
242.597	106.12
242.83	126.12
243.064	127.12
243.298	109.12
243.531	105.12
243.765	128.12
243.998	126.12
244.232	123.12
244.465	126.12
244.699	125.12
244.932	130.12
245.166	125.12
245.399	117.12
245.633	125.12
245.866	122.12
246.099	129.12
246.333	138.12
246.566	109.12
246.8	135.12
247.033	128.12
247.266	125.12
247.5	123.12
247.733	132.12
247.966	124.12
248.2	118.12
248.433	136.12
248.666	131.12
248.899	113.12
249.133	144.12
249.366	140.12
249.599	115.12
249.832	129.12
250.066	131.12
250.299	138.12
250.532	134.12
250.765	135.12
250.998	139.12
251.231	134.12
251.465	142.12
251.698	135.12
251.931	136.12
252.164	145.12
252.397	141.12
252.63	142.12
252.863	162.12
253.096	151.12
253.329	146.12
253.562	134.12
253.795	140.12
254.028	163.12
254.261	154.12
254.494	144.12
254.727	159.12
254.96	148.12
255.193	136.12
255.426	163.12
255.659	139.12
255.892	149.12
256.124	146.12
256.357	157.12
256.59	151.12
256.823	149.12
257.056	157.12
257.289	165.12
257.521	170.12
257.754	148.12
257.987	145.12
258.22	162.12
258.452	147.12
258.685	155.12
258.918	161.12
259.151	156.12
259.383	149.12
259.616	157.12
259.849	159.12
260.081	167.12
260.314	182.12
260.547	166.12
260.779	160.12
261.012	159.12
261.244	160.12
261.477	152.12
261.71	155.12
261.942	146.12
262.175	158.12
262.407	175.12
262.64	158.12
262.872	165.12
263.105	183.12
263.337	159.12
263.57	164.12
263.802	182.12
264.035	184.12
264.267	171.12
264.499	157.12
264.732	171.12
264.964	172.12
265.197	166.12
265.429	170.12
265.661	162.12
265.894	170.12
266.126	166.12
266.358	169.12
266.591	160.12
266.823	164.12
267.055	166.12
267.287	174.12
267.52	175.12
267.752	174.12
267.984	167.12
268.216	183.12
268.448	191.12
268.681	192.12
268.913	174.12
269.145	167.12
269.377	168.12
269.609	178.12
269.841	184.12
270.073	190.12
270.306	190.12
270.538	190.12
270.77	170.12
271.002	181.12
271.234	172.12
271.466	178.12
271.698	184.12
271.93	190.12
272.162	178.12
272.394	178.12
272.626	185.12
272.858	194.12
273.09	176.12
273.322	200.12
273.553	176.12
273.785	183.12
274.017	186.12
274.249	202.12
274.481	180.12
274.713	211.12
274.945	200.12
275.176	214.12
275.408	202.12
275.64	204.12
275.872	196.12
276.104	196.12
276.335	198.12
276.567	202.12
276.799	212.12
277.031	214.12
277.262	203.12
277.494	205.12
277.726	186.12
277.957	194.12
278.189	187.12
278.421	207.12
278.652	197.12
278.884	207.12
279.115	216.12
279.347	202.12
279.579	196.12
279.81	203.12
280.042	201.12
280.273	208.12
280.505	212.12
280.736	206.12
280.968	201.12
281.199	198.12
281.431	207.12
281.662	203.12
281.894	224.12
282.125	207.12
282.356	201.12
282.588	213.12
282.819	227.12
283.051	206.12
283.282	214.12
283.513	221.12
283.745	230.12
283.976	226.12
284.207	225.12
284.439	222.12
284.67	217.12
284.901	226.12
285.132	218.12
285.364	197.12
285.595	234.12
285.826	214.12
286.057	221.12
286.288	209.12
286.52	209.12
286.751	212.12
286.982	237.12
287.213	227.12
287.444	220.12
287.675	215.12
287.906	222.12
288.138	230.12
288.369	219.12
288.6	220.12
288.831	222.12
289.062	229.12
289.293	218.12
289.524	233.12
289.755	220.12
289.986	215.12
290.217	218.12
290.448	224.12
290.679	236.12
290.91	226.12
291.141	243.12
291.371	240.12
291.602	219.12
291.833	236.12
292.064	235.12
292.295	240.12
292.526	241.12
292.757	226.12
292.987	221.12
293.218	219.12
293.449	228.12
293.68	222.12
293.91	216.12
294.141	228.12
294.372	227.12
294.603	229.12
294.833	230.12
295.064	224.12
295.295	234.12
295.525	249.12
295.756	239.12
295.987	223.12
296.217	213.12
296.448	253.12
296.679	224.12
296.909	237.12
297.14	233.12
297.37	228.12
297.601	243.12
297.831	247.12
298.062	223.12
298.292	245.12
298.523	246.12
298.753	238.12
298.984	234.12
299.214	235.12
299.445	251.12
299.675	249.12
299.905	244.12
300.136	239.12
300.366	239.12
300.597	248.12
300.827	267.12
301.057	248.12
301.288	251.12
301.518	265.12
301.748	266.12
301.979	259.12
302.209	270.12
302.439	260.12
302.669	267.12
302.9	253.12
303.13	250.12
303.36	265.12
303.59	249.12
303.82	257.12
304.051	262.12
304.281	247.12
304.511	242.12
304.741	261.12
304.971	262.12
305.201	240.12
305.431	243.12
305.661	243.12
305.891	260.12
306.121	232.12
306.352	245.12
306.582	261.12
306.812	263.12
307.042	249.12
307.272	253.12
307.502	264.12
307.731	266.12
307.961	250.12
308.191	251.12
308.421	263.12
308.651	247.12
308.881	253.12
309.111	265.12
309.341	248.12
309.571	264.12
309.8	270.12
310.03	256.12
310.26	250.12
310.49	242.12
310.72	252.12
310.949	253.12
311.179	266.12
311.409	261.12
311.639	268.12
311.868	278.12
312.098	258.12
312.328	264.12
312.557	257.12
312.787	252.12
313.017	268.12
313.246	279.12
313.476	270.12
313.706	280.12
313.935	266.12
314.165	274.12
314.394	278.12
314.624	285.12
314.853	266.12
315.083	270.12
315.312	277.12
315.542	286.12
315.771	276.12
316.001	268.12
316.23	266.12
316.46	271.12
316.689	280.12
316.919	280.12
317.148	272.12
317.377	250.12
317.607	269.12
317.836	266.12
318.065	279.12
318.295	250.12
318.524	264.12
318.753	267.12
318.983	299.12
319.212	260.12
319.441	247.12
319.67	276.12
319.9	274.12
320.129	269.12
320.358	268.12
320.587	270.12
320.816	264.12
321.046	269.12
321.275	282.12
321.504	292.12
321.733	275.12
321.962	298.12
322.191	268.12
322.42	281.12
322.649	276.12
322.878	263.12
323.108	262.12
323.337	279.12
323.566	281.12
323.795	269.12
324.024	272.12
324.253	293.12
324.482	285.12
324.71	270.12
324.939	275.12
325.168	290.12
325.397	282.12
325.626	271.12
325.855	288.12
326.084	292.12
326.313	306.12
326.542	296.12
326.77	297.12
326.999	287.12
327.228	296.12
327.457	299.12
327.686	299.12
327.914	304.12
328.143	303.12
328.372	298.12
328.6	301.12
328.829	263.12
329.058	301.12
329.287	301.12
329.515	301.12
329.744	286.12
329.972	316.12
330.201	282.12
330.43	310.12
330.658	282.12
330.887	294.12
331.115	315.12
331.344	319.12
331.572	319.12
331.801	326.12
332.03	301.12
332.258	325.12
332.486	326.12
332.715	325.12
332.943	336.12
333.172	348.12
333.4	351.12
333.629	358.12
333.857	360.12
334.085	367.12
334.314	376.12
334.542	338.12
334.771	352.12
334.999	332.12
335.227	346.12
335.455	349.12
335.684	358.12
335.912	348.12
336.14	348.12
336.369	333.12
336.597	357.12
336.825	326.12
337.053	337.12
337.281	345.12
337.51	340.12
337.738	332.12
337.966	326.12
338.194	334.12
338.422	328.12
338.65	340.12
338.878	331.12
339.106	313.12
339.334	328.12
339.562	311.12
339.79	297.12
340.018	311.12
340.246	306.12
340.474	315.12
340.702	316.12
340.93	318.12
341.158	310.12
341.386	312.12
341.614	311.12
341.842	306.12
342.07	295.12
342.298	303.12
342.526	303.12
342.754	300.12
342.981	321.12
343.209	323.12
343.437	320.12
343.665	316.12
343.893	341.12
344.12	357.12
344.348	346.12
344.576	355.12
344.804	303.12
345.031	332.12
345.259	324.12
345.487	327.12
345.714	292.12
345.942	308.12
346.17	313.12
346.397	292.12
346.625	309.12
346.853	293.12
347.08	296.12
347.308	296.12
347.535	308.12
347.763	295.12
347.99	313.12
348.218	310.12
348.445	291.12
348.673	295.12
348.9	295.12
349.128	291.12
349.355	307.12
349.583	306.12
349.81	293.12
350.037	294.12
350.265	303.12
350.492	272.12
350.72	286.12
350.947	298.12
351.174	288.12
351.402	296.12
351.629	280.12
351.856	286.12
352.083	295.12
352.311	280.12
352.538	293.12
352.765	295.12
352.992	290.12
353.22	288.12
353.447	280.12
353.674	289.12
353.901	303.12
354.128	286.12
354.355	278.12
354.583	289.12
354.81	271.12
355.037	292.12
355.264	298.12
355.491	281.12
355.718	315.12
355.945	312.12
356.172	299.12
356.399	307.12
356.626	290.12
356.853	299.12
357.08	309.12
357.307	308.12
357.534	304.12
357.761	290.12
357.988	312.12
358.215	290.12
358.441	297.12
358.668	306.12
358.895	295.12
359.122	300.12
359.349	307.12
359.576	329.12
359.802	301.12
360.029	288.12
360.256	301.12
360.483	299.12
360.709	310.12
360.936	301.12
361.163	296.12
361.39	315.12
361.616	292.12
361.843	293.12
362.07	317.12
362.296	310.12
362.523	293.12
362.749	299.12
362.976	301.12
363.203	318.12
363.429	306.12
363.656	303.12
363.882	304.12
364.109	292.12
364.335	281.12
364.562	317.12
364.788	283.12
365.015	309.12
365.241	314.12
365.468	300.12
365.694	300.12
365.92	296.12
366.147	314.12
366.373	292.12
366.599	291.12
366.826	301.12
367.052	310.12
367.278	313.12
367.505	308.12
367.731	301.12
367.957	309.12
368.184	293.12
368.41	298.12
368.636	303.12
368.862	303.12
369.089	312.12
369.315	313.12
369.541	326.12
369.767	324.12
369.993	329.12
370.219	326.12
370.445	320.12
370.672	302.12
370.898	309.12
371.124	307.12
371.35	320.12
371.576	324.12
371.802	332.12
372.028	331.12
372.254	336.12
372.48	328.12
372.706	332.12
372.932	319.12
373.158	326.12
373.384	340.12
373.61	331.12
373.835	330.12
374.061	332.12
374.287	343.12
374.513	355.12
374.739	337.12
374.965	342.12
375.191	352.12
375.416	335.12
375.642	334.12
375.868	331.12
376.094	341.12
376.319	344.12
376.545	332.12
376.771	331.12
376.997	350.12
377.222	336.12
377.448	323.12
377.674	324.12
377.899	322.12
378.125	317.12
378.35	318.12
378.576	321.12
378.802	331.12
379.027	319.12
379.253	333.12
379.478	318.12
379.704	326.12
379.929	327.12
380.155	318.12
380.38	322.12
380.606	338.12
380.831	327.12
381.057	320.12
381.282	334.12
381.507	334.12
381.733	345.12
381.958	348.12
382.184	341.12
382.409	346.12
382.634	354.12
382.86	356.12
383.085	359.12
383.31	331.12
383.535	374.12
383.761	346.12
383.986	351.12
384.211	371.12
384.436	378.12
384.662	380.12
384.887	384.12
385.112	372.12
385.337	383.12
385.562	376.12
385.787	378.12
386.013	384.12
386.238	400.12
386.463	383.12
386.688	382.12
386.913	383.12
387.138	392.12
387.363	384.12
387.588	376.12
387.813	412.12
388.038	397.12
388.263	390.12
388.488	383.12
388.713	386.12
388.938	392.12
389.163	380.12
389.387	379.12
389.612	378.12
389.837	383.12
390.062	398.12
390.287	377.12
390.512	410.12
390.736	389.12
390.961	418.12
391.186	411.12
391.411	405.12
391.636	412.12
391.86	411.12
392.085	425.12
392.31	426.12
392.534	419.12
392.759	417.12
392.984	408.12
393.208	383.12
393.433	393.12
393.658	410.12
393.882	402.12
394.107	421.12
394.331	419.12
394.556	425.12
394.78	432.12
395.005	426.12
395.229	427.12
395.454	426.12
395.678	432.12
395.903	430.12
396.127	435.12
396.352	417.12
396.576	409.12
396.801	429.12
397.025	434.12
397.249	424.12
397.474	445.12
397.698	432.12
397.922	446.12
398.147	442.12
398.371	453.12
398.595	462.12
398.82	476.12
399.044	491.12
399.268	537.12
399.492	584.12
399.717	598.12
399.941	615.12
400.165	590.12
400.389	512.12
400.613	511.12
400.837	485.12
401.062	483.12
401.286	489.12
401.51	480.12
401.734	472.12
401.958	486.12
402.182	467.12
402.406	485.12
402.63	486.12
402.854	493.12
403.078	484.12
403.302	506.12
403.526	517.12
403.75	514.12
403.974	543.12
404.198	516.12
404.422	524.12
404.645	507.12
404.869	510.12
405.093	511.12
405.317	500.12
405.541	525.12
405.765	498.12
405.988	502.12
406.212	526.12
406.436	525.12
406.66	539.12
406.883	539.12
407.107	542.12
407.331	591.12
407.555	574.12
407.778	575.12
408.002	569.12
408.226	552.12
408.449	556.12
408.673	521.12
408.896	552.12
409.12	519.12
409.344	534.12
409.567	514.12
409.791	518.12
410.014	515.12
410.238	517.12
410.461	518.12
410.685	529.12
410.908	512.12
411.132	517.12
411.355	492.12
411.578	494.12
411.802	500.12
412.025	499.12
412.249	504.12
412.472	493.12
412.695	516.12
412.919	503.12
413.142	509.12
413.365	487.12
413.589	503.12
413.812	493.12
414.035	462.12
414.258	502.12
414.482	476.12
414.705	487.12
414.928	482.12
415.151	495.12
415.374	484.12
415.597	509.12
415.821	477.12
416.044	501.12
416.267	478.12
416.49	472.12
416.713	455.12
416.936	487.12
417.159	484.12
417.382	478.12
417.605	491.12
417.828	494.12
418.051	485.12
418.274	483.12
418.497	483.12
418.72	489.12
418.943	501.12
419.166	497.12
419.389	527.12
419.611	521.12
419.834	485.12
420.057	499.12
420.28	487.12
420.503	488.12
420.726	499.12
420.948	479.12
421.171	446.12
421.394	472.12
421.617	469.12
421.839	459.12
422.062	479.12
422.285	488.12
422.507	490.12
422.73	464.12
422.953	499.12
423.175	475.12
423.398	493.12
423.621	496.12
423.843	496.12
424.066	485.12
424.288	469.12
424.511	487.12
424.733	472.12
424.956	460.12
425.178	486.12
425.401	516.12
425.623	477.12
425.846	462.12
426.068	491.12
426.291	483.12
426.513	460.12
426.735	471.12
426.958	457.12
427.18	448.12
427.402	451.12
427.625	454.12
427.847	435.12
428.069	444.12
428.292	464.12
428.514	428.12
428.736	470.12
428.958	438.12
429.181	439.12
429.403	447.12
429.625	438.12
429.847	426.12
430.069	444.12
430.292	463.12
430.514	446.12
430.736	444.12
430.958	437.12
431.18	448.12
431.402	446.12
431.624	440.12
431.846	462.12
432.068	421.12
432.29	459.12
432.512	431.12
432.734	445.12
432.956	445.12
433.178	468.12
433.4	446.12
433.622	470.12
433.844	444.12
434.066	467.12
434.287	434.12
434.509	459.12
434.731	485.12
434.953	494.12
435.175	489.12
435.397	473.12
435.618	488.12
435.84	462.12
436.062	463.12
436.284	467.12
436.505	469.12
436.727	457.12
436.949	452.12
437.17	461.12
437.392	442.12
437.614	422.12
437.835	423.12
438.057	434.12
438.278	460.12
438.5	447.12
438.721	453.12
438.943	454.12
439.165	440.12
439.386	458.12
439.608	446.12
439.829	464.12
440.05	451.12
440.272	446.12
440.493	470.12
440.715	440.12
440.936	451.12
441.158	472.12
441.379	474.12
441.6	508.12
441.822	515.12
442.043	492.12
442.264	472.12
442.486	483.12
442.707	478.12
442.928	485.12
443.149	498.12
443.371	476.12
443.592	498.12
443.813	495.12
444.034	493.12
444.255	504.12
444.476	524.12
444.698	533.12
444.919	536.12
445.14	644.12
445.361	570.12
445.582	528.12
445.803	511.12
446.024	477.12
446.245	460.12
446.466	471.12
446.687	459.12
446.908	461.12
447.129	464.12
447.35	460.12
447.571	461.12
447.792	435.12
448.013	422.12
448.234	449.12
448.455	439.12
448.675	441.12
448.896	434.12
449.117	445.12
449.338	431.12
449.559	444.12
449.779	408.12
450	427.12
450.221	419.12
450.442	406.12
450.662	436.12
450.883	451.12
451.104	445.12
451.324	437.12
451.545	429.12
451.766	422.12
451.986	434.12
452.207	442.12
452.428	430.12
452.648	420.12
452.869	414.12
453.089	422.12
453.31	416.12
453.53	411.12
453.751	388.12
453.971	418.12
454.192	404.12
454.412	396.12
454.633	427.12
454.853	399.12
455.073	377.12
455.294	382.12
455.514	412.12
455.734	409.12
455.955	409.12
456.175	409.12
456.395	397.12
456.616	404.12
456.836	395.12
457.056	412.12
457.276	382.12
457.497	412.12
457.717	397.12
457.937	412.12
458.157	419.12
458.377	404.12
458.598	418.12
458.818	426.12
459.038	447.12
459.258	437.12
459.478	434.12
459.698	439.12
459.918	458.12
460.138	483.12
460.358	500.12
460.578	517.12
460.798	517.12
461.018	535.12
461.238	514.12
461.458	502.12
461.678	513.12
461.898	533.12
462.118	532.12
462.338	521.12
462.558	550.12
462.777	554.12
462.997	591.12
463.217	624.12
463.437	612.12
463.657	578.12
463.876	571.12
464.096	580.12
464.316	569.12
464.536	572.12
464.755	573.12
464.975	543.12
465.195	527.12
465.414	519.12
465.634	469.12
465.854	479.12
466.073	469.12
466.293	459.12
466.512	453.12
466.732	450.12
466.951	442.12
467.171	430.12
467.391	438.12
467.61	441.12
467.829	420.12
468.049	427.12
468.268	435.12
468.488	420.12
468.707	429.12
468.927	445.12
469.146	437.12
469.365	422.12
469.585	440.12
469.804	428.12
470.023	420.12
470.243	444.12
470.462	461.12
470.681	445.12
470.901	435.12
471.12	442.12
471.339	449.12
471.558	447.12
471.777	435.12
471.997	441.12
472.216	418.12
472.435	412.12
472.654	424.12
472.873	419.12
473.092	426.12
473.311	422.12
473.53	437.12
473.749	448.12
473.968	414.12
474.187	421.12
474.406	422.12
474.625	416.12
474.844	419.12
475.063	431.12
475.282	430.12
475.501	414.12
475.72	434.12
475.939	418.12
476.158	436.12
476.377	452.12
476.596	435.12
476.814	426.12
477.033	436.12
477.252	448.12
477.471	451.12
477.69	472.12
477.908	488.12
478.127	490.12
478.346	460.12
478.564	501.12
478.783	485.12
479.002	483.12
479.22	498.12
479.439	502.12
479.658	487.12
479.876	491.12
480.095	495.12
480.313	507.12
480.532	511.12
480.751	505.12
480.969	469.12
481.188	493.12
481.406	470.12
481.624	489.12
481.843	470.12
482.061	472.12
482.28	479.12
482.498	477.12
482.717	446.12
482.935	480.12
483.153	467.12
483.372	443.12
483.59	479.12
483.808	472.12
484.027	466.12
484.245	466.12
484.463	476.12
484.681	479.12
484.9	456.12
485.118	498.12
485.336	484.12
485.554	485.12
485.772	480.12
485.99	487.12
486.209	489.12
486.427	463.12
486.645	477.12
486.863	497.12
487.081	486.12
487.299	483.12
487.517	480.12
487.735	492.12
487.953	495.12
488.171	487.12
488.389	498.12
488.607	487.12
488.825	481.12
489.043	490.12
489.261	476.12
489.479	504.12
489.696	501.12
489.914	502.12
490.132	512.12
490.35	509.12
490.568	483.12
490.786	492.12
491.003	508.12
491.221	528.12
491.439	499.12
491.657	499.12
491.874	521.12
492.092	492.12
492.31	515.12
492.527	493.12
492.745	512.12
492.963	510.12
493.18	521.12
493.398	512.12
493.615	531.12
493.833	516.12
494.05	525.12
494.268	507.12
494.485	531.12
494.703	527.12
494.92	519.12
495.138	487.12
495.355	510.12
495.573	495.12
495.79	538.12
496.008	556.12
496.225	544.12
496.442	554.12
496.66	568.12
496.877	555.12
497.094	555.12
497.312	571.12
497.529	558.12
497.746	582.12
497.963	592.12
498.181	628.12
498.398	613.12
498.615	654.12
498.832	684.12
499.049	703.12
499.267	776.12
499.484	820.12
499.701	882.12
499.918	968.12
500.135	1013.12
500.352	1123.12
500.569	1115.12
500.786	1098.12
501.003	1048.12
501.22	1002.12
501.437	925.12
501.654	819.12
501.871	798.12
