Data from Fe(NO3)3@0.1M.TitratingCurve.Agarose3%dH2O.NegLispCup.LampEnergy10.LIBS07252019_HRD10591_16-40-58-332.txt Node
Date: Thu Jul 25 16:40:58 EDT 2019
User: cochatt
Spectrometer: HR+D1059
Trigger mode: 1
Integration Time (sec): 1.000000E-1
Scans to average: 1
Electric dark correction enabled: true
Nonlinearity correction enabled: false
Boxcar width: 0
XAxis mode: Wavelengths
Number of Pixels in Spectrum: 2048
>>>>>Begin Spectral Data<<<<<
223.165	-14.38
223.4	-14.38
223.635	-14.38
223.869	-22.38
224.104	-8.38
224.338	-20.38
224.573	-14.38
224.808	-15.38
225.042	-0.38
225.277	11.62
225.511	-6.38
225.746	-1.38
225.98	4.62
226.215	15.62
226.449	5.62
226.683	15.62
226.918	8.62
227.152	41.62
227.387	32.62
227.621	26.62
227.856	59.62
228.09	37.62
228.324	52.62
228.559	59.62
228.793	64.62
229.027	75.62
229.262	82.62
229.496	71.62
229.73	75.62
229.964	88.62
230.199	85.62
230.433	94.62
230.667	93.62
230.901	99.62
231.136	95.62
231.37	101.62
231.604	88.62
231.838	99.62
232.072	85.62
232.306	111.62
232.541	106.62
232.775	97.62
233.009	96.62
233.243	104.62
233.477	83.62
233.711	100.62
233.945	113.62
234.179	99.62
234.413	101.62
234.647	102.62
234.881	105.62
235.115	96.62
235.349	106.62
235.583	106.62
235.817	104.62
236.051	95.62
236.285	111.62
236.519	103.62
236.753	97.62
236.987	111.62
237.221	95.62
237.455	97.62
237.689	96.62
237.922	101.62
238.156	102.62
238.39	110.62
238.624	94.62
238.858	103.62
239.091	101.62
239.325	101.62
239.559	106.62
239.793	111.62
240.027	95.62
240.26	112.62
240.494	108.62
240.728	117.62
240.961	93.62
241.195	116.62
241.429	122.62
241.662	108.62
241.896	95.62
242.13	99.62
242.363	99.62
242.597	104.62
242.83	118.62
243.064	115.62
243.298	103.62
243.531	120.62
243.765	115.62
243.998	124.62
244.232	115.62
244.465	112.62
244.699	115.62
244.932	105.62
245.166	113.62
245.399	121.62
245.633	111.62
245.866	131.62
246.099	108.62
246.333	119.62
246.566	129.62
246.8	120.62
247.033	135.62
247.266	128.62
247.5	121.62
247.733	120.62
247.966	125.62
248.2	137.62
248.433	133.62
248.666	112.62
248.899	145.62
249.133	127.62
249.366	130.62
249.599	128.62
249.832	131.62
250.066	127.62
250.299	123.62
250.532	115.62
250.765	123.62
250.998	125.62
251.231	135.62
251.465	123.62
251.698	140.62
251.931	125.62
252.164	126.62
252.397	143.62
252.63	142.62
252.863	137.62
253.096	136.62
253.329	128.62
253.562	146.62
253.795	138.62
254.028	139.62
254.261	109.62
254.494	133.62
254.727	128.62
254.96	125.62
255.193	123.62
255.426	142.62
255.659	146.62
255.892	149.62
256.124	142.62
256.357	128.62
256.59	126.62
256.823	125.62
257.056	140.62
257.289	138.62
257.521	137.62
257.754	139.62
257.987	128.62
258.22	143.62
258.452	140.62
258.685	127.62
258.918	155.62
259.151	149.62
259.383	146.62
259.616	136.62
259.849	156.62
260.081	143.62
260.314	156.62
260.547	141.62
260.779	141.62
261.012	151.62
261.244	127.62
261.477	144.62
261.71	149.62
261.942	147.62
262.175	136.62
262.407	151.62
262.64	126.62
262.872	137.62
263.105	145.62
263.337	144.62
263.57	162.62
263.802	136.62
264.035	124.62
264.267	147.62
264.499	149.62
264.732	164.62
264.964	153.62
265.197	152.62
265.429	152.62
265.661	152.62
265.894	159.62
266.126	161.62
266.358	145.62
266.591	154.62
266.823	157.62
267.055	162.62
267.287	181.62
267.52	171.62
267.752	158.62
267.984	143.62
268.216	165.62
268.448	147.62
268.681	158.62
268.913	162.62
269.145	155.62
269.377	163.62
269.609	167.62
269.841	159.62
270.073	163.62
270.306	161.62
270.538	164.62
270.77	177.62
271.002	176.62
271.234	165.62
271.466	152.62
271.698	173.62
271.93	176.62
272.162	162.62
272.394	175.62
272.626	154.62
272.858	179.62
273.09	171.62
273.322	174.62
273.553	148.62
273.785	171.62
274.017	173.62
274.249	173.62
274.481	164.62
274.713	170.62
274.945	172.62
275.176	184.62
275.408	182.62
275.64	168.62
275.872	179.62
276.104	175.62
276.335	178.62
276.567	163.62
276.799	181.62
277.031	185.62
277.262	164.62
277.494	169.62
277.726	183.62
277.957	169.62
278.189	182.62
278.421	185.62
278.652	180.62
278.884	187.62
279.115	173.62
279.347	192.62
279.579	181.62
279.81	180.62
280.042	183.62
280.273	177.62
280.505	199.62
280.736	186.62
280.968	181.62
281.199	185.62
281.431	183.62
281.662	196.62
281.894	216.62
282.125	190.62
282.356	194.62
282.588	173.62
282.819	199.62
283.051	191.62
283.282	191.62
283.513	186.62
283.745	197.62
283.976	193.62
284.207	188.62
284.439	198.62
284.67	203.62
284.901	187.62
285.132	199.62
285.364	203.62
285.595	202.62
285.826	179.62
286.057	183.62
286.288	192.62
286.52	189.62
286.751	174.62
286.982	185.62
287.213	189.62
287.444	212.62
287.675	196.62
287.906	185.62
288.138	193.62
288.369	202.62
288.6	209.62
288.831	202.62
289.062	209.62
289.293	203.62
289.524	201.62
289.755	206.62
289.986	195.62
290.217	200.62
290.448	215.62
290.679	216.62
290.91	205.62
291.141	191.62
291.371	198.62
291.602	206.62
291.833	214.62
292.064	195.62
292.295	209.62
292.526	207.62
292.757	193.62
292.987	209.62
293.218	204.62
293.449	200.62
293.68	209.62
293.91	199.62
294.141	198.62
294.372	227.62
294.603	216.62
294.833	220.62
295.064	219.62
295.295	206.62
295.525	206.62
295.756	221.62
295.987	236.62
296.217	223.62
296.448	218.62
296.679	212.62
296.909	224.62
297.14	208.62
297.37	214.62
297.601	216.62
297.831	230.62
298.062	230.62
298.292	221.62
298.523	218.62
298.753	222.62
298.984	254.62
299.214	232.62
299.445	227.62
299.675	216.62
299.905	232.62
300.136	238.62
300.366	231.62
300.597	227.62
300.827	237.62
301.057	228.62
301.288	231.62
301.518	231.62
301.748	248.62
301.979	253.62
302.209	236.62
302.439	236.62
302.669	231.62
302.9	237.62
303.13	219.62
303.36	220.62
303.59	224.62
303.82	224.62
304.051	229.62
304.281	217.62
304.511	229.62
304.741	219.62
304.971	241.62
305.201	245.62
305.431	232.62
305.661	227.62
305.891	228.62
306.121	230.62
306.352	227.62
306.582	230.62
306.812	223.62
307.042	222.62
307.272	228.62
307.502	240.62
307.731	252.62
307.961	229.62
308.191	220.62
308.421	222.62
308.651	228.62
308.881	219.62
309.111	227.62
309.341	228.62
309.571	229.62
309.8	228.62
310.03	218.62
310.26	241.62
310.49	228.62
310.72	247.62
310.949	208.62
311.179	214.62
311.409	225.62
311.639	237.62
311.868	227.62
312.098	246.62
312.328	248.62
312.557	251.62
312.787	233.62
313.017	237.62
313.246	244.62
313.476	245.62
313.706	248.62
313.935	251.62
314.165	239.62
314.394	248.62
314.624	233.62
314.853	268.62
315.083	250.62
315.312	224.62
315.542	236.62
315.771	247.62
316.001	243.62
316.23	251.62
316.46	238.62
316.689	247.62
316.919	247.62
317.148	229.62
317.377	237.62
317.607	220.62
317.836	234.62
318.065	229.62
318.295	239.62
318.524	238.62
318.753	235.62
318.983	251.62
319.212	253.62
319.441	235.62
319.67	237.62
319.9	248.62
320.129	243.62
320.358	237.62
320.587	254.62
320.816	246.62
321.046	252.62
321.275	248.62
321.504	246.62
321.733	255.62
321.962	241.62
322.191	247.62
322.42	245.62
322.649	254.62
322.878	244.62
323.108	228.62
323.337	245.62
323.566	261.62
323.795	254.62
324.024	254.62
324.253	255.62
324.482	254.62
324.71	265.62
324.939	277.62
325.168	262.62
325.397	253.62
325.626	261.62
325.855	262.62
326.084	267.62
326.313	257.62
326.542	255.62
326.77	280.62
326.999	268.62
327.228	236.62
327.457	263.62
327.686	261.62
327.914	273.62
328.143	277.62
328.372	267.62
328.6	252.62
328.829	270.62
329.058	270.62
329.287	271.62
329.515	257.62
329.744	268.62
329.972	258.62
330.201	285.62
330.43	274.62
330.658	292.62
330.887	284.62
331.115	278.62
331.344	264.62
331.572	295.62
331.801	278.62
332.03	281.62
332.258	286.62
332.486	297.62
332.715	288.62
332.943	323.62
333.172	334.62
333.4	330.62
333.629	351.62
333.857	339.62
334.085	341.62
334.314	322.62
334.542	314.62
334.771	326.62
334.999	321.62
335.227	316.62
335.455	320.62
335.684	315.62
335.912	319.62
336.14	307.62
336.369	313.62
336.597	343.62
336.825	295.62
337.053	316.62
337.281	315.62
337.51	307.62
337.738	312.62
337.966	291.62
338.194	281.62
338.422	285.62
338.65	287.62
338.878	287.62
339.106	276.62
339.334	266.62
339.562	285.62
339.79	285.62
340.018	271.62
340.246	290.62
340.474	277.62
340.702	274.62
340.93	283.62
341.158	283.62
341.386	295.62
341.614	281.62
341.842	291.62
342.07	278.62
342.298	271.62
342.526	283.62
342.754	288.62
342.981	272.62
343.209	284.62
343.437	287.62
343.665	320.62
343.893	316.62
344.12	322.62
344.348	327.62
344.576	293.62
344.804	283.62
345.031	283.62
345.259	284.62
345.487	273.62
345.714	263.62
345.942	288.62
346.17	279.62
346.397	271.62
346.625	268.62
346.853	253.62
347.08	280.62
347.308	289.62
347.535	282.62
347.763	285.62
347.99	285.62
348.218	286.62
348.445	279.62
348.673	280.62
348.9	278.62
349.128	296.62
349.355	258.62
349.583	280.62
349.81	259.62
350.037	264.62
350.265	263.62
350.492	264.62
350.72	263.62
350.947	268.62
351.174	267.62
351.402	262.62
351.629	265.62
351.856	293.62
352.083	256.62
352.311	272.62
352.538	267.62
352.765	273.62
352.992	287.62
353.22	265.62
353.447	275.62
353.674	254.62
353.901	271.62
354.128	267.62
354.355	259.62
354.583	263.62
354.81	265.62
355.037	266.62
355.264	255.62
355.491	274.62
355.718	284.62
355.945	270.62
356.172	266.62
356.399	277.62
356.626	273.62
356.853	261.62
357.08	254.62
357.307	269.62
357.534	257.62
357.761	262.62
357.988	261.62
358.215	285.62
358.441	253.62
358.668	260.62
358.895	274.62
359.122	263.62
359.349	264.62
359.576	269.62
359.802	277.62
360.029	257.62
360.256	264.62
360.483	270.62
360.709	263.62
360.936	282.62
361.163	263.62
361.39	274.62
361.616	270.62
361.843	274.62
362.07	269.62
362.296	272.62
362.523	263.62
362.749	251.62
362.976	252.62
363.203	260.62
363.429	251.62
363.656	277.62
363.882	273.62
364.109	289.62
364.335	289.62
364.562	266.62
364.788	278.62
365.015	268.62
365.241	267.62
365.468	268.62
365.694	251.62
365.92	272.62
366.147	277.62
366.373	269.62
366.599	254.62
366.826	259.62
367.052	253.62
367.278	251.62
367.505	276.62
367.731	256.62
367.957	275.62
368.184	279.62
368.41	275.62
368.636	258.62
368.862	251.62
369.089	254.62
369.315	273.62
369.541	288.62
369.767	288.62
369.993	288.62
370.219	300.62
370.445	277.62
370.672	274.62
370.898	267.62
371.124	296.62
371.35	288.62
371.576	295.62
371.802	280.62
372.028	281.62
372.254	288.62
372.48	289.62
372.706	284.62
372.932	295.62
373.158	299.62
373.384	291.62
373.61	290.62
373.835	297.62
374.061	299.62
374.287	298.62
374.513	304.62
374.739	316.62
374.965	318.62
375.191	312.62
375.416	329.62
375.642	343.62
375.868	342.62
376.094	307.62
376.319	314.62
376.545	300.62
376.771	320.62
376.997	280.62
377.222	308.62
377.448	286.62
377.674	290.62
377.899	311.62
378.125	285.62
378.35	279.62
378.576	284.62
378.802	297.62
379.027	299.62
379.253	288.62
379.478	287.62
379.704	287.62
379.929	283.62
380.155	287.62
380.38	291.62
380.606	308.62
380.831	288.62
381.057	304.62
381.282	294.62
381.507	287.62
381.733	316.62
381.958	284.62
382.184	297.62
382.409	285.62
382.634	296.62
382.86	308.62
383.085	305.62
383.31	314.62
383.535	318.62
383.761	298.62
383.986	316.62
384.211	329.62
384.436	346.62
384.662	345.62
384.887	333.62
385.112	334.62
385.337	335.62
385.562	339.62
385.787	346.62
386.013	356.62
386.238	357.62
386.463	332.62
386.688	334.62
386.913	352.62
387.138	342.62
387.363	317.62
387.588	341.62
387.813	351.62
388.038	340.62
388.263	329.62
388.488	351.62
388.713	343.62
388.938	331.62
389.163	328.62
389.387	342.62
389.612	351.62
389.837	350.62
390.062	349.62
390.287	324.62
390.512	341.62
390.736	355.62
390.961	359.62
391.186	347.62
391.411	345.62
391.636	361.62
391.86	407.62
392.085	387.62
392.31	372.62
392.534	380.62
392.759	356.62
392.984	357.62
393.208	381.62
393.433	366.62
393.658	358.62
393.882	359.62
394.107	373.62
394.331	364.62
394.556	357.62
394.78	375.62
395.005	391.62
395.229	358.62
395.454	382.62
395.678	383.62
395.903	393.62
396.127	380.62
396.352	382.62
396.576	365.62
396.801	357.62
397.025	386.62
397.249	387.62
397.474	391.62
397.698	367.62
397.922	370.62
398.147	371.62
398.371	358.62
398.595	387.62
398.82	407.62
399.044	463.62
399.268	492.62
399.492	539.62
399.717	567.62
399.941	571.62
400.165	516.62
400.389	483.62
400.613	471.62
400.837	446.62
401.062	430.62
401.286	417.62
401.51	418.62
401.734	439.62
401.958	432.62
402.182	422.62
402.406	427.62
402.63	439.62
402.854	435.62
403.078	450.62
403.302	452.62
403.526	469.62
403.75	449.62
403.974	469.62
404.198	465.62
404.422	462.62
404.645	484.62
404.869	471.62
405.093	463.62
405.317	475.62
405.541	460.62
405.765	447.62
405.988	460.62
406.212	449.62
406.436	464.62
406.66	480.62
406.883	451.62
407.107	492.62
407.331	514.62
407.555	536.62
407.778	510.62
408.002	519.62
408.226	495.62
408.449	489.62
408.673	472.62
408.896	463.62
409.12	478.62
409.344	467.62
409.567	475.62
409.791	484.62
410.014	471.62
410.238	464.62
410.461	463.62
410.685	471.62
410.908	452.62
411.132	441.62
411.355	435.62
411.578	462.62
411.802	433.62
412.025	477.62
412.249	441.62
412.472	447.62
412.695	426.62
412.919	419.62
413.142	427.62
413.365	447.62
413.589	454.62
413.812	407.62
414.035	427.62
414.258	442.62
414.482	408.62
414.705	437.62
414.928	438.62
415.151	426.62
415.374	429.62
415.597	429.62
415.821	430.62
416.044	421.62
416.267	406.62
416.49	425.62
416.713	444.62
416.936	413.62
417.159	421.62
417.382	425.62
417.605	415.62
417.828	413.62
418.051	420.62
418.274	438.62
418.497	430.62
418.72	445.62
418.943	431.62
419.166	454.62
419.389	468.62
419.611	458.62
419.834	444.62
420.057	441.62
420.28	415.62
420.503	405.62
420.726	424.62
420.948	414.62
421.171	424.62
421.394	437.62
421.617	421.62
421.839	436.62
422.062	438.62
422.285	428.62
422.507	437.62
422.73	422.62
422.953	429.62
423.175	437.62
423.398	418.62
423.621	437.62
423.843	453.62
424.066	458.62
424.288	452.62
424.511	436.62
424.733	411.62
424.956	427.62
425.178	436.62
425.401	435.62
425.623	431.62
425.846	407.62
426.068	399.62
426.291	408.62
426.513	383.62
426.735	416.62
426.958	402.62
427.18	403.62
427.402	397.62
427.625	405.62
427.847	419.62
428.069	394.62
428.292	402.62
428.514	383.62
428.736	379.62
428.958	396.62
429.181	387.62
429.403	387.62
429.625	373.62
429.847	379.62
430.069	383.62
430.292	403.62
430.514	367.62
430.736	381.62
430.958	390.62
431.18	383.62
431.402	384.62
431.624	385.62
431.846	390.62
432.068	385.62
432.29	387.62
432.512	402.62
432.734	397.62
432.956	393.62
433.178	432.62
433.4	390.62
433.622	396.62
433.844	414.62
434.066	382.62
434.287	394.62
434.509	402.62
434.731	421.62
434.953	431.62
435.175	439.62
435.397	431.62
435.618	420.62
435.84	408.62
436.062	401.62
436.284	411.62
436.505	381.62
436.727	392.62
436.949	385.62
437.17	399.62
437.392	389.62
437.614	402.62
437.835	380.62
438.057	361.62
438.278	375.62
438.5	381.62
438.721	391.62
438.943	411.62
439.165	380.62
439.386	403.62
439.608	405.62
439.829	403.62
440.05	388.62
440.272	393.62
440.493	407.62
440.715	411.62
440.936	425.62
441.158	421.62
441.379	422.62
441.6	426.62
441.822	446.62
442.043	411.62
442.264	424.62
442.486	407.62
442.707	425.62
442.928	453.62
443.149	425.62
443.371	424.62
443.592	458.62
443.813	451.62
444.034	447.62
444.255	464.62
444.476	480.62
444.698	518.62
444.919	502.62
445.14	560.62
445.361	501.62
445.582	439.62
445.803	430.62
446.024	423.62
446.245	436.62
446.466	411.62
446.687	411.62
446.908	430.62
447.129	417.62
447.35	412.62
447.571	376.62
447.792	377.62
448.013	378.62
448.234	391.62
448.455	390.62
448.675	387.62
448.896	387.62
449.117	395.62
449.338	375.62
449.559	391.62
449.779	365.62
450	368.62
450.221	386.62
450.442	391.62
450.662	382.62
450.883	362.62
451.104	363.62
451.324	368.62
451.545	381.62
451.766	383.62
451.986	368.62
452.207	368.62
452.428	365.62
452.648	379.62
452.869	373.62
453.089	367.62
453.31	368.62
453.53	373.62
453.751	371.62
453.971	359.62
454.192	376.62
454.412	334.62
454.633	353.62
454.853	355.62
455.073	353.62
455.294	361.62
455.514	356.62
455.734	336.62
455.955	331.62
456.175	351.62
456.395	332.62
456.616	339.62
456.836	328.62
457.056	361.62
457.276	341.62
457.497	335.62
457.717	356.62
457.937	345.62
458.157	367.62
458.377	379.62
458.598	377.62
458.818	364.62
459.038	359.62
459.258	379.62
459.478	377.62
459.698	384.62
459.918	401.62
460.138	424.62
460.358	447.62
460.578	443.62
460.798	446.62
461.018	463.62
461.238	471.62
461.458	440.62
461.678	443.62
461.898	441.62
462.118	453.62
462.338	471.62
462.558	474.62
462.777	479.62
462.997	535.62
463.217	576.62
463.437	555.62
463.657	539.62
463.876	504.62
464.096	519.62
464.316	490.62
464.536	531.62
464.755	501.62
464.975	477.62
465.195	438.62
465.414	433.62
465.634	424.62
465.854	395.62
466.073	406.62
466.293	382.62
466.512	404.62
466.732	384.62
466.951	373.62
467.171	374.62
467.391	383.62
467.61	387.62
467.829	385.62
468.049	391.62
468.268	353.62
468.488	366.62
468.707	358.62
468.927	388.62
469.146	387.62
469.365	388.62
469.585	345.62
469.804	389.62
470.023	413.62
470.243	382.62
470.462	396.62
470.681	402.62
470.901	400.62
471.12	375.62
471.339	368.62
471.558	359.62
471.777	382.62
471.997	352.62
472.216	364.62
472.435	339.62
472.654	362.62
472.873	352.62
473.092	339.62
473.311	377.62
473.53	357.62
473.749	362.62
473.968	360.62
474.187	353.62
474.406	341.62
474.625	355.62
474.844	365.62
475.063	364.62
475.282	365.62
475.501	359.62
475.72	367.62
475.939	360.62
476.158	369.62
476.377	383.62
476.596	364.62
476.814	366.62
477.033	356.62
477.252	409.62
477.471	378.62
477.69	402.62
477.908	383.62
478.127	410.62
478.346	421.62
478.564	419.62
478.783	412.62
479.002	425.62
479.22	416.62
479.439	423.62
479.658	415.62
479.876	404.62
480.095	442.62
480.313	436.62
480.532	449.62
480.751	436.62
480.969	432.62
481.188	397.62
481.406	398.62
481.624	394.62
481.843	399.62
482.061	400.62
482.28	398.62
482.498	389.62
482.717	393.62
482.935	404.62
483.153	406.62
483.372	396.62
483.59	399.62
483.808	381.62
484.027	392.62
484.245	391.62
484.463	407.62
484.681	420.62
484.9	414.62
485.118	413.62
485.336	408.62
485.554	399.62
485.772	399.62
485.99	413.62
486.209	425.62
486.427	396.62
486.645	424.62
486.863	407.62
487.081	411.62
487.299	413.62
487.517	408.62
487.735	428.62
487.953	425.62
488.171	400.62
488.389	435.62
488.607	399.62
488.825	426.62
489.043	392.62
489.261	415.62
489.479	399.62
489.696	405.62
489.914	411.62
490.132	411.62
490.35	420.62
490.568	394.62
490.786	429.62
491.003	431.62
491.221	418.62
491.439	427.62
491.657	425.62
491.874	423.62
492.092	438.62
492.31	417.62
492.527	424.62
492.745	404.62
492.963	456.62
493.18	427.62
493.398	435.62
493.615	413.62
493.833	427.62
494.05	433.62
494.268	445.62
494.485	436.62
494.703	448.62
494.92	441.62
495.138	435.62
495.355	437.62
495.573	446.62
495.79	439.62
496.008	455.62
496.225	434.62
496.442	462.62
496.66	456.62
496.877	449.62
497.094	484.62
497.312	460.62
497.529	476.62
497.746	459.62
497.963	483.62
498.181	493.62
498.398	529.62
498.615	547.62
498.832	588.62
499.049	615.62
499.267	658.62
499.484	728.62
499.701	785.62
499.918	861.62
500.135	968.62
500.352	1067.62
500.569	1089.62
500.786	1068.62
501.003	1000.62
501.22	914.62
501.437	797.62
501.654	754.62
501.871	667.62
