Data from Fe(NO3)3@0.1M.TitratingCurve.Agarose3%dH2O.NegLispCup.LampEnergy10.LIBS07252019_HRD10591_16-41-57-333.txt Node
Date: Thu Jul 25 16:41:57 EDT 2019
User: cochatt
Spectrometer: HR+D1059
Trigger mode: 1
Integration Time (sec): 1.000000E-1
Scans to average: 1
Electric dark correction enabled: true
Nonlinearity correction enabled: false
Boxcar width: 0
XAxis mode: Wavelengths
Number of Pixels in Spectrum: 2048
>>>>>Begin Spectral Data<<<<<
223.165	-18.75
223.4	-18.75
223.635	-18.75
223.869	-19.75
224.104	-25.75
224.338	-19.75
224.573	-12.75
224.808	-2.75
225.042	-1.75
225.277	-4.75
225.511	4.25
225.746	-7.75
225.98	5.25
226.215	11.25
226.449	23.25
226.683	19.25
226.918	27.25
227.152	23.25
227.387	37.25
227.621	30.25
227.856	47.25
228.09	42.25
228.324	63.25
228.559	46.25
228.793	57.25
229.027	78.25
229.262	60.25
229.496	74.25
229.73	84.25
229.964	79.25
230.199	75.25
230.433	76.25
230.667	93.25
230.901	81.25
231.136	88.25
231.37	92.25
231.604	92.25
231.838	93.25
232.072	101.25
232.306	78.25
232.541	83.25
232.775	74.25
233.009	92.25
233.243	104.25
233.477	100.25
233.711	92.25
233.945	93.25
234.179	88.25
234.413	99.25
234.647	88.25
234.881	85.25
235.115	82.25
235.349	92.25
235.583	82.25
235.817	84.25
236.051	89.25
236.285	76.25
236.519	85.25
236.753	80.25
236.987	92.25
237.221	84.25
237.455	81.25
237.689	83.25
237.922	79.25
238.156	82.25
238.39	81.25
238.624	89.25
238.858	90.25
239.091	92.25
239.325	83.25
239.559	95.25
239.793	74.25
240.027	98.25
240.26	81.25
240.494	98.25
240.728	85.25
240.961	91.25
241.195	88.25
241.429	75.25
241.662	96.25
241.896	86.25
242.13	82.25
242.363	100.25
242.597	93.25
242.83	97.25
243.064	89.25
243.298	95.25
243.531	91.25
243.765	95.25
243.998	86.25
244.232	96.25
244.465	97.25
244.699	89.25
244.932	93.25
245.166	102.25
245.399	89.25
245.633	83.25
245.866	101.25
246.099	78.25
246.333	98.25
246.566	92.25
246.8	97.25
247.033	93.25
247.266	93.25
247.5	89.25
247.733	103.25
247.966	106.25
248.2	105.25
248.433	86.25
248.666	97.25
248.899	94.25
249.133	102.25
249.366	109.25
249.599	102.25
249.832	93.25
250.066	100.25
250.299	110.25
250.532	106.25
250.765	116.25
250.998	104.25
251.231	99.25
251.465	109.25
251.698	102.25
251.931	96.25
252.164	125.25
252.397	108.25
252.63	99.25
252.863	99.25
253.096	99.25
253.329	100.25
253.562	102.25
253.795	100.25
254.028	109.25
254.261	114.25
254.494	113.25
254.727	121.25
254.96	123.25
255.193	111.25
255.426	107.25
255.659	112.25
255.892	129.25
256.124	109.25
256.357	101.25
256.59	110.25
256.823	106.25
257.056	116.25
257.289	104.25
257.521	140.25
257.754	101.25
257.987	112.25
258.22	120.25
258.452	106.25
258.685	111.25
258.918	125.25
259.151	115.25
259.383	122.25
259.616	119.25
259.849	101.25
260.081	95.25
260.314	120.25
260.547	113.25
260.779	111.25
261.012	100.25
261.244	126.25
261.477	114.25
261.71	138.25
261.942	122.25
262.175	114.25
262.407	105.25
262.64	125.25
262.872	106.25
263.105	98.25
263.337	128.25
263.57	103.25
263.802	95.25
264.035	124.25
264.267	127.25
264.499	94.25
264.732	112.25
264.964	111.25
265.197	119.25
265.429	129.25
265.661	120.25
265.894	112.25
266.126	126.25
266.358	129.25
266.591	109.25
266.823	135.25
267.055	113.25
267.287	108.25
267.52	118.25
267.752	125.25
267.984	123.25
268.216	118.25
268.448	124.25
268.681	124.25
268.913	137.25
269.145	125.25
269.377	116.25
269.609	131.25
269.841	144.25
270.073	130.25
270.306	121.25
270.538	132.25
270.77	119.25
271.002	124.25
271.234	132.25
271.466	124.25
271.698	118.25
271.93	129.25
272.162	119.25
272.394	129.25
272.626	129.25
272.858	137.25
273.09	128.25
273.322	123.25
273.553	138.25
273.785	137.25
274.017	132.25
274.249	119.25
274.481	135.25
274.713	136.25
274.945	125.25
275.176	122.25
275.408	131.25
275.64	130.25
275.872	118.25
276.104	133.25
276.335	136.25
276.567	124.25
276.799	127.25
277.031	138.25
277.262	129.25
277.494	128.25
277.726	137.25
277.957	141.25
278.189	135.25
278.421	149.25
278.652	141.25
278.884	151.25
279.115	148.25
279.347	152.25
279.579	142.25
279.81	153.25
280.042	117.25
280.273	148.25
280.505	148.25
280.736	136.25
280.968	138.25
281.199	146.25
281.431	142.25
281.662	152.25
281.894	150.25
282.125	142.25
282.356	143.25
282.588	143.25
282.819	158.25
283.051	139.25
283.282	136.25
283.513	133.25
283.745	159.25
283.976	145.25
284.207	165.25
284.439	162.25
284.67	156.25
284.901	149.25
285.132	138.25
285.364	136.25
285.595	164.25
285.826	153.25
286.057	145.25
286.288	146.25
286.52	162.25
286.751	145.25
286.982	149.25
287.213	145.25
287.444	145.25
287.675	144.25
287.906	145.25
288.138	144.25
288.369	151.25
288.6	151.25
288.831	159.25
289.062	170.25
289.293	146.25
289.524	161.25
289.755	151.25
289.986	151.25
290.217	143.25
290.448	150.25
290.679	149.25
290.91	157.25
291.141	137.25
291.371	157.25
291.602	156.25
291.833	160.25
292.064	169.25
292.295	152.25
292.526	165.25
292.757	153.25
292.987	142.25
293.218	158.25
293.449	133.25
293.68	158.25
293.91	164.25
294.141	159.25
294.372	151.25
294.603	136.25
294.833	149.25
295.064	149.25
295.295	169.25
295.525	154.25
295.756	164.25
295.987	155.25
296.217	143.25
296.448	158.25
296.679	168.25
296.909	150.25
297.14	163.25
297.37	163.25
297.601	148.25
297.831	170.25
298.062	176.25
298.292	158.25
298.523	161.25
298.753	175.25
298.984	169.25
299.214	167.25
299.445	169.25
299.675	174.25
299.905	174.25
300.136	159.25
300.366	182.25
300.597	162.25
300.827	164.25
301.057	157.25
301.288	168.25
301.518	169.25
301.748	168.25
301.979	164.25
302.209	160.25
302.439	174.25
302.669	173.25
302.9	168.25
303.13	173.25
303.36	174.25
303.59	180.25
303.82	157.25
304.051	169.25
304.281	183.25
304.511	180.25
304.741	176.25
304.971	180.25
305.201	178.25
305.431	180.25
305.661	155.25
305.891	158.25
306.121	176.25
306.352	174.25
306.582	167.25
306.812	155.25
307.042	164.25
307.272	162.25
307.502	172.25
307.731	179.25
307.961	186.25
308.191	177.25
308.421	166.25
308.651	166.25
308.881	166.25
309.111	161.25
309.341	174.25
309.571	177.25
309.8	162.25
310.03	172.25
310.26	175.25
310.49	166.25
310.72	168.25
310.949	188.25
311.179	152.25
311.409	163.25
311.639	175.25
311.868	180.25
312.098	183.25
312.328	184.25
312.557	170.25
312.787	179.25
313.017	188.25
313.246	190.25
313.476	184.25
313.706	188.25
313.935	180.25
314.165	186.25
314.394	177.25
314.624	192.25
314.853	185.25
315.083	185.25
315.312	173.25
315.542	161.25
315.771	172.25
316.001	183.25
316.23	187.25
316.46	187.25
316.689	206.25
316.919	180.25
317.148	161.25
317.377	182.25
317.607	173.25
317.836	180.25
318.065	177.25
318.295	172.25
318.524	188.25
318.753	186.25
318.983	169.25
319.212	178.25
319.441	183.25
319.67	194.25
319.9	170.25
320.129	183.25
320.358	185.25
320.587	177.25
320.816	196.25
321.046	182.25
321.275	183.25
321.504	185.25
321.733	157.25
321.962	185.25
322.191	190.25
322.42	173.25
322.649	185.25
322.878	172.25
323.108	176.25
323.337	188.25
323.566	181.25
323.795	172.25
324.024	190.25
324.253	167.25
324.482	182.25
324.71	193.25
324.939	190.25
325.168	188.25
325.397	177.25
325.626	195.25
325.855	202.25
326.084	184.25
326.313	207.25
326.542	183.25
326.77	184.25
326.999	194.25
327.228	177.25
327.457	201.25
327.686	189.25
327.914	201.25
328.143	188.25
328.372	196.25
328.6	192.25
328.829	179.25
329.058	215.25
329.287	183.25
329.515	190.25
329.744	209.25
329.972	192.25
330.201	207.25
330.43	196.25
330.658	195.25
330.887	193.25
331.115	198.25
331.344	196.25
331.572	216.25
331.801	185.25
332.03	206.25
332.258	202.25
332.486	231.25
332.715	216.25
332.943	219.25
333.172	233.25
333.4	234.25
333.629	241.25
333.857	245.25
334.085	241.25
334.314	245.25
334.542	236.25
334.771	215.25
334.999	225.25
335.227	230.25
335.455	234.25
335.684	235.25
335.912	223.25
336.14	230.25
336.369	221.25
336.597	226.25
336.825	214.25
337.053	221.25
337.281	213.25
337.51	213.25
337.738	205.25
337.966	217.25
338.194	202.25
338.422	184.25
338.65	186.25
338.878	213.25
339.106	201.25
339.334	214.25
339.562	208.25
339.79	190.25
340.018	204.25
340.246	201.25
340.474	193.25
340.702	190.25
340.93	191.25
341.158	205.25
341.386	201.25
341.614	212.25
341.842	206.25
342.07	209.25
342.298	206.25
342.526	193.25
342.754	195.25
342.981	215.25
343.209	198.25
343.437	213.25
343.665	223.25
343.893	240.25
344.12	248.25
344.348	231.25
344.576	230.25
344.804	205.25
345.031	199.25
345.259	221.25
345.487	191.25
345.714	203.25
345.942	199.25
346.17	182.25
346.397	195.25
346.625	183.25
346.853	195.25
347.08	202.25
347.308	191.25
347.535	193.25
347.763	207.25
347.99	209.25
348.218	207.25
348.445	203.25
348.673	189.25
348.9	203.25
349.128	206.25
349.355	204.25
349.583	192.25
349.81	189.25
350.037	188.25
350.265	193.25
350.492	189.25
350.72	192.25
350.947	189.25
351.174	194.25
351.402	198.25
351.629	192.25
351.856	197.25
352.083	186.25
352.311	182.25
352.538	177.25
352.765	204.25
352.992	205.25
353.22	205.25
353.447	202.25
353.674	181.25
353.901	191.25
354.128	185.25
354.355	188.25
354.583	197.25
354.81	192.25
355.037	196.25
355.264	193.25
355.491	194.25
355.718	191.25
355.945	198.25
356.172	193.25
356.399	200.25
356.626	191.25
356.853	189.25
357.08	201.25
357.307	201.25
357.534	200.25
357.761	198.25
357.988	212.25
358.215	209.25
358.441	197.25
358.668	200.25
358.895	206.25
359.122	198.25
359.349	193.25
359.576	197.25
359.802	199.25
360.029	189.25
360.256	184.25
360.483	171.25
360.709	199.25
360.936	211.25
361.163	195.25
361.39	199.25
361.616	211.25
361.843	203.25
362.07	175.25
362.296	202.25
362.523	190.25
362.749	207.25
362.976	201.25
363.203	193.25
363.429	204.25
363.656	201.25
363.882	192.25
364.109	204.25
364.335	193.25
364.562	186.25
364.788	195.25
365.015	194.25
365.241	194.25
365.468	198.25
365.694	197.25
365.92	189.25
366.147	208.25
366.373	204.25
366.599	205.25
366.826	180.25
367.052	195.25
367.278	192.25
367.505	186.25
367.731	208.25
367.957	202.25
368.184	199.25
368.41	208.25
368.636	199.25
368.862	208.25
369.089	204.25
369.315	203.25
369.541	221.25
369.767	182.25
369.993	217.25
370.219	200.25
370.445	226.25
370.672	208.25
370.898	194.25
371.124	197.25
371.35	202.25
371.576	212.25
371.802	209.25
372.028	218.25
372.254	217.25
372.48	216.25
372.706	231.25
372.932	229.25
373.158	215.25
373.384	222.25
373.61	209.25
373.835	204.25
374.061	214.25
374.287	201.25
374.513	225.25
374.739	220.25
374.965	218.25
375.191	217.25
375.416	239.25
375.642	219.25
375.868	221.25
376.094	223.25
376.319	233.25
376.545	239.25
376.771	216.25
376.997	219.25
377.222	197.25
377.448	211.25
377.674	213.25
377.899	218.25
378.125	225.25
378.35	201.25
378.576	206.25
378.802	224.25
379.027	201.25
379.253	233.25
379.478	217.25
379.704	195.25
379.929	217.25
380.155	212.25
380.38	199.25
380.606	204.25
380.831	192.25
381.057	214.25
381.282	218.25
381.507	223.25
381.733	215.25
381.958	223.25
382.184	201.25
382.409	217.25
382.634	240.25
382.86	232.25
383.085	240.25
383.31	247.25
383.535	233.25
383.761	227.25
383.986	226.25
384.211	243.25
384.436	244.25
384.662	256.25
384.887	241.25
385.112	238.25
385.337	241.25
385.562	252.25
385.787	244.25
386.013	261.25
386.238	240.25
386.463	242.25
386.688	253.25
386.913	238.25
387.138	237.25
387.363	248.25
387.588	241.25
387.813	243.25
388.038	239.25
388.263	228.25
388.488	243.25
388.713	231.25
388.938	233.25
389.163	237.25
389.387	250.25
389.612	227.25
389.837	232.25
390.062	233.25
390.287	230.25
390.512	243.25
390.736	271.25
390.961	247.25
391.186	252.25
391.411	248.25
391.636	252.25
391.86	271.25
392.085	270.25
392.31	288.25
392.534	257.25
392.759	268.25
392.984	247.25
393.208	241.25
393.433	243.25
393.658	247.25
393.882	247.25
394.107	245.25
394.331	256.25
394.556	265.25
394.78	271.25
395.005	273.25
395.229	266.25
395.454	266.25
395.678	276.25
395.903	277.25
396.127	273.25
396.352	283.25
396.576	268.25
396.801	253.25
397.025	260.25
397.249	274.25
397.474	268.25
397.698	283.25
397.922	261.25
398.147	269.25
398.371	288.25
398.595	274.25
398.82	294.25
399.044	297.25
399.268	335.25
399.492	373.25
399.717	401.25
399.941	398.25
400.165	348.25
400.389	325.25
400.613	327.25
400.837	311.25
401.062	322.25
401.286	283.25
401.51	306.25
401.734	304.25
401.958	314.25
402.182	316.25
402.406	290.25
402.63	308.25
402.854	321.25
403.078	326.25
403.302	312.25
403.526	313.25
403.75	324.25
403.974	321.25
404.198	316.25
404.422	340.25
404.645	324.25
404.869	333.25
405.093	321.25
405.317	326.25
405.541	310.25
405.765	327.25
405.988	322.25
406.212	321.25
406.436	324.25
406.66	334.25
406.883	346.25
407.107	362.25
407.331	358.25
407.555	368.25
407.778	373.25
408.002	341.25
408.226	359.25
408.449	336.25
408.673	324.25
408.896	343.25
409.12	306.25
409.344	339.25
409.567	336.25
409.791	323.25
410.014	320.25
410.238	331.25
410.461	324.25
410.685	327.25
410.908	337.25
411.132	323.25
411.355	324.25
411.578	302.25
411.802	326.25
412.025	305.25
412.249	311.25
412.472	330.25
412.695	316.25
412.919	313.25
413.142	322.25
413.365	303.25
413.589	308.25
413.812	293.25
414.035	289.25
414.258	306.25
414.482	332.25
414.705	315.25
414.928	317.25
415.151	318.25
415.374	315.25
415.597	304.25
415.821	302.25
416.044	276.25
416.267	298.25
416.49	310.25
416.713	302.25
416.936	317.25
417.159	306.25
417.382	304.25
417.605	281.25
417.828	315.25
418.051	326.25
418.274	309.25
418.497	324.25
418.72	314.25
418.943	330.25
419.166	334.25
419.389	330.25
419.611	336.25
419.834	324.25
420.057	306.25
420.28	322.25
420.503	304.25
420.726	297.25
420.948	310.25
421.171	304.25
421.394	310.25
421.617	311.25
421.839	289.25
422.062	302.25
422.285	321.25
422.507	320.25
422.73	302.25
422.953	316.25
423.175	316.25
423.398	316.25
423.621	320.25
423.843	310.25
424.066	332.25
424.288	298.25
424.511	329.25
424.733	316.25
424.956	316.25
425.178	306.25
425.401	298.25
425.623	303.25
425.846	289.25
426.068	311.25
426.291	308.25
426.513	285.25
426.735	301.25
426.958	293.25
427.18	291.25
427.402	282.25
427.625	295.25
427.847	274.25
428.069	271.25
428.292	282.25
428.514	284.25
428.736	283.25
428.958	280.25
429.181	277.25
429.403	290.25
429.625	273.25
429.847	291.25
430.069	258.25
430.292	272.25
430.514	289.25
430.736	288.25
430.958	279.25
431.18	288.25
431.402	290.25
431.624	296.25
431.846	297.25
432.068	302.25
432.29	281.25
432.512	302.25
432.734	294.25
432.956	284.25
433.178	285.25
433.4	295.25
433.622	314.25
433.844	292.25
434.066	300.25
434.287	276.25
434.509	276.25
434.731	310.25
434.953	286.25
435.175	305.25
435.397	308.25
435.618	321.25
435.84	297.25
436.062	284.25
436.284	293.25
436.505	297.25
436.727	285.25
436.949	303.25
437.17	291.25
437.392	283.25
437.614	293.25
437.835	267.25
438.057	293.25
438.278	276.25
438.5	292.25
438.721	280.25
438.943	279.25
439.165	286.25
439.386	290.25
439.608	311.25
439.829	304.25
440.05	313.25
440.272	284.25
440.493	292.25
440.715	289.25
440.936	304.25
441.158	302.25
441.379	306.25
441.6	343.25
441.822	316.25
442.043	323.25
442.264	321.25
442.486	317.25
442.707	332.25
442.928	305.25
443.149	321.25
443.371	349.25
443.592	320.25
443.813	327.25
444.034	319.25
444.255	342.25
444.476	359.25
444.698	363.25
444.919	376.25
445.14	438.25
445.361	385.25
445.582	339.25
445.803	316.25
446.024	320.25
446.245	311.25
446.466	309.25
446.687	294.25
446.908	302.25
447.129	301.25
447.35	307.25
447.571	295.25
447.792	296.25
448.013	273.25
448.234	288.25
448.455	284.25
448.675	290.25
448.896	278.25
449.117	292.25
449.338	274.25
449.559	279.25
449.779	284.25
450	297.25
450.221	282.25
450.442	301.25
450.662	274.25
450.883	277.25
451.104	288.25
451.324	292.25
451.545	283.25
451.766	292.25
451.986	276.25
452.207	286.25
452.428	287.25
452.648	284.25
452.869	264.25
453.089	265.25
453.31	279.25
453.53	269.25
453.751	272.25
453.971	259.25
454.192	270.25
454.412	258.25
454.633	253.25
454.853	262.25
455.073	268.25
455.294	257.25
455.514	264.25
455.734	263.25
455.955	259.25
456.175	254.25
456.395	257.25
456.616	260.25
456.836	261.25
457.056	259.25
457.276	240.25
457.497	249.25
457.717	253.25
457.937	258.25
458.157	264.25
458.377	269.25
458.598	268.25
458.818	276.25
459.038	270.25
459.258	269.25
459.478	270.25
459.698	279.25
459.918	289.25
460.138	312.25
460.358	319.25
460.578	313.25
460.798	330.25
461.018	316.25
461.238	309.25
461.458	326.25
461.678	322.25
461.898	328.25
462.118	323.25
462.338	345.25
462.558	360.25
462.777	374.25
462.997	390.25
463.217	395.25
463.437	417.25
463.657	398.25
463.876	381.25
464.096	365.25
464.316	364.25
464.536	356.25
464.755	372.25
464.975	339.25
465.195	324.25
465.414	321.25
465.634	318.25
465.854	300.25
466.073	308.25
466.293	288.25
466.512	285.25
466.732	294.25
466.951	284.25
467.171	303.25
467.391	288.25
467.61	314.25
467.829	297.25
468.049	273.25
468.268	279.25
468.488	284.25
468.707	272.25
468.927	264.25
469.146	270.25
469.365	283.25
469.585	285.25
469.804	297.25
470.023	316.25
470.243	293.25
470.462	300.25
470.681	289.25
470.901	301.25
471.12	297.25
471.339	277.25
471.558	290.25
471.777	288.25
471.997	269.25
472.216	264.25
472.435	266.25
472.654	280.25
472.873	268.25
473.092	276.25
473.311	266.25
473.53	271.25
473.749	270.25
473.968	271.25
474.187	271.25
474.406	268.25
474.625	256.25
474.844	272.25
475.063	272.25
475.282	272.25
475.501	256.25
475.72	262.25
475.939	281.25
476.158	276.25
476.377	296.25
476.596	268.25
476.814	288.25
477.033	289.25
477.252	286.25
477.471	274.25
477.69	286.25
477.908	283.25
478.127	298.25
478.346	300.25
478.564	302.25
478.783	308.25
479.002	314.25
479.22	314.25
479.439	316.25
479.658	306.25
479.876	296.25
480.095	333.25
480.313	320.25
480.532	325.25
480.751	320.25
480.969	292.25
481.188	298.25
481.406	301.25
481.624	295.25
481.843	284.25
482.061	277.25
482.28	304.25
482.498	272.25
482.717	277.25
482.935	312.25
483.153	294.25
483.372	292.25
483.59	291.25
483.808	310.25
484.027	312.25
484.245	299.25
484.463	310.25
484.681	313.25
484.9	316.25
485.118	291.25
485.336	296.25
485.554	285.25
485.772	291.25
485.99	302.25
486.209	298.25
486.427	303.25
486.645	296.25
486.863	292.25
487.081	300.25
487.299	294.25
487.517	312.25
487.735	303.25
487.953	302.25
488.171	311.25
488.389	305.25
488.607	338.25
488.825	298.25
489.043	310.25
489.261	295.25
489.479	281.25
489.696	309.25
489.914	302.25
490.132	311.25
490.35	319.25
490.568	324.25
490.786	305.25
491.003	283.25
491.221	319.25
491.439	317.25
491.657	288.25
491.874	302.25
492.092	327.25
492.31	316.25
492.527	331.25
492.745	325.25
492.963	310.25
493.18	324.25
493.398	305.25
493.615	339.25
493.833	318.25
494.05	314.25
494.268	314.25
494.485	321.25
494.703	316.25
494.92	321.25
495.138	318.25
495.355	329.25
495.573	323.25
495.79	327.25
496.008	329.25
496.225	322.25
496.442	320.25
496.66	312.25
496.877	332.25
497.094	325.25
497.312	370.25
497.529	351.25
497.746	351.25
497.963	353.25
498.181	361.25
498.398	376.25
498.615	398.25
498.832	432.25
499.049	436.25
499.267	469.25
499.484	509.25
499.701	557.25
499.918	587.25
500.135	660.25
500.352	745.25
500.569	766.25
500.786	717.25
501.003	690.25
501.22	650.25
501.437	573.25
501.654	506.25
501.871	496.25
502.088	448.25
502.305	437.25
502.522	423.25
502.739	395.25
