Data from Fe(NO3)3@0.0125M.TitratingCurve.Agarose3%dH2O.NegLispCup.LampEnergy10.LIBS07252019_HRD10591_16-58-48-338.txt Node
Date: Thu Jul 25 16:58:48 EDT 2019
User: cochatt
Spectrometer: HR+D1059
Trigger mode: 1
Integration Time (sec): 1.000000E-1
Scans to average: 1
Electric dark correction enabled: true
Nonlinearity correction enabled: false
Boxcar width: 0
XAxis mode: Wavelengths
Number of Pixels in Spectrum: 2048
>>>>>Begin Spectral Data<<<<<
223.165	-13.81
223.4	-13.81
223.635	-13.81
223.869	-5.81
224.104	-10.81
224.338	-23.81
224.573	-16.81
224.808	-12.81
225.042	-9.81
225.277	7.19
225.511	-16.81
225.746	-11.81
225.98	3.19
226.215	17.19
226.449	3.19
226.683	29.19
226.918	29.19
227.152	33.19
227.387	44.19
227.621	45.19
227.856	54.19
228.09	36.19
228.324	54.19
228.559	56.19
228.793	97.19
229.027	102.19
229.262	113.19
229.496	125.19
229.73	114.19
229.964	123.19
230.199	130.19
230.433	134.19
230.667	123.19
230.901	150.19
231.136	134.19
231.37	142.19
231.604	141.19
231.838	151.19
232.072	154.19
232.306	167.19
232.541	164.19
232.775	167.19
233.009	161.19
233.243	155.19
233.477	163.19
233.711	154.19
233.945	166.19
234.179	161.19
234.413	171.19
234.647	171.19
234.881	164.19
235.115	175.19
235.349	172.19
235.583	158.19
235.817	180.19
236.051	159.19
236.285	173.19
236.519	160.19
236.753	161.19
236.987	169.19
237.221	171.19
237.455	169.19
237.689	170.19
237.922	190.19
238.156	166.19
238.39	193.19
238.624	194.19
238.858	205.19
239.091	195.19
239.325	191.19
239.559	188.19
239.793	184.19
240.027	203.19
240.26	219.19
240.494	198.19
240.728	185.19
240.961	198.19
241.195	206.19
241.429	206.19
241.662	217.19
241.896	218.19
242.13	202.19
242.363	203.19
242.597	210.19
242.83	206.19
243.064	222.19
243.298	233.19
243.531	220.19
243.765	218.19
243.998	213.19
244.232	212.19
244.465	243.19
244.699	241.19
244.932	244.19
245.166	237.19
245.399	228.19
245.633	242.19
245.866	235.19
246.099	251.19
246.333	235.19
246.566	233.19
246.8	250.19
247.033	243.19
247.266	260.19
247.5	247.19
247.733	245.19
247.966	242.19
248.2	252.19
248.433	265.19
248.666	250.19
248.899	261.19
249.133	242.19
249.366	265.19
249.599	292.19
249.832	272.19
250.066	287.19
250.299	264.19
250.532	279.19
250.765	271.19
250.998	271.19
251.231	278.19
251.465	296.19
251.698	286.19
251.931	284.19
252.164	290.19
252.397	295.19
252.63	299.19
252.863	289.19
253.096	308.19
253.329	299.19
253.562	299.19
253.795	305.19
254.028	313.19
254.261	322.19
254.494	316.19
254.727	300.19
254.96	315.19
255.193	328.19
255.426	331.19
255.659	325.19
255.892	302.19
256.124	335.19
256.357	323.19
256.59	336.19
256.823	322.19
257.056	318.19
257.289	319.19
257.521	334.19
257.754	346.19
257.987	364.19
258.22	342.19
258.452	333.19
258.685	333.19
258.918	346.19
259.151	341.19
259.383	346.19
259.616	358.19
259.849	360.19
260.081	381.19
260.314	403.19
260.547	377.19
260.779	371.19
261.012	390.19
261.244	386.19
261.477	376.19
261.71	374.19
261.942	358.19
262.175	392.19
262.407	381.19
262.64	384.19
262.872	397.19
263.105	386.19
263.337	403.19
263.57	397.19
263.802	379.19
264.035	396.19
264.267	397.19
264.499	386.19
264.732	378.19
264.964	392.19
265.197	401.19
265.429	386.19
265.661	393.19
265.894	399.19
266.126	409.19
266.358	401.19
266.591	412.19
266.823	405.19
267.055	397.19
267.287	395.19
267.52	409.19
267.752	416.19
267.984	408.19
268.216	406.19
268.448	410.19
268.681	419.19
268.913	437.19
269.145	419.19
269.377	425.19
269.609	430.19
269.841	443.19
270.073	433.19
270.306	454.19
270.538	440.19
270.77	419.19
271.002	431.19
271.234	457.19
271.466	433.19
271.698	453.19
271.93	437.19
272.162	441.19
272.394	446.19
272.626	479.19
272.858	467.19
273.09	470.19
273.322	476.19
273.553	465.19
273.785	462.19
274.017	481.19
274.249	491.19
274.481	492.19
274.713	522.19
274.945	529.19
275.176	514.19
275.408	520.19
275.64	507.19
275.872	517.19
276.104	532.19
276.335	471.19
276.567	479.19
276.799	511.19
277.031	499.19
277.262	515.19
277.494	492.19
277.726	511.19
277.957	501.19
278.189	519.19
278.421	500.19
278.652	498.19
278.884	532.19
279.115	516.19
279.347	494.19
279.579	507.19
279.81	508.19
280.042	519.19
280.273	521.19
280.505	531.19
280.736	517.19
280.968	543.19
281.199	534.19
281.431	524.19
281.662	524.19
281.894	539.19
282.125	540.19
282.356	555.19
282.588	531.19
282.819	526.19
283.051	534.19
283.282	551.19
283.513	541.19
283.745	546.19
283.976	557.19
284.207	566.19
284.439	549.19
284.67	555.19
284.901	574.19
285.132	570.19
285.364	574.19
285.595	554.19
285.826	587.19
286.057	579.19
286.288	583.19
286.52	571.19
286.751	606.19
286.982	593.19
287.213	595.19
287.444	570.19
287.675	588.19
287.906	591.19
288.138	589.19
288.369	590.19
288.6	608.19
288.831	590.19
289.062	608.19
289.293	597.19
289.524	591.19
289.755	601.19
289.986	598.19
290.217	613.19
290.448	606.19
290.679	579.19
290.91	611.19
291.141	603.19
291.371	611.19
291.602	607.19
291.833	610.19
292.064	638.19
292.295	630.19
292.526	620.19
292.757	625.19
292.987	597.19
293.218	609.19
293.449	623.19
293.68	634.19
293.91	611.19
294.141	627.19
294.372	615.19
294.603	619.19
294.833	639.19
295.064	643.19
295.295	630.19
295.525	629.19
295.756	656.19
295.987	637.19
296.217	626.19
296.448	663.19
296.679	627.19
296.909	632.19
297.14	649.19
297.37	650.19
297.601	631.19
297.831	663.19
298.062	665.19
298.292	637.19
298.523	671.19
298.753	669.19
298.984	681.19
299.214	673.19
299.445	667.19
299.675	678.19
299.905	671.19
300.136	670.19
300.366	713.19
300.597	685.19
300.827	682.19
301.057	693.19
301.288	725.19
301.518	702.19
301.748	677.19
301.979	695.19
302.209	693.19
302.439	691.19
302.669	700.19
302.9	724.19
303.13	715.19
303.36	714.19
303.59	732.19
303.82	737.19
304.051	693.19
304.281	714.19
304.511	717.19
304.741	744.19
304.971	736.19
305.201	725.19
305.431	726.19
305.661	761.19
305.891	708.19
306.121	734.19
306.352	776.19
306.582	738.19
306.812	719.19
307.042	736.19
307.272	730.19
307.502	734.19
307.731	719.19
307.961	747.19
308.191	734.19
308.421	712.19
308.651	744.19
308.881	738.19
309.111	713.19
309.341	734.19
309.571	744.19
309.8	745.19
310.03	719.19
310.26	757.19
310.49	750.19
310.72	782.19
310.949	749.19
311.179	777.19
311.409	774.19
311.639	764.19
311.868	779.19
312.098	782.19
312.328	797.19
312.557	787.19
312.787	784.19
313.017	804.19
313.246	789.19
313.476	776.19
313.706	813.19
313.935	782.19
314.165	804.19
314.394	800.19
314.624	794.19
314.853	810.19
315.083	812.19
315.312	815.19
315.542	785.19
315.771	791.19
316.001	803.19
316.23	821.19
316.46	810.19
316.689	822.19
316.919	842.19
317.148	836.19
317.377	828.19
317.607	812.19
317.836	807.19
318.065	815.19
318.295	811.19
318.524	854.19
318.753	833.19
318.983	829.19
319.212	824.19
319.441	822.19
319.67	835.19
319.9	842.19
320.129	831.19
320.358	858.19
320.587	858.19
320.816	835.19
321.046	852.19
321.275	847.19
321.504	832.19
321.733	865.19
321.962	874.19
322.191	866.19
322.42	857.19
322.649	859.19
322.878	846.19
323.108	848.19
323.337	867.19
323.566	882.19
323.795	887.19
324.024	894.19
324.253	865.19
324.482	887.19
324.71	889.19
324.939	881.19
325.168	897.19
325.397	899.19
325.626	893.19
325.855	893.19
326.084	883.19
326.313	919.19
326.542	891.19
326.77	906.19
326.999	871.19
327.228	904.19
327.457	905.19
327.686	918.19
327.914	905.19
328.143	911.19
328.372	894.19
328.6	907.19
328.829	905.19
329.058	907.19
329.287	915.19
329.515	897.19
329.744	919.19
329.972	908.19
330.201	919.19
330.43	938.19
330.658	897.19
330.887	937.19
331.115	894.19
331.344	931.19
331.572	923.19
331.801	950.19
332.03	911.19
332.258	934.19
332.486	911.19
332.715	966.19
332.943	962.19
333.172	954.19
333.4	954.19
333.629	967.19
333.857	1001.19
334.085	968.19
334.314	964.19
334.542	1002.19
334.771	1027.19
334.999	1020.19
335.227	985.19
335.455	1014.19
335.684	1025.19
335.912	998.19
336.14	983.19
336.369	968.19
336.597	994.19
336.825	1023.19
337.053	1004.19
337.281	1001.19
337.51	995.19
337.738	1011.19
337.966	981.19
338.194	994.19
338.422	970.19
338.65	1008.19
338.878	988.19
339.106	996.19
339.334	974.19
339.562	980.19
339.79	1004.19
340.018	992.19
340.246	949.19
340.474	956.19
340.702	957.19
340.93	986.19
341.158	962.19
341.386	972.19
341.614	977.19
341.842	972.19
342.07	973.19
342.298	985.19
342.526	947.19
342.754	989.19
342.981	1001.19
343.209	955.19
343.437	983.19
343.665	1002.19
343.893	1016.19
344.12	999.19
344.348	985.19
344.576	1000.19
344.804	1013.19
345.031	990.19
345.259	999.19
345.487	994.19
345.714	970.19
345.942	968.19
346.17	990.19
346.397	956.19
346.625	971.19
346.853	939.19
347.08	924.19
347.308	961.19
347.535	933.19
347.763	965.19
347.99	934.19
348.218	951.19
348.445	924.19
348.673	936.19
348.9	968.19
349.128	943.19
349.355	937.19
349.583	952.19
349.81	982.19
350.037	922.19
350.265	959.19
350.492	945.19
350.72	955.19
350.947	953.19
351.174	945.19
351.402	930.19
351.629	942.19
351.856	918.19
352.083	919.19
352.311	943.19
352.538	928.19
352.765	929.19
352.992	929.19
353.22	953.19
353.447	914.19
353.674	925.19
353.901	952.19
354.128	914.19
354.355	911.19
354.583	952.19
354.81	925.19
355.037	942.19
355.264	942.19
355.491	941.19
355.718	949.19
355.945	943.19
356.172	918.19
356.399	951.19
356.626	952.19
356.853	952.19
357.08	938.19
357.307	930.19
357.534	944.19
357.761	932.19
357.988	919.19
358.215	942.19
358.441	929.19
358.668	957.19
358.895	934.19
359.122	967.19
359.349	934.19
359.576	922.19
359.802	970.19
360.029	957.19
360.256	976.19
360.483	944.19
360.709	935.19
360.936	969.19
361.163	934.19
361.39	972.19
361.616	945.19
361.843	934.19
362.07	914.19
362.296	945.19
362.523	935.19
362.749	974.19
362.976	951.19
363.203	941.19
363.429	956.19
363.656	934.19
363.882	984.19
364.109	950.19
364.335	960.19
364.562	971.19
364.788	974.19
365.015	980.19
365.241	974.19
365.468	954.19
365.694	978.19
365.92	952.19
366.147	967.19
366.373	955.19
366.599	951.19
366.826	936.19
367.052	947.19
367.278	999.19
367.505	998.19
367.731	987.19
367.957	963.19
368.184	982.19
368.41	989.19
368.636	990.19
368.862	984.19
369.089	989.19
369.315	987.19
369.541	990.19
369.767	1011.19
369.993	991.19
370.219	970.19
370.445	983.19
370.672	996.19
370.898	1000.19
371.124	1015.19
371.35	983.19
371.576	992.19
371.802	1002.19
372.028	1014.19
372.254	1025.19
372.48	987.19
372.706	1020.19
372.932	1043.19
373.158	1031.19
373.384	1051.19
373.61	1004.19
373.835	1032.19
374.061	1019.19
374.287	1043.19
374.513	1017.19
374.739	1025.19
374.965	1035.19
375.191	1046.19
375.416	1027.19
375.642	1039.19
375.868	1068.19
376.094	1021.19
376.319	1006.19
376.545	1017.19
376.771	1014.19
376.997	1023.19
377.222	981.19
377.448	989.19
377.674	988.19
377.899	994.19
378.125	1015.19
378.35	974.19
378.576	1010.19
378.802	1008.19
379.027	1030.19
379.253	1002.19
379.478	997.19
379.704	1023.19
379.929	1036.19
380.155	1035.19
380.38	964.19
380.606	1018.19
380.831	1016.19
381.057	1013.19
381.282	1019.19
381.507	1022.19
381.733	1003.19
381.958	989.19
382.184	1010.19
382.409	1025.19
382.634	1033.19
382.86	1038.19
383.085	1045.19
383.31	1045.19
383.535	1051.19
383.761	1054.19
383.986	1066.19
384.211	1084.19
384.436	1055.19
384.662	1037.19
384.887	1054.19
385.112	1084.19
385.337	1094.19
385.562	1111.19
385.787	1098.19
386.013	1103.19
386.238	1125.19
386.463	1111.19
386.688	1115.19
386.913	1100.19
387.138	1111.19
387.363	1113.19
387.588	1120.19
387.813	1125.19
388.038	1131.19
388.263	1107.19
388.488	1132.19
388.713	1119.19
388.938	1104.19
389.163	1114.19
389.387	1127.19
389.612	1122.19
389.837	1122.19
390.062	1114.19
390.287	1117.19
390.512	1123.19
390.736	1111.19
390.961	1134.19
391.186	1129.19
391.411	1120.19
391.636	1168.19
391.86	1139.19
392.085	1129.19
392.31	1163.19
392.534	1148.19
392.759	1129.19
392.984	1152.19
393.208	1153.19
393.433	1164.19
393.658	1159.19
393.882	1149.19
394.107	1129.19
394.331	1147.19
394.556	1138.19
394.78	1131.19
395.005	1135.19
395.229	1138.19
395.454	1151.19
395.678	1140.19
395.903	1157.19
396.127	1169.19
396.352	1165.19
396.576	1164.19
396.801	1163.19
397.025	1183.19
397.249	1218.19
397.474	1188.19
397.698	1181.19
397.922	1194.19
398.147	1187.19
398.371	1207.19
398.595	1234.19
398.82	1214.19
399.044	1243.19
399.268	1265.19
399.492	1292.19
399.717	1343.19
399.941	1326.19
400.165	1310.19
400.389	1293.19
400.613	1294.19
400.837	1267.19
401.062	1282.19
401.286	1257.19
401.51	1243.19
401.734	1235.19
401.958	1260.19
402.182	1238.19
402.406	1238.19
402.63	1262.19
402.854	1234.19
403.078	1214.19
403.302	1245.19
403.526	1209.19
403.75	1234.19
403.974	1246.19
404.198	1241.19
404.422	1235.19
404.645	1276.19
404.869	1240.19
405.093	1268.19
405.317	1246.19
405.541	1287.19
405.765	1285.19
405.988	1286.19
406.212	1258.19
406.436	1275.19
406.66	1350.19
406.883	1315.19
407.107	1342.19
407.331	1350.19
407.555	1338.19
407.778	1331.19
408.002	1333.19
408.226	1335.19
408.449	1335.19
408.673	1303.19
408.896	1317.19
409.12	1304.19
409.344	1305.19
409.567	1264.19
409.791	1339.19
410.014	1311.19
410.238	1277.19
410.461	1313.19
410.685	1304.19
410.908	1244.19
411.132	1295.19
411.355	1241.19
411.578	1235.19
411.802	1258.19
412.025	1271.19
412.249	1260.19
412.472	1268.19
412.695	1251.19
412.919	1251.19
413.142	1252.19
413.365	1217.19
413.589	1288.19
413.812	1257.19
414.035	1209.19
414.258	1243.19
414.482	1241.19
414.705	1225.19
414.928	1262.19
415.151	1220.19
415.374	1231.19
415.597	1206.19
415.821	1181.19
416.044	1192.19
416.267	1165.19
416.49	1178.19
416.713	1172.19
416.936	1168.19
417.159	1156.19
417.382	1153.19
417.605	1160.19
417.828	1167.19
418.051	1163.19
418.274	1165.19
418.497	1156.19
418.72	1171.19
418.943	1169.19
419.166	1198.19
419.389	1245.19
419.611	1253.19
419.834	1196.19
420.057	1242.19
420.28	1173.19
420.503	1139.19
420.726	1132.19
420.948	1153.19
421.171	1141.19
421.394	1179.19
421.617	1161.19
421.839	1121.19
422.062	1147.19
422.285	1151.19
422.507	1133.19
422.73	1153.19
422.953	1147.19
423.175	1133.19
423.398	1177.19
423.621	1166.19
423.843	1149.19
424.066	1154.19
424.288	1150.19
424.511	1156.19
424.733	1173.19
424.956	1149.19
425.178	1122.19
425.401	1153.19
425.623	1155.19
425.846	1138.19
426.068	1151.19
426.291	1143.19
426.513	1119.19
426.735	1129.19
426.958	1154.19
427.18	1139.19
427.402	1157.19
427.625	1140.19
427.847	1101.19
428.069	1120.19
428.292	1167.19
428.514	1137.19
428.736	1121.19
428.958	1108.19
429.181	1106.19
429.403	1115.19
429.625	1141.19
429.847	1094.19
430.069	1132.19
430.292	1146.19
430.514	1116.19
430.736	1132.19
430.958	1153.19
431.18	1122.19
431.402	1128.19
431.624	1120.19
431.846	1116.19
432.068	1135.19
432.29	1123.19
432.512	1122.19
432.734	1151.19
432.956	1102.19
433.178	1134.19
433.4	1121.19
433.622	1111.19
433.844	1108.19
434.066	1127.19
434.287	1138.19
434.509	1129.19
434.731	1158.19
434.953	1130.19
435.175	1161.19
435.397	1145.19
435.618	1110.19
435.84	1125.19
436.062	1117.19
436.284	1100.19
436.505	1125.19
436.727	1124.19
436.949	1109.19
437.17	1108.19
437.392	1100.19
437.614	1094.19
437.835	1100.19
438.057	1065.19
438.278	1061.19
438.5	1109.19
438.721	1054.19
438.943	1113.19
439.165	1086.19
439.386	1088.19
439.608	1127.19
439.829	1109.19
440.05	1143.19
440.272	1118.19
440.493	1108.19
440.715	1073.19
440.936	1100.19
441.158	1075.19
441.379	1117.19
441.6	1111.19
441.822	1105.19
442.043	1113.19
442.264	1106.19
442.486	1098.19
442.707	1123.19
442.928	1131.19
443.149	1080.19
443.371	1098.19
443.592	1113.19
443.813	1121.19
444.034	1128.19
444.255	1115.19
444.476	1102.19
444.698	1139.19
444.919	1134.19
445.14	1221.19
445.361	1158.19
445.582	1105.19
445.803	1103.19
446.024	1076.19
446.245	1132.19
446.466	1098.19
446.687	1090.19
446.908	1118.19
447.129	1073.19
447.35	1103.19
447.571	1055.19
447.792	1029.19
448.013	1037.19
448.234	1034.19
448.455	1028.19
448.675	1040.19
448.896	1059.19
449.117	1060.19
449.338	1041.19
449.559	1018.19
449.779	1025.19
450	1024.19
450.221	1016.19
450.442	1029.19
450.662	1018.19
450.883	1008.19
451.104	1017.19
451.324	1004.19
451.545	985.19
451.766	1000.19
451.986	1012.19
452.207	1004.19
452.428	1002.19
452.648	997.19
452.869	998.19
453.089	944.19
453.31	1004.19
453.53	990.19
453.751	1003.19
453.971	994.19
454.192	970.19
454.412	962.19
454.633	965.19
454.853	977.19
455.073	975.19
455.294	967.19
455.514	987.19
455.734	983.19
455.955	971.19
456.175	979.19
456.395	978.19
456.616	973.19
456.836	998.19
457.056	1027.19
457.276	1002.19
457.497	1023.19
457.717	994.19
457.937	986.19
458.157	994.19
458.377	1028.19
458.598	1019.19
458.818	1032.19
459.038	1056.19
459.258	1043.19
459.478	1057.19
459.698	1055.19
459.918	1087.19
460.138	1074.19
460.358	1104.19
460.578	1100.19
460.798	1121.19
461.018	1109.19
461.238	1087.19
461.458	1133.19
461.678	1126.19
461.898	1144.19
462.118	1137.19
462.338	1176.19
462.558	1142.19
462.777	1194.19
462.997	1185.19
463.217	1176.19
463.437	1190.19
463.657	1175.19
463.876	1167.19
464.096	1203.19
464.316	1159.19
464.536	1176.19
464.755	1173.19
464.975	1131.19
465.195	1137.19
465.414	1114.19
465.634	1089.19
465.854	1115.19
466.073	1086.19
466.293	1109.19
466.512	1060.19
466.732	1059.19
466.951	1091.19
467.171	1067.19
467.391	1083.19
467.61	1076.19
467.829	1061.19
468.049	1010.19
468.268	1024.19
468.488	1049.19
468.707	1068.19
468.927	1105.19
469.146	1067.19
469.365	1079.19
469.585	1046.19
469.804	1079.19
470.023	1061.19
470.243	1081.19
470.462	1087.19
470.681	1073.19
470.901	1091.19
471.12	1090.19
471.339	1067.19
471.558	1087.19
471.777	1089.19
471.997	1094.19
472.216	1105.19
472.435	1101.19
472.654	1076.19
472.873	1101.19
473.092	1108.19
473.311	1113.19
473.53	1127.19
473.749	1086.19
473.968	1119.19
474.187	1112.19
474.406	1092.19
474.625	1113.19
474.844	1125.19
475.063	1108.19
475.282	1129.19
475.501	1139.19
475.72	1140.19
475.939	1133.19
476.158	1132.19
476.377	1171.19
476.596	1179.19
476.814	1201.19
477.033	1204.19
477.252	1170.19
477.471	1194.19
477.69	1201.19
477.908	1179.19
478.127	1199.19
478.346	1258.19
478.564	1235.19
478.783	1191.19
479.002	1243.19
479.22	1261.19
479.439	1287.19
479.658	1283.19
479.876	1278.19
480.095	1273.19
480.313	1290.19
480.532	1254.19
480.751	1275.19
480.969	1268.19
481.188	1336.19
481.406	1322.19
481.624	1331.19
481.843	1296.19
482.061	1314.19
482.28	1334.19
482.498	1329.19
482.717	1338.19
482.935	1352.19
483.153	1335.19
483.372	1284.19
483.59	1318.19
483.808	1307.19
484.027	1330.19
484.245	1296.19
484.463	1336.19
484.681	1358.19
484.9	1331.19
485.118	1378.19
485.336	1369.19
485.554	1354.19
485.772	1353.19
485.99	1335.19
486.209	1350.19
486.427	1334.19
486.645	1365.19
486.863	1338.19
487.081	1322.19
487.299	1372.19
487.517	1343.19
487.735	1314.19
487.953	1351.19
488.171	1397.19
488.389	1329.19
488.607	1346.19
488.825	1365.19
489.043	1335.19
489.261	1357.19
489.479	1378.19
489.696	1386.19
489.914	1364.19
490.132	1351.19
490.35	1362.19
490.568	1381.19
490.786	1373.19
491.003	1345.19
491.221	1379.19
491.439	1369.19
491.657	1348.19
491.874	1382.19
492.092	1388.19
492.31	1375.19
492.527	1406.19
492.745	1416.19
492.963	1394.19
493.18	1393.19
493.398	1364.19
493.615	1374.19
493.833	1366.19
494.05	1407.19
