Data from Fe(NO3)3@0.05M.TitratingCurve.Agarose3%dH2O.NegLispCup.LampEnergy10.LIBS07252019_HRD10591_16-47-46-334.txt Node
Date: Thu Jul 25 16:47:46 EDT 2019
User: cochatt
Spectrometer: HR+D1059
Trigger mode: 1
Integration Time (sec): 1.000000E-1
Scans to average: 1
Electric dark correction enabled: true
Nonlinearity correction enabled: false
Boxcar width: 0
XAxis mode: Wavelengths
Number of Pixels in Spectrum: 2048
>>>>>Begin Spectral Data<<<<<
223.165	-18.06
223.4	-18.06
223.635	-18.06
223.869	-36.06
224.104	-19.06
224.338	-4.06
224.573	-17.06
224.808	-4.06
225.042	6.94
225.277	-12.06
225.511	4.94
225.746	-5.06
225.98	2.94
226.215	13.94
226.449	17.94
226.683	23.94
226.918	20.94
227.152	23.94
227.387	53.94
227.621	35.94
227.856	43.94
228.09	46.94
228.324	59.94
228.559	61.94
228.793	71.94
229.027	62.94
229.262	69.94
229.496	75.94
229.73	92.94
229.964	74.94
230.199	70.94
230.433	97.94
230.667	92.94
230.901	91.94
231.136	89.94
231.37	96.94
231.604	102.94
231.838	106.94
232.072	83.94
232.306	94.94
232.541	100.94
232.775	91.94
233.009	94.94
233.243	99.94
233.477	105.94
233.711	95.94
233.945	108.94
234.179	95.94
234.413	112.94
234.647	107.94
234.881	108.94
235.115	104.94
235.349	103.94
235.583	93.94
235.817	93.94
236.051	92.94
236.285	100.94
236.519	93.94
236.753	82.94
236.987	110.94
237.221	102.94
237.455	84.94
237.689	102.94
237.922	95.94
238.156	95.94
238.39	112.94
238.624	126.94
238.858	118.94
239.091	93.94
239.325	98.94
239.559	99.94
239.793	104.94
240.027	125.94
240.26	106.94
240.494	101.94
240.728	106.94
240.961	111.94
241.195	102.94
241.429	100.94
241.662	102.94
241.896	97.94
242.13	101.94
242.363	94.94
242.597	94.94
242.83	119.94
243.064	96.94
243.298	102.94
243.531	109.94
243.765	106.94
243.998	104.94
244.232	106.94
244.465	103.94
244.699	119.94
244.932	114.94
245.166	112.94
245.399	90.94
245.633	116.94
245.866	100.94
246.099	108.94
246.333	117.94
246.566	116.94
246.8	122.94
247.033	107.94
247.266	115.94
247.5	116.94
247.733	100.94
247.966	112.94
248.2	105.94
248.433	118.94
248.666	111.94
248.899	109.94
249.133	126.94
249.366	124.94
249.599	121.94
249.832	124.94
250.066	111.94
250.299	105.94
250.532	109.94
250.765	106.94
250.998	112.94
251.231	105.94
251.465	103.94
251.698	115.94
251.931	119.94
252.164	119.94
252.397	131.94
252.63	129.94
252.863	139.94
253.096	120.94
253.329	126.94
253.562	117.94
253.795	124.94
254.028	135.94
254.261	135.94
254.494	115.94
254.727	119.94
254.96	132.94
255.193	122.94
255.426	121.94
255.659	114.94
255.892	114.94
256.124	123.94
256.357	134.94
256.59	126.94
256.823	132.94
257.056	106.94
257.289	107.94
257.521	114.94
257.754	117.94
257.987	132.94
258.22	124.94
258.452	124.94
258.685	125.94
258.918	123.94
259.151	122.94
259.383	115.94
259.616	131.94
259.849	141.94
260.081	155.94
260.314	164.94
260.547	132.94
260.779	122.94
261.012	150.94
261.244	129.94
261.477	139.94
261.71	153.94
261.942	134.94
262.175	143.94
262.407	124.94
262.64	134.94
262.872	138.94
263.105	140.94
263.337	140.94
263.57	144.94
263.802	136.94
264.035	137.94
264.267	130.94
264.499	135.94
264.732	138.94
264.964	129.94
265.197	121.94
265.429	126.94
265.661	129.94
265.894	118.94
266.126	134.94
266.358	127.94
266.591	126.94
266.823	126.94
267.055	143.94
267.287	127.94
267.52	128.94
267.752	116.94
267.984	135.94
268.216	139.94
268.448	138.94
268.681	134.94
268.913	133.94
269.145	121.94
269.377	136.94
269.609	146.94
269.841	135.94
270.073	134.94
270.306	132.94
270.538	126.94
270.77	126.94
271.002	150.94
271.234	134.94
271.466	142.94
271.698	155.94
271.93	140.94
272.162	148.94
272.394	150.94
272.626	128.94
272.858	146.94
273.09	146.94
273.322	127.94
273.553	152.94
273.785	151.94
274.017	149.94
274.249	181.94
274.481	186.94
274.713	179.94
274.945	198.94
275.176	183.94
275.408	181.94
275.64	165.94
275.872	169.94
276.104	148.94
276.335	151.94
276.567	159.94
276.799	152.94
277.031	137.94
277.262	140.94
277.494	152.94
277.726	147.94
277.957	154.94
278.189	146.94
278.421	143.94
278.652	155.94
278.884	151.94
279.115	138.94
279.347	141.94
279.579	140.94
279.81	153.94
280.042	150.94
280.273	150.94
280.505	142.94
280.736	151.94
280.968	153.94
281.199	153.94
281.431	147.94
281.662	147.94
281.894	147.94
282.125	143.94
282.356	144.94
282.588	162.94
282.819	141.94
283.051	157.94
283.282	162.94
283.513	152.94
283.745	150.94
283.976	153.94
284.207	153.94
284.439	177.94
284.67	159.94
284.901	161.94
285.132	159.94
285.364	147.94
285.595	132.94
285.826	156.94
286.057	157.94
286.288	154.94
286.52	143.94
286.751	152.94
286.982	167.94
287.213	159.94
287.444	156.94
287.675	162.94
287.906	164.94
288.138	150.94
288.369	154.94
288.6	159.94
288.831	168.94
289.062	154.94
289.293	173.94
289.524	160.94
289.755	144.94
289.986	165.94
290.217	167.94
290.448	172.94
290.679	159.94
290.91	172.94
291.141	167.94
291.371	163.94
291.602	156.94
291.833	157.94
292.064	171.94
292.295	168.94
292.526	166.94
292.757	167.94
292.987	167.94
293.218	163.94
293.449	156.94
293.68	155.94
293.91	150.94
294.141	171.94
294.372	170.94
294.603	158.94
294.833	170.94
295.064	179.94
295.295	173.94
295.525	167.94
295.756	174.94
295.987	166.94
296.217	169.94
296.448	186.94
296.679	162.94
296.909	174.94
297.14	175.94
297.37	171.94
297.601	167.94
297.831	182.94
298.062	164.94
298.292	173.94
298.523	172.94
298.753	181.94
298.984	181.94
299.214	161.94
299.445	166.94
299.675	165.94
299.905	162.94
300.136	159.94
300.366	177.94
300.597	173.94
300.827	174.94
301.057	192.94
301.288	188.94
301.518	186.94
301.748	178.94
301.979	193.94
302.209	188.94
302.439	190.94
302.669	177.94
302.9	180.94
303.13	165.94
303.36	183.94
303.59	155.94
303.82	170.94
304.051	173.94
304.281	179.94
304.511	167.94
304.741	180.94
304.971	178.94
305.201	187.94
305.431	181.94
305.661	180.94
305.891	186.94
306.121	178.94
306.352	175.94
306.582	175.94
306.812	179.94
307.042	184.94
307.272	185.94
307.502	174.94
307.731	174.94
307.961	187.94
308.191	182.94
308.421	171.94
308.651	167.94
308.881	180.94
309.111	181.94
309.341	188.94
309.571	181.94
309.8	191.94
310.03	168.94
310.26	193.94
310.49	182.94
310.72	190.94
310.949	170.94
311.179	184.94
311.409	179.94
311.639	183.94
311.868	194.94
312.098	171.94
312.328	179.94
312.557	195.94
312.787	196.94
313.017	179.94
313.246	203.94
313.476	191.94
313.706	192.94
313.935	190.94
314.165	196.94
314.394	200.94
314.624	195.94
314.853	197.94
315.083	192.94
315.312	214.94
315.542	191.94
315.771	198.94
316.001	184.94
316.23	187.94
316.46	182.94
316.689	203.94
316.919	190.94
317.148	207.94
317.377	194.94
317.607	188.94
317.836	212.94
318.065	191.94
318.295	190.94
318.524	176.94
318.753	183.94
318.983	210.94
319.212	216.94
319.441	187.94
319.67	202.94
319.9	201.94
320.129	206.94
320.358	195.94
320.587	206.94
320.816	204.94
321.046	199.94
321.275	202.94
321.504	200.94
321.733	198.94
321.962	198.94
322.191	196.94
322.42	208.94
322.649	210.94
322.878	218.94
323.108	195.94
323.337	199.94
323.566	207.94
323.795	191.94
324.024	185.94
324.253	194.94
324.482	211.94
324.71	210.94
324.939	218.94
325.168	199.94
325.397	208.94
325.626	211.94
325.855	205.94
326.084	204.94
326.313	189.94
326.542	217.94
326.77	201.94
326.999	196.94
327.228	194.94
327.457	196.94
327.686	197.94
327.914	215.94
328.143	205.94
328.372	220.94
328.6	205.94
328.829	204.94
329.058	215.94
329.287	193.94
329.515	215.94
329.744	200.94
329.972	210.94
330.201	212.94
330.43	214.94
330.658	201.94
330.887	218.94
331.115	212.94
331.344	213.94
331.572	214.94
331.801	232.94
332.03	205.94
332.258	219.94
332.486	223.94
332.715	217.94
332.943	228.94
333.172	224.94
333.4	225.94
333.629	236.94
333.857	222.94
334.085	225.94
334.314	222.94
334.542	230.94
334.771	224.94
334.999	225.94
335.227	229.94
335.455	227.94
335.684	225.94
335.912	227.94
336.14	227.94
336.369	234.94
336.597	226.94
336.825	228.94
337.053	221.94
337.281	210.94
337.51	215.94
337.738	231.94
337.966	227.94
338.194	213.94
338.422	203.94
338.65	228.94
338.878	221.94
339.106	209.94
339.334	220.94
339.562	219.94
339.79	220.94
340.018	228.94
340.246	222.94
340.474	219.94
340.702	224.94
340.93	239.94
341.158	218.94
341.386	210.94
341.614	237.94
341.842	217.94
342.07	214.94
342.298	223.94
342.526	211.94
342.754	210.94
342.981	222.94
343.209	226.94
343.437	226.94
343.665	229.94
343.893	240.94
344.12	239.94
344.348	236.94
344.576	229.94
344.804	245.94
345.031	221.94
345.259	225.94
345.487	230.94
345.714	231.94
345.942	214.94
346.17	225.94
346.397	216.94
346.625	210.94
346.853	216.94
347.08	215.94
347.308	216.94
347.535	222.94
347.763	218.94
347.99	234.94
348.218	229.94
348.445	246.94
348.673	227.94
348.9	234.94
349.128	226.94
349.355	220.94
349.583	224.94
349.81	216.94
350.037	227.94
350.265	220.94
350.492	222.94
350.72	224.94
350.947	214.94
351.174	212.94
351.402	213.94
351.629	229.94
351.856	207.94
352.083	226.94
352.311	221.94
352.538	225.94
352.765	220.94
352.992	219.94
353.22	213.94
353.447	229.94
353.674	229.94
353.901	217.94
354.128	220.94
354.355	212.94
354.583	197.94
354.81	228.94
355.037	202.94
355.264	212.94
355.491	221.94
355.718	220.94
355.945	214.94
356.172	223.94
356.399	221.94
356.626	226.94
356.853	246.94
357.08	229.94
357.307	217.94
357.534	228.94
357.761	212.94
357.988	228.94
358.215	235.94
358.441	246.94
358.668	240.94
358.895	230.94
359.122	222.94
359.349	234.94
359.576	244.94
359.802	223.94
360.029	225.94
360.256	238.94
360.483	242.94
360.709	234.94
360.936	234.94
361.163	230.94
361.39	238.94
361.616	212.94
361.843	227.94
362.07	236.94
362.296	226.94
362.523	229.94
362.749	223.94
362.976	226.94
363.203	252.94
363.429	242.94
363.656	223.94
363.882	240.94
364.109	231.94
364.335	227.94
364.562	243.94
364.788	231.94
365.015	233.94
365.241	221.94
365.468	235.94
365.694	232.94
365.92	245.94
366.147	242.94
366.373	222.94
366.599	227.94
366.826	220.94
367.052	222.94
367.278	215.94
367.505	233.94
367.731	248.94
367.957	233.94
368.184	224.94
368.41	262.94
368.636	230.94
368.862	252.94
369.089	248.94
369.315	243.94
369.541	231.94
369.767	236.94
369.993	244.94
370.219	237.94
370.445	237.94
370.672	249.94
370.898	230.94
371.124	237.94
371.35	262.94
371.576	250.94
371.802	248.94
372.028	265.94
372.254	258.94
372.48	258.94
372.706	274.94
372.932	259.94
373.158	262.94
373.384	270.94
373.61	263.94
373.835	270.94
374.061	268.94
374.287	250.94
374.513	265.94
374.739	278.94
374.965	263.94
375.191	279.94
375.416	252.94
375.642	260.94
375.868	269.94
376.094	266.94
376.319	253.94
376.545	276.94
376.771	266.94
376.997	266.94
377.222	255.94
377.448	265.94
377.674	258.94
377.899	259.94
378.125	266.94
378.35	265.94
378.576	259.94
378.802	266.94
379.027	273.94
379.253	263.94
379.478	269.94
379.704	276.94
379.929	258.94
380.155	268.94
380.38	279.94
380.606	252.94
380.831	254.94
381.057	255.94
381.282	262.94
381.507	282.94
381.733	283.94
381.958	275.94
382.184	286.94
382.409	314.94
382.634	321.94
382.86	301.94
383.085	288.94
383.31	270.94
383.535	285.94
383.761	313.94
383.986	293.94
384.211	308.94
384.436	297.94
384.662	292.94
384.887	291.94
385.112	304.94
385.337	312.94
385.562	323.94
385.787	298.94
386.013	302.94
386.238	323.94
386.463	315.94
386.688	320.94
386.913	306.94
387.138	311.94
387.363	308.94
387.588	302.94
387.813	296.94
388.038	307.94
388.263	320.94
388.488	298.94
388.713	318.94
388.938	316.94
389.163	305.94
389.387	310.94
389.612	307.94
389.837	325.94
390.062	329.94
390.287	306.94
390.512	322.94
390.736	302.94
390.961	338.94
391.186	318.94
391.411	316.94
391.636	334.94
391.86	312.94
392.085	326.94
392.31	345.94
392.534	332.94
392.759	325.94
392.984	334.94
393.208	332.94
393.433	338.94
393.658	330.94
393.882	323.94
394.107	295.94
394.331	325.94
394.556	316.94
394.78	341.94
395.005	344.94
395.229	326.94
395.454	346.94
395.678	339.94
395.903	338.94
396.127	335.94
396.352	317.94
396.576	345.94
396.801	345.94
397.025	337.94
397.249	352.94
397.474	361.94
397.698	330.94
397.922	338.94
398.147	343.94
398.371	351.94
398.595	350.94
398.82	352.94
399.044	410.94
399.268	407.94
399.492	430.94
399.717	431.94
399.941	445.94
400.165	434.94
400.389	431.94
400.613	410.94
400.837	392.94
401.062	388.94
401.286	360.94
401.51	386.94
401.734	376.94
401.958	362.94
402.182	360.94
402.406	382.94
402.63	382.94
402.854	383.94
403.078	392.94
403.302	389.94
403.526	384.94
403.75	385.94
403.974	380.94
404.198	375.94
404.422	372.94
404.645	403.94
404.869	420.94
405.093	394.94
405.317	374.94
405.541	375.94
405.765	396.94
405.988	404.94
406.212	407.94
406.436	373.94
406.66	412.94
406.883	404.94
407.107	411.94
407.331	435.94
407.555	446.94
407.778	427.94
408.002	422.94
408.226	413.94
408.449	412.94
408.673	394.94
408.896	418.94
409.12	390.94
409.344	404.94
409.567	392.94
409.791	396.94
410.014	406.94
410.238	394.94
410.461	402.94
410.685	404.94
410.908	394.94
411.132	406.94
411.355	394.94
411.578	412.94
411.802	388.94
412.025	407.94
412.249	381.94
412.472	388.94
412.695	381.94
412.919	388.94
413.142	373.94
413.365	397.94
413.589	380.94
413.812	400.94
414.035	390.94
414.258	378.94
414.482	391.94
414.705	383.94
414.928	377.94
415.151	397.94
415.374	392.94
415.597	390.94
415.821	362.94
416.044	377.94
416.267	377.94
416.49	375.94
416.713	379.94
416.936	379.94
417.159	376.94
417.382	377.94
417.605	376.94
417.828	360.94
418.051	386.94
418.274	365.94
418.497	386.94
418.72	382.94
418.943	394.94
419.166	394.94
419.389	413.94
419.611	398.94
419.834	403.94
420.057	382.94
420.28	388.94
420.503	378.94
420.726	376.94
420.948	378.94
421.171	383.94
421.394	382.94
421.617	372.94
421.839	387.94
422.062	379.94
422.285	384.94
422.507	390.94
422.73	393.94
422.953	382.94
423.175	386.94
423.398	380.94
423.621	385.94
423.843	391.94
424.066	397.94
424.288	385.94
424.511	388.94
424.733	392.94
424.956	388.94
425.178	384.94
425.401	387.94
425.623	400.94
425.846	373.94
426.068	378.94
426.291	380.94
426.513	374.94
426.735	372.94
426.958	391.94
427.18	382.94
427.402	392.94
427.625	364.94
427.847	378.94
428.069	366.94
428.292	376.94
428.514	374.94
428.736	360.94
428.958	380.94
429.181	368.94
429.403	386.94
429.625	370.94
429.847	375.94
430.069	358.94
430.292	375.94
430.514	363.94
430.736	381.94
430.958	378.94
431.18	372.94
431.402	390.94
431.624	359.94
431.846	362.94
432.068	384.94
432.29	354.94
432.512	365.94
432.734	386.94
432.956	400.94
433.178	388.94
433.4	396.94
433.622	389.94
433.844	397.94
434.066	380.94
434.287	372.94
434.509	390.94
434.731	400.94
434.953	397.94
435.175	411.94
435.397	424.94
435.618	394.94
435.84	398.94
436.062	374.94
436.284	392.94
436.505	388.94
436.727	408.94
436.949	407.94
437.17	408.94
437.392	379.94
437.614	366.94
437.835	365.94
438.057	383.94
438.278	370.94
438.5	378.94
438.721	401.94
438.943	378.94
439.165	390.94
439.386	371.94
439.608	376.94
439.829	372.94
440.05	373.94
440.272	383.94
440.493	410.94
440.715	392.94
440.936	388.94
441.158	395.94
441.379	390.94
441.6	398.94
441.822	395.94
442.043	393.94
442.264	393.94
442.486	400.94
442.707	403.94
442.928	404.94
443.149	422.94
443.371	418.94
443.592	385.94
443.813	397.94
444.034	404.94
444.255	420.94
444.476	422.94
444.698	425.94
444.919	455.94
445.14	514.94
445.361	474.94
445.582	440.94
445.803	391.94
446.024	409.94
446.245	400.94
446.466	406.94
446.687	396.94
446.908	410.94
447.129	380.94
447.35	378.94
447.571	381.94
447.792	379.94
448.013	372.94
448.234	368.94
448.455	363.94
448.675	367.94
448.896	379.94
449.117	361.94
449.338	352.94
449.559	357.94
449.779	377.94
450	365.94
450.221	367.94
450.442	381.94
450.662	347.94
450.883	368.94
451.104	368.94
451.324	363.94
451.545	362.94
451.766	351.94
451.986	356.94
452.207	371.94
452.428	364.94
452.648	363.94
452.869	340.94
453.089	338.94
453.31	337.94
453.53	346.94
453.751	342.94
453.971	344.94
454.192	351.94
454.412	338.94
454.633	330.94
454.853	330.94
455.073	345.94
455.294	358.94
455.514	365.94
455.734	354.94
455.955	338.94
456.175	349.94
456.395	342.94
456.616	348.94
456.836	339.94
457.056	335.94
457.276	336.94
457.497	346.94
457.717	360.94
457.937	356.94
458.157	356.94
458.377	364.94
458.598	360.94
458.818	349.94
459.038	360.94
459.258	372.94
459.478	363.94
459.698	374.94
459.918	382.94
460.138	397.94
460.358	429.94
460.578	415.94
460.798	410.94
461.018	424.94
461.238	423.94
461.458	438.94
461.678	415.94
461.898	429.94
462.118	428.94
462.338	432.94
462.558	445.94
462.777	458.94
462.997	464.94
463.217	447.94
463.437	491.94
463.657	455.94
463.876	455.94
464.096	452.94
464.316	454.94
464.536	470.94
464.755	469.94
464.975	452.94
465.195	438.94
465.414	426.94
465.634	405.94
465.854	409.94
466.073	400.94
466.293	398.94
466.512	407.94
466.732	398.94
466.951	410.94
467.171	398.94
467.391	376.94
467.61	375.94
467.829	408.94
468.049	395.94
468.268	366.94
468.488	390.94
468.707	393.94
468.927	401.94
469.146	391.94
469.365	402.94
469.585	388.94
469.804	404.94
470.023	399.94
470.243	424.94
470.462	390.94
470.681	394.94
470.901	395.94
471.12	379.94
471.339	416.94
471.558	400.94
471.777	414.94
471.997	394.94
472.216	397.94
472.435	393.94
472.654	390.94
472.873	386.94
473.092	400.94
473.311	387.94
473.53	374.94
473.749	403.94
473.968	412.94
474.187	392.94
474.406	405.94
474.625	396.94
474.844	398.94
475.063	416.94
475.282	407.94
475.501	411.94
475.72	405.94
475.939	425.94
476.158	409.94
476.377	431.94
476.596	433.94
476.814	441.94
477.033	427.94
477.252	454.94
477.471	451.94
477.69	426.94
477.908	447.94
478.127	454.94
478.346	478.94
478.564	452.94
478.783	472.94
479.002	490.94
479.22	483.94
479.439	534.94
479.658	494.94
479.876	476.94
480.095	489.94
480.313	506.94
480.532	501.94
480.751	515.94
480.969	486.94
481.188	501.94
481.406	503.94
481.624	480.94
481.843	481.94
482.061	484.94
482.28	488.94
482.498	505.94
482.717	506.94
482.935	483.94
483.153	499.94
483.372	477.94
483.59	484.94
483.808	498.94
484.027	493.94
484.245	506.94
484.463	512.94
484.681	519.94
484.9	499.94
485.118	528.94
485.336	518.94
485.554	502.94
485.772	520.94
485.99	538.94
486.209	533.94
486.427	489.94
486.645	524.94
486.863	526.94
487.081	521.94
487.299	502.94
487.517	517.94
487.735	522.94
487.953	522.94
488.171	525.94
488.389	508.94
488.607	492.94
488.825	525.94
489.043	492.94
489.261	530.94
489.479	508.94
489.696	495.94
489.914	485.94
490.132	515.94
490.35	501.94
490.568	532.94
490.786	530.94
491.003	528.94
491.221	509.94
491.439	506.94
491.657	507.94
491.874	519.94
492.092	537.94
492.31	558.94
492.527	534.94
492.745	526.94
492.963	513.94
493.18	542.94
493.398	516.94
493.615	503.94
493.833	527.94
494.05	510.94
494.268	524.94
494.485	499.94
494.703	526.94
494.92	524.94
495.138	505.94
495.355	513.94
495.573	522.94
495.79	517.94
496.008	525.94
496.225	539.94
496.442	520.94
496.66	524.94
496.877	537.94
497.094	557.94
497.312	555.94
497.529	564.94
497.746	552.94
497.963	548.94
498.181	574.94
498.398	593.94
498.615	598.94
498.832	632.94
499.049	643.94
499.267	656.94
499.484	692.94
499.701	698.94
499.918	736.94
500.135	805.94
500.352	831.94
500.569	851.94
500.786	838.94
501.003	821.94
501.22	790.94
501.437	734.94
501.654	706.94
501.871	679.94
502.088	640.94
