Data from Fe(NO3)3@0.0125M.TitratingCurve.Agarose3%dH2O.NegLispCup.LampEnergy10.LIBS07252019_HRD10591_16-59-55-336.txt Node
Date: Thu Jul 25 16:59:55 EDT 2019
User: cochatt
Spectrometer: HR+D1059
Trigger mode: 1
Integration Time (sec): 1.000000E-1
Scans to average: 1
Electric dark correction enabled: true
Nonlinearity correction enabled: false
Boxcar width: 0
XAxis mode: Wavelengths
Number of Pixels in Spectrum: 2048
>>>>>Begin Spectral Data<<<<<
223.165	-16.62
223.4	-16.62
223.635	-16.62
223.869	-23.62
224.104	-14.62
224.338	-16.62
224.573	-21.62
224.808	-8.62
225.042	-12.62
225.277	-12.62
225.511	2.38
225.746	4.38
225.98	11.38
226.215	7.38
226.449	25.38
226.683	13.38
226.918	19.38
227.152	43.38
227.387	27.38
227.621	41.38
227.856	36.38
228.09	38.38
228.324	56.38
228.559	68.38
228.793	53.38
229.027	70.38
229.262	77.38
229.496	83.38
229.73	71.38
229.964	90.38
230.199	86.38
230.433	91.38
230.667	82.38
230.901	76.38
231.136	84.38
231.37	82.38
231.604	92.38
231.838	109.38
232.072	95.38
232.306	87.38
232.541	106.38
232.775	101.38
233.009	101.38
233.243	99.38
233.477	96.38
233.711	98.38
233.945	90.38
234.179	97.38
234.413	102.38
234.647	96.38
234.881	90.38
235.115	86.38
235.349	89.38
235.583	101.38
235.817	83.38
236.051	87.38
236.285	100.38
236.519	104.38
236.753	91.38
236.987	114.38
237.221	86.38
237.455	93.38
237.689	88.38
237.922	91.38
238.156	94.38
238.39	99.38
238.624	101.38
238.858	98.38
239.091	100.38
239.325	107.38
239.559	107.38
239.793	101.38
240.027	103.38
240.26	105.38
240.494	102.38
240.728	116.38
240.961	104.38
241.195	95.38
241.429	93.38
241.662	104.38
241.896	116.38
242.13	115.38
242.363	102.38
242.597	110.38
242.83	104.38
243.064	110.38
243.298	105.38
243.531	102.38
243.765	105.38
243.998	104.38
244.232	117.38
244.465	108.38
244.699	120.38
244.932	106.38
245.166	109.38
245.399	132.38
245.633	115.38
245.866	114.38
246.099	130.38
246.333	111.38
246.566	132.38
246.8	113.38
247.033	113.38
247.266	119.38
247.5	107.38
247.733	118.38
247.966	99.38
248.2	104.38
248.433	126.38
248.666	112.38
248.899	125.38
249.133	135.38
249.366	139.38
249.599	133.38
249.832	120.38
250.066	126.38
250.299	128.38
250.532	118.38
250.765	123.38
250.998	120.38
251.231	136.38
251.465	133.38
251.698	110.38
251.931	116.38
252.164	105.38
252.397	120.38
252.63	132.38
252.863	114.38
253.096	110.38
253.329	132.38
253.562	141.38
253.795	140.38
254.028	127.38
254.261	130.38
254.494	149.38
254.727	132.38
254.96	131.38
255.193	128.38
255.426	147.38
255.659	132.38
255.892	137.38
256.124	143.38
256.357	130.38
256.59	135.38
256.823	144.38
257.056	127.38
257.289	123.38
257.521	136.38
257.754	132.38
257.987	124.38
258.22	127.38
258.452	152.38
258.685	153.38
258.918	140.38
259.151	138.38
259.383	141.38
259.616	147.38
259.849	150.38
260.081	154.38
260.314	163.38
260.547	160.38
260.779	150.38
261.012	150.38
261.244	147.38
261.477	162.38
261.71	150.38
261.942	148.38
262.175	139.38
262.407	150.38
262.64	142.38
262.872	150.38
263.105	161.38
263.337	146.38
263.57	153.38
263.802	150.38
264.035	147.38
264.267	151.38
264.499	142.38
264.732	155.38
264.964	145.38
265.197	174.38
265.429	144.38
265.661	141.38
265.894	146.38
266.126	139.38
266.358	155.38
266.591	169.38
266.823	130.38
267.055	160.38
267.287	145.38
267.52	147.38
267.752	176.38
267.984	159.38
268.216	166.38
268.448	166.38
268.681	166.38
268.913	152.38
269.145	150.38
269.377	154.38
269.609	168.38
269.841	168.38
270.073	168.38
270.306	164.38
270.538	159.38
270.77	161.38
271.002	167.38
271.234	162.38
271.466	172.38
271.698	157.38
271.93	162.38
272.162	163.38
272.394	167.38
272.626	151.38
272.858	168.38
273.09	182.38
273.322	163.38
273.553	170.38
273.785	182.38
274.017	178.38
274.249	179.38
274.481	180.38
274.713	183.38
274.945	197.38
275.176	195.38
275.408	197.38
275.64	196.38
275.872	176.38
276.104	187.38
276.335	171.38
276.567	181.38
276.799	160.38
277.031	195.38
277.262	182.38
277.494	179.38
277.726	169.38
277.957	195.38
278.189	184.38
278.421	198.38
278.652	198.38
278.884	189.38
279.115	194.38
279.347	176.38
279.579	194.38
279.81	187.38
280.042	187.38
280.273	186.38
280.505	173.38
280.736	185.38
280.968	199.38
281.199	191.38
281.431	203.38
281.662	183.38
281.894	208.38
282.125	199.38
282.356	202.38
282.588	207.38
282.819	198.38
283.051	197.38
283.282	187.38
283.513	196.38
283.745	202.38
283.976	195.38
284.207	212.38
284.439	200.38
284.67	209.38
284.901	222.38
285.132	205.38
285.364	217.38
285.595	210.38
285.826	193.38
286.057	216.38
286.288	225.38
286.52	211.38
286.751	211.38
286.982	206.38
287.213	215.38
287.444	217.38
287.675	203.38
287.906	218.38
288.138	209.38
288.369	204.38
288.6	206.38
288.831	215.38
289.062	216.38
289.293	226.38
289.524	214.38
289.755	218.38
289.986	214.38
290.217	212.38
290.448	229.38
290.679	242.38
290.91	220.38
291.141	234.38
291.371	217.38
291.602	240.38
291.833	233.38
292.064	230.38
292.295	239.38
292.526	224.38
292.757	242.38
292.987	203.38
293.218	244.38
293.449	226.38
293.68	241.38
293.91	256.38
294.141	231.38
294.372	251.38
294.603	224.38
294.833	254.38
295.064	248.38
295.295	255.38
295.525	266.38
295.756	231.38
295.987	245.38
296.217	240.38
296.448	247.38
296.679	255.38
296.909	250.38
297.14	245.38
297.37	261.38
297.601	244.38
297.831	240.38
298.062	268.38
298.292	253.38
298.523	262.38
298.753	252.38
298.984	262.38
299.214	262.38
299.445	267.38
299.675	254.38
299.905	265.38
300.136	247.38
300.366	255.38
300.597	258.38
300.827	278.38
301.057	270.38
301.288	251.38
301.518	261.38
301.748	278.38
301.979	288.38
302.209	288.38
302.439	271.38
302.669	275.38
302.9	276.38
303.13	277.38
303.36	265.38
303.59	287.38
303.82	274.38
304.051	284.38
304.281	284.38
304.511	295.38
304.741	283.38
304.971	286.38
305.201	293.38
305.431	284.38
305.661	299.38
305.891	290.38
306.121	282.38
306.352	289.38
306.582	284.38
306.812	296.38
307.042	289.38
307.272	273.38
307.502	291.38
307.731	294.38
307.961	305.38
308.191	313.38
308.421	300.38
308.651	277.38
308.881	299.38
309.111	285.38
309.341	284.38
309.571	278.38
309.8	283.38
310.03	287.38
310.26	306.38
310.49	297.38
310.72	295.38
310.949	296.38
311.179	305.38
311.409	299.38
311.639	304.38
311.868	294.38
312.098	292.38
312.328	313.38
312.557	304.38
312.787	287.38
313.017	318.38
313.246	335.38
313.476	304.38
313.706	328.38
313.935	325.38
314.165	322.38
314.394	306.38
314.624	332.38
314.853	315.38
315.083	326.38
315.312	320.38
315.542	324.38
315.771	316.38
316.001	322.38
316.23	334.38
316.46	329.38
316.689	333.38
316.919	304.38
317.148	331.38
317.377	356.38
317.607	339.38
317.836	340.38
318.065	337.38
318.295	352.38
318.524	357.38
318.753	338.38
318.983	332.38
319.212	345.38
319.441	337.38
319.67	323.38
319.9	348.38
320.129	334.38
320.358	343.38
320.587	350.38
320.816	360.38
321.046	344.38
321.275	351.38
321.504	338.38
321.733	343.38
321.962	354.38
322.191	336.38
322.42	346.38
322.649	362.38
322.878	352.38
323.108	338.38
323.337	355.38
323.566	358.38
323.795	347.38
324.024	354.38
324.253	361.38
324.482	357.38
324.71	378.38
324.939	375.38
325.168	371.38
325.397	370.38
325.626	360.38
325.855	368.38
326.084	360.38
326.313	376.38
326.542	362.38
326.77	379.38
326.999	368.38
327.228	386.38
327.457	374.38
327.686	359.38
327.914	390.38
328.143	378.38
328.372	375.38
328.6	361.38
328.829	378.38
329.058	383.38
329.287	375.38
329.515	379.38
329.744	381.38
329.972	412.38
330.201	386.38
330.43	386.38
330.658	384.38
330.887	385.38
331.115	374.38
331.344	394.38
331.572	390.38
331.801	386.38
332.03	402.38
332.258	394.38
332.486	386.38
332.715	409.38
332.943	380.38
333.172	397.38
333.4	406.38
333.629	420.38
333.857	418.38
334.085	408.38
334.314	405.38
334.542	431.38
334.771	416.38
334.999	396.38
335.227	412.38
335.455	413.38
335.684	412.38
335.912	428.38
336.14	435.38
336.369	421.38
336.597	434.38
336.825	418.38
337.053	425.38
337.281	434.38
337.51	408.38
337.738	426.38
337.966	407.38
338.194	393.38
338.422	394.38
338.65	402.38
338.878	410.38
339.106	388.38
339.334	407.38
339.562	409.38
339.79	418.38
340.018	414.38
340.246	403.38
340.474	409.38
340.702	407.38
340.93	414.38
341.158	420.38
341.386	405.38
341.614	410.38
341.842	408.38
342.07	411.38
342.298	411.38
342.526	403.38
342.754	400.38
342.981	411.38
343.209	418.38
343.437	410.38
343.665	403.38
343.893	419.38
344.12	435.38
344.348	435.38
344.576	400.38
344.804	416.38
345.031	434.38
345.259	430.38
345.487	417.38
345.714	428.38
345.942	396.38
346.17	423.38
346.397	428.38
346.625	424.38
346.853	421.38
347.08	399.38
347.308	422.38
347.535	392.38
347.763	409.38
347.99	408.38
348.218	407.38
348.445	418.38
348.673	401.38
348.9	401.38
349.128	401.38
349.355	430.38
349.583	399.38
349.81	397.38
350.037	422.38
350.265	420.38
350.492	412.38
350.72	415.38
350.947	434.38
351.174	420.38
351.402	409.38
351.629	392.38
351.856	426.38
352.083	403.38
352.311	422.38
352.538	410.38
352.765	392.38
352.992	400.38
353.22	387.38
353.447	415.38
353.674	404.38
353.901	416.38
354.128	434.38
354.355	408.38
354.583	410.38
354.81	400.38
355.037	417.38
355.264	420.38
355.491	402.38
355.718	425.38
355.945	410.38
356.172	422.38
356.399	421.38
356.626	416.38
356.853	399.38
357.08	416.38
357.307	413.38
357.534	423.38
357.761	421.38
357.988	441.38
358.215	431.38
358.441	449.38
358.668	430.38
358.895	432.38
359.122	416.38
359.349	400.38
359.576	419.38
359.802	417.38
360.029	409.38
360.256	408.38
360.483	433.38
360.709	434.38
360.936	422.38
361.163	434.38
361.39	432.38
361.616	442.38
361.843	430.38
362.07	436.38
362.296	433.38
362.523	415.38
362.749	422.38
362.976	416.38
363.203	435.38
363.429	434.38
363.656	431.38
363.882	432.38
364.109	433.38
364.335	413.38
364.562	450.38
364.788	410.38
365.015	429.38
365.241	438.38
365.468	435.38
365.694	407.38
365.92	442.38
366.147	436.38
366.373	439.38
366.599	451.38
366.826	434.38
367.052	431.38
367.278	436.38
367.505	421.38
367.731	438.38
367.957	444.38
368.184	424.38
368.41	458.38
368.636	457.38
368.862	457.38
369.089	463.38
369.315	450.38
369.541	461.38
369.767	457.38
369.993	430.38
370.219	461.38
370.445	447.38
370.672	469.38
370.898	445.38
371.124	453.38
371.35	437.38
371.576	449.38
371.802	465.38
372.028	466.38
372.254	478.38
372.48	454.38
372.706	501.38
372.932	451.38
373.158	460.38
373.384	470.38
373.61	459.38
373.835	474.38
374.061	460.38
374.287	465.38
374.513	459.38
374.739	467.38
374.965	474.38
375.191	473.38
375.416	468.38
375.642	472.38
375.868	473.38
376.094	483.38
376.319	467.38
376.545	464.38
376.771	462.38
376.997	482.38
377.222	459.38
377.448	441.38
377.674	467.38
377.899	476.38
378.125	465.38
378.35	470.38
378.576	448.38
378.802	457.38
379.027	464.38
379.253	449.38
379.478	479.38
379.704	479.38
379.929	472.38
380.155	471.38
380.38	474.38
380.606	466.38
380.831	467.38
381.057	460.38
381.282	494.38
381.507	454.38
381.733	454.38
381.958	479.38
382.184	479.38
382.409	468.38
382.634	470.38
382.86	498.38
383.085	467.38
383.31	486.38
383.535	500.38
383.761	484.38
383.986	480.38
384.211	475.38
384.436	492.38
384.662	475.38
384.887	493.38
385.112	478.38
385.337	506.38
385.562	479.38
385.787	508.38
386.013	496.38
386.238	520.38
386.463	502.38
386.688	515.38
386.913	518.38
387.138	516.38
387.363	514.38
387.588	520.38
387.813	505.38
388.038	500.38
388.263	515.38
388.488	514.38
388.713	503.38
388.938	516.38
389.163	516.38
389.387	539.38
389.612	503.38
389.837	519.38
390.062	485.38
390.287	529.38
390.512	524.38
390.736	522.38
390.961	530.38
391.186	530.38
391.411	512.38
391.636	547.38
391.86	507.38
392.085	530.38
392.31	522.38
392.534	530.38
392.759	523.38
392.984	514.38
393.208	544.38
393.433	543.38
393.658	555.38
393.882	552.38
394.107	533.38
394.331	529.38
394.556	537.38
394.78	552.38
395.005	539.38
395.229	555.38
395.454	534.38
395.678	545.38
395.903	539.38
396.127	560.38
396.352	544.38
396.576	546.38
396.801	549.38
397.025	560.38
397.249	537.38
397.474	561.38
397.698	546.38
397.922	562.38
398.147	552.38
398.371	560.38
398.595	561.38
398.82	568.38
399.044	586.38
399.268	588.38
399.492	588.38
399.717	604.38
399.941	598.38
400.165	598.38
400.389	596.38
400.613	599.38
400.837	616.38
401.062	590.38
401.286	582.38
401.51	603.38
401.734	592.38
401.958	598.38
402.182	583.38
402.406	588.38
402.63	572.38
402.854	583.38
403.078	591.38
403.302	592.38
403.526	603.38
403.75	586.38
403.974	589.38
404.198	569.38
404.422	588.38
404.645	587.38
404.869	594.38
405.093	604.38
405.317	592.38
405.541	595.38
405.765	595.38
405.988	609.38
406.212	596.38
406.436	613.38
406.66	632.38
406.883	616.38
407.107	627.38
407.331	626.38
407.555	638.38
407.778	634.38
408.002	617.38
408.226	619.38
408.449	603.38
408.673	610.38
408.896	620.38
409.12	606.38
409.344	617.38
409.567	626.38
409.791	645.38
410.014	604.38
410.238	616.38
410.461	624.38
410.685	601.38
410.908	594.38
411.132	599.38
411.355	591.38
411.578	616.38
411.802	621.38
412.025	603.38
412.249	622.38
412.472	586.38
412.695	593.38
412.919	588.38
413.142	611.38
413.365	587.38
413.589	596.38
413.812	590.38
414.035	590.38
414.258	572.38
414.482	591.38
414.705	597.38
414.928	583.38
415.151	599.38
415.374	611.38
415.597	586.38
415.821	576.38
416.044	591.38
416.267	587.38
416.49	576.38
416.713	593.38
416.936	590.38
417.159	588.38
417.382	563.38
417.605	558.38
417.828	565.38
418.051	586.38
418.274	586.38
418.497	554.38
418.72	562.38
418.943	570.38
419.166	595.38
419.389	625.38
419.611	580.38
419.834	592.38
420.057	559.38
420.28	574.38
420.503	553.38
420.726	560.38
420.948	536.38
421.171	604.38
421.394	551.38
421.617	562.38
421.839	581.38
422.062	555.38
422.285	546.38
422.507	574.38
422.73	565.38
422.953	564.38
423.175	546.38
423.398	590.38
423.621	590.38
423.843	576.38
424.066	568.38
424.288	570.38
424.511	558.38
424.733	557.38
424.956	579.38
425.178	552.38
425.401	563.38
425.623	583.38
425.846	556.38
426.068	548.38
426.291	577.38
426.513	551.38
426.735	571.38
426.958	562.38
427.18	550.38
427.402	574.38
427.625	538.38
427.847	537.38
428.069	537.38
428.292	563.38
428.514	569.38
428.736	563.38
428.958	571.38
429.181	537.38
429.403	555.38
429.625	555.38
429.847	552.38
430.069	543.38
430.292	570.38
430.514	574.38
430.736	580.38
430.958	572.38
431.18	564.38
431.402	562.38
431.624	532.38
431.846	553.38
432.068	562.38
432.29	567.38
432.512	553.38
432.734	552.38
432.956	594.38
433.178	560.38
433.4	560.38
433.622	577.38
433.844	564.38
434.066	560.38
434.287	552.38
434.509	560.38
434.731	564.38
434.953	560.38
435.175	577.38
435.397	574.38
435.618	576.38
435.84	571.38
436.062	572.38
436.284	566.38
436.505	568.38
436.727	558.38
436.949	559.38
437.17	570.38
437.392	560.38
437.614	561.38
437.835	540.38
438.057	532.38
438.278	538.38
438.5	563.38
438.721	552.38
438.943	562.38
439.165	551.38
439.386	544.38
439.608	560.38
439.829	573.38
440.05	540.38
440.272	567.38
440.493	560.38
440.715	570.38
440.936	558.38
441.158	567.38
441.379	574.38
441.6	558.38
441.822	571.38
442.043	569.38
442.264	585.38
442.486	544.38
442.707	582.38
442.928	575.38
443.149	581.38
443.371	563.38
443.592	573.38
443.813	586.38
444.034	574.38
444.255	562.38
444.476	561.38
444.698	579.38
444.919	564.38
445.14	662.38
445.361	622.38
445.582	588.38
445.803	564.38
446.024	559.38
446.245	601.38
446.466	572.38
446.687	570.38
446.908	568.38
447.129	542.38
447.35	546.38
447.571	565.38
447.792	533.38
448.013	552.38
448.234	560.38
448.455	544.38
448.675	539.38
448.896	525.38
449.117	544.38
449.338	519.38
449.559	523.38
449.779	527.38
450	546.38
450.221	532.38
450.442	521.38
450.662	550.38
450.883	554.38
451.104	505.38
451.324	527.38
451.545	533.38
451.766	519.38
451.986	513.38
452.207	536.38
452.428	522.38
452.648	516.38
452.869	510.38
453.089	538.38
453.31	532.38
453.53	542.38
453.751	506.38
453.971	529.38
454.192	531.38
454.412	530.38
454.633	536.38
454.853	524.38
455.073	503.38
455.294	494.38
455.514	528.38
455.734	514.38
455.955	511.38
456.175	511.38
456.395	534.38
456.616	503.38
456.836	526.38
457.056	523.38
457.276	530.38
457.497	533.38
457.717	512.38
457.937	557.38
458.157	534.38
458.377	529.38
458.598	547.38
458.818	543.38
459.038	530.38
459.258	530.38
459.478	542.38
459.698	537.38
459.918	549.38
460.138	570.38
460.358	571.38
460.578	568.38
460.798	579.38
461.018	592.38
461.238	570.38
461.458	592.38
461.678	587.38
461.898	575.38
462.118	604.38
462.338	592.38
462.558	608.38
462.777	615.38
462.997	606.38
463.217	629.38
463.437	630.38
463.657	593.38
463.876	632.38
464.096	611.38
464.316	629.38
464.536	612.38
464.755	616.38
464.975	610.38
465.195	595.38
465.414	594.38
465.634	608.38
465.854	590.38
466.073	586.38
466.293	577.38
466.512	578.38
466.732	572.38
466.951	551.38
467.171	563.38
467.391	565.38
467.61	580.38
467.829	566.38
468.049	584.38
468.268	563.38
468.488	544.38
468.707	549.38
468.927	579.38
469.146	554.38
469.365	600.38
469.585	572.38
469.804	584.38
470.023	580.38
470.243	569.38
470.462	577.38
470.681	570.38
470.901	575.38
471.12	584.38
471.339	591.38
471.558	596.38
471.777	586.38
471.997	604.38
472.216	590.38
472.435	573.38
472.654	583.38
472.873	581.38
473.092	586.38
473.311	605.38
473.53	587.38
473.749	570.38
473.968	590.38
474.187	571.38
474.406	579.38
474.625	582.38
474.844	599.38
475.063	607.38
475.282	624.38
475.501	614.38
475.72	615.38
475.939	634.38
476.158	610.38
476.377	598.38
476.596	637.38
476.814	633.38
477.033	643.38
477.252	639.38
477.471	628.38
477.69	639.38
477.908	649.38
478.127	634.38
478.346	657.38
478.564	672.38
478.783	656.38
479.002	669.38
479.22	640.38
479.439	669.38
479.658	694.38
479.876	646.38
480.095	661.38
480.313	682.38
480.532	704.38
480.751	690.38
480.969	681.38
481.188	696.38
481.406	690.38
481.624	688.38
481.843	690.38
482.061	698.38
482.28	686.38
482.498	701.38
482.717	694.38
482.935	714.38
483.153	713.38
483.372	712.38
483.59	705.38
483.808	706.38
484.027	686.38
484.245	727.38
484.463	702.38
484.681	745.38
484.9	697.38
485.118	730.38
485.336	727.38
485.554	740.38
485.772	724.38
485.99	709.38
486.209	706.38
486.427	721.38
486.645	710.38
486.863	737.38
487.081	727.38
487.299	731.38
487.517	726.38
487.735	729.38
487.953	736.38
488.171	712.38
488.389	732.38
488.607	721.38
488.825	738.38
489.043	734.38
489.261	726.38
489.479	741.38
489.696	729.38
489.914	736.38
490.132	754.38
490.35	712.38
490.568	736.38
490.786	756.38
491.003	735.38
491.221	768.38
491.439	756.38
491.657	773.38
491.874	775.38
492.092	791.38
492.31	755.38
492.527	757.38
492.745	784.38
492.963	777.38
493.18	758.38
493.398	763.38
493.615	768.38
493.833	735.38
494.05	763.38
494.268	771.38
494.485	763.38
494.703	751.38
494.92	757.38
495.138	752.38
495.355	776.38
495.573	792.38
495.79	788.38
496.008	794.38
496.225	771.38
496.442	813.38
496.66	816.38
496.877	801.38
497.094	794.38
497.312	805.38
497.529	807.38
497.746	801.38
497.963	807.38
498.181	860.38
498.398	868.38
498.615	857.38
498.832	883.38
499.049	870.38
499.267	906.38
499.484	939.38
499.701	923.38
499.918	937.38
500.135	972.38
500.352	1001.38
500.569	997.38
500.786	994.38
501.003	983.38
501.22	983.38
501.437	921.38
501.654	957.38
501.871	898.38
502.088	904.38
