Data from Fe(NO3)3@0.1M.TitratingCurve.Agarose3%dH2O.NegLispCup.LampEnergy10.LIBS07252019_HRD10591_16-40-56-332.txt Node
Date: Thu Jul 25 16:40:56 EDT 2019
User: cochatt
Spectrometer: HR+D1059
Trigger mode: 1
Integration Time (sec): 1.000000E-1
Scans to average: 1
Electric dark correction enabled: true
Nonlinearity correction enabled: false
Boxcar width: 0
XAxis mode: Wavelengths
Number of Pixels in Spectrum: 2048
>>>>>Begin Spectral Data<<<<<
223.165	-7.56
223.4	-7.56
223.635	-7.56
223.869	-15.56
224.104	-34.56
224.338	-20.56
224.573	-11.56
224.808	-13.56
225.042	12.44
225.277	-3.56
225.511	-12.56
225.746	4.44
225.98	22.44
226.215	6.44
226.449	12.44
226.683	12.44
226.918	20.44
227.152	28.44
227.387	26.44
227.621	32.44
227.856	42.44
228.09	51.44
228.324	30.44
228.559	39.44
228.793	50.44
229.027	73.44
229.262	89.44
229.496	75.44
229.73	84.44
229.964	86.44
230.199	78.44
230.433	88.44
230.667	93.44
230.901	89.44
231.136	96.44
231.37	109.44
231.604	109.44
231.838	104.44
232.072	108.44
232.306	81.44
232.541	76.44
232.775	105.44
233.009	112.44
233.243	102.44
233.477	99.44
233.711	106.44
233.945	100.44
234.179	98.44
234.413	96.44
234.647	90.44
234.881	104.44
235.115	121.44
235.349	109.44
235.583	96.44
235.817	104.44
236.051	104.44
236.285	92.44
236.519	104.44
236.753	98.44
236.987	109.44
237.221	105.44
237.455	95.44
237.689	106.44
237.922	97.44
238.156	105.44
238.39	112.44
238.624	111.44
238.858	104.44
239.091	110.44
239.325	113.44
239.559	87.44
239.793	100.44
240.027	111.44
240.26	118.44
240.494	95.44
240.728	93.44
240.961	80.44
241.195	107.44
241.429	121.44
241.662	103.44
241.896	108.44
242.13	107.44
242.363	104.44
242.597	107.44
242.83	110.44
243.064	123.44
243.298	120.44
243.531	98.44
243.765	104.44
243.998	121.44
244.232	104.44
244.465	119.44
244.699	98.44
244.932	112.44
245.166	114.44
245.399	117.44
245.633	115.44
245.866	122.44
246.099	94.44
246.333	104.44
246.566	115.44
246.8	107.44
247.033	123.44
247.266	117.44
247.5	131.44
247.733	122.44
247.966	139.44
248.2	120.44
248.433	120.44
248.666	129.44
248.899	117.44
249.133	129.44
249.366	142.44
249.599	120.44
249.832	134.44
250.066	113.44
250.299	124.44
250.532	122.44
250.765	146.44
250.998	128.44
251.231	124.44
251.465	133.44
251.698	140.44
251.931	132.44
252.164	132.44
252.397	139.44
252.63	108.44
252.863	143.44
253.096	139.44
253.329	140.44
253.562	146.44
253.795	133.44
254.028	134.44
254.261	128.44
254.494	134.44
254.727	132.44
254.96	117.44
255.193	129.44
255.426	136.44
255.659	129.44
255.892	152.44
256.124	138.44
256.357	138.44
256.59	134.44
256.823	128.44
257.056	136.44
257.289	132.44
257.521	157.44
257.754	143.44
257.987	140.44
258.22	144.44
258.452	144.44
258.685	141.44
258.918	139.44
259.151	135.44
259.383	135.44
259.616	139.44
259.849	144.44
260.081	138.44
260.314	140.44
260.547	140.44
260.779	139.44
261.012	140.44
261.244	150.44
261.477	146.44
261.71	146.44
261.942	148.44
262.175	158.44
262.407	142.44
262.64	150.44
262.872	142.44
263.105	144.44
263.337	156.44
263.57	147.44
263.802	152.44
264.035	146.44
264.267	145.44
264.499	144.44
264.732	149.44
264.964	161.44
265.197	149.44
265.429	157.44
265.661	140.44
265.894	167.44
266.126	150.44
266.358	152.44
266.591	161.44
266.823	156.44
267.055	163.44
267.287	166.44
267.52	181.44
267.752	155.44
267.984	161.44
268.216	149.44
268.448	166.44
268.681	169.44
268.913	159.44
269.145	153.44
269.377	170.44
269.609	179.44
269.841	164.44
270.073	152.44
270.306	168.44
270.538	148.44
270.77	161.44
271.002	166.44
271.234	149.44
271.466	174.44
271.698	151.44
271.93	183.44
272.162	156.44
272.394	173.44
272.626	164.44
272.858	176.44
273.09	176.44
273.322	183.44
273.553	165.44
273.785	173.44
274.017	186.44
274.249	169.44
274.481	181.44
274.713	178.44
274.945	179.44
275.176	175.44
275.408	182.44
275.64	169.44
275.872	168.44
276.104	192.44
276.335	182.44
276.567	177.44
276.799	178.44
277.031	197.44
277.262	176.44
277.494	178.44
277.726	188.44
277.957	173.44
278.189	160.44
278.421	171.44
278.652	172.44
278.884	177.44
279.115	191.44
279.347	178.44
279.579	188.44
279.81	169.44
280.042	176.44
280.273	190.44
280.505	178.44
280.736	176.44
280.968	180.44
281.199	196.44
281.431	173.44
281.662	166.44
281.894	190.44
282.125	193.44
282.356	209.44
282.588	194.44
282.819	206.44
283.051	194.44
283.282	199.44
283.513	177.44
283.745	206.44
283.976	189.44
284.207	195.44
284.439	196.44
284.67	205.44
284.901	194.44
285.132	213.44
285.364	182.44
285.595	203.44
285.826	197.44
286.057	203.44
286.288	197.44
286.52	206.44
286.751	193.44
286.982	191.44
287.213	193.44
287.444	193.44
287.675	179.44
287.906	209.44
288.138	188.44
288.369	220.44
288.6	204.44
288.831	199.44
289.062	209.44
289.293	200.44
289.524	211.44
289.755	190.44
289.986	212.44
290.217	197.44
290.448	199.44
290.679	213.44
290.91	223.44
291.141	211.44
291.371	206.44
291.602	230.44
291.833	205.44
292.064	220.44
292.295	224.44
292.526	219.44
292.757	206.44
292.987	210.44
293.218	204.44
293.449	209.44
293.68	208.44
293.91	200.44
294.141	222.44
294.372	222.44
294.603	226.44
294.833	217.44
295.064	220.44
295.295	226.44
295.525	212.44
295.756	211.44
295.987	206.44
296.217	215.44
296.448	218.44
296.679	220.44
296.909	202.44
297.14	211.44
297.37	222.44
297.601	213.44
297.831	213.44
298.062	221.44
298.292	226.44
298.523	228.44
298.753	215.44
298.984	221.44
299.214	230.44
299.445	223.44
299.675	211.44
299.905	229.44
300.136	216.44
300.366	219.44
300.597	240.44
300.827	241.44
301.057	226.44
301.288	234.44
301.518	229.44
301.748	223.44
301.979	235.44
302.209	228.44
302.439	237.44
302.669	235.44
302.9	229.44
303.13	225.44
303.36	235.44
303.59	230.44
303.82	229.44
304.051	250.44
304.281	227.44
304.511	235.44
304.741	236.44
304.971	243.44
305.201	235.44
305.431	250.44
305.661	232.44
305.891	217.44
306.121	245.44
306.352	238.44
306.582	230.44
306.812	213.44
307.042	239.44
307.272	239.44
307.502	215.44
307.731	234.44
307.961	234.44
308.191	214.44
308.421	229.44
308.651	220.44
308.881	208.44
309.111	221.44
309.341	235.44
309.571	234.44
309.8	235.44
310.03	225.44
310.26	240.44
310.49	244.44
310.72	240.44
310.949	230.44
311.179	242.44
311.409	246.44
311.639	233.44
311.868	258.44
312.098	229.44
312.328	241.44
312.557	221.44
312.787	240.44
313.017	221.44
313.246	240.44
313.476	249.44
313.706	248.44
313.935	257.44
314.165	250.44
314.394	249.44
314.624	242.44
314.853	246.44
315.083	240.44
315.312	267.44
315.542	242.44
315.771	252.44
316.001	234.44
316.23	236.44
316.46	239.44
316.689	242.44
316.919	251.44
317.148	256.44
317.377	236.44
317.607	260.44
317.836	251.44
318.065	236.44
318.295	232.44
318.524	244.44
318.753	253.44
318.983	249.44
319.212	248.44
319.441	249.44
319.67	260.44
319.9	232.44
320.129	242.44
320.358	242.44
320.587	253.44
320.816	251.44
321.046	253.44
321.275	247.44
321.504	256.44
321.733	252.44
321.962	243.44
322.191	249.44
322.42	254.44
322.649	261.44
322.878	248.44
323.108	270.44
323.337	267.44
323.566	231.44
323.795	270.44
324.024	262.44
324.253	264.44
324.482	256.44
324.71	255.44
324.939	271.44
325.168	244.44
325.397	267.44
325.626	260.44
325.855	253.44
326.084	266.44
326.313	274.44
326.542	282.44
326.77	278.44
326.999	255.44
327.228	292.44
327.457	274.44
327.686	275.44
327.914	267.44
328.143	254.44
328.372	263.44
328.6	274.44
328.829	266.44
329.058	261.44
329.287	271.44
329.515	277.44
329.744	282.44
329.972	271.44
330.201	273.44
330.43	273.44
330.658	277.44
330.887	261.44
331.115	267.44
331.344	295.44
331.572	287.44
331.801	275.44
332.03	307.44
332.258	313.44
332.486	308.44
332.715	324.44
332.943	329.44
333.172	314.44
333.4	355.44
333.629	350.44
333.857	334.44
334.085	347.44
334.314	337.44
334.542	338.44
334.771	325.44
334.999	338.44
335.227	318.44
335.455	332.44
335.684	307.44
335.912	317.44
336.14	329.44
336.369	330.44
336.597	313.44
336.825	322.44
337.053	290.44
337.281	315.44
337.51	296.44
337.738	308.44
337.966	294.44
338.194	284.44
338.422	305.44
338.65	272.44
338.878	304.44
339.106	288.44
339.334	284.44
339.562	297.44
339.79	291.44
340.018	263.44
340.246	276.44
340.474	291.44
340.702	273.44
340.93	276.44
341.158	283.44
341.386	264.44
341.614	280.44
341.842	276.44
342.07	279.44
342.298	277.44
342.526	280.44
342.754	270.44
342.981	293.44
343.209	280.44
343.437	307.44
343.665	306.44
343.893	340.44
344.12	349.44
344.348	314.44
344.576	320.44
344.804	287.44
345.031	266.44
345.259	305.44
345.487	289.44
345.714	277.44
345.942	280.44
346.17	285.44
346.397	286.44
346.625	291.44
346.853	268.44
347.08	267.44
347.308	279.44
347.535	288.44
347.763	270.44
347.99	276.44
348.218	274.44
348.445	292.44
348.673	253.44
348.9	270.44
349.128	295.44
349.355	283.44
349.583	274.44
349.81	264.44
350.037	269.44
350.265	260.44
350.492	279.44
350.72	266.44
350.947	263.44
351.174	268.44
351.402	264.44
351.629	259.44
351.856	267.44
352.083	281.44
352.311	265.44
352.538	286.44
352.765	262.44
352.992	256.44
353.22	260.44
353.447	247.44
353.674	270.44
353.901	269.44
354.128	258.44
354.355	261.44
354.583	278.44
354.81	288.44
355.037	269.44
355.264	276.44
355.491	259.44
355.718	268.44
355.945	266.44
356.172	262.44
356.399	286.44
356.626	265.44
356.853	273.44
357.08	266.44
357.307	252.44
357.534	282.44
357.761	257.44
357.988	265.44
358.215	265.44
358.441	273.44
358.668	270.44
358.895	269.44
359.122	259.44
359.349	277.44
359.576	278.44
359.802	277.44
360.029	262.44
360.256	259.44
360.483	266.44
360.709	258.44
360.936	273.44
361.163	264.44
361.39	260.44
361.616	258.44
361.843	261.44
362.07	279.44
362.296	266.44
362.523	276.44
362.749	270.44
362.976	288.44
363.203	266.44
363.429	268.44
363.656	265.44
363.882	246.44
364.109	268.44
364.335	265.44
364.562	269.44
364.788	267.44
365.015	257.44
365.241	284.44
365.468	263.44
365.694	267.44
365.92	281.44
366.147	264.44
366.373	253.44
366.599	272.44
366.826	269.44
367.052	270.44
367.278	255.44
367.505	265.44
367.731	260.44
367.957	285.44
368.184	280.44
368.41	274.44
368.636	275.44
368.862	294.44
369.089	278.44
369.315	274.44
369.541	274.44
369.767	298.44
369.993	297.44
370.219	268.44
370.445	292.44
370.672	278.44
370.898	291.44
371.124	297.44
371.35	288.44
371.576	306.44
371.802	291.44
372.028	295.44
372.254	306.44
372.48	298.44
372.706	300.44
372.932	286.44
373.158	309.44
373.384	294.44
373.61	282.44
373.835	310.44
374.061	300.44
374.287	292.44
374.513	305.44
374.739	292.44
374.965	300.44
375.191	319.44
375.416	308.44
375.642	310.44
375.868	310.44
376.094	291.44
376.319	290.44
376.545	278.44
376.771	279.44
376.997	309.44
377.222	288.44
377.448	291.44
377.674	286.44
377.899	280.44
378.125	267.44
378.35	286.44
378.576	282.44
378.802	298.44
379.027	296.44
379.253	270.44
379.478	296.44
379.704	283.44
379.929	298.44
380.155	283.44
380.38	301.44
380.606	304.44
380.831	294.44
381.057	298.44
381.282	286.44
381.507	311.44
381.733	288.44
381.958	287.44
382.184	288.44
382.409	311.44
382.634	290.44
382.86	314.44
383.085	325.44
383.31	329.44
383.535	326.44
383.761	312.44
383.986	338.44
384.211	325.44
384.436	339.44
384.662	328.44
384.887	321.44
385.112	345.44
385.337	336.44
385.562	346.44
385.787	325.44
386.013	338.44
386.238	345.44
386.463	340.44
386.688	334.44
386.913	320.44
387.138	322.44
387.363	350.44
387.588	353.44
387.813	312.44
388.038	349.44
388.263	343.44
388.488	345.44
388.713	334.44
388.938	336.44
389.163	340.44
389.387	346.44
389.612	325.44
389.837	334.44
390.062	331.44
390.287	346.44
390.512	332.44
390.736	337.44
390.961	334.44
391.186	332.44
391.411	351.44
391.636	351.44
391.86	385.44
392.085	369.44
392.31	350.44
392.534	349.44
392.759	354.44
392.984	353.44
393.208	343.44
393.433	349.44
393.658	360.44
393.882	363.44
394.107	362.44
394.331	364.44
394.556	360.44
394.78	371.44
395.005	366.44
395.229	353.44
395.454	388.44
395.678	392.44
395.903	377.44
396.127	363.44
396.352	375.44
396.576	362.44
396.801	368.44
397.025	364.44
397.249	370.44
397.474	379.44
397.698	390.44
397.922	378.44
398.147	378.44
398.371	397.44
398.595	404.44
398.82	425.44
399.044	444.44
399.268	485.44
399.492	574.44
399.717	592.44
399.941	563.44
400.165	500.44
400.389	457.44
400.613	470.44
400.837	448.44
401.062	402.44
401.286	430.44
401.51	423.44
401.734	414.44
401.958	423.44
402.182	401.44
402.406	425.44
402.63	436.44
402.854	437.44
403.078	435.44
403.302	452.44
403.526	458.44
403.75	452.44
403.974	480.44
404.198	466.44
404.422	477.44
404.645	465.44
404.869	477.44
405.093	464.44
405.317	443.44
405.541	432.44
405.765	440.44
405.988	470.44
406.212	460.44
406.436	457.44
406.66	468.44
406.883	486.44
407.107	481.44
407.331	505.44
407.555	505.44
407.778	512.44
408.002	509.44
408.226	493.44
408.449	498.44
408.673	472.44
408.896	462.44
409.12	484.44
409.344	499.44
409.567	468.44
409.791	450.44
410.014	477.44
410.238	483.44
410.461	466.44
410.685	449.44
410.908	456.44
411.132	453.44
411.355	420.44
411.578	438.44
411.802	427.44
412.025	446.44
412.249	430.44
412.472	449.44
412.695	431.44
412.919	439.44
413.142	421.44
413.365	424.44
413.589	444.44
413.812	414.44
414.035	410.44
414.258	439.44
414.482	421.44
414.705	447.44
414.928	429.44
415.151	426.44
415.374	433.44
415.597	438.44
415.821	429.44
416.044	426.44
416.267	394.44
416.49	401.44
416.713	420.44
416.936	421.44
417.159	425.44
417.382	433.44
417.605	424.44
417.828	422.44
418.051	421.44
418.274	441.44
418.497	433.44
418.72	427.44
418.943	420.44
419.166	451.44
419.389	462.44
419.611	479.44
419.834	448.44
420.057	439.44
420.28	430.44
420.503	413.44
420.726	432.44
420.948	424.44
421.171	444.44
421.394	418.44
421.617	409.44
421.839	420.44
422.062	436.44
422.285	425.44
422.507	448.44
422.73	436.44
422.953	423.44
423.175	412.44
423.398	443.44
423.621	448.44
423.843	452.44
424.066	493.44
424.288	426.44
424.511	443.44
424.733	437.44
424.956	428.44
425.178	436.44
425.401	418.44
425.623	417.44
425.846	405.44
426.068	408.44
426.291	418.44
426.513	423.44
426.735	413.44
426.958	389.44
427.18	370.44
427.402	393.44
427.625	388.44
427.847	412.44
428.069	392.44
428.292	377.44
428.514	381.44
428.736	384.44
428.958	388.44
429.181	393.44
429.403	374.44
429.625	375.44
429.847	373.44
430.069	380.44
430.292	395.44
430.514	364.44
430.736	391.44
430.958	373.44
431.18	366.44
431.402	390.44
431.624	402.44
431.846	376.44
432.068	384.44
432.29	398.44
432.512	383.44
432.734	388.44
432.956	378.44
433.178	368.44
433.4	393.44
433.622	404.44
433.844	417.44
434.066	418.44
434.287	401.44
434.509	402.44
434.731	425.44
434.953	411.44
435.175	422.44
435.397	424.44
435.618	398.44
435.84	395.44
436.062	376.44
436.284	403.44
436.505	403.44
436.727	393.44
436.949	394.44
437.17	389.44
437.392	390.44
437.614	394.44
437.835	364.44
438.057	356.44
438.278	383.44
438.5	373.44
438.721	376.44
438.943	377.44
439.165	397.44
439.386	384.44
439.608	388.44
439.829	405.44
440.05	406.44
440.272	398.44
440.493	416.44
440.715	396.44
440.936	393.44
441.158	410.44
441.379	418.44
441.6	437.44
441.822	456.44
442.043	441.44
442.264	436.44
442.486	426.44
442.707	451.44
442.928	450.44
443.149	434.44
443.371	446.44
443.592	458.44
443.813	438.44
444.034	439.44
444.255	461.44
444.476	486.44
444.698	509.44
444.919	514.44
445.14	568.44
445.361	502.44
445.582	437.44
445.803	444.44
446.024	416.44
446.245	414.44
446.466	413.44
446.687	392.44
446.908	417.44
447.129	395.44
447.35	378.44
447.571	387.44
447.792	392.44
448.013	396.44
448.234	384.44
448.455	378.44
448.675	357.44
448.896	360.44
449.117	376.44
449.338	404.44
449.559	376.44
449.779	385.44
450	375.44
450.221	356.44
450.442	375.44
450.662	364.44
450.883	398.44
451.104	355.44
451.324	363.44
451.545	372.44
451.766	369.44
451.986	360.44
452.207	378.44
452.428	373.44
452.648	382.44
452.869	356.44
453.089	348.44
453.31	364.44
453.53	358.44
453.751	346.44
453.971	366.44
454.192	362.44
454.412	342.44
454.633	347.44
454.853	371.44
455.073	341.44
455.294	353.44
455.514	355.44
455.734	356.44
455.955	343.44
456.175	326.44
456.395	331.44
456.616	349.44
456.836	354.44
457.056	351.44
457.276	332.44
457.497	346.44
457.717	347.44
457.937	355.44
458.157	344.44
458.377	344.44
458.598	329.44
458.818	326.44
459.038	358.44
459.258	380.44
459.478	396.44
459.698	379.44
459.918	389.44
460.138	406.44
460.358	428.44
460.578	439.44
460.798	456.44
461.018	445.44
461.238	472.44
461.458	450.44
461.678	438.44
461.898	451.44
462.118	452.44
462.338	460.44
462.558	487.44
462.777	502.44
462.997	525.44
463.217	573.44
463.437	553.44
463.657	534.44
463.876	504.44
464.096	512.44
464.316	520.44
464.536	509.44
464.755	498.44
464.975	463.44
465.195	438.44
465.414	425.44
465.634	423.44
465.854	394.44
466.073	398.44
466.293	383.44
466.512	379.44
466.732	373.44
466.951	380.44
467.171	382.44
467.391	392.44
467.61	384.44
467.829	385.44
468.049	377.44
468.268	371.44
468.488	347.44
468.707	384.44
468.927	372.44
469.146	374.44
469.365	371.44
469.585	372.44
469.804	393.44
470.023	406.44
470.243	386.44
470.462	406.44
470.681	390.44
470.901	394.44
471.12	386.44
471.339	381.44
471.558	376.44
471.777	362.44
471.997	370.44
472.216	352.44
472.435	389.44
472.654	370.44
472.873	361.44
473.092	362.44
473.311	350.44
473.53	345.44
473.749	342.44
473.968	357.44
474.187	341.44
474.406	341.44
474.625	352.44
474.844	353.44
475.063	329.44
475.282	348.44
475.501	337.44
475.72	361.44
475.939	345.44
476.158	383.44
476.377	366.44
476.596	382.44
476.814	371.44
477.033	377.44
477.252	372.44
477.471	374.44
477.69	395.44
477.908	394.44
478.127	402.44
478.346	406.44
478.564	402.44
478.783	410.44
479.002	421.44
479.22	427.44
479.439	422.44
479.658	412.44
479.876	431.44
480.095	438.44
480.313	426.44
480.532	446.44
480.751	443.44
480.969	424.44
481.188	388.44
481.406	403.44
481.624	413.44
481.843	380.44
482.061	388.44
482.28	398.44
482.498	386.44
482.717	403.44
482.935	378.44
483.153	406.44
483.372	373.44
483.59	386.44
483.808	393.44
484.027	386.44
484.245	400.44
484.463	391.44
484.681	402.44
484.9	413.44
485.118	394.44
485.336	403.44
485.554	408.44
485.772	379.44
485.99	407.44
486.209	402.44
486.427	396.44
486.645	412.44
486.863	400.44
487.081	397.44
487.299	418.44
487.517	397.44
487.735	412.44
487.953	424.44
488.171	409.44
488.389	402.44
488.607	390.44
488.825	424.44
489.043	402.44
489.261	384.44
489.479	400.44
489.696	414.44
489.914	406.44
490.132	398.44
490.35	404.44
490.568	420.44
490.786	396.44
491.003	411.44
491.221	408.44
491.439	402.44
491.657	426.44
491.874	412.44
492.092	429.44
492.31	437.44
492.527	424.44
492.745	415.44
492.963	431.44
493.18	421.44
493.398	406.44
493.615	405.44
493.833	428.44
494.05	428.44
494.268	440.44
494.485	420.44
494.703	418.44
494.92	419.44
495.138	419.44
495.355	418.44
495.573	455.44
495.79	440.44
496.008	437.44
496.225	436.44
496.442	439.44
496.66	452.44
496.877	442.44
497.094	438.44
497.312	475.44
497.529	466.44
497.746	481.44
497.963	494.44
498.181	517.44
498.398	531.44
498.615	564.44
498.832	585.44
499.049	612.44
499.267	663.44
499.484	716.44
499.701	782.44
499.918	826.44
500.135	949.44
500.352	1078.44
500.569	1088.44
500.786	1098.44
501.003	1037.44
501.22	918.44
501.437	838.44
501.654	757.44
501.871	684.44
