Data from Fe(NO3)3@0.1M.TitratingCurve.Agarose3%dH2O.NegLispCup.LampEnergy10.LIBS07252019_HRD10591_16-42-12-333.txt Node
Date: Thu Jul 25 16:42:12 EDT 2019
User: cochatt
Spectrometer: HR+D1059
Trigger mode: 1
Integration Time (sec): 1.000000E-1
Scans to average: 1
Electric dark correction enabled: true
Nonlinearity correction enabled: false
Boxcar width: 0
XAxis mode: Wavelengths
Number of Pixels in Spectrum: 2048
>>>>>Begin Spectral Data<<<<<
223.165	-5.31
223.4	-5.31
223.635	-5.31
223.869	-16.31
224.104	-18.31
224.338	-16.31
224.573	-3.31
224.808	-16.31
225.042	-12.31
225.277	-9.31
225.511	-14.31
225.746	10.69
225.98	10.69
226.215	-4.31
226.449	17.69
226.683	9.69
226.918	28.69
227.152	38.69
227.387	37.69
227.621	18.69
227.856	29.69
228.09	35.69
228.324	36.69
228.559	55.69
228.793	42.69
229.027	64.69
229.262	74.69
229.496	69.69
229.73	71.69
229.964	78.69
230.199	68.69
230.433	76.69
230.667	71.69
230.901	76.69
231.136	98.69
231.37	91.69
231.604	95.69
231.838	76.69
232.072	74.69
232.306	83.69
232.541	75.69
232.775	94.69
233.009	86.69
233.243	87.69
233.477	98.69
233.711	94.69
233.945	76.69
234.179	84.69
234.413	66.69
234.647	72.69
234.881	84.69
235.115	92.69
235.349	85.69
235.583	94.69
235.817	83.69
236.051	85.69
236.285	80.69
236.519	98.69
236.753	69.69
236.987	87.69
237.221	92.69
237.455	92.69
237.689	69.69
237.922	78.69
238.156	72.69
238.39	85.69
238.624	95.69
238.858	84.69
239.091	83.69
239.325	85.69
239.559	84.69
239.793	94.69
240.027	86.69
240.26	83.69
240.494	92.69
240.728	91.69
240.961	94.69
241.195	89.69
241.429	96.69
241.662	85.69
241.896	81.69
242.13	83.69
242.363	89.69
242.597	92.69
242.83	75.69
243.064	80.69
243.298	92.69
243.531	94.69
243.765	94.69
243.998	77.69
244.232	89.69
244.465	93.69
244.699	84.69
244.932	79.69
245.166	94.69
245.399	84.69
245.633	85.69
245.866	99.69
246.099	92.69
246.333	84.69
246.566	81.69
246.8	85.69
247.033	86.69
247.266	93.69
247.5	87.69
247.733	91.69
247.966	83.69
248.2	102.69
248.433	94.69
248.666	80.69
248.899	93.69
249.133	95.69
249.366	102.69
249.599	98.69
249.832	94.69
250.066	85.69
250.299	98.69
250.532	91.69
250.765	106.69
250.998	86.69
251.231	108.69
251.465	106.69
251.698	102.69
251.931	88.69
252.164	101.69
252.397	90.69
252.63	99.69
252.863	97.69
253.096	103.69
253.329	94.69
253.562	101.69
253.795	93.69
254.028	115.69
254.261	95.69
254.494	108.69
254.727	95.69
254.96	100.69
255.193	104.69
255.426	97.69
255.659	86.69
255.892	103.69
256.124	102.69
256.357	108.69
256.59	99.69
256.823	94.69
257.056	103.69
257.289	81.69
257.521	97.69
257.754	107.69
257.987	90.69
258.22	92.69
258.452	109.69
258.685	106.69
258.918	112.69
259.151	111.69
259.383	102.69
259.616	101.69
259.849	104.69
260.081	113.69
260.314	107.69
260.547	119.69
260.779	108.69
261.012	104.69
261.244	101.69
261.477	103.69
261.71	127.69
261.942	112.69
262.175	106.69
262.407	100.69
262.64	107.69
262.872	109.69
263.105	103.69
263.337	111.69
263.57	104.69
263.802	108.69
264.035	108.69
264.267	114.69
264.499	118.69
264.732	107.69
264.964	110.69
265.197	104.69
265.429	95.69
265.661	116.69
265.894	103.69
266.126	104.69
266.358	113.69
266.591	119.69
266.823	128.69
267.055	117.69
267.287	100.69
267.52	116.69
267.752	126.69
267.984	118.69
268.216	108.69
268.448	115.69
268.681	128.69
268.913	116.69
269.145	116.69
269.377	125.69
269.609	115.69
269.841	103.69
270.073	114.69
270.306	116.69
270.538	117.69
270.77	117.69
271.002	126.69
271.234	117.69
271.466	121.69
271.698	124.69
271.93	114.69
272.162	126.69
272.394	132.69
272.626	125.69
272.858	99.69
273.09	124.69
273.322	121.69
273.553	122.69
273.785	134.69
274.017	122.69
274.249	124.69
274.481	111.69
274.713	109.69
274.945	134.69
275.176	132.69
275.408	119.69
275.64	119.69
275.872	117.69
276.104	115.69
276.335	115.69
276.567	120.69
276.799	119.69
277.031	117.69
277.262	133.69
277.494	128.69
277.726	120.69
277.957	133.69
278.189	128.69
278.421	130.69
278.652	124.69
278.884	120.69
279.115	130.69
279.347	138.69
279.579	119.69
279.81	131.69
280.042	119.69
280.273	127.69
280.505	127.69
280.736	122.69
280.968	129.69
281.199	118.69
281.431	118.69
281.662	129.69
281.894	118.69
282.125	152.69
282.356	128.69
282.588	137.69
282.819	131.69
283.051	128.69
283.282	124.69
283.513	147.69
283.745	146.69
283.976	125.69
284.207	143.69
284.439	134.69
284.67	140.69
284.901	132.69
285.132	131.69
285.364	147.69
285.595	140.69
285.826	128.69
286.057	132.69
286.288	118.69
286.52	126.69
286.751	134.69
286.982	131.69
287.213	141.69
287.444	131.69
287.675	147.69
287.906	146.69
288.138	143.69
288.369	129.69
288.6	143.69
288.831	145.69
289.062	133.69
289.293	136.69
289.524	128.69
289.755	148.69
289.986	162.69
290.217	142.69
290.448	134.69
290.679	139.69
290.91	151.69
291.141	140.69
291.371	146.69
291.602	143.69
291.833	156.69
292.064	145.69
292.295	141.69
292.526	142.69
292.757	154.69
292.987	140.69
293.218	126.69
293.449	148.69
293.68	138.69
293.91	134.69
294.141	154.69
294.372	140.69
294.603	159.69
294.833	142.69
295.064	155.69
295.295	146.69
295.525	134.69
295.756	138.69
295.987	152.69
296.217	160.69
296.448	142.69
296.679	149.69
296.909	148.69
297.14	151.69
297.37	147.69
297.601	162.69
297.831	152.69
298.062	140.69
298.292	162.69
298.523	143.69
298.753	150.69
298.984	161.69
299.214	151.69
299.445	160.69
299.675	153.69
299.905	157.69
300.136	151.69
300.366	152.69
300.597	154.69
300.827	155.69
301.057	146.69
301.288	163.69
301.518	159.69
301.748	163.69
301.979	166.69
302.209	165.69
302.439	169.69
302.669	161.69
302.9	160.69
303.13	146.69
303.36	158.69
303.59	162.69
303.82	181.69
304.051	167.69
304.281	171.69
304.511	165.69
304.741	171.69
304.971	159.69
305.201	162.69
305.431	159.69
305.661	144.69
305.891	163.69
306.121	176.69
306.352	158.69
306.582	160.69
306.812	154.69
307.042	149.69
307.272	166.69
307.502	146.69
307.731	148.69
307.961	162.69
308.191	151.69
308.421	157.69
308.651	155.69
308.881	157.69
309.111	162.69
309.341	171.69
309.571	162.69
309.8	157.69
310.03	151.69
310.26	156.69
310.49	149.69
310.72	154.69
310.949	138.69
311.179	154.69
311.409	154.69
311.639	167.69
311.868	154.69
312.098	176.69
312.328	173.69
312.557	172.69
312.787	164.69
313.017	181.69
313.246	159.69
313.476	163.69
313.706	165.69
313.935	158.69
314.165	158.69
314.394	158.69
314.624	167.69
314.853	173.69
315.083	180.69
315.312	157.69
315.542	178.69
315.771	176.69
316.001	165.69
316.23	170.69
316.46	162.69
316.689	155.69
316.919	166.69
317.148	183.69
317.377	177.69
317.607	149.69
317.836	174.69
318.065	168.69
318.295	174.69
318.524	176.69
318.753	174.69
318.983	148.69
319.212	177.69
319.441	169.69
319.67	171.69
319.9	160.69
320.129	158.69
320.358	166.69
320.587	183.69
320.816	161.69
321.046	178.69
321.275	180.69
321.504	165.69
321.733	174.69
321.962	146.69
322.191	174.69
322.42	168.69
322.649	173.69
322.878	167.69
323.108	174.69
323.337	181.69
323.566	148.69
323.795	173.69
324.024	178.69
324.253	174.69
324.482	170.69
324.71	167.69
324.939	180.69
325.168	176.69
325.397	178.69
325.626	188.69
325.855	193.69
326.084	180.69
326.313	174.69
326.542	167.69
326.77	186.69
326.999	170.69
327.228	175.69
327.457	187.69
327.686	181.69
327.914	173.69
328.143	181.69
328.372	190.69
328.6	175.69
328.829	190.69
329.058	181.69
329.287	172.69
329.515	171.69
329.744	188.69
329.972	179.69
330.201	178.69
330.43	181.69
330.658	182.69
330.887	183.69
331.115	210.69
331.344	186.69
331.572	172.69
331.801	182.69
332.03	199.69
332.258	197.69
332.486	199.69
332.715	203.69
332.943	222.69
333.172	235.69
333.4	220.69
333.629	213.69
333.857	239.69
334.085	214.69
334.314	224.69
334.542	216.69
334.771	225.69
334.999	221.69
335.227	199.69
335.455	216.69
335.684	216.69
335.912	207.69
336.14	219.69
336.369	211.69
336.597	209.69
336.825	204.69
337.053	196.69
337.281	212.69
337.51	198.69
337.738	200.69
337.966	191.69
338.194	195.69
338.422	186.69
338.65	179.69
338.878	199.69
339.106	188.69
339.334	207.69
339.562	210.69
339.79	186.69
340.018	191.69
340.246	165.69
340.474	176.69
340.702	199.69
340.93	197.69
341.158	189.69
341.386	192.69
341.614	188.69
341.842	193.69
342.07	184.69
342.298	187.69
342.526	184.69
342.754	180.69
342.981	187.69
343.209	191.69
343.437	213.69
343.665	215.69
343.893	220.69
344.12	220.69
344.348	211.69
344.576	221.69
344.804	193.69
345.031	195.69
345.259	191.69
345.487	199.69
345.714	190.69
345.942	191.69
346.17	196.69
346.397	196.69
346.625	194.69
346.853	184.69
347.08	190.69
347.308	195.69
347.535	190.69
347.763	190.69
347.99	186.69
348.218	186.69
348.445	195.69
348.673	188.69
348.9	195.69
349.128	196.69
349.355	181.69
349.583	189.69
349.81	191.69
350.037	189.69
350.265	181.69
350.492	190.69
350.72	185.69
350.947	180.69
351.174	192.69
351.402	170.69
351.629	175.69
351.856	178.69
352.083	172.69
352.311	182.69
352.538	170.69
352.765	184.69
352.992	187.69
353.22	166.69
353.447	171.69
353.674	195.69
353.901	196.69
354.128	194.69
354.355	185.69
354.583	176.69
354.81	182.69
355.037	190.69
355.264	177.69
355.491	176.69
355.718	183.69
355.945	186.69
356.172	206.69
356.399	192.69
356.626	165.69
356.853	180.69
357.08	205.69
357.307	211.69
357.534	190.69
357.761	207.69
357.988	198.69
358.215	186.69
358.441	196.69
358.668	174.69
358.895	206.69
359.122	188.69
359.349	181.69
359.576	172.69
359.802	199.69
360.029	180.69
360.256	189.69
360.483	191.69
360.709	181.69
360.936	188.69
361.163	194.69
361.39	188.69
361.616	207.69
361.843	190.69
362.07	195.69
362.296	195.69
362.523	173.69
362.749	175.69
362.976	190.69
363.203	191.69
363.429	176.69
363.656	190.69
363.882	169.69
364.109	181.69
364.335	191.69
364.562	178.69
364.788	188.69
365.015	163.69
365.241	183.69
365.468	189.69
365.694	191.69
365.92	191.69
366.147	189.69
366.373	181.69
366.599	177.69
366.826	181.69
367.052	166.69
367.278	197.69
367.505	191.69
367.731	161.69
367.957	175.69
368.184	191.69
368.41	176.69
368.636	192.69
368.862	174.69
369.089	187.69
369.315	194.69
369.541	184.69
369.767	179.69
369.993	199.69
370.219	197.69
370.445	198.69
370.672	192.69
370.898	184.69
371.124	221.69
371.35	213.69
371.576	204.69
371.802	196.69
372.028	212.69
372.254	211.69
372.48	200.69
372.706	200.69
372.932	195.69
373.158	203.69
373.384	207.69
373.61	199.69
373.835	207.69
374.061	198.69
374.287	206.69
374.513	194.69
374.739	215.69
374.965	210.69
375.191	215.69
375.416	219.69
375.642	209.69
375.868	215.69
376.094	218.69
376.319	220.69
376.545	212.69
376.771	193.69
376.997	196.69
377.222	208.69
377.448	188.69
377.674	214.69
377.899	205.69
378.125	198.69
378.35	217.69
378.576	193.69
378.802	210.69
379.027	202.69
379.253	219.69
379.478	198.69
379.704	202.69
379.929	189.69
380.155	188.69
380.38	208.69
380.606	219.69
380.831	202.69
381.057	213.69
381.282	210.69
381.507	204.69
381.733	215.69
381.958	206.69
382.184	199.69
382.409	195.69
382.634	208.69
382.86	213.69
383.085	218.69
383.31	212.69
383.535	222.69
383.761	231.69
383.986	207.69
384.211	211.69
384.436	234.69
384.662	248.69
384.887	229.69
385.112	236.69
385.337	220.69
385.562	234.69
385.787	237.69
386.013	244.69
386.238	254.69
386.463	230.69
386.688	238.69
386.913	244.69
387.138	230.69
387.363	216.69
387.588	219.69
387.813	236.69
388.038	239.69
388.263	222.69
388.488	236.69
388.713	236.69
388.938	234.69
389.163	231.69
389.387	256.69
389.612	218.69
389.837	232.69
390.062	237.69
390.287	238.69
390.512	236.69
390.736	238.69
390.961	239.69
391.186	233.69
391.411	247.69
391.636	259.69
391.86	268.69
392.085	268.69
392.31	255.69
392.534	265.69
392.759	256.69
392.984	264.69
393.208	226.69
393.433	248.69
393.658	249.69
393.882	250.69
394.107	235.69
394.331	266.69
394.556	242.69
394.78	251.69
395.005	250.69
395.229	251.69
395.454	258.69
395.678	274.69
395.903	243.69
396.127	266.69
396.352	258.69
396.576	235.69
396.801	240.69
397.025	253.69
397.249	254.69
397.474	265.69
397.698	278.69
397.922	250.69
398.147	264.69
398.371	268.69
398.595	284.69
398.82	283.69
399.044	306.69
399.268	353.69
399.492	357.69
399.717	407.69
399.941	380.69
400.165	346.69
400.389	318.69
400.613	291.69
400.837	310.69
401.062	285.69
401.286	272.69
401.51	295.69
401.734	283.69
401.958	279.69
402.182	294.69
402.406	304.69
402.63	307.69
402.854	310.69
403.078	305.69
403.302	301.69
403.526	291.69
403.75	311.69
403.974	325.69
404.198	343.69
404.422	309.69
404.645	327.69
404.869	310.69
405.093	296.69
405.317	317.69
405.541	304.69
405.765	319.69
405.988	316.69
406.212	284.69
406.436	295.69
406.66	331.69
406.883	328.69
407.107	334.69
407.331	350.69
407.555	354.69
407.778	341.69
408.002	335.69
408.226	322.69
408.449	312.69
408.673	312.69
408.896	323.69
409.12	312.69
409.344	306.69
409.567	318.69
409.791	334.69
410.014	307.69
410.238	315.69
410.461	300.69
410.685	323.69
410.908	314.69
411.132	300.69
411.355	282.69
411.578	298.69
411.802	300.69
412.025	318.69
412.249	295.69
412.472	306.69
412.695	282.69
412.919	280.69
413.142	295.69
413.365	299.69
413.589	287.69
413.812	262.69
414.035	278.69
414.258	296.69
414.482	314.69
414.705	314.69
414.928	294.69
415.151	319.69
415.374	306.69
415.597	278.69
415.821	288.69
416.044	278.69
416.267	298.69
416.49	305.69
416.713	284.69
416.936	298.69
417.159	293.69
417.382	288.69
417.605	279.69
417.828	269.69
418.051	278.69
418.274	307.69
418.497	301.69
418.72	300.69
418.943	286.69
419.166	310.69
419.389	316.69
419.611	312.69
419.834	306.69
420.057	303.69
420.28	285.69
420.503	314.69
420.726	288.69
420.948	312.69
421.171	300.69
421.394	293.69
421.617	314.69
421.839	293.69
422.062	292.69
422.285	300.69
422.507	283.69
422.73	311.69
422.953	291.69
423.175	286.69
423.398	300.69
423.621	305.69
423.843	308.69
424.066	302.69
424.288	311.69
424.511	310.69
424.733	300.69
424.956	287.69
425.178	324.69
425.401	304.69
425.623	311.69
425.846	291.69
426.068	290.69
426.291	284.69
426.513	291.69
426.735	278.69
426.958	279.69
427.18	259.69
427.402	281.69
427.625	291.69
427.847	277.69
428.069	274.69
428.292	279.69
428.514	289.69
428.736	267.69
428.958	263.69
429.181	266.69
429.403	256.69
429.625	263.69
429.847	270.69
430.069	264.69
430.292	271.69
430.514	266.69
430.736	269.69
430.958	292.69
431.18	264.69
431.402	255.69
431.624	264.69
431.846	271.69
432.068	258.69
432.29	284.69
432.512	265.69
432.734	275.69
432.956	263.69
433.178	276.69
433.4	292.69
433.622	276.69
433.844	291.69
434.066	292.69
434.287	270.69
434.509	286.69
434.731	298.69
434.953	296.69
435.175	291.69
435.397	301.69
435.618	264.69
435.84	275.69
436.062	278.69
436.284	298.69
436.505	282.69
436.727	277.69
436.949	274.69
437.17	285.69
437.392	262.69
437.614	270.69
437.835	254.69
438.057	272.69
438.278	261.69
438.5	272.69
438.721	304.69
438.943	286.69
439.165	285.69
439.386	268.69
439.608	269.69
439.829	301.69
440.05	294.69
440.272	278.69
440.493	277.69
440.715	292.69
440.936	304.69
441.158	322.69
441.379	313.69
441.6	301.69
441.822	321.69
442.043	318.69
442.264	302.69
442.486	308.69
442.707	287.69
442.928	314.69
443.149	318.69
443.371	309.69
443.592	319.69
443.813	301.69
444.034	309.69
444.255	343.69
444.476	337.69
444.698	357.69
444.919	343.69
445.14	428.69
445.361	368.69
445.582	326.69
445.803	314.69
446.024	306.69
446.245	300.69
446.466	295.69
446.687	299.69
446.908	304.69
447.129	273.69
447.35	279.69
447.571	277.69
447.792	270.69
448.013	285.69
448.234	284.69
448.455	268.69
448.675	276.69
448.896	276.69
449.117	247.69
449.338	261.69
449.559	258.69
449.779	262.69
450	268.69
450.221	277.69
450.442	280.69
450.662	270.69
450.883	276.69
451.104	287.69
451.324	277.69
451.545	274.69
451.766	270.69
451.986	271.69
452.207	268.69
452.428	265.69
452.648	243.69
452.869	255.69
453.089	243.69
453.31	258.69
453.53	238.69
453.751	248.69
453.971	271.69
454.192	257.69
454.412	238.69
454.633	263.69
454.853	252.69
455.073	256.69
455.294	250.69
455.514	255.69
455.734	257.69
455.955	257.69
456.175	268.69
456.395	246.69
456.616	240.69
456.836	256.69
457.056	250.69
457.276	246.69
457.497	230.69
457.717	235.69
457.937	241.69
458.157	248.69
458.377	230.69
458.598	251.69
458.818	264.69
459.038	269.69
459.258	252.69
459.478	282.69
459.698	282.69
459.918	308.69
460.138	312.69
460.358	328.69
460.578	342.69
460.798	346.69
461.018	315.69
461.238	311.69
461.458	303.69
461.678	325.69
461.898	305.69
462.118	336.69
462.338	342.69
462.558	364.69
462.777	362.69
462.997	364.69
463.217	387.69
463.437	397.69
463.657	380.69
463.876	348.69
464.096	346.69
464.316	349.69
464.536	357.69
464.755	345.69
464.975	354.69
465.195	306.69
465.414	311.69
465.634	297.69
465.854	310.69
466.073	277.69
466.293	257.69
466.512	285.69
466.732	264.69
466.951	274.69
467.171	264.69
467.391	278.69
467.61	283.69
467.829	283.69
468.049	283.69
468.268	265.69
468.488	261.69
468.707	253.69
468.927	263.69
469.146	279.69
469.365	266.69
469.585	278.69
469.804	269.69
470.023	273.69
470.243	270.69
470.462	303.69
470.681	291.69
470.901	298.69
471.12	277.69
471.339	260.69
471.558	272.69
471.777	291.69
471.997	270.69
472.216	290.69
472.435	261.69
472.654	257.69
472.873	266.69
473.092	266.69
473.311	265.69
473.53	261.69
473.749	262.69
473.968	261.69
474.187	242.69
474.406	257.69
474.625	248.69
474.844	263.69
475.063	270.69
475.282	244.69
475.501	244.69
475.72	271.69
475.939	268.69
476.158	254.69
476.377	247.69
476.596	256.69
476.814	255.69
477.033	250.69
477.252	262.69
477.471	279.69
477.69	280.69
477.908	292.69
478.127	293.69
478.346	286.69
478.564	297.69
478.783	284.69
479.002	303.69
479.22	306.69
479.439	316.69
479.658	296.69
479.876	296.69
480.095	298.69
480.313	323.69
480.532	323.69
480.751	319.69
480.969	291.69
481.188	291.69
481.406	281.69
481.624	275.69
481.843	270.69
482.061	258.69
482.28	279.69
482.498	282.69
482.717	264.69
482.935	276.69
483.153	276.69
483.372	288.69
483.59	271.69
483.808	295.69
484.027	284.69
484.245	288.69
484.463	286.69
484.681	278.69
484.9	291.69
485.118	291.69
485.336	295.69
485.554	288.69
485.772	280.69
485.99	282.69
486.209	289.69
486.427	284.69
486.645	282.69
486.863	282.69
487.081	280.69
487.299	303.69
487.517	295.69
487.735	279.69
487.953	287.69
488.171	278.69
488.389	292.69
488.607	295.69
488.825	287.69
489.043	270.69
489.261	299.69
489.479	286.69
489.696	293.69
489.914	290.69
490.132	279.69
490.35	301.69
490.568	288.69
490.786	294.69
491.003	310.69
491.221	302.69
491.439	305.69
491.657	301.69
491.874	291.69
492.092	316.69
492.31	318.69
492.527	313.69
492.745	314.69
492.963	315.69
493.18	299.69
493.398	300.69
493.615	309.69
493.833	316.69
494.05	325.69
494.268	330.69
494.485	323.69
494.703	317.69
494.92	310.69
495.138	309.69
495.355	318.69
495.573	319.69
495.79	319.69
496.008	312.69
496.225	306.69
496.442	316.69
496.66	304.69
496.877	327.69
497.094	332.69
497.312	314.69
497.529	332.69
497.746	345.69
497.963	349.69
498.181	354.69
498.398	370.69
498.615	412.69
498.832	413.69
499.049	434.69
499.267	447.69
499.484	481.69
499.701	562.69
499.918	593.69
500.135	640.69
500.352	731.69
500.569	726.69
500.786	713.69
501.003	688.69
501.22	610.69
501.437	567.69
501.654	495.69
501.871	467.69
502.088	436.69
502.305	429.69
502.522	396.69
502.739	395.69
502.956	360.69
503.172	364.69
