Data from Fe(NO3)3@0.1M.TitratingCurve.Agarose3%dH2O.NegLispCup.LampEnergy10.LIBS07252019_HRD10591_16-41-33-333.txt Node
Date: Thu Jul 25 16:41:33 EDT 2019
User: cochatt
Spectrometer: HR+D1059
Trigger mode: 1
Integration Time (sec): 1.000000E-1
Scans to average: 1
Electric dark correction enabled: true
Nonlinearity correction enabled: false
Boxcar width: 0
XAxis mode: Wavelengths
Number of Pixels in Spectrum: 2048
>>>>>Begin Spectral Data<<<<<
223.165	-13.38
223.4	-13.38
223.635	-13.38
223.869	-8.38
224.104	-19.38
224.338	-15.38
224.573	-11.38
224.808	-15.38
225.042	10.62
225.277	-21.38
225.511	-6.38
225.746	8.62
225.98	11.62
226.215	14.62
226.449	-2.38
226.683	20.62
226.918	24.62
227.152	22.62
227.387	34.62
227.621	36.62
227.856	44.62
228.09	52.62
228.324	31.62
228.559	69.62
228.793	49.62
229.027	57.62
229.262	73.62
229.496	77.62
229.73	78.62
229.964	85.62
230.199	82.62
230.433	85.62
230.667	68.62
230.901	90.62
231.136	97.62
231.37	83.62
231.604	86.62
231.838	91.62
232.072	99.62
232.306	98.62
232.541	84.62
232.775	86.62
233.009	77.62
233.243	90.62
233.477	91.62
233.711	90.62
233.945	103.62
234.179	99.62
234.413	90.62
234.647	86.62
234.881	82.62
235.115	90.62
235.349	94.62
235.583	93.62
235.817	88.62
236.051	96.62
236.285	93.62
236.519	84.62
236.753	83.62
236.987	102.62
237.221	97.62
237.455	98.62
237.689	96.62
237.922	93.62
238.156	95.62
238.39	94.62
238.624	75.62
238.858	81.62
239.091	96.62
239.325	98.62
239.559	96.62
239.793	88.62
240.027	98.62
240.26	97.62
240.494	96.62
240.728	102.62
240.961	91.62
241.195	112.62
241.429	104.62
241.662	96.62
241.896	88.62
242.13	92.62
242.363	94.62
242.597	95.62
242.83	100.62
243.064	101.62
243.298	97.62
243.531	90.62
243.765	113.62
243.998	91.62
244.232	115.62
244.465	105.62
244.699	94.62
244.932	96.62
245.166	109.62
245.399	103.62
245.633	104.62
245.866	89.62
246.099	94.62
246.333	107.62
246.566	92.62
246.8	108.62
247.033	105.62
247.266	102.62
247.5	104.62
247.733	107.62
247.966	108.62
248.2	108.62
248.433	107.62
248.666	99.62
248.899	101.62
249.133	91.62
249.366	100.62
249.599	90.62
249.832	118.62
250.066	119.62
250.299	109.62
250.532	109.62
250.765	104.62
250.998	104.62
251.231	116.62
251.465	117.62
251.698	120.62
251.931	107.62
252.164	113.62
252.397	120.62
252.63	106.62
252.863	121.62
253.096	124.62
253.329	112.62
253.562	109.62
253.795	108.62
254.028	120.62
254.261	108.62
254.494	124.62
254.727	109.62
254.96	108.62
255.193	102.62
255.426	109.62
255.659	123.62
255.892	112.62
256.124	115.62
256.357	110.62
256.59	106.62
256.823	113.62
257.056	112.62
257.289	114.62
257.521	113.62
257.754	128.62
257.987	104.62
258.22	121.62
258.452	105.62
258.685	122.62
258.918	121.62
259.151	122.62
259.383	108.62
259.616	108.62
259.849	116.62
260.081	121.62
260.314	132.62
260.547	120.62
260.779	130.62
261.012	135.62
261.244	118.62
261.477	134.62
261.71	111.62
261.942	132.62
262.175	128.62
262.407	128.62
262.64	122.62
262.872	129.62
263.105	124.62
263.337	127.62
263.57	122.62
263.802	115.62
264.035	109.62
264.267	122.62
264.499	118.62
264.732	129.62
264.964	136.62
265.197	149.62
265.429	134.62
265.661	128.62
265.894	125.62
266.126	134.62
266.358	133.62
266.591	129.62
266.823	156.62
267.055	133.62
267.287	130.62
267.52	135.62
267.752	132.62
267.984	105.62
268.216	130.62
268.448	128.62
268.681	137.62
268.913	131.62
269.145	132.62
269.377	133.62
269.609	116.62
269.841	124.62
270.073	128.62
270.306	124.62
270.538	119.62
270.77	131.62
271.002	141.62
271.234	129.62
271.466	139.62
271.698	137.62
271.93	132.62
272.162	120.62
272.394	143.62
272.626	129.62
272.858	120.62
273.09	136.62
273.322	133.62
273.553	142.62
273.785	140.62
274.017	143.62
274.249	134.62
274.481	144.62
274.713	144.62
274.945	135.62
275.176	148.62
275.408	156.62
275.64	157.62
275.872	142.62
276.104	160.62
276.335	124.62
276.567	142.62
276.799	141.62
277.031	145.62
277.262	125.62
277.494	140.62
277.726	146.62
277.957	156.62
278.189	132.62
278.421	149.62
278.652	152.62
278.884	155.62
279.115	147.62
279.347	147.62
279.579	162.62
279.81	134.62
280.042	138.62
280.273	135.62
280.505	143.62
280.736	156.62
280.968	145.62
281.199	131.62
281.431	146.62
281.662	150.62
281.894	152.62
282.125	155.62
282.356	146.62
282.588	149.62
282.819	166.62
283.051	161.62
283.282	156.62
283.513	163.62
283.745	158.62
283.976	150.62
284.207	156.62
284.439	153.62
284.67	157.62
284.901	157.62
285.132	162.62
285.364	162.62
285.595	139.62
285.826	154.62
286.057	150.62
286.288	138.62
286.52	156.62
286.751	152.62
286.982	158.62
287.213	161.62
287.444	157.62
287.675	154.62
287.906	169.62
288.138	158.62
288.369	162.62
288.6	159.62
288.831	159.62
289.062	165.62
289.293	163.62
289.524	170.62
289.755	170.62
289.986	172.62
290.217	157.62
290.448	152.62
290.679	157.62
290.91	161.62
291.141	168.62
291.371	155.62
291.602	167.62
291.833	157.62
292.064	161.62
292.295	178.62
292.526	169.62
292.757	149.62
292.987	151.62
293.218	160.62
293.449	182.62
293.68	180.62
293.91	164.62
294.141	159.62
294.372	163.62
294.603	169.62
294.833	166.62
295.064	187.62
295.295	165.62
295.525	156.62
295.756	164.62
295.987	165.62
296.217	148.62
296.448	166.62
296.679	156.62
296.909	167.62
297.14	169.62
297.37	173.62
297.601	181.62
297.831	178.62
298.062	183.62
298.292	176.62
298.523	167.62
298.753	161.62
298.984	175.62
299.214	187.62
299.445	178.62
299.675	168.62
299.905	173.62
300.136	180.62
300.366	172.62
300.597	170.62
300.827	178.62
301.057	183.62
301.288	184.62
301.518	198.62
301.748	179.62
301.979	184.62
302.209	192.62
302.439	176.62
302.669	157.62
302.9	181.62
303.13	186.62
303.36	168.62
303.59	169.62
303.82	176.62
304.051	178.62
304.281	194.62
304.511	183.62
304.741	180.62
304.971	163.62
305.201	176.62
305.431	166.62
305.661	173.62
305.891	175.62
306.121	177.62
306.352	186.62
306.582	184.62
306.812	172.62
307.042	164.62
307.272	161.62
307.502	185.62
307.731	163.62
307.961	188.62
308.191	162.62
308.421	179.62
308.651	164.62
308.881	184.62
309.111	178.62
309.341	178.62
309.571	188.62
309.8	185.62
310.03	157.62
310.26	194.62
310.49	193.62
310.72	192.62
310.949	188.62
311.179	189.62
311.409	192.62
311.639	185.62
311.868	178.62
312.098	198.62
312.328	185.62
312.557	186.62
312.787	182.62
313.017	182.62
313.246	194.62
313.476	192.62
313.706	195.62
313.935	177.62
314.165	188.62
314.394	185.62
314.624	183.62
314.853	183.62
315.083	190.62
315.312	186.62
315.542	187.62
315.771	184.62
316.001	194.62
316.23	189.62
316.46	184.62
316.689	185.62
316.919	171.62
317.148	200.62
317.377	176.62
317.607	196.62
317.836	176.62
318.065	181.62
318.295	199.62
318.524	179.62
318.753	189.62
318.983	186.62
319.212	173.62
319.441	186.62
319.67	175.62
319.9	192.62
320.129	180.62
320.358	182.62
320.587	190.62
320.816	193.62
321.046	183.62
321.275	211.62
321.504	185.62
321.733	192.62
321.962	188.62
322.191	192.62
322.42	188.62
322.649	192.62
322.878	193.62
323.108	186.62
323.337	200.62
323.566	189.62
323.795	186.62
324.024	200.62
324.253	201.62
324.482	184.62
324.71	182.62
324.939	194.62
325.168	196.62
325.397	197.62
325.626	187.62
325.855	197.62
326.084	207.62
326.313	205.62
326.542	190.62
326.77	195.62
326.999	199.62
327.228	214.62
327.457	200.62
327.686	200.62
327.914	203.62
328.143	202.62
328.372	201.62
328.6	209.62
328.829	194.62
329.058	196.62
329.287	215.62
329.515	206.62
329.744	196.62
329.972	210.62
330.201	210.62
330.43	187.62
330.658	198.62
330.887	205.62
331.115	211.62
331.344	203.62
331.572	201.62
331.801	212.62
332.03	212.62
332.258	214.62
332.486	229.62
332.715	233.62
332.943	237.62
333.172	254.62
333.4	233.62
333.629	256.62
333.857	251.62
334.085	249.62
334.314	240.62
334.542	228.62
334.771	238.62
334.999	234.62
335.227	241.62
335.455	240.62
335.684	234.62
335.912	246.62
336.14	220.62
336.369	221.62
336.597	219.62
336.825	241.62
337.053	224.62
337.281	217.62
337.51	210.62
337.738	212.62
337.966	218.62
338.194	207.62
338.422	225.62
338.65	206.62
338.878	215.62
339.106	209.62
339.334	213.62
339.562	206.62
339.79	207.62
340.018	198.62
340.246	196.62
340.474	217.62
340.702	208.62
340.93	212.62
341.158	211.62
341.386	210.62
341.614	204.62
341.842	218.62
342.07	216.62
342.298	209.62
342.526	204.62
342.754	194.62
342.981	212.62
343.209	201.62
343.437	236.62
343.665	209.62
343.893	240.62
344.12	233.62
344.348	248.62
344.576	233.62
344.804	211.62
345.031	218.62
345.259	229.62
345.487	215.62
345.714	210.62
345.942	204.62
346.17	219.62
346.397	204.62
346.625	213.62
346.853	202.62
347.08	221.62
347.308	203.62
347.535	201.62
347.763	215.62
347.99	198.62
348.218	209.62
348.445	212.62
348.673	192.62
348.9	212.62
349.128	196.62
349.355	197.62
349.583	205.62
349.81	201.62
350.037	200.62
350.265	192.62
350.492	198.62
350.72	204.62
350.947	200.62
351.174	200.62
351.402	200.62
351.629	206.62
351.856	203.62
352.083	201.62
352.311	208.62
352.538	208.62
352.765	219.62
352.992	206.62
353.22	204.62
353.447	188.62
353.674	210.62
353.901	203.62
354.128	208.62
354.355	205.62
354.583	197.62
354.81	189.62
355.037	186.62
355.264	212.62
355.491	211.62
355.718	203.62
355.945	198.62
356.172	202.62
356.399	181.62
356.626	211.62
356.853	185.62
357.08	192.62
357.307	205.62
357.534	208.62
357.761	202.62
357.988	220.62
358.215	202.62
358.441	209.62
358.668	202.62
358.895	201.62
359.122	221.62
359.349	202.62
359.576	200.62
359.802	208.62
360.029	192.62
360.256	190.62
360.483	201.62
360.709	198.62
360.936	196.62
361.163	195.62
361.39	202.62
361.616	198.62
361.843	195.62
362.07	209.62
362.296	199.62
362.523	212.62
362.749	193.62
362.976	200.62
363.203	194.62
363.429	195.62
363.656	195.62
363.882	198.62
364.109	209.62
364.335	205.62
364.562	205.62
364.788	181.62
365.015	194.62
365.241	197.62
365.468	198.62
365.694	195.62
365.92	198.62
366.147	210.62
366.373	202.62
366.599	196.62
366.826	213.62
367.052	203.62
367.278	213.62
367.505	206.62
367.731	219.62
367.957	215.62
368.184	212.62
368.41	210.62
368.636	231.62
368.862	199.62
369.089	215.62
369.315	193.62
369.541	197.62
369.767	190.62
369.993	199.62
370.219	209.62
370.445	234.62
370.672	205.62
370.898	202.62
371.124	203.62
371.35	224.62
371.576	226.62
371.802	212.62
372.028	223.62
372.254	227.62
372.48	224.62
372.706	221.62
372.932	215.62
373.158	222.62
373.384	211.62
373.61	210.62
373.835	215.62
374.061	224.62
374.287	230.62
374.513	216.62
374.739	211.62
374.965	233.62
375.191	241.62
375.416	229.62
375.642	233.62
375.868	226.62
376.094	230.62
376.319	224.62
376.545	210.62
376.771	224.62
376.997	216.62
377.222	218.62
377.448	213.62
377.674	231.62
377.899	211.62
378.125	232.62
378.35	214.62
378.576	205.62
378.802	211.62
379.027	217.62
379.253	214.62
379.478	221.62
379.704	237.62
379.929	225.62
380.155	224.62
380.38	213.62
380.606	230.62
380.831	219.62
381.057	212.62
381.282	211.62
381.507	235.62
381.733	232.62
381.958	214.62
382.184	224.62
382.409	236.62
382.634	241.62
382.86	229.62
383.085	233.62
383.31	241.62
383.535	235.62
383.761	227.62
383.986	234.62
384.211	237.62
384.436	233.62
384.662	241.62
384.887	248.62
385.112	229.62
385.337	245.62
385.562	249.62
385.787	260.62
386.013	261.62
386.238	248.62
386.463	251.62
386.688	258.62
386.913	249.62
387.138	266.62
387.363	257.62
387.588	253.62
387.813	254.62
388.038	250.62
388.263	246.62
388.488	235.62
388.713	258.62
388.938	235.62
389.163	252.62
389.387	251.62
389.612	259.62
389.837	267.62
390.062	277.62
390.287	254.62
390.512	256.62
390.736	251.62
390.961	258.62
391.186	245.62
391.411	263.62
391.636	268.62
391.86	268.62
392.085	256.62
392.31	288.62
392.534	285.62
392.759	277.62
392.984	278.62
393.208	281.62
393.433	254.62
393.658	245.62
393.882	270.62
394.107	266.62
394.331	279.62
394.556	272.62
394.78	270.62
395.005	276.62
395.229	270.62
395.454	280.62
395.678	286.62
395.903	278.62
396.127	282.62
396.352	287.62
396.576	258.62
396.801	297.62
397.025	273.62
397.249	270.62
397.474	278.62
397.698	294.62
397.922	279.62
398.147	274.62
398.371	293.62
398.595	300.62
398.82	277.62
399.044	329.62
399.268	347.62
399.492	389.62
399.717	438.62
399.941	417.62
400.165	381.62
400.389	337.62
400.613	308.62
400.837	315.62
401.062	317.62
401.286	327.62
401.51	313.62
401.734	302.62
401.958	306.62
402.182	302.62
402.406	316.62
402.63	314.62
402.854	332.62
403.078	319.62
403.302	336.62
403.526	341.62
403.75	354.62
403.974	349.62
404.198	340.62
404.422	331.62
404.645	356.62
404.869	340.62
405.093	350.62
405.317	333.62
405.541	332.62
405.765	342.62
405.988	329.62
406.212	313.62
406.436	336.62
406.66	368.62
406.883	349.62
407.107	366.62
407.331	359.62
407.555	384.62
407.778	396.62
408.002	364.62
408.226	365.62
408.449	334.62
408.673	343.62
408.896	340.62
409.12	347.62
409.344	345.62
409.567	330.62
409.791	338.62
410.014	352.62
410.238	323.62
410.461	347.62
410.685	337.62
410.908	331.62
411.132	341.62
411.355	322.62
411.578	320.62
411.802	341.62
412.025	336.62
412.249	340.62
412.472	330.62
412.695	337.62
412.919	307.62
413.142	312.62
413.365	317.62
413.589	327.62
413.812	331.62
414.035	328.62
414.258	324.62
414.482	326.62
414.705	326.62
414.928	330.62
415.151	329.62
415.374	329.62
415.597	329.62
415.821	298.62
416.044	324.62
416.267	321.62
416.49	305.62
416.713	305.62
416.936	324.62
417.159	322.62
417.382	312.62
417.605	322.62
417.828	310.62
418.051	320.62
418.274	328.62
418.497	323.62
418.72	319.62
418.943	331.62
419.166	332.62
419.389	334.62
419.611	332.62
419.834	340.62
420.057	329.62
420.28	323.62
420.503	329.62
420.726	328.62
420.948	315.62
421.171	328.62
421.394	310.62
421.617	324.62
421.839	305.62
422.062	328.62
422.285	309.62
422.507	320.62
422.73	315.62
422.953	321.62
423.175	317.62
423.398	304.62
423.621	339.62
423.843	327.62
424.066	336.62
424.288	340.62
424.511	329.62
424.733	324.62
424.956	322.62
425.178	334.62
425.401	313.62
425.623	317.62
425.846	318.62
426.068	317.62
426.291	306.62
426.513	302.62
426.735	320.62
426.958	312.62
427.18	294.62
427.402	288.62
427.625	297.62
427.847	294.62
428.069	304.62
428.292	305.62
428.514	298.62
428.736	308.62
428.958	293.62
429.181	289.62
429.403	290.62
429.625	294.62
429.847	287.62
430.069	290.62
430.292	300.62
430.514	283.62
430.736	292.62
430.958	306.62
431.18	316.62
431.402	285.62
431.624	317.62
431.846	301.62
432.068	304.62
432.29	293.62
432.512	292.62
432.734	313.62
432.956	302.62
433.178	317.62
433.4	310.62
433.622	317.62
433.844	298.62
434.066	316.62
434.287	300.62
434.509	304.62
434.731	306.62
434.953	301.62
435.175	310.62
435.397	338.62
435.618	309.62
435.84	306.62
436.062	302.62
436.284	299.62
436.505	293.62
436.727	308.62
436.949	301.62
437.17	312.62
437.392	294.62
437.614	293.62
437.835	309.62
438.057	284.62
438.278	284.62
438.5	298.62
438.721	289.62
438.943	293.62
439.165	298.62
439.386	304.62
439.608	296.62
439.829	304.62
440.05	308.62
440.272	330.62
440.493	311.62
440.715	329.62
440.936	320.62
441.158	315.62
441.379	320.62
441.6	331.62
441.822	331.62
442.043	330.62
442.264	334.62
442.486	317.62
442.707	325.62
442.928	343.62
443.149	344.62
443.371	343.62
443.592	351.62
443.813	337.62
444.034	332.62
444.255	336.62
444.476	366.62
444.698	370.62
444.919	380.62
445.14	471.62
445.361	393.62
445.582	353.62
445.803	346.62
446.024	347.62
446.245	342.62
446.466	330.62
446.687	322.62
446.908	334.62
447.129	340.62
447.35	309.62
447.571	317.62
447.792	314.62
448.013	300.62
448.234	289.62
448.455	290.62
448.675	287.62
448.896	293.62
449.117	288.62
449.338	297.62
449.559	281.62
449.779	289.62
450	305.62
450.221	284.62
450.442	308.62
450.662	293.62
450.883	291.62
451.104	308.62
451.324	306.62
451.545	303.62
451.766	285.62
451.986	284.62
452.207	297.62
452.428	294.62
452.648	297.62
452.869	288.62
453.089	284.62
453.31	284.62
453.53	273.62
453.751	270.62
453.971	263.62
454.192	267.62
454.412	268.62
454.633	291.62
454.853	276.62
455.073	278.62
455.294	285.62
455.514	282.62
455.734	271.62
455.955	288.62
456.175	269.62
456.395	286.62
456.616	273.62
456.836	288.62
457.056	276.62
457.276	255.62
457.497	251.62
457.717	285.62
457.937	280.62
458.157	274.62
458.377	273.62
458.598	267.62
458.818	266.62
459.038	283.62
459.258	292.62
459.478	296.62
459.698	294.62
459.918	308.62
460.138	312.62
460.358	329.62
460.578	346.62
460.798	340.62
461.018	330.62
461.238	333.62
461.458	343.62
461.678	351.62
461.898	345.62
462.118	349.62
462.338	388.62
462.558	379.62
462.777	380.62
462.997	388.62
463.217	418.62
463.437	436.62
463.657	400.62
463.876	381.62
464.096	393.62
464.316	381.62
464.536	396.62
464.755	388.62
464.975	349.62
465.195	341.62
465.414	329.62
465.634	308.62
465.854	318.62
466.073	306.62
466.293	313.62
466.512	306.62
466.732	309.62
466.951	305.62
467.171	286.62
467.391	303.62
467.61	310.62
467.829	297.62
468.049	285.62
468.268	289.62
468.488	286.62
468.707	292.62
468.927	305.62
469.146	293.62
469.365	316.62
469.585	303.62
469.804	298.62
470.023	296.62
470.243	313.62
470.462	307.62
470.681	320.62
470.901	294.62
471.12	314.62
471.339	305.62
471.558	301.62
471.777	301.62
471.997	280.62
472.216	276.62
472.435	277.62
472.654	278.62
472.873	272.62
473.092	276.62
473.311	275.62
473.53	286.62
473.749	278.62
473.968	293.62
474.187	265.62
474.406	282.62
474.625	268.62
474.844	282.62
475.063	285.62
475.282	285.62
475.501	277.62
475.72	276.62
475.939	284.62
476.158	285.62
476.377	288.62
476.596	293.62
476.814	300.62
477.033	290.62
477.252	268.62
477.471	291.62
477.69	290.62
477.908	299.62
478.127	310.62
478.346	328.62
478.564	317.62
478.783	339.62
479.002	327.62
479.22	328.62
479.439	326.62
479.658	314.62
479.876	324.62
480.095	333.62
480.313	357.62
480.532	337.62
480.751	331.62
480.969	340.62
481.188	322.62
481.406	306.62
481.624	312.62
481.843	312.62
482.061	327.62
482.28	309.62
482.498	316.62
482.717	296.62
482.935	308.62
483.153	324.62
483.372	298.62
483.59	311.62
483.808	298.62
484.027	326.62
484.245	321.62
484.463	317.62
484.681	326.62
484.9	331.62
485.118	309.62
485.336	311.62
485.554	312.62
485.772	317.62
485.99	323.62
486.209	328.62
486.427	325.62
486.645	333.62
486.863	322.62
487.081	327.62
487.299	322.62
487.517	324.62
487.735	328.62
487.953	330.62
488.171	319.62
488.389	324.62
488.607	321.62
488.825	298.62
489.043	314.62
489.261	317.62
489.479	301.62
489.696	332.62
489.914	313.62
490.132	309.62
490.35	310.62
490.568	322.62
490.786	337.62
491.003	321.62
491.221	346.62
491.439	349.62
491.657	337.62
491.874	345.62
492.092	340.62
492.31	344.62
492.527	333.62
492.745	330.62
492.963	347.62
493.18	332.62
493.398	345.62
493.615	336.62
493.833	327.62
494.05	331.62
494.268	345.62
494.485	350.62
494.703	328.62
494.92	344.62
495.138	338.62
495.355	332.62
495.573	324.62
495.79	340.62
496.008	347.62
496.225	358.62
496.442	361.62
496.66	356.62
496.877	350.62
497.094	374.62
497.312	372.62
497.529	359.62
497.746	376.62
497.963	374.62
498.181	388.62
498.398	406.62
498.615	420.62
498.832	430.62
499.049	478.62
499.267	485.62
499.484	529.62
499.701	593.62
499.918	641.62
500.135	680.62
500.352	753.62
500.569	785.62
500.786	774.62
501.003	727.62
501.22	672.62
501.437	603.62
501.654	536.62
501.871	490.62
502.088	466.62
502.305	421.62
502.522	436.62
