Data from Fe(NO3)3@0.025M.TitratingCurve.Agarose3%dH2O.NegLispCup.LampEnergy10.LIBS07252019_HRD10591_16-53-49-335.txt Node
Date: Thu Jul 25 16:53:49 EDT 2019
User: cochatt
Spectrometer: HR+D1059
Trigger mode: 1
Integration Time (sec): 1.000000E-1
Scans to average: 1
Electric dark correction enabled: true
Nonlinearity correction enabled: false
Boxcar width: 0
XAxis mode: Wavelengths
Number of Pixels in Spectrum: 2048
>>>>>Begin Spectral Data<<<<<
223.165	-15.5
223.4	-15.5
223.635	-15.5
223.869	-17.5
224.104	-14.5
224.338	-9.5
224.573	-13.5
224.808	-7.5
225.042	-15.5
225.277	-9.5
225.511	-6.5
225.746	3.5
225.98	4.5
226.215	14.5
226.449	8.5
226.683	35.5
226.918	18.5
227.152	24.5
227.387	29.5
227.621	37.5
227.856	38.5
228.09	39.5
228.324	47.5
228.559	38.5
228.793	52.5
229.027	71.5
229.262	85.5
229.496	89.5
229.73	91.5
229.964	92.5
230.199	90.5
230.433	102.5
230.667	89.5
230.901	93.5
231.136	104.5
231.37	102.5
231.604	109.5
231.838	97.5
232.072	98.5
232.306	100.5
232.541	118.5
232.775	100.5
233.009	100.5
233.243	117.5
233.477	106.5
233.711	118.5
233.945	96.5
234.179	117.5
234.413	108.5
234.647	104.5
234.881	97.5
235.115	102.5
235.349	104.5
235.583	111.5
235.817	94.5
236.051	100.5
236.285	120.5
236.519	102.5
236.753	111.5
236.987	118.5
237.221	93.5
237.455	108.5
237.689	101.5
237.922	111.5
238.156	117.5
238.39	117.5
238.624	114.5
238.858	103.5
239.091	110.5
239.325	105.5
239.559	116.5
239.793	106.5
240.027	109.5
240.26	118.5
240.494	123.5
240.728	118.5
240.961	119.5
241.195	124.5
241.429	108.5
241.662	108.5
241.896	131.5
242.13	103.5
242.363	109.5
242.597	124.5
242.83	111.5
243.064	110.5
243.298	118.5
243.531	129.5
243.765	128.5
243.998	123.5
244.232	127.5
244.465	126.5
244.699	125.5
244.932	133.5
245.166	126.5
245.399	132.5
245.633	126.5
245.866	138.5
246.099	123.5
246.333	122.5
246.566	124.5
246.8	146.5
247.033	137.5
247.266	130.5
247.5	137.5
247.733	134.5
247.966	128.5
248.2	140.5
248.433	139.5
248.666	139.5
248.899	152.5
249.133	131.5
249.366	142.5
249.599	151.5
249.832	146.5
250.066	133.5
250.299	161.5
250.532	145.5
250.765	138.5
250.998	136.5
251.231	155.5
251.465	150.5
251.698	141.5
251.931	148.5
252.164	147.5
252.397	137.5
252.63	146.5
252.863	135.5
253.096	146.5
253.329	145.5
253.562	153.5
253.795	162.5
254.028	174.5
254.261	138.5
254.494	169.5
254.727	160.5
254.96	154.5
255.193	143.5
255.426	159.5
255.659	151.5
255.892	154.5
256.124	158.5
256.357	158.5
256.59	161.5
256.823	170.5
257.056	151.5
257.289	152.5
257.521	157.5
257.754	170.5
257.987	166.5
258.22	179.5
258.452	170.5
258.685	166.5
258.918	187.5
259.151	168.5
259.383	176.5
259.616	188.5
259.849	179.5
260.081	178.5
260.314	192.5
260.547	188.5
260.779	173.5
261.012	168.5
261.244	196.5
261.477	184.5
261.71	181.5
261.942	182.5
262.175	185.5
262.407	176.5
262.64	171.5
262.872	170.5
263.105	192.5
263.337	188.5
263.57	206.5
263.802	206.5
264.035	191.5
264.267	175.5
264.499	186.5
264.732	185.5
264.964	192.5
265.197	184.5
265.429	189.5
265.661	208.5
265.894	196.5
266.126	195.5
266.358	199.5
266.591	205.5
266.823	177.5
267.055	186.5
267.287	196.5
267.52	196.5
267.752	192.5
267.984	203.5
268.216	204.5
268.448	184.5
268.681	203.5
268.913	194.5
269.145	198.5
269.377	205.5
269.609	208.5
269.841	197.5
270.073	199.5
270.306	212.5
270.538	210.5
270.77	197.5
271.002	206.5
271.234	204.5
271.466	212.5
271.698	215.5
271.93	235.5
272.162	223.5
272.394	225.5
272.626	222.5
272.858	214.5
273.09	205.5
273.322	236.5
273.553	229.5
273.785	226.5
274.017	226.5
274.249	237.5
274.481	239.5
274.713	228.5
274.945	244.5
275.176	251.5
275.408	246.5
275.64	248.5
275.872	233.5
276.104	239.5
276.335	241.5
276.567	230.5
276.799	229.5
277.031	240.5
277.262	231.5
277.494	232.5
277.726	239.5
277.957	248.5
278.189	222.5
278.421	238.5
278.652	254.5
278.884	229.5
279.115	252.5
279.347	259.5
279.579	260.5
279.81	240.5
280.042	253.5
280.273	244.5
280.505	252.5
280.736	232.5
280.968	254.5
281.199	254.5
281.431	244.5
281.662	256.5
281.894	252.5
282.125	255.5
282.356	253.5
282.588	254.5
282.819	242.5
283.051	257.5
283.282	253.5
283.513	273.5
283.745	272.5
283.976	252.5
284.207	265.5
284.439	256.5
284.67	274.5
284.901	260.5
285.132	259.5
285.364	263.5
285.595	254.5
285.826	271.5
286.057	260.5
286.288	260.5
286.52	264.5
286.751	274.5
286.982	272.5
287.213	274.5
287.444	295.5
287.675	304.5
287.906	280.5
288.138	280.5
288.369	283.5
288.6	266.5
288.831	287.5
289.062	270.5
289.293	272.5
289.524	264.5
289.755	289.5
289.986	280.5
290.217	280.5
290.448	271.5
290.679	280.5
290.91	281.5
291.141	291.5
291.371	297.5
291.602	290.5
291.833	281.5
292.064	291.5
292.295	288.5
292.526	292.5
292.757	292.5
292.987	296.5
293.218	279.5
293.449	296.5
293.68	281.5
293.91	279.5
294.141	292.5
294.372	268.5
294.603	294.5
294.833	298.5
295.064	307.5
295.295	296.5
295.525	273.5
295.756	290.5
295.987	301.5
296.217	297.5
296.448	283.5
296.679	312.5
296.909	288.5
297.14	280.5
297.37	295.5
297.601	314.5
297.831	304.5
298.062	328.5
298.292	290.5
298.523	296.5
298.753	289.5
298.984	294.5
299.214	298.5
299.445	298.5
299.675	289.5
299.905	320.5
300.136	311.5
300.366	314.5
300.597	317.5
300.827	311.5
301.057	297.5
301.288	316.5
301.518	312.5
301.748	337.5
301.979	319.5
302.209	323.5
302.439	317.5
302.669	330.5
302.9	318.5
303.13	309.5
303.36	322.5
303.59	320.5
303.82	351.5
304.051	322.5
304.281	326.5
304.511	329.5
304.741	345.5
304.971	328.5
305.201	334.5
305.431	346.5
305.661	338.5
305.891	340.5
306.121	334.5
306.352	340.5
306.582	336.5
306.812	346.5
307.042	336.5
307.272	319.5
307.502	320.5
307.731	321.5
307.961	361.5
308.191	341.5
308.421	332.5
308.651	341.5
308.881	335.5
309.111	345.5
309.341	330.5
309.571	340.5
309.8	345.5
310.03	343.5
310.26	337.5
310.49	326.5
310.72	348.5
310.949	340.5
311.179	343.5
311.409	351.5
311.639	354.5
311.868	345.5
312.098	350.5
312.328	347.5
312.557	349.5
312.787	367.5
313.017	348.5
313.246	341.5
313.476	340.5
313.706	369.5
313.935	357.5
314.165	371.5
314.394	367.5
314.624	356.5
314.853	352.5
315.083	372.5
315.312	361.5
315.542	336.5
315.771	360.5
316.001	369.5
316.23	365.5
316.46	378.5
316.689	352.5
316.919	360.5
317.148	380.5
317.377	376.5
317.607	357.5
317.836	363.5
318.065	358.5
318.295	363.5
318.524	356.5
318.753	366.5
318.983	392.5
319.212	388.5
319.441	386.5
319.67	364.5
319.9	361.5
320.129	364.5
320.358	376.5
320.587	375.5
320.816	365.5
321.046	368.5
321.275	390.5
321.504	395.5
321.733	385.5
321.962	369.5
322.191	401.5
322.42	385.5
322.649	403.5
322.878	378.5
323.108	373.5
323.337	397.5
323.566	372.5
323.795	393.5
324.024	410.5
324.253	402.5
324.482	386.5
324.71	383.5
324.939	403.5
325.168	393.5
325.397	397.5
325.626	388.5
325.855	397.5
326.084	411.5
326.313	403.5
326.542	397.5
326.77	399.5
326.999	390.5
327.228	393.5
327.457	414.5
327.686	406.5
327.914	397.5
328.143	414.5
328.372	414.5
328.6	409.5
328.829	423.5
329.058	384.5
329.287	385.5
329.515	401.5
329.744	412.5
329.972	398.5
330.201	421.5
330.43	412.5
330.658	409.5
330.887	414.5
331.115	405.5
331.344	416.5
331.572	450.5
331.801	422.5
332.03	437.5
332.258	422.5
332.486	418.5
332.715	431.5
332.943	436.5
333.172	430.5
333.4	436.5
333.629	442.5
333.857	436.5
334.085	435.5
334.314	447.5
334.542	465.5
334.771	452.5
334.999	430.5
335.227	449.5
335.455	461.5
335.684	464.5
335.912	453.5
336.14	461.5
336.369	444.5
336.597	449.5
336.825	432.5
337.053	448.5
337.281	463.5
337.51	443.5
337.738	431.5
337.966	447.5
338.194	449.5
338.422	440.5
338.65	428.5
338.878	432.5
339.106	447.5
339.334	434.5
339.562	449.5
339.79	451.5
340.018	436.5
340.246	434.5
340.474	422.5
340.702	453.5
340.93	446.5
341.158	445.5
341.386	424.5
341.614	416.5
341.842	447.5
342.07	439.5
342.298	439.5
342.526	453.5
342.754	454.5
342.981	445.5
343.209	470.5
343.437	452.5
343.665	455.5
343.893	448.5
344.12	474.5
344.348	455.5
344.576	442.5
344.804	439.5
345.031	432.5
345.259	445.5
345.487	438.5
345.714	453.5
345.942	435.5
346.17	447.5
346.397	449.5
346.625	447.5
346.853	421.5
347.08	416.5
347.308	414.5
347.535	446.5
347.763	449.5
347.99	419.5
348.218	428.5
348.445	415.5
348.673	421.5
348.9	434.5
349.128	442.5
349.355	439.5
349.583	436.5
349.81	424.5
350.037	425.5
350.265	453.5
350.492	425.5
350.72	428.5
350.947	440.5
351.174	431.5
351.402	419.5
351.629	436.5
351.856	428.5
352.083	430.5
352.311	403.5
352.538	415.5
352.765	410.5
352.992	440.5
353.22	432.5
353.447	442.5
353.674	442.5
353.901	421.5
354.128	430.5
354.355	409.5
354.583	432.5
354.81	439.5
355.037	417.5
355.264	431.5
355.491	420.5
355.718	436.5
355.945	436.5
356.172	436.5
356.399	424.5
356.626	419.5
356.853	436.5
357.08	420.5
357.307	430.5
357.534	443.5
357.761	440.5
357.988	440.5
358.215	453.5
358.441	437.5
358.668	420.5
358.895	400.5
359.122	405.5
359.349	411.5
359.576	438.5
359.802	432.5
360.029	425.5
360.256	445.5
360.483	438.5
360.709	433.5
360.936	445.5
361.163	454.5
361.39	440.5
361.616	426.5
361.843	432.5
362.07	450.5
362.296	426.5
362.523	439.5
362.749	428.5
362.976	421.5
363.203	440.5
363.429	434.5
363.656	444.5
363.882	430.5
364.109	434.5
364.335	435.5
364.562	434.5
364.788	437.5
365.015	444.5
365.241	431.5
365.468	442.5
365.694	425.5
365.92	446.5
366.147	409.5
366.373	456.5
366.599	425.5
366.826	451.5
367.052	409.5
367.278	432.5
367.505	450.5
367.731	436.5
367.957	436.5
368.184	453.5
368.41	436.5
368.636	461.5
368.862	446.5
369.089	446.5
369.315	443.5
369.541	463.5
369.767	436.5
369.993	465.5
370.219	473.5
370.445	465.5
370.672	473.5
370.898	452.5
371.124	452.5
371.35	469.5
371.576	445.5
371.802	462.5
372.028	480.5
372.254	485.5
372.48	444.5
372.706	461.5
372.932	476.5
373.158	454.5
373.384	461.5
373.61	468.5
373.835	482.5
374.061	474.5
374.287	490.5
374.513	474.5
374.739	461.5
374.965	466.5
375.191	484.5
375.416	451.5
375.642	465.5
375.868	474.5
376.094	471.5
376.319	468.5
376.545	473.5
376.771	482.5
376.997	468.5
377.222	452.5
377.448	458.5
377.674	475.5
377.899	447.5
378.125	453.5
378.35	458.5
378.576	472.5
378.802	465.5
379.027	448.5
379.253	469.5
379.478	457.5
379.704	462.5
379.929	468.5
380.155	452.5
380.38	474.5
380.606	480.5
380.831	457.5
381.057	482.5
381.282	471.5
381.507	472.5
381.733	482.5
381.958	482.5
382.184	481.5
382.409	485.5
382.634	485.5
382.86	495.5
383.085	479.5
383.31	497.5
383.535	483.5
383.761	500.5
383.986	497.5
384.211	481.5
384.436	474.5
384.662	484.5
384.887	487.5
385.112	496.5
385.337	506.5
385.562	520.5
385.787	520.5
386.013	522.5
386.238	531.5
386.463	523.5
386.688	519.5
386.913	506.5
387.138	530.5
387.363	497.5
387.588	521.5
387.813	521.5
388.038	527.5
388.263	504.5
388.488	530.5
388.713	550.5
388.938	524.5
389.163	510.5
389.387	537.5
389.612	526.5
389.837	527.5
390.062	516.5
390.287	510.5
390.512	518.5
390.736	536.5
390.961	552.5
391.186	541.5
391.411	539.5
391.636	554.5
391.86	537.5
392.085	537.5
392.31	530.5
392.534	541.5
392.759	544.5
392.984	548.5
393.208	546.5
393.433	548.5
393.658	550.5
393.882	541.5
394.107	545.5
394.331	554.5
394.556	531.5
394.78	526.5
395.005	531.5
395.229	549.5
395.454	536.5
395.678	560.5
395.903	543.5
396.127	557.5
396.352	566.5
396.576	544.5
396.801	560.5
397.025	566.5
397.249	560.5
397.474	593.5
397.698	578.5
397.922	590.5
398.147	569.5
398.371	598.5
398.595	594.5
398.82	597.5
399.044	611.5
399.268	589.5
399.492	597.5
399.717	628.5
399.941	653.5
400.165	627.5
400.389	616.5
400.613	620.5
400.837	590.5
401.062	631.5
401.286	610.5
401.51	596.5
401.734	586.5
401.958	597.5
402.182	605.5
402.406	596.5
402.63	582.5
402.854	579.5
403.078	580.5
403.302	615.5
403.526	596.5
403.75	581.5
403.974	582.5
404.198	584.5
404.422	586.5
404.645	585.5
404.869	587.5
405.093	586.5
405.317	609.5
405.541	624.5
405.765	612.5
405.988	598.5
406.212	592.5
406.436	628.5
406.66	635.5
406.883	638.5
407.107	641.5
407.331	623.5
407.555	642.5
407.778	630.5
408.002	650.5
408.226	621.5
408.449	642.5
408.673	639.5
408.896	662.5
409.12	648.5
409.344	625.5
409.567	613.5
409.791	632.5
410.014	644.5
410.238	620.5
410.461	630.5
410.685	618.5
410.908	622.5
411.132	601.5
411.355	597.5
411.578	636.5
411.802	607.5
412.025	612.5
412.249	595.5
412.472	602.5
412.695	592.5
412.919	597.5
413.142	602.5
413.365	598.5
413.589	607.5
413.812	600.5
414.035	574.5
414.258	605.5
414.482	569.5
414.705	597.5
414.928	585.5
415.151	617.5
415.374	585.5
415.597	583.5
415.821	577.5
416.044	570.5
416.267	588.5
416.49	572.5
416.713	557.5
416.936	582.5
417.159	566.5
417.382	550.5
417.605	568.5
417.828	548.5
418.051	560.5
418.274	564.5
418.497	556.5
418.72	566.5
418.943	567.5
419.166	568.5
419.389	607.5
419.611	575.5
419.834	571.5
420.057	577.5
420.28	546.5
420.503	546.5
420.726	546.5
420.948	525.5
421.171	536.5
421.394	548.5
421.617	560.5
421.839	553.5
422.062	578.5
422.285	517.5
422.507	575.5
422.73	552.5
422.953	538.5
423.175	560.5
423.398	566.5
423.621	552.5
423.843	548.5
424.066	536.5
424.288	558.5
424.511	558.5
424.733	563.5
424.956	551.5
425.178	570.5
425.401	546.5
425.623	561.5
425.846	529.5
426.068	562.5
426.291	550.5
426.513	560.5
426.735	532.5
426.958	549.5
427.18	560.5
427.402	562.5
427.625	570.5
427.847	550.5
428.069	540.5
428.292	536.5
428.514	549.5
428.736	547.5
428.958	536.5
429.181	532.5
429.403	537.5
429.625	548.5
429.847	543.5
430.069	544.5
430.292	537.5
430.514	546.5
430.736	556.5
430.958	558.5
431.18	535.5
431.402	549.5
431.624	540.5
431.846	555.5
432.068	541.5
432.29	548.5
432.512	559.5
432.734	557.5
432.956	532.5
433.178	552.5
433.4	553.5
433.622	570.5
433.844	562.5
434.066	545.5
434.287	547.5
434.509	550.5
434.731	574.5
434.953	542.5
435.175	554.5
435.397	543.5
435.618	559.5
435.84	551.5
436.062	547.5
436.284	532.5
436.505	562.5
436.727	548.5
436.949	536.5
437.17	521.5
437.392	540.5
437.614	505.5
437.835	540.5
438.057	535.5
438.278	544.5
438.5	547.5
438.721	543.5
438.943	528.5
439.165	517.5
439.386	522.5
439.608	535.5
439.829	520.5
440.05	526.5
440.272	541.5
440.493	536.5
440.715	543.5
440.936	548.5
441.158	554.5
441.379	523.5
441.6	554.5
441.822	523.5
442.043	558.5
442.264	534.5
442.486	537.5
442.707	531.5
442.928	553.5
443.149	545.5
443.371	531.5
443.592	556.5
443.813	551.5
444.034	540.5
444.255	558.5
444.476	544.5
444.698	575.5
444.919	545.5
445.14	668.5
445.361	574.5
445.582	546.5
445.803	513.5
446.024	533.5
446.245	528.5
446.466	536.5
446.687	519.5
446.908	516.5
447.129	515.5
447.35	534.5
447.571	518.5
447.792	499.5
448.013	521.5
448.234	490.5
448.455	510.5
448.675	517.5
448.896	498.5
449.117	516.5
449.338	517.5
449.559	499.5
449.779	503.5
450	508.5
450.221	482.5
450.442	511.5
450.662	510.5
450.883	492.5
451.104	518.5
451.324	488.5
451.545	477.5
451.766	494.5
451.986	499.5
452.207	485.5
452.428	484.5
452.648	490.5
452.869	504.5
453.089	489.5
453.31	485.5
453.53	490.5
453.751	480.5
453.971	470.5
454.192	490.5
454.412	464.5
454.633	465.5
454.853	487.5
455.073	496.5
455.294	473.5
455.514	462.5
455.734	476.5
455.955	474.5
456.175	483.5
456.395	495.5
456.616	484.5
456.836	502.5
457.056	497.5
457.276	486.5
457.497	502.5
457.717	498.5
457.937	484.5
458.157	484.5
458.377	512.5
458.598	521.5
458.818	519.5
459.038	500.5
459.258	494.5
459.478	524.5
459.698	519.5
459.918	537.5
460.138	509.5
460.358	514.5
460.578	560.5
460.798	541.5
461.018	548.5
461.238	524.5
461.458	542.5
461.678	554.5
461.898	548.5
462.118	557.5
462.338	567.5
462.558	588.5
462.777	567.5
462.997	566.5
463.217	576.5
463.437	588.5
463.657	598.5
463.876	603.5
464.096	583.5
464.316	544.5
464.536	598.5
464.755	598.5
464.975	548.5
465.195	567.5
465.414	566.5
465.634	573.5
465.854	548.5
466.073	549.5
466.293	536.5
466.512	534.5
466.732	557.5
466.951	543.5
467.171	513.5
467.391	520.5
467.61	538.5
467.829	533.5
468.049	535.5
468.268	525.5
468.488	500.5
468.707	507.5
468.927	529.5
469.146	518.5
469.365	524.5
469.585	527.5
469.804	519.5
470.023	503.5
470.243	531.5
470.462	528.5
470.681	542.5
470.901	524.5
471.12	537.5
471.339	532.5
471.558	548.5
471.777	516.5
471.997	539.5
472.216	552.5
472.435	540.5
472.654	527.5
472.873	538.5
473.092	535.5
473.311	529.5
473.53	533.5
473.749	529.5
473.968	545.5
474.187	558.5
474.406	537.5
474.625	559.5
474.844	569.5
475.063	537.5
475.282	561.5
475.501	571.5
475.72	564.5
475.939	536.5
476.158	574.5
476.377	564.5
476.596	562.5
476.814	548.5
477.033	570.5
477.252	563.5
477.471	569.5
477.69	599.5
477.908	586.5
478.127	593.5
478.346	590.5
478.564	589.5
478.783	592.5
479.002	589.5
479.22	591.5
479.439	617.5
479.658	622.5
479.876	630.5
480.095	599.5
480.313	603.5
480.532	621.5
480.751	607.5
480.969	618.5
481.188	628.5
481.406	616.5
481.624	601.5
481.843	629.5
482.061	644.5
482.28	633.5
482.498	620.5
482.717	606.5
482.935	628.5
483.153	631.5
483.372	637.5
483.59	639.5
483.808	639.5
484.027	629.5
484.245	660.5
484.463	655.5
484.681	649.5
484.9	632.5
485.118	636.5
485.336	637.5
485.554	655.5
485.772	636.5
485.99	628.5
486.209	612.5
486.427	643.5
486.645	648.5
486.863	636.5
487.081	635.5
487.299	641.5
487.517	646.5
487.735	663.5
487.953	628.5
488.171	656.5
488.389	676.5
488.607	651.5
488.825	659.5
489.043	661.5
489.261	637.5
489.479	651.5
489.696	655.5
489.914	636.5
490.132	646.5
490.35	675.5
490.568	673.5
490.786	660.5
491.003	646.5
491.221	658.5
491.439	658.5
491.657	665.5
491.874	660.5
492.092	662.5
492.31	681.5
492.527	662.5
492.745	668.5
492.963	692.5
493.18	685.5
493.398	673.5
493.615	672.5
493.833	679.5
494.05	693.5
494.268	675.5
494.485	661.5
494.703	660.5
494.92	704.5
495.138	649.5
495.355	670.5
495.573	699.5
495.79	702.5
496.008	698.5
496.225	703.5
496.442	692.5
496.66	720.5
496.877	704.5
497.094	732.5
497.312	742.5
497.529	761.5
497.746	736.5
497.963	770.5
498.181	772.5
498.398	770.5
498.615	772.5
498.832	814.5
499.049	828.5
499.267	835.5
499.484	848.5
499.701	865.5
499.918	845.5
500.135	890.5
500.352	902.5
500.569	902.5
500.786	894.5
501.003	917.5
501.22	911.5
501.437	871.5
501.654	876.5
501.871	841.5
502.088	820.5
502.305	825.5
502.522	796.5
502.739	766.5
502.956	775.5
503.172	756.5
503.389	745.5
503.606	733.5
503.823	737.5
504.04	730.5
504.256	715.5
504.473	701.5
504.69	708.5
504.907	707.5
505.123	677.5
505.34	712.5
505.557	674.5
505.773	672.5
505.99	673.5
506.207	649.5
506.423	646.5
506.64	637.5
506.856	657.5
507.073	653.5
507.289	626.5
507.506	632.5
507.722	607.5
507.939	634.5
508.155	618.5
508.372	609.5
508.588	617.5
508.805	607.5
509.021	609.5
509.238	596.5
509.454	578.5
509.67	570.5
509.887	584.5
510.103	600.5
510.319	576.5
510.536	597.5
510.752	574.5
510.968	574.5
511.184	574.5
511.401	565.5
511.617	580.5
511.833	553.5
512.049	581.5
512.265	575.5
512.481	575.5
512.698	585.5
512.914	574.5
513.13	576.5
513.346	578.5
513.562	576.5
513.778	593.5
513.994	599.5
514.21	584.5
514.426	582.5
514.642	587.5
514.858	576.5
515.074	571.5
515.29	578.5
515.506	574.5
515.721	597.5
515.937	575.5
516.153	582.5
516.369	586.5
516.585	600.5
516.801	593.5
517.016	608.5
517.232	597.5
517.448	609.5
517.664	612.5
517.879	593.5
518.095	590.5
518.311	633.5
518.527	615.5
518.742	599.5
518.958	572.5
519.173	577.5
519.389	576.5
519.605	589.5
