Data from Fe(NO3)3@0.05M.TitratingCurve.Agarose3%dH2O.NegLispCup.LampEnergy10.LIBS07252019_HRD10591_16-48-20-334.txt Node
Date: Thu Jul 25 16:48:20 EDT 2019
User: cochatt
Spectrometer: HR+D1059
Trigger mode: 1
Integration Time (sec): 1.000000E-1
Scans to average: 1
Electric dark correction enabled: true
Nonlinearity correction enabled: false
Boxcar width: 0
XAxis mode: Wavelengths
Number of Pixels in Spectrum: 2048
>>>>>Begin Spectral Data<<<<<
223.165	-9.38
223.4	-9.38
223.635	-9.38
223.869	-25.38
224.104	-12.38
224.338	-0.38
224.573	-10.38
224.808	-3.38
225.042	-19.38
225.277	-22.38
225.511	-3.38
225.746	-0.38
225.98	2.62
226.215	19.62
226.449	10.62
226.683	16.62
226.918	32.62
227.152	24.62
227.387	31.62
227.621	25.62
227.856	41.62
228.09	49.62
228.324	44.62
228.559	64.62
228.793	59.62
229.027	74.62
229.262	75.62
229.496	77.62
229.73	74.62
229.964	89.62
230.199	75.62
230.433	99.62
230.667	96.62
230.901	77.62
231.136	92.62
231.37	91.62
231.604	97.62
231.838	98.62
232.072	99.62
232.306	96.62
232.541	85.62
232.775	100.62
233.009	92.62
233.243	89.62
233.477	118.62
233.711	91.62
233.945	90.62
234.179	99.62
234.413	105.62
234.647	93.62
234.881	109.62
235.115	81.62
235.349	93.62
235.583	99.62
235.817	107.62
236.051	99.62
236.285	106.62
236.519	86.62
236.753	101.62
236.987	99.62
237.221	99.62
237.455	103.62
237.689	101.62
237.922	98.62
238.156	90.62
238.39	98.62
238.624	81.62
238.858	91.62
239.091	93.62
239.325	99.62
239.559	96.62
239.793	97.62
240.027	99.62
240.26	112.62
240.494	95.62
240.728	103.62
240.961	99.62
241.195	99.62
241.429	94.62
241.662	106.62
241.896	97.62
242.13	90.62
242.363	92.62
242.597	107.62
242.83	111.62
243.064	104.62
243.298	96.62
243.531	99.62
243.765	109.62
243.998	112.62
244.232	108.62
244.465	123.62
244.699	114.62
244.932	106.62
245.166	101.62
245.399	111.62
245.633	119.62
245.866	103.62
246.099	109.62
246.333	112.62
246.566	105.62
246.8	102.62
247.033	103.62
247.266	117.62
247.5	104.62
247.733	103.62
247.966	118.62
248.2	104.62
248.433	116.62
248.666	112.62
248.899	89.62
249.133	111.62
249.366	92.62
249.599	122.62
249.832	99.62
250.066	133.62
250.299	119.62
250.532	126.62
250.765	114.62
250.998	126.62
251.231	122.62
251.465	107.62
251.698	129.62
251.931	117.62
252.164	116.62
252.397	122.62
252.63	135.62
252.863	120.62
253.096	136.62
253.329	135.62
253.562	124.62
253.795	113.62
254.028	115.62
254.261	119.62
254.494	122.62
254.727	123.62
254.96	112.62
255.193	111.62
255.426	133.62
255.659	127.62
255.892	131.62
256.124	135.62
256.357	127.62
256.59	126.62
256.823	123.62
257.056	123.62
257.289	103.62
257.521	124.62
257.754	118.62
257.987	119.62
258.22	119.62
258.452	131.62
258.685	118.62
258.918	116.62
259.151	122.62
259.383	126.62
259.616	125.62
259.849	135.62
260.081	134.62
260.314	135.62
260.547	128.62
260.779	136.62
261.012	142.62
261.244	138.62
261.477	124.62
261.71	134.62
261.942	130.62
262.175	125.62
262.407	139.62
262.64	138.62
262.872	131.62
263.105	139.62
263.337	133.62
263.57	134.62
263.802	119.62
264.035	123.62
264.267	130.62
264.499	144.62
264.732	133.62
264.964	149.62
265.197	143.62
265.429	129.62
265.661	121.62
265.894	133.62
266.126	136.62
266.358	123.62
266.591	123.62
266.823	137.62
267.055	154.62
267.287	134.62
267.52	136.62
267.752	135.62
267.984	135.62
268.216	129.62
268.448	159.62
268.681	132.62
268.913	137.62
269.145	148.62
269.377	141.62
269.609	133.62
269.841	139.62
270.073	147.62
270.306	141.62
270.538	154.62
270.77	157.62
271.002	152.62
271.234	146.62
271.466	153.62
271.698	143.62
271.93	133.62
272.162	157.62
272.394	156.62
272.626	152.62
272.858	154.62
273.09	156.62
273.322	152.62
273.553	147.62
273.785	147.62
274.017	144.62
274.249	151.62
274.481	143.62
274.713	163.62
274.945	169.62
275.176	169.62
275.408	163.62
275.64	162.62
275.872	160.62
276.104	161.62
276.335	135.62
276.567	143.62
276.799	165.62
277.031	143.62
277.262	157.62
277.494	165.62
277.726	150.62
277.957	152.62
278.189	170.62
278.421	145.62
278.652	151.62
278.884	166.62
279.115	155.62
279.347	161.62
279.579	152.62
279.81	166.62
280.042	155.62
280.273	175.62
280.505	153.62
280.736	165.62
280.968	145.62
281.199	167.62
281.431	161.62
281.662	140.62
281.894	170.62
282.125	162.62
282.356	175.62
282.588	169.62
282.819	161.62
283.051	155.62
283.282	160.62
283.513	166.62
283.745	165.62
283.976	175.62
284.207	181.62
284.439	173.62
284.67	159.62
284.901	157.62
285.132	170.62
285.364	172.62
285.595	168.62
285.826	168.62
286.057	150.62
286.288	168.62
286.52	184.62
286.751	168.62
286.982	170.62
287.213	172.62
287.444	168.62
287.675	161.62
287.906	173.62
288.138	166.62
288.369	163.62
288.6	170.62
288.831	169.62
289.062	161.62
289.293	177.62
289.524	154.62
289.755	181.62
289.986	174.62
290.217	158.62
290.448	158.62
290.679	168.62
290.91	177.62
291.141	171.62
291.371	178.62
291.602	164.62
291.833	176.62
292.064	164.62
292.295	183.62
292.526	163.62
292.757	174.62
292.987	170.62
293.218	159.62
293.449	189.62
293.68	186.62
293.91	179.62
294.141	168.62
294.372	176.62
294.603	169.62
294.833	175.62
295.064	172.62
295.295	165.62
295.525	172.62
295.756	194.62
295.987	174.62
296.217	164.62
296.448	176.62
296.679	183.62
296.909	176.62
297.14	187.62
297.37	188.62
297.601	186.62
297.831	178.62
298.062	176.62
298.292	183.62
298.523	202.62
298.753	192.62
298.984	173.62
299.214	171.62
299.445	175.62
299.675	191.62
299.905	185.62
300.136	194.62
300.366	194.62
300.597	186.62
300.827	204.62
301.057	195.62
301.288	183.62
301.518	181.62
301.748	197.62
301.979	197.62
302.209	189.62
302.439	198.62
302.669	197.62
302.9	189.62
303.13	179.62
303.36	191.62
303.59	185.62
303.82	190.62
304.051	181.62
304.281	187.62
304.511	194.62
304.741	203.62
304.971	189.62
305.201	193.62
305.431	171.62
305.661	180.62
305.891	186.62
306.121	195.62
306.352	196.62
306.582	192.62
306.812	176.62
307.042	164.62
307.272	175.62
307.502	199.62
307.731	182.62
307.961	177.62
308.191	178.62
308.421	193.62
308.651	183.62
308.881	189.62
309.111	184.62
309.341	192.62
309.571	200.62
309.8	196.62
310.03	187.62
310.26	201.62
310.49	203.62
310.72	194.62
310.949	197.62
311.179	188.62
311.409	185.62
311.639	201.62
311.868	184.62
312.098	189.62
312.328	198.62
312.557	195.62
312.787	197.62
313.017	207.62
313.246	198.62
313.476	205.62
313.706	189.62
313.935	206.62
314.165	213.62
314.394	187.62
314.624	190.62
314.853	184.62
315.083	182.62
315.312	183.62
315.542	192.62
315.771	201.62
316.001	209.62
316.23	187.62
316.46	183.62
316.689	206.62
316.919	191.62
317.148	191.62
317.377	203.62
317.607	194.62
317.836	188.62
318.065	194.62
318.295	181.62
318.524	193.62
318.753	206.62
318.983	199.62
319.212	208.62
319.441	194.62
319.67	192.62
319.9	177.62
320.129	184.62
320.358	191.62
320.587	183.62
320.816	206.62
321.046	198.62
321.275	205.62
321.504	207.62
321.733	185.62
321.962	204.62
322.191	195.62
322.42	191.62
322.649	196.62
322.878	205.62
323.108	205.62
323.337	204.62
323.566	214.62
323.795	192.62
324.024	198.62
324.253	198.62
324.482	211.62
324.71	205.62
324.939	201.62
325.168	195.62
325.397	215.62
325.626	207.62
325.855	204.62
326.084	212.62
326.313	207.62
326.542	205.62
326.77	195.62
326.999	204.62
327.228	204.62
327.457	191.62
327.686	224.62
327.914	195.62
328.143	221.62
328.372	206.62
328.6	211.62
328.829	202.62
329.058	217.62
329.287	196.62
329.515	230.62
329.744	215.62
329.972	207.62
330.201	198.62
330.43	218.62
330.658	205.62
330.887	220.62
331.115	220.62
331.344	203.62
331.572	222.62
331.801	217.62
332.03	222.62
332.258	232.62
332.486	227.62
332.715	231.62
332.943	219.62
333.172	259.62
333.4	245.62
333.629	256.62
333.857	265.62
334.085	254.62
334.314	267.62
334.542	243.62
334.771	259.62
334.999	253.62
335.227	257.62
335.455	245.62
335.684	244.62
335.912	248.62
336.14	256.62
336.369	243.62
336.597	240.62
336.825	241.62
337.053	232.62
337.281	236.62
337.51	238.62
337.738	221.62
337.966	231.62
338.194	216.62
338.422	236.62
338.65	218.62
338.878	217.62
339.106	243.62
339.334	231.62
339.562	228.62
339.79	221.62
340.018	220.62
340.246	205.62
340.474	218.62
340.702	227.62
340.93	228.62
341.158	231.62
341.386	209.62
341.614	210.62
341.842	219.62
342.07	222.62
342.298	229.62
342.526	208.62
342.754	222.62
342.981	219.62
343.209	230.62
343.437	240.62
343.665	239.62
343.893	227.62
344.12	270.62
344.348	243.62
344.576	230.62
344.804	233.62
345.031	228.62
345.259	219.62
345.487	211.62
345.714	220.62
345.942	220.62
346.17	224.62
346.397	221.62
346.625	220.62
346.853	217.62
347.08	233.62
347.308	206.62
347.535	205.62
347.763	206.62
347.99	218.62
348.218	210.62
348.445	208.62
348.673	216.62
348.9	228.62
349.128	208.62
349.355	218.62
349.583	209.62
349.81	208.62
350.037	204.62
350.265	204.62
350.492	213.62
350.72	207.62
350.947	209.62
351.174	200.62
351.402	195.62
351.629	207.62
351.856	220.62
352.083	202.62
352.311	213.62
352.538	208.62
352.765	221.62
352.992	223.62
353.22	206.62
353.447	228.62
353.674	208.62
353.901	205.62
354.128	208.62
354.355	203.62
354.583	207.62
354.81	213.62
355.037	204.62
355.264	206.62
355.491	213.62
355.718	198.62
355.945	205.62
356.172	212.62
356.399	211.62
356.626	213.62
356.853	228.62
357.08	204.62
357.307	205.62
357.534	195.62
357.761	213.62
357.988	207.62
358.215	209.62
358.441	221.62
358.668	220.62
358.895	199.62
359.122	194.62
359.349	225.62
359.576	201.62
359.802	205.62
360.029	203.62
360.256	210.62
360.483	211.62
360.709	219.62
360.936	222.62
361.163	203.62
361.39	222.62
361.616	211.62
361.843	199.62
362.07	210.62
362.296	210.62
362.523	225.62
362.749	212.62
362.976	209.62
363.203	199.62
363.429	209.62
363.656	216.62
363.882	212.62
364.109	218.62
364.335	204.62
364.562	201.62
364.788	215.62
365.015	231.62
365.241	219.62
365.468	195.62
365.694	215.62
365.92	201.62
366.147	206.62
366.373	217.62
366.599	210.62
366.826	216.62
367.052	218.62
367.278	230.62
367.505	200.62
367.731	224.62
367.957	239.62
368.184	213.62
368.41	223.62
368.636	201.62
368.862	206.62
369.089	224.62
369.315	238.62
369.541	225.62
369.767	236.62
369.993	226.62
370.219	232.62
370.445	211.62
370.672	231.62
370.898	223.62
371.124	233.62
371.35	239.62
371.576	223.62
371.802	223.62
372.028	217.62
372.254	229.62
372.48	245.62
372.706	250.62
372.932	246.62
373.158	245.62
373.384	238.62
373.61	247.62
373.835	233.62
374.061	233.62
374.287	245.62
374.513	231.62
374.739	254.62
374.965	257.62
375.191	256.62
375.416	228.62
375.642	229.62
375.868	238.62
376.094	234.62
376.319	245.62
376.545	236.62
376.771	243.62
376.997	239.62
377.222	247.62
377.448	246.62
377.674	248.62
377.899	244.62
378.125	220.62
378.35	238.62
378.576	236.62
378.802	226.62
379.027	239.62
379.253	242.62
379.478	242.62
379.704	227.62
379.929	239.62
380.155	252.62
380.38	228.62
380.606	247.62
380.831	238.62
381.057	247.62
381.282	248.62
381.507	235.62
381.733	233.62
381.958	254.62
382.184	245.62
382.409	255.62
382.634	259.62
382.86	253.62
383.085	241.62
383.31	243.62
383.535	276.62
383.761	257.62
383.986	255.62
384.211	247.62
384.436	275.62
384.662	263.62
384.887	269.62
385.112	259.62
385.337	285.62
385.562	273.62
385.787	292.62
386.013	300.62
386.238	281.62
386.463	275.62
386.688	288.62
386.913	277.62
387.138	266.62
387.363	277.62
387.588	282.62
387.813	276.62
388.038	266.62
388.263	277.62
388.488	295.62
388.713	279.62
388.938	284.62
389.163	278.62
389.387	297.62
389.612	278.62
389.837	293.62
390.062	248.62
390.287	272.62
390.512	276.62
390.736	281.62
390.961	294.62
391.186	293.62
391.411	301.62
391.636	313.62
391.86	307.62
392.085	294.62
392.31	311.62
392.534	301.62
392.759	311.62
392.984	300.62
393.208	299.62
393.433	296.62
393.658	295.62
393.882	296.62
394.107	304.62
394.331	301.62
394.556	288.62
394.78	296.62
395.005	299.62
395.229	285.62
395.454	313.62
395.678	287.62
395.903	292.62
396.127	301.62
396.352	286.62
396.576	291.62
396.801	307.62
397.025	302.62
397.249	311.62
397.474	307.62
397.698	303.62
397.922	319.62
398.147	317.62
398.371	318.62
398.595	329.62
398.82	324.62
399.044	368.62
399.268	379.62
399.492	428.62
399.717	470.62
399.941	452.62
400.165	415.62
400.389	385.62
400.613	367.62
400.837	347.62
401.062	335.62
401.286	333.62
401.51	350.62
401.734	366.62
401.958	351.62
402.182	340.62
402.406	348.62
402.63	356.62
402.854	347.62
403.078	364.62
403.302	375.62
403.526	369.62
403.75	354.62
403.974	375.62
404.198	379.62
404.422	368.62
404.645	383.62
404.869	385.62
405.093	378.62
405.317	365.62
405.541	359.62
405.765	363.62
405.988	371.62
406.212	369.62
406.436	359.62
406.66	389.62
406.883	377.62
407.107	409.62
407.331	408.62
407.555	410.62
407.778	399.62
408.002	422.62
408.226	386.62
408.449	415.62
408.673	388.62
408.896	400.62
409.12	394.62
409.344	407.62
409.567	404.62
409.791	386.62
410.014	392.62
410.238	376.62
410.461	366.62
410.685	379.62
410.908	373.62
411.132	372.62
411.355	368.62
411.578	363.62
411.802	371.62
412.025	373.62
412.249	364.62
412.472	364.62
412.695	360.62
412.919	344.62
413.142	345.62
413.365	361.62
413.589	333.62
413.812	342.62
414.035	347.62
414.258	358.62
414.482	348.62
414.705	351.62
414.928	357.62
415.151	374.62
415.374	349.62
415.597	359.62
415.821	346.62
416.044	350.62
416.267	333.62
416.49	336.62
416.713	355.62
416.936	346.62
417.159	337.62
417.382	334.62
417.605	350.62
417.828	349.62
418.051	340.62
418.274	360.62
418.497	349.62
418.72	361.62
418.943	362.62
419.166	361.62
419.389	387.62
419.611	385.62
419.834	372.62
420.057	377.62
420.28	339.62
420.503	380.62
420.726	359.62
420.948	361.62
421.171	351.62
421.394	351.62
421.617	341.62
421.839	344.62
422.062	349.62
422.285	343.62
422.507	331.62
422.73	366.62
422.953	334.62
423.175	376.62
423.398	381.62
423.621	344.62
423.843	363.62
424.066	382.62
424.288	361.62
424.511	379.62
424.733	355.62
424.956	364.62
425.178	356.62
425.401	352.62
425.623	351.62
425.846	349.62
426.068	361.62
426.291	346.62
426.513	327.62
426.735	328.62
426.958	343.62
427.18	327.62
427.402	341.62
427.625	332.62
427.847	334.62
428.069	321.62
428.292	336.62
428.514	341.62
428.736	327.62
428.958	331.62
429.181	333.62
429.403	324.62
429.625	316.62
429.847	332.62
430.069	306.62
430.292	327.62
430.514	335.62
430.736	310.62
430.958	323.62
431.18	330.62
431.402	335.62
431.624	315.62
431.846	320.62
432.068	321.62
432.29	325.62
432.512	324.62
432.734	321.62
432.956	344.62
433.178	328.62
433.4	351.62
433.622	319.62
433.844	322.62
434.066	337.62
434.287	319.62
434.509	335.62
434.731	377.62
434.953	351.62
435.175	347.62
435.397	344.62
435.618	346.62
435.84	334.62
436.062	341.62
436.284	348.62
436.505	337.62
436.727	335.62
436.949	337.62
437.17	350.62
437.392	325.62
437.614	333.62
437.835	315.62
438.057	319.62
438.278	316.62
438.5	324.62
438.721	336.62
438.943	337.62
439.165	323.62
439.386	320.62
439.608	334.62
439.829	330.62
440.05	344.62
440.272	349.62
440.493	344.62
440.715	340.62
440.936	360.62
441.158	362.62
441.379	360.62
441.6	353.62
441.822	364.62
442.043	371.62
442.264	348.62
442.486	356.62
442.707	368.62
442.928	379.62
443.149	358.62
443.371	387.62
443.592	357.62
443.813	379.62
444.034	365.62
444.255	368.62
444.476	397.62
444.698	398.62
444.919	422.62
445.14	544.62
445.361	438.62
445.582	387.62
445.803	372.62
446.024	347.62
446.245	357.62
446.466	341.62
446.687	350.62
446.908	343.62
447.129	318.62
447.35	342.62
447.571	344.62
447.792	328.62
448.013	308.62
448.234	339.62
448.455	332.62
448.675	342.62
448.896	336.62
449.117	310.62
449.338	329.62
449.559	318.62
449.779	309.62
450	307.62
450.221	332.62
450.442	321.62
450.662	336.62
450.883	333.62
451.104	320.62
451.324	325.62
451.545	351.62
451.766	335.62
451.986	327.62
452.207	310.62
452.428	311.62
452.648	312.62
452.869	315.62
453.089	304.62
453.31	305.62
453.53	301.62
453.751	313.62
453.971	304.62
454.192	313.62
454.412	313.62
454.633	317.62
454.853	295.62
455.073	284.62
455.294	307.62
455.514	317.62
455.734	303.62
455.955	299.62
456.175	296.62
456.395	291.62
456.616	307.62
456.836	299.62
457.056	303.62
457.276	298.62
457.497	283.62
457.717	301.62
457.937	301.62
458.157	292.62
458.377	294.62
458.598	292.62
458.818	322.62
459.038	296.62
459.258	316.62
459.478	329.62
459.698	337.62
459.918	332.62
460.138	353.62
460.358	365.62
460.578	381.62
460.798	377.62
461.018	398.62
461.238	373.62
461.458	382.62
461.678	381.62
461.898	377.62
462.118	395.62
462.338	419.62
462.558	430.62
462.777	437.62
462.997	423.62
463.217	465.62
463.437	461.62
463.657	442.62
463.876	443.62
464.096	424.62
464.316	416.62
464.536	433.62
464.755	412.62
464.975	400.62
465.195	392.62
465.414	353.62
465.634	339.62
465.854	369.62
466.073	345.62
466.293	341.62
466.512	321.62
466.732	324.62
466.951	340.62
467.171	324.62
467.391	338.62
467.61	347.62
467.829	319.62
468.049	336.62
468.268	319.62
468.488	325.62
468.707	322.62
468.927	324.62
469.146	333.62
469.365	321.62
469.585	347.62
469.804	330.62
470.023	331.62
470.243	342.62
470.462	341.62
470.681	348.62
470.901	347.62
471.12	336.62
471.339	316.62
471.558	327.62
471.777	331.62
471.997	329.62
472.216	314.62
472.435	305.62
472.654	316.62
472.873	291.62
473.092	311.62
473.311	306.62
473.53	318.62
473.749	319.62
473.968	329.62
474.187	301.62
474.406	293.62
474.625	327.62
474.844	313.62
475.063	318.62
475.282	320.62
475.501	322.62
475.72	319.62
475.939	314.62
476.158	300.62
476.377	314.62
476.596	321.62
476.814	324.62
477.033	331.62
477.252	331.62
477.471	354.62
477.69	340.62
477.908	320.62
478.127	363.62
478.346	356.62
478.564	377.62
478.783	348.62
479.002	363.62
479.22	367.62
479.439	374.62
479.658	383.62
479.876	371.62
480.095	367.62
480.313	368.62
480.532	390.62
480.751	380.62
480.969	369.62
481.188	341.62
481.406	350.62
481.624	348.62
481.843	335.62
482.061	361.62
482.28	357.62
482.498	332.62
482.717	334.62
482.935	341.62
483.153	363.62
483.372	345.62
483.59	355.62
483.808	341.62
484.027	341.62
484.245	370.62
484.463	343.62
484.681	361.62
484.9	345.62
485.118	358.62
485.336	362.62
485.554	367.62
485.772	352.62
485.99	363.62
486.209	366.62
486.427	365.62
486.645	352.62
486.863	383.62
487.081	363.62
487.299	373.62
487.517	371.62
487.735	381.62
487.953	389.62
488.171	349.62
488.389	375.62
488.607	352.62
488.825	343.62
489.043	339.62
489.261	374.62
489.479	366.62
489.696	347.62
489.914	365.62
490.132	372.62
490.35	364.62
490.568	351.62
490.786	350.62
491.003	383.62
491.221	359.62
491.439	373.62
491.657	377.62
491.874	389.62
492.092	360.62
492.31	385.62
492.527	365.62
492.745	384.62
492.963	391.62
493.18	400.62
493.398	364.62
493.615	381.62
493.833	393.62
494.05	366.62
494.268	377.62
494.485	374.62
494.703	401.62
494.92	380.62
495.138	378.62
495.355	379.62
495.573	390.62
495.79	395.62
496.008	383.62
496.225	376.62
496.442	367.62
496.66	401.62
496.877	404.62
497.094	407.62
497.312	405.62
497.529	406.62
497.746	431.62
497.963	435.62
498.181	452.62
498.398	437.62
498.615	475.62
498.832	488.62
499.049	540.62
499.267	553.62
499.484	603.62
499.701	644.62
499.918	692.62
500.135	771.62
500.352	855.62
500.569	891.62
500.786	847.62
501.003	804.62
501.22	721.62
501.437	665.62
501.654	639.62
501.871	556.62
502.088	543.62
502.305	515.62
