Data from Fe(NO3)3@0.025M.TitratingCurve.Agarose3%dH2O.NegLispCup.LampEnergy10.LIBS07252019_HRD10591_16-55-20-336.txt Node
Date: Thu Jul 25 16:55:20 EDT 2019
User: cochatt
Spectrometer: HR+D1059
Trigger mode: 1
Integration Time (sec): 1.000000E-1
Scans to average: 1
Electric dark correction enabled: true
Nonlinearity correction enabled: false
Boxcar width: 0
XAxis mode: Wavelengths
Number of Pixels in Spectrum: 2048
>>>>>Begin Spectral Data<<<<<
223.165	-4.5
223.4	-4.5
223.635	-4.5
223.869	-5.5
224.104	-21.5
224.338	-13.5
224.573	-14.5
224.808	-20.5
225.042	-13.5
225.277	-11.5
225.511	-8.5
225.746	2.5
225.98	-5.5
226.215	5.5
226.449	14.5
226.683	35.5
226.918	23.5
227.152	37.5
227.387	38.5
227.621	32.5
227.856	52.5
228.09	49.5
228.324	45.5
228.559	48.5
228.793	63.5
229.027	65.5
229.262	86.5
229.496	86.5
229.73	93.5
229.964	91.5
230.199	79.5
230.433	101.5
230.667	88.5
230.901	91.5
231.136	103.5
231.37	91.5
231.604	101.5
231.838	120.5
232.072	89.5
232.306	97.5
232.541	99.5
232.775	106.5
233.009	90.5
233.243	109.5
233.477	92.5
233.711	114.5
233.945	106.5
234.179	101.5
234.413	93.5
234.647	103.5
234.881	107.5
235.115	95.5
235.349	111.5
235.583	94.5
235.817	109.5
236.051	114.5
236.285	109.5
236.519	124.5
236.753	102.5
236.987	117.5
237.221	99.5
237.455	112.5
237.689	111.5
237.922	115.5
238.156	111.5
238.39	101.5
238.624	115.5
238.858	116.5
239.091	112.5
239.325	117.5
239.559	124.5
239.793	103.5
240.027	102.5
240.26	119.5
240.494	120.5
240.728	107.5
240.961	106.5
241.195	112.5
241.429	115.5
241.662	110.5
241.896	120.5
242.13	112.5
242.363	116.5
242.597	112.5
242.83	120.5
243.064	114.5
243.298	128.5
243.531	111.5
243.765	111.5
243.998	128.5
244.232	132.5
244.465	124.5
244.699	120.5
244.932	121.5
245.166	114.5
245.399	119.5
245.633	121.5
245.866	126.5
246.099	130.5
246.333	118.5
246.566	145.5
246.8	128.5
247.033	120.5
247.266	103.5
247.5	132.5
247.733	138.5
247.966	125.5
248.2	150.5
248.433	132.5
248.666	126.5
248.899	126.5
249.133	134.5
249.366	123.5
249.599	122.5
249.832	135.5
250.066	132.5
250.299	132.5
250.532	127.5
250.765	146.5
250.998	144.5
251.231	119.5
251.465	137.5
251.698	128.5
251.931	140.5
252.164	148.5
252.397	144.5
252.63	157.5
252.863	128.5
253.096	140.5
253.329	144.5
253.562	151.5
253.795	162.5
254.028	160.5
254.261	156.5
254.494	141.5
254.727	145.5
254.96	150.5
255.193	140.5
255.426	152.5
255.659	138.5
255.892	150.5
256.124	157.5
256.357	153.5
256.59	151.5
256.823	134.5
257.056	150.5
257.289	158.5
257.521	153.5
257.754	148.5
257.987	153.5
258.22	156.5
258.452	150.5
258.685	170.5
258.918	151.5
259.151	145.5
259.383	141.5
259.616	144.5
259.849	155.5
260.081	160.5
260.314	148.5
260.547	173.5
260.779	165.5
261.012	161.5
261.244	165.5
261.477	175.5
261.71	161.5
261.942	164.5
262.175	178.5
262.407	165.5
262.64	173.5
262.872	164.5
263.105	162.5
263.337	164.5
263.57	154.5
263.802	170.5
264.035	147.5
264.267	157.5
264.499	159.5
264.732	169.5
264.964	158.5
265.197	168.5
265.429	165.5
265.661	170.5
265.894	180.5
266.126	170.5
266.358	178.5
266.591	162.5
266.823	186.5
267.055	181.5
267.287	173.5
267.52	174.5
267.752	168.5
267.984	182.5
268.216	183.5
268.448	188.5
268.681	178.5
268.913	175.5
269.145	186.5
269.377	170.5
269.609	171.5
269.841	187.5
270.073	171.5
270.306	179.5
270.538	192.5
270.77	189.5
271.002	164.5
271.234	184.5
271.466	187.5
271.698	189.5
271.93	202.5
272.162	191.5
272.394	192.5
272.626	184.5
272.858	188.5
273.09	176.5
273.322	189.5
273.553	195.5
273.785	184.5
274.017	184.5
274.249	185.5
274.481	195.5
274.713	203.5
274.945	198.5
275.176	196.5
275.408	199.5
275.64	205.5
275.872	206.5
276.104	173.5
276.335	201.5
276.567	186.5
276.799	208.5
277.031	207.5
277.262	205.5
277.494	207.5
277.726	215.5
277.957	219.5
278.189	204.5
278.421	205.5
278.652	199.5
278.884	215.5
279.115	206.5
279.347	206.5
279.579	216.5
279.81	202.5
280.042	187.5
280.273	206.5
280.505	203.5
280.736	198.5
280.968	197.5
281.199	216.5
281.431	213.5
281.662	231.5
281.894	223.5
282.125	200.5
282.356	217.5
282.588	212.5
282.819	230.5
283.051	204.5
283.282	217.5
283.513	234.5
283.745	221.5
283.976	245.5
284.207	230.5
284.439	214.5
284.67	235.5
284.901	242.5
285.132	230.5
285.364	236.5
285.595	225.5
285.826	238.5
286.057	225.5
286.288	227.5
286.52	215.5
286.751	233.5
286.982	241.5
287.213	250.5
287.444	250.5
287.675	224.5
287.906	234.5
288.138	225.5
288.369	246.5
288.6	252.5
288.831	219.5
289.062	224.5
289.293	251.5
289.524	252.5
289.755	235.5
289.986	236.5
290.217	228.5
290.448	246.5
290.679	249.5
290.91	233.5
291.141	238.5
291.371	249.5
291.602	253.5
291.833	235.5
292.064	230.5
292.295	256.5
292.526	236.5
292.757	251.5
292.987	231.5
293.218	253.5
293.449	256.5
293.68	258.5
293.91	247.5
294.141	239.5
294.372	253.5
294.603	249.5
294.833	238.5
295.064	254.5
295.295	234.5
295.525	249.5
295.756	263.5
295.987	267.5
296.217	236.5
296.448	262.5
296.679	261.5
296.909	258.5
297.14	261.5
297.37	253.5
297.601	263.5
297.831	267.5
298.062	267.5
298.292	280.5
298.523	292.5
298.753	251.5
298.984	282.5
299.214	282.5
299.445	275.5
299.675	268.5
299.905	277.5
300.136	300.5
300.366	287.5
300.597	275.5
300.827	266.5
301.057	271.5
301.288	272.5
301.518	270.5
301.748	287.5
301.979	279.5
302.209	286.5
302.439	286.5
302.669	272.5
302.9	291.5
303.13	270.5
303.36	280.5
303.59	284.5
303.82	288.5
304.051	309.5
304.281	308.5
304.511	275.5
304.741	272.5
304.971	298.5
305.201	269.5
305.431	304.5
305.661	286.5
305.891	274.5
306.121	286.5
306.352	283.5
306.582	286.5
306.812	292.5
307.042	296.5
307.272	289.5
307.502	276.5
307.731	290.5
307.961	287.5
308.191	292.5
308.421	268.5
308.651	278.5
308.881	283.5
309.111	293.5
309.341	286.5
309.571	292.5
309.8	287.5
310.03	275.5
310.26	283.5
310.49	293.5
310.72	280.5
310.949	300.5
311.179	290.5
311.409	316.5
311.639	295.5
311.868	288.5
312.098	312.5
312.328	300.5
312.557	319.5
312.787	310.5
313.017	303.5
313.246	299.5
313.476	304.5
313.706	314.5
313.935	316.5
314.165	310.5
314.394	301.5
314.624	303.5
314.853	303.5
315.083	317.5
315.312	317.5
315.542	310.5
315.771	294.5
316.001	301.5
316.23	331.5
316.46	322.5
316.689	332.5
316.919	323.5
317.148	329.5
317.377	295.5
317.607	320.5
317.836	291.5
318.065	309.5
318.295	297.5
318.524	323.5
318.753	323.5
318.983	314.5
319.212	294.5
319.441	318.5
319.67	316.5
319.9	317.5
320.129	302.5
320.358	287.5
320.587	320.5
320.816	328.5
321.046	323.5
321.275	332.5
321.504	323.5
321.733	303.5
321.962	306.5
322.191	318.5
322.42	315.5
322.649	321.5
322.878	334.5
323.108	317.5
323.337	317.5
323.566	322.5
323.795	333.5
324.024	324.5
324.253	309.5
324.482	327.5
324.71	336.5
324.939	354.5
325.168	354.5
325.397	317.5
325.626	332.5
325.855	321.5
326.084	324.5
326.313	335.5
326.542	356.5
326.77	356.5
326.999	330.5
327.228	332.5
327.457	343.5
327.686	347.5
327.914	340.5
328.143	334.5
328.372	346.5
328.6	351.5
328.829	342.5
329.058	326.5
329.287	359.5
329.515	351.5
329.744	341.5
329.972	337.5
330.201	365.5
330.43	337.5
330.658	348.5
330.887	355.5
331.115	355.5
331.344	345.5
331.572	335.5
331.801	371.5
332.03	358.5
332.258	369.5
332.486	382.5
332.715	391.5
332.943	392.5
333.172	403.5
333.4	433.5
333.629	422.5
333.857	434.5
334.085	441.5
334.314	428.5
334.542	416.5
334.771	431.5
334.999	436.5
335.227	402.5
335.455	404.5
335.684	416.5
335.912	403.5
336.14	399.5
336.369	407.5
336.597	383.5
336.825	389.5
337.053	400.5
337.281	415.5
337.51	400.5
337.738	403.5
337.966	387.5
338.194	384.5
338.422	380.5
338.65	378.5
338.878	392.5
339.106	370.5
339.334	356.5
339.562	378.5
339.79	367.5
340.018	366.5
340.246	371.5
340.474	372.5
340.702	367.5
340.93	379.5
341.158	373.5
341.386	374.5
341.614	383.5
341.842	368.5
342.07	378.5
342.298	375.5
342.526	356.5
342.754	366.5
342.981	377.5
343.209	365.5
343.437	416.5
343.665	417.5
343.893	417.5
344.12	435.5
344.348	422.5
344.576	390.5
344.804	402.5
345.031	367.5
345.259	380.5
345.487	378.5
345.714	349.5
345.942	371.5
346.17	346.5
346.397	370.5
346.625	382.5
346.853	356.5
347.08	361.5
347.308	348.5
347.535	364.5
347.763	334.5
347.99	347.5
348.218	352.5
348.445	360.5
348.673	356.5
348.9	366.5
349.128	352.5
349.355	341.5
349.583	357.5
349.81	351.5
350.037	352.5
350.265	366.5
350.492	338.5
350.72	342.5
350.947	351.5
351.174	349.5
351.402	354.5
351.629	348.5
351.856	350.5
352.083	358.5
352.311	350.5
352.538	363.5
352.765	358.5
352.992	349.5
353.22	345.5
353.447	352.5
353.674	366.5
353.901	354.5
354.128	354.5
354.355	355.5
354.583	359.5
354.81	370.5
355.037	356.5
355.264	356.5
355.491	371.5
355.718	357.5
355.945	363.5
356.172	378.5
356.399	346.5
356.626	361.5
356.853	352.5
357.08	363.5
357.307	350.5
357.534	345.5
357.761	361.5
357.988	372.5
358.215	367.5
358.441	362.5
358.668	344.5
358.895	354.5
359.122	379.5
359.349	358.5
359.576	346.5
359.802	357.5
360.029	366.5
360.256	367.5
360.483	371.5
360.709	380.5
360.936	374.5
361.163	350.5
361.39	355.5
361.616	366.5
361.843	359.5
362.07	364.5
362.296	355.5
362.523	357.5
362.749	347.5
362.976	360.5
363.203	378.5
363.429	366.5
363.656	351.5
363.882	364.5
364.109	368.5
364.335	366.5
364.562	356.5
364.788	373.5
365.015	356.5
365.241	378.5
365.468	362.5
365.694	366.5
365.92	366.5
366.147	379.5
366.373	370.5
366.599	374.5
366.826	362.5
367.052	352.5
367.278	374.5
367.505	379.5
367.731	359.5
367.957	368.5
368.184	376.5
368.41	363.5
368.636	374.5
368.862	376.5
369.089	364.5
369.315	370.5
369.541	390.5
369.767	372.5
369.993	381.5
370.219	377.5
370.445	380.5
370.672	388.5
370.898	374.5
371.124	379.5
371.35	390.5
371.576	386.5
371.802	404.5
372.028	370.5
372.254	415.5
372.48	390.5
372.706	408.5
372.932	398.5
373.158	395.5
373.384	405.5
373.61	398.5
373.835	405.5
374.061	382.5
374.287	407.5
374.513	407.5
374.739	421.5
374.965	426.5
375.191	420.5
375.416	405.5
375.642	412.5
375.868	415.5
376.094	400.5
376.319	422.5
376.545	404.5
376.771	394.5
376.997	376.5
377.222	393.5
377.448	384.5
377.674	385.5
377.899	362.5
378.125	388.5
378.35	406.5
378.576	403.5
378.802	409.5
379.027	409.5
379.253	401.5
379.478	385.5
379.704	388.5
379.929	388.5
380.155	391.5
380.38	382.5
380.606	398.5
380.831	388.5
381.057	385.5
381.282	409.5
381.507	394.5
381.733	399.5
381.958	401.5
382.184	412.5
382.409	415.5
382.634	412.5
382.86	413.5
383.085	408.5
383.31	406.5
383.535	415.5
383.761	418.5
383.986	416.5
384.211	455.5
384.436	459.5
384.662	431.5
384.887	446.5
385.112	431.5
385.337	441.5
385.562	451.5
385.787	453.5
386.013	471.5
386.238	459.5
386.463	443.5
386.688	461.5
386.913	455.5
387.138	449.5
387.363	462.5
387.588	469.5
387.813	467.5
388.038	446.5
388.263	453.5
388.488	476.5
388.713	462.5
388.938	457.5
389.163	449.5
389.387	454.5
389.612	442.5
389.837	448.5
390.062	452.5
390.287	470.5
390.512	467.5
390.736	471.5
390.961	490.5
391.186	467.5
391.411	482.5
391.636	478.5
391.86	478.5
392.085	498.5
392.31	511.5
392.534	497.5
392.759	473.5
392.984	463.5
393.208	483.5
393.433	464.5
393.658	476.5
393.882	480.5
394.107	493.5
394.331	485.5
394.556	482.5
394.78	479.5
395.005	518.5
395.229	491.5
395.454	518.5
395.678	516.5
395.903	514.5
396.127	515.5
396.352	479.5
396.576	484.5
396.801	480.5
397.025	490.5
397.249	502.5
397.474	504.5
397.698	516.5
397.922	519.5
398.147	535.5
398.371	529.5
398.595	549.5
398.82	568.5
399.044	604.5
399.268	650.5
399.492	715.5
399.717	700.5
399.941	734.5
400.165	677.5
400.389	670.5
400.613	616.5
400.837	582.5
401.062	569.5
401.286	578.5
401.51	584.5
401.734	554.5
401.958	566.5
402.182	546.5
402.406	564.5
402.63	571.5
402.854	594.5
403.078	585.5
403.302	596.5
403.526	583.5
403.75	587.5
403.974	621.5
404.198	589.5
404.422	598.5
404.645	609.5
404.869	590.5
405.093	600.5
405.317	594.5
405.541	594.5
405.765	571.5
405.988	594.5
406.212	596.5
406.436	579.5
406.66	603.5
406.883	599.5
407.107	634.5
407.331	670.5
407.555	680.5
407.778	657.5
408.002	640.5
408.226	635.5
408.449	626.5
408.673	609.5
408.896	611.5
409.12	586.5
409.344	601.5
409.567	589.5
409.791	580.5
410.014	592.5
410.238	613.5
410.461	599.5
410.685	606.5
410.908	562.5
411.132	586.5
411.355	558.5
411.578	592.5
411.802	570.5
412.025	571.5
412.249	563.5
412.472	596.5
412.695	573.5
412.919	565.5
413.142	542.5
413.365	538.5
413.589	562.5
413.812	556.5
414.035	546.5
414.258	541.5
414.482	559.5
414.705	556.5
414.928	546.5
415.151	554.5
415.374	542.5
415.597	549.5
415.821	536.5
416.044	526.5
416.267	526.5
416.49	539.5
416.713	561.5
416.936	523.5
417.159	520.5
417.382	519.5
417.605	539.5
417.828	536.5
418.051	527.5
418.274	540.5
418.497	543.5
418.72	557.5
418.943	540.5
419.166	558.5
419.389	595.5
419.611	586.5
419.834	567.5
420.057	550.5
420.28	550.5
420.503	538.5
420.726	537.5
420.948	530.5
421.171	528.5
421.394	530.5
421.617	521.5
421.839	532.5
422.062	538.5
422.285	531.5
422.507	543.5
422.73	538.5
422.953	541.5
423.175	552.5
423.398	539.5
423.621	530.5
423.843	561.5
424.066	549.5
424.288	529.5
424.511	546.5
424.733	526.5
424.956	539.5
425.178	533.5
425.401	532.5
425.623	516.5
425.846	537.5
426.068	524.5
426.291	514.5
426.513	515.5
426.735	529.5
426.958	524.5
427.18	502.5
427.402	526.5
427.625	519.5
427.847	515.5
428.069	499.5
428.292	495.5
428.514	526.5
428.736	477.5
428.958	499.5
429.181	482.5
429.403	484.5
429.625	498.5
429.847	487.5
430.069	486.5
430.292	476.5
430.514	485.5
430.736	510.5
430.958	506.5
431.18	484.5
431.402	472.5
431.624	498.5
431.846	490.5
432.068	468.5
432.29	509.5
432.512	491.5
432.734	500.5
432.956	500.5
433.178	498.5
433.4	462.5
433.622	492.5
433.844	492.5
434.066	505.5
434.287	525.5
434.509	519.5
434.731	517.5
434.953	543.5
435.175	513.5
435.397	513.5
435.618	508.5
435.84	492.5
436.062	489.5
436.284	487.5
436.505	489.5
436.727	497.5
436.949	478.5
437.17	499.5
437.392	476.5
437.614	482.5
437.835	483.5
438.057	464.5
438.278	478.5
438.5	476.5
438.721	453.5
438.943	450.5
439.165	455.5
439.386	484.5
439.608	481.5
439.829	484.5
440.05	487.5
440.272	484.5
440.493	474.5
440.715	485.5
440.936	494.5
441.158	491.5
441.379	497.5
441.6	542.5
441.822	541.5
442.043	510.5
442.264	540.5
442.486	528.5
442.707	522.5
442.928	522.5
443.149	534.5
443.371	514.5
443.592	544.5
443.813	537.5
444.034	540.5
444.255	527.5
444.476	557.5
444.698	595.5
444.919	589.5
445.14	664.5
445.361	598.5
445.582	558.5
445.803	542.5
446.024	514.5
446.245	516.5
446.466	492.5
446.687	488.5
446.908	467.5
447.129	479.5
447.35	458.5
447.571	473.5
447.792	459.5
448.013	447.5
448.234	444.5
448.455	446.5
448.675	455.5
448.896	440.5
449.117	454.5
449.338	438.5
449.559	429.5
449.779	453.5
450	454.5
450.221	453.5
450.442	461.5
450.662	464.5
450.883	447.5
451.104	453.5
451.324	442.5
451.545	454.5
451.766	448.5
451.986	454.5
452.207	424.5
452.428	454.5
452.648	443.5
452.869	404.5
453.089	432.5
453.31	433.5
453.53	439.5
453.751	456.5
453.971	418.5
454.192	434.5
454.412	430.5
454.633	432.5
454.853	427.5
455.073	425.5
455.294	424.5
455.514	436.5
455.734	423.5
455.955	423.5
456.175	435.5
456.395	426.5
456.616	431.5
456.836	420.5
457.056	418.5
457.276	451.5
457.497	432.5
457.717	448.5
457.937	439.5
458.157	431.5
458.377	448.5
458.598	448.5
458.818	458.5
459.038	472.5
459.258	491.5
459.478	484.5
459.698	506.5
459.918	510.5
460.138	507.5
460.358	526.5
460.578	545.5
460.798	553.5
461.018	554.5
461.238	566.5
461.458	566.5
461.678	557.5
461.898	605.5
462.118	572.5
462.338	580.5
462.558	586.5
462.777	617.5
462.997	627.5
463.217	682.5
463.437	667.5
463.657	656.5
463.876	638.5
464.096	616.5
464.316	597.5
464.536	614.5
464.755	619.5
464.975	617.5
465.195	540.5
465.414	532.5
465.634	518.5
465.854	495.5
466.073	499.5
466.293	486.5
466.512	499.5
466.732	464.5
466.951	456.5
467.171	476.5
467.391	469.5
467.61	469.5
467.829	464.5
468.049	469.5
468.268	460.5
468.488	456.5
468.707	472.5
468.927	468.5
469.146	463.5
469.365	479.5
469.585	450.5
469.804	459.5
470.023	465.5
470.243	495.5
470.462	482.5
470.681	488.5
470.901	488.5
471.12	490.5
471.339	470.5
471.558	475.5
471.777	479.5
471.997	474.5
472.216	468.5
472.435	454.5
472.654	464.5
472.873	459.5
473.092	472.5
473.311	479.5
473.53	457.5
473.749	466.5
473.968	453.5
474.187	475.5
474.406	452.5
474.625	463.5
474.844	474.5
475.063	438.5
475.282	450.5
475.501	459.5
475.72	463.5
475.939	467.5
476.158	473.5
476.377	469.5
476.596	468.5
476.814	509.5
477.033	495.5
477.252	494.5
477.471	500.5
477.69	516.5
477.908	510.5
478.127	532.5
478.346	531.5
478.564	548.5
478.783	544.5
479.002	539.5
479.22	533.5
479.439	552.5
479.658	569.5
479.876	545.5
480.095	558.5
480.313	571.5
480.532	578.5
480.751	590.5
480.969	556.5
481.188	546.5
481.406	544.5
481.624	558.5
481.843	546.5
482.061	528.5
482.28	539.5
482.498	532.5
482.717	519.5
482.935	519.5
483.153	533.5
483.372	516.5
483.59	527.5
483.808	514.5
484.027	537.5
484.245	516.5
484.463	534.5
484.681	549.5
484.9	542.5
485.118	554.5
485.336	530.5
485.554	548.5
485.772	538.5
485.99	538.5
486.209	540.5
486.427	536.5
486.645	543.5
486.863	535.5
487.081	522.5
487.299	546.5
487.517	548.5
487.735	535.5
487.953	564.5
488.171	554.5
488.389	560.5
488.607	555.5
488.825	513.5
489.043	522.5
489.261	519.5
489.479	533.5
489.696	553.5
489.914	543.5
490.132	550.5
490.35	551.5
490.568	530.5
490.786	550.5
491.003	541.5
491.221	545.5
491.439	562.5
491.657	550.5
491.874	556.5
492.092	548.5
492.31	552.5
492.527	546.5
492.745	545.5
492.963	564.5
493.18	564.5
493.398	566.5
493.615	559.5
493.833	545.5
494.05	577.5
494.268	575.5
494.485	603.5
494.703	579.5
494.92	575.5
495.138	581.5
495.355	612.5
495.573	595.5
495.79	611.5
496.008	608.5
496.225	599.5
496.442	594.5
496.66	596.5
496.877	604.5
497.094	620.5
497.312	641.5
497.529	662.5
497.746	676.5
497.963	686.5
498.181	712.5
498.398	748.5
498.615	752.5
498.832	806.5
499.049	839.5
499.267	884.5
499.484	978.5
499.701	1038.5
499.918	1115.5
500.135	1223.5
500.352	1289.5
500.569	1285.5
500.786	1276.5
501.003	1253.5
501.22	1144.5
501.437	1061.5
501.654	1005.5
501.871	904.5
502.088	838.5
502.305	808.5
502.522	796.5
502.739	767.5
502.956	744.5
503.172	709.5
503.389	701.5
503.606	663.5
503.823	662.5
504.04	659.5
504.256	673.5
504.473	664.5
504.69	645.5
504.907	650.5
505.123	640.5
505.34	609.5
505.557	609.5
505.773	577.5
505.99	583.5
506.207	550.5
506.423	546.5
506.64	535.5
506.856	544.5
507.073	532.5
507.289	540.5
507.506	515.5
507.722	520.5
507.939	524.5
508.155	507.5
508.372	505.5
508.588	490.5
508.805	496.5
509.021	495.5
509.238	494.5
509.454	483.5
509.67	488.5
509.887	500.5
510.103	489.5
510.319	477.5
510.536	485.5
510.752	487.5
510.968	478.5
511.184	494.5
511.401	489.5
511.617	479.5
511.833	493.5
512.049	464.5
512.265	489.5
512.481	494.5
512.698	467.5
512.914	493.5
513.13	488.5
513.346	496.5
513.562	479.5
513.778	498.5
513.994	491.5
514.21	480.5
514.426	475.5
514.642	476.5
514.858	501.5
515.074	487.5
515.29	520.5
515.506	527.5
515.721	509.5
515.937	523.5
516.153	525.5
516.369	537.5
516.585	544.5
516.801	554.5
517.016	558.5
517.232	583.5
517.448	606.5
517.664	605.5
517.879	603.5
518.095	595.5
518.311	591.5
518.527	553.5
518.742	547.5
518.958	568.5
519.173	550.5
519.389	508.5
519.605	515.5
