Data from Fe(NO3)3@0.1M.TitratingCurve.Agarose3%dH2O.NegLispCup.LampEnergy10.LIBS07252019_HRD10591_16-41-16-333.txt Node
Date: Thu Jul 25 16:41:16 EDT 2019
User: cochatt
Spectrometer: HR+D1059
Trigger mode: 1
Integration Time (sec): 1.000000E-1
Scans to average: 1
Electric dark correction enabled: true
Nonlinearity correction enabled: false
Boxcar width: 0
XAxis mode: Wavelengths
Number of Pixels in Spectrum: 2048
>>>>>Begin Spectral Data<<<<<
223.165	-14.75
223.4	-14.75
223.635	-14.75
223.869	-18.75
224.104	-24.75
224.338	-19.75
224.573	-14.75
224.808	-7.75
225.042	-3.75
225.277	-23.75
225.511	-1.75
225.746	12.25
225.98	10.25
226.215	9.25
226.449	17.25
226.683	21.25
226.918	33.25
227.152	26.25
227.387	35.25
227.621	35.25
227.856	62.25
228.09	64.25
228.324	43.25
228.559	72.25
228.793	62.25
229.027	64.25
229.262	83.25
229.496	76.25
229.73	79.25
229.964	87.25
230.199	93.25
230.433	91.25
230.667	86.25
230.901	90.25
231.136	105.25
231.37	111.25
231.604	96.25
231.838	99.25
232.072	97.25
232.306	105.25
232.541	93.25
232.775	121.25
233.009	102.25
233.243	105.25
233.477	94.25
233.711	110.25
233.945	110.25
234.179	108.25
234.413	109.25
234.647	101.25
234.881	97.25
235.115	119.25
235.349	90.25
235.583	112.25
235.817	105.25
236.051	111.25
236.285	110.25
236.519	113.25
236.753	99.25
236.987	88.25
237.221	92.25
237.455	104.25
237.689	108.25
237.922	106.25
238.156	127.25
238.39	116.25
238.624	102.25
238.858	112.25
239.091	108.25
239.325	110.25
239.559	114.25
239.793	103.25
240.027	124.25
240.26	105.25
240.494	100.25
240.728	110.25
240.961	122.25
241.195	108.25
241.429	123.25
241.662	98.25
241.896	100.25
242.13	111.25
242.363	107.25
242.597	112.25
242.83	105.25
243.064	100.25
243.298	123.25
243.531	113.25
243.765	108.25
243.998	114.25
244.232	108.25
244.465	121.25
244.699	112.25
244.932	122.25
245.166	130.25
245.399	124.25
245.633	112.25
245.866	133.25
246.099	122.25
246.333	128.25
246.566	110.25
246.8	105.25
247.033	130.25
247.266	126.25
247.5	123.25
247.733	120.25
247.966	132.25
248.2	128.25
248.433	137.25
248.666	132.25
248.899	114.25
249.133	132.25
249.366	122.25
249.599	130.25
249.832	128.25
250.066	134.25
250.299	124.25
250.532	132.25
250.765	133.25
250.998	128.25
251.231	129.25
251.465	152.25
251.698	146.25
251.931	135.25
252.164	122.25
252.397	129.25
252.63	144.25
252.863	159.25
253.096	134.25
253.329	144.25
253.562	138.25
253.795	147.25
254.028	154.25
254.261	139.25
254.494	139.25
254.727	129.25
254.96	144.25
255.193	142.25
255.426	147.25
255.659	137.25
255.892	144.25
256.124	136.25
256.357	156.25
256.59	140.25
256.823	153.25
257.056	147.25
257.289	150.25
257.521	130.25
257.754	137.25
257.987	148.25
258.22	140.25
258.452	138.25
258.685	148.25
258.918	141.25
259.151	142.25
259.383	165.25
259.616	149.25
259.849	161.25
260.081	137.25
260.314	160.25
260.547	145.25
260.779	160.25
261.012	172.25
261.244	145.25
261.477	159.25
261.71	164.25
261.942	145.25
262.175	162.25
262.407	159.25
262.64	151.25
262.872	161.25
263.105	161.25
263.337	153.25
263.57	161.25
263.802	149.25
264.035	165.25
264.267	162.25
264.499	174.25
264.732	176.25
264.964	177.25
265.197	161.25
265.429	165.25
265.661	171.25
265.894	166.25
266.126	182.25
266.358	164.25
266.591	164.25
266.823	175.25
267.055	162.25
267.287	160.25
267.52	180.25
267.752	180.25
267.984	165.25
268.216	178.25
268.448	183.25
268.681	165.25
268.913	176.25
269.145	172.25
269.377	175.25
269.609	174.25
269.841	180.25
270.073	169.25
270.306	176.25
270.538	172.25
270.77	178.25
271.002	191.25
271.234	180.25
271.466	172.25
271.698	180.25
271.93	179.25
272.162	174.25
272.394	196.25
272.626	172.25
272.858	186.25
273.09	180.25
273.322	183.25
273.553	167.25
273.785	193.25
274.017	196.25
274.249	199.25
274.481	203.25
274.713	168.25
274.945	186.25
275.176	195.25
275.408	194.25
275.64	196.25
275.872	178.25
276.104	182.25
276.335	185.25
276.567	201.25
276.799	191.25
277.031	189.25
277.262	209.25
277.494	206.25
277.726	201.25
277.957	189.25
278.189	201.25
278.421	210.25
278.652	221.25
278.884	215.25
279.115	203.25
279.347	216.25
279.579	206.25
279.81	202.25
280.042	207.25
280.273	208.25
280.505	210.25
280.736	196.25
280.968	205.25
281.199	197.25
281.431	196.25
281.662	213.25
281.894	207.25
282.125	193.25
282.356	215.25
282.588	212.25
282.819	209.25
283.051	217.25
283.282	212.25
283.513	223.25
283.745	206.25
283.976	224.25
284.207	212.25
284.439	224.25
284.67	235.25
284.901	210.25
285.132	211.25
285.364	223.25
285.595	216.25
285.826	227.25
286.057	243.25
286.288	226.25
286.52	241.25
286.751	230.25
286.982	220.25
287.213	219.25
287.444	241.25
287.675	240.25
287.906	225.25
288.138	248.25
288.369	225.25
288.6	240.25
288.831	236.25
289.062	232.25
289.293	241.25
289.524	236.25
289.755	229.25
289.986	237.25
290.217	244.25
290.448	229.25
290.679	238.25
290.91	227.25
291.141	224.25
291.371	235.25
291.602	227.25
291.833	247.25
292.064	229.25
292.295	218.25
292.526	224.25
292.757	220.25
292.987	250.25
293.218	227.25
293.449	227.25
293.68	232.25
293.91	225.25
294.141	237.25
294.372	229.25
294.603	237.25
294.833	236.25
295.064	233.25
295.295	238.25
295.525	238.25
295.756	249.25
295.987	262.25
296.217	260.25
296.448	241.25
296.679	228.25
296.909	243.25
297.14	240.25
297.37	246.25
297.601	243.25
297.831	251.25
298.062	241.25
298.292	256.25
298.523	240.25
298.753	248.25
298.984	254.25
299.214	258.25
299.445	254.25
299.675	249.25
299.905	256.25
300.136	262.25
300.366	234.25
300.597	258.25
300.827	269.25
301.057	269.25
301.288	233.25
301.518	274.25
301.748	261.25
301.979	266.25
302.209	262.25
302.439	266.25
302.669	266.25
302.9	269.25
303.13	272.25
303.36	263.25
303.59	257.25
303.82	251.25
304.051	271.25
304.281	265.25
304.511	282.25
304.741	265.25
304.971	276.25
305.201	259.25
305.431	261.25
305.661	262.25
305.891	251.25
306.121	272.25
306.352	262.25
306.582	265.25
306.812	273.25
307.042	263.25
307.272	266.25
307.502	261.25
307.731	265.25
307.961	279.25
308.191	258.25
308.421	266.25
308.651	268.25
308.881	264.25
309.111	252.25
309.341	264.25
309.571	267.25
309.8	270.25
310.03	270.25
310.26	261.25
310.49	277.25
310.72	271.25
310.949	270.25
311.179	276.25
311.409	269.25
311.639	261.25
311.868	258.25
312.098	250.25
312.328	283.25
312.557	286.25
312.787	281.25
313.017	293.25
313.246	295.25
313.476	266.25
313.706	284.25
313.935	297.25
314.165	279.25
314.394	281.25
314.624	297.25
314.853	278.25
315.083	286.25
315.312	309.25
315.542	254.25
315.771	280.25
316.001	287.25
316.23	279.25
316.46	288.25
316.689	290.25
316.919	284.25
317.148	270.25
317.377	286.25
317.607	275.25
317.836	269.25
318.065	279.25
318.295	289.25
318.524	248.25
318.753	273.25
318.983	275.25
319.212	284.25
319.441	299.25
319.67	280.25
319.9	282.25
320.129	284.25
320.358	286.25
320.587	289.25
320.816	283.25
321.046	281.25
321.275	287.25
321.504	287.25
321.733	308.25
321.962	291.25
322.191	290.25
322.42	299.25
322.649	293.25
322.878	291.25
323.108	288.25
323.337	297.25
323.566	285.25
323.795	287.25
324.024	311.25
324.253	276.25
324.482	302.25
324.71	300.25
324.939	308.25
325.168	293.25
325.397	300.25
325.626	294.25
325.855	304.25
326.084	303.25
326.313	316.25
326.542	308.25
326.77	307.25
326.999	306.25
327.228	294.25
327.457	304.25
327.686	318.25
327.914	308.25
328.143	301.25
328.372	307.25
328.6	302.25
328.829	304.25
329.058	308.25
329.287	309.25
329.515	315.25
329.744	323.25
329.972	306.25
330.201	330.25
330.43	310.25
330.658	304.25
330.887	324.25
331.115	333.25
331.344	312.25
331.572	316.25
331.801	328.25
332.03	343.25
332.258	347.25
332.486	365.25
332.715	366.25
332.943	368.25
333.172	371.25
333.4	388.25
333.629	397.25
333.857	399.25
334.085	395.25
334.314	401.25
334.542	385.25
334.771	393.25
334.999	372.25
335.227	400.25
335.455	370.25
335.684	385.25
335.912	405.25
336.14	377.25
336.369	361.25
336.597	372.25
336.825	353.25
337.053	354.25
337.281	353.25
337.51	350.25
337.738	348.25
337.966	357.25
338.194	336.25
338.422	336.25
338.65	352.25
338.878	318.25
339.106	317.25
339.334	327.25
339.562	342.25
339.79	335.25
340.018	343.25
340.246	308.25
340.474	330.25
340.702	341.25
340.93	328.25
341.158	326.25
341.386	313.25
341.614	335.25
341.842	335.25
342.07	308.25
342.298	327.25
342.526	328.25
342.754	320.25
342.981	349.25
343.209	331.25
343.437	340.25
343.665	355.25
343.893	365.25
344.12	369.25
344.348	366.25
344.576	361.25
344.804	362.25
345.031	339.25
345.259	329.25
345.487	329.25
345.714	339.25
345.942	316.25
346.17	301.25
346.397	318.25
346.625	312.25
346.853	322.25
347.08	324.25
347.308	323.25
347.535	329.25
347.763	312.25
347.99	332.25
348.218	335.25
348.445	311.25
348.673	330.25
348.9	316.25
349.128	325.25
349.355	322.25
349.583	323.25
349.81	318.25
350.037	327.25
350.265	326.25
350.492	318.25
350.72	325.25
350.947	306.25
351.174	324.25
351.402	296.25
351.629	329.25
351.856	316.25
352.083	305.25
352.311	294.25
352.538	322.25
352.765	315.25
352.992	318.25
353.22	313.25
353.447	314.25
353.674	332.25
353.901	326.25
354.128	305.25
354.355	310.25
354.583	314.25
354.81	333.25
355.037	322.25
355.264	310.25
355.491	311.25
355.718	308.25
355.945	327.25
356.172	306.25
356.399	316.25
356.626	328.25
356.853	311.25
357.08	333.25
357.307	314.25
357.534	304.25
357.761	337.25
357.988	321.25
358.215	323.25
358.441	329.25
358.668	303.25
358.895	319.25
359.122	314.25
359.349	317.25
359.576	302.25
359.802	313.25
360.029	317.25
360.256	307.25
360.483	316.25
360.709	311.25
360.936	303.25
361.163	330.25
361.39	336.25
361.616	308.25
361.843	316.25
362.07	319.25
362.296	307.25
362.523	324.25
362.749	317.25
362.976	318.25
363.203	312.25
363.429	320.25
363.656	326.25
363.882	321.25
364.109	319.25
364.335	296.25
364.562	324.25
364.788	323.25
365.015	321.25
365.241	316.25
365.468	307.25
365.694	328.25
365.92	321.25
366.147	312.25
366.373	301.25
366.599	324.25
366.826	322.25
367.052	326.25
367.278	330.25
367.505	323.25
367.731	316.25
367.957	318.25
368.184	334.25
368.41	318.25
368.636	333.25
368.862	323.25
369.089	328.25
369.315	303.25
369.541	343.25
369.767	341.25
369.993	324.25
370.219	328.25
370.445	332.25
370.672	350.25
370.898	348.25
371.124	345.25
371.35	343.25
371.576	349.25
371.802	340.25
372.028	349.25
372.254	350.25
372.48	346.25
372.706	349.25
372.932	346.25
373.158	351.25
373.384	342.25
373.61	337.25
373.835	341.25
374.061	351.25
374.287	367.25
374.513	348.25
374.739	388.25
374.965	365.25
375.191	373.25
375.416	386.25
375.642	364.25
375.868	366.25
376.094	349.25
376.319	345.25
376.545	353.25
376.771	349.25
376.997	353.25
377.222	350.25
377.448	340.25
377.674	332.25
377.899	335.25
378.125	334.25
378.35	331.25
378.576	321.25
378.802	350.25
379.027	358.25
379.253	360.25
379.478	356.25
379.704	335.25
379.929	345.25
380.155	331.25
380.38	339.25
380.606	357.25
380.831	339.25
381.057	344.25
381.282	334.25
381.507	351.25
381.733	341.25
381.958	365.25
382.184	340.25
382.409	360.25
382.634	360.25
382.86	369.25
383.085	380.25
383.31	371.25
383.535	370.25
383.761	366.25
383.986	366.25
384.211	370.25
384.436	395.25
384.662	396.25
384.887	392.25
385.112	402.25
385.337	402.25
385.562	410.25
385.787	428.25
386.013	411.25
386.238	416.25
386.463	413.25
386.688	409.25
386.913	411.25
387.138	392.25
387.363	408.25
387.588	392.25
387.813	390.25
388.038	408.25
388.263	404.25
388.488	431.25
388.713	429.25
388.938	414.25
389.163	420.25
389.387	404.25
389.612	393.25
389.837	412.25
390.062	390.25
390.287	406.25
390.512	393.25
390.736	394.25
390.961	414.25
391.186	406.25
391.411	445.25
391.636	452.25
391.86	453.25
392.085	455.25
392.31	448.25
392.534	426.25
392.759	436.25
392.984	432.25
393.208	421.25
393.433	428.25
393.658	437.25
393.882	425.25
394.107	429.25
394.331	416.25
394.556	430.25
394.78	432.25
395.005	452.25
395.229	435.25
395.454	441.25
395.678	470.25
395.903	476.25
396.127	444.25
396.352	444.25
396.576	451.25
396.801	438.25
397.025	426.25
397.249	451.25
397.474	454.25
397.698	456.25
397.922	459.25
398.147	460.25
398.371	480.25
398.595	493.25
398.82	484.25
399.044	532.25
399.268	589.25
399.492	616.25
399.717	675.25
399.941	691.25
400.165	636.25
400.389	581.25
400.613	556.25
400.837	531.25
401.062	525.25
401.286	501.25
401.51	492.25
401.734	482.25
401.958	516.25
402.182	495.25
402.406	513.25
402.63	488.25
402.854	530.25
403.078	537.25
403.302	531.25
403.526	540.25
403.75	549.25
403.974	551.25
404.198	565.25
404.422	560.25
404.645	549.25
404.869	546.25
405.093	560.25
405.317	538.25
405.541	531.25
405.765	532.25
405.988	532.25
406.212	549.25
406.436	554.25
406.66	568.25
406.883	564.25
407.107	591.25
407.331	608.25
407.555	628.25
407.778	614.25
408.002	602.25
408.226	594.25
408.449	598.25
408.673	573.25
408.896	560.25
409.12	575.25
409.344	576.25
409.567	559.25
409.791	545.25
410.014	531.25
410.238	570.25
410.461	561.25
410.685	527.25
410.908	570.25
411.132	526.25
411.355	528.25
411.578	540.25
411.802	512.25
412.025	495.25
412.249	525.25
412.472	542.25
412.695	527.25
412.919	509.25
413.142	525.25
413.365	495.25
413.589	522.25
413.812	503.25
414.035	520.25
414.258	518.25
414.482	526.25
414.705	518.25
414.928	510.25
415.151	529.25
415.374	505.25
415.597	515.25
415.821	492.25
416.044	506.25
416.267	504.25
416.49	500.25
416.713	495.25
416.936	486.25
417.159	510.25
417.382	485.25
417.605	487.25
417.828	506.25
418.051	508.25
418.274	504.25
418.497	497.25
418.72	536.25
418.943	533.25
419.166	543.25
419.389	546.25
419.611	536.25
419.834	520.25
420.057	518.25
420.28	524.25
420.503	505.25
420.726	488.25
420.948	501.25
421.171	509.25
421.394	513.25
421.617	509.25
421.839	497.25
422.062	532.25
422.285	497.25
422.507	512.25
422.73	516.25
422.953	509.25
423.175	515.25
423.398	502.25
423.621	528.25
423.843	530.25
424.066	513.25
424.288	496.25
424.511	523.25
424.733	516.25
424.956	526.25
425.178	503.25
425.401	506.25
425.623	515.25
425.846	507.25
426.068	487.25
426.291	482.25
426.513	495.25
426.735	438.25
426.958	490.25
427.18	454.25
427.402	478.25
427.625	458.25
427.847	455.25
428.069	446.25
428.292	481.25
428.514	457.25
428.736	472.25
428.958	445.25
429.181	452.25
429.403	443.25
429.625	450.25
429.847	444.25
430.069	464.25
430.292	449.25
430.514	443.25
430.736	465.25
430.958	459.25
431.18	465.25
431.402	450.25
431.624	455.25
431.846	456.25
432.068	458.25
432.29	453.25
432.512	442.25
432.734	458.25
432.956	457.25
433.178	454.25
433.4	455.25
433.622	461.25
433.844	464.25
434.066	457.25
434.287	479.25
434.509	492.25
434.731	497.25
434.953	502.25
435.175	499.25
435.397	513.25
435.618	476.25
435.84	467.25
436.062	467.25
436.284	461.25
436.505	449.25
436.727	450.25
436.949	469.25
437.17	466.25
437.392	477.25
437.614	454.25
437.835	452.25
438.057	443.25
438.278	459.25
438.5	444.25
438.721	441.25
438.943	441.25
439.165	463.25
439.386	446.25
439.608	462.25
439.829	475.25
440.05	450.25
440.272	460.25
440.493	473.25
440.715	464.25
440.936	476.25
441.158	480.25
441.379	502.25
441.6	533.25
441.822	528.25
442.043	509.25
442.264	518.25
442.486	518.25
442.707	525.25
442.928	483.25
443.149	496.25
443.371	511.25
443.592	518.25
443.813	524.25
444.034	514.25
444.255	544.25
444.476	559.25
444.698	554.25
444.919	570.25
445.14	661.25
445.361	595.25
445.582	517.25
445.803	501.25
446.024	482.25
446.245	504.25
446.466	493.25
446.687	477.25
446.908	482.25
447.129	482.25
447.35	463.25
447.571	457.25
447.792	450.25
448.013	468.25
448.234	434.25
448.455	432.25
448.675	440.25
448.896	452.25
449.117	433.25
449.338	426.25
449.559	436.25
449.779	423.25
450	425.25
450.221	444.25
450.442	439.25
450.662	444.25
450.883	434.25
451.104	440.25
451.324	451.25
451.545	449.25
451.766	422.25
451.986	428.25
452.207	430.25
452.428	434.25
452.648	418.25
452.869	436.25
453.089	422.25
453.31	428.25
453.53	422.25
453.751	408.25
453.971	438.25
454.192	412.25
454.412	400.25
454.633	430.25
454.853	430.25
455.073	398.25
455.294	406.25
455.514	393.25
455.734	417.25
455.955	398.25
456.175	401.25
456.395	399.25
456.616	415.25
456.836	392.25
457.056	401.25
457.276	384.25
457.497	408.25
457.717	395.25
457.937	393.25
458.157	417.25
458.377	412.25
458.598	423.25
458.818	430.25
459.038	430.25
459.258	449.25
459.478	440.25
459.698	456.25
459.918	487.25
460.138	473.25
460.358	522.25
460.578	508.25
460.798	527.25
461.018	533.25
461.238	535.25
461.458	529.25
461.678	560.25
461.898	542.25
462.118	530.25
462.338	575.25
462.558	559.25
462.777	610.25
462.997	632.25
463.217	675.25
463.437	647.25
463.657	621.25
463.876	596.25
464.096	598.25
464.316	584.25
464.536	591.25
464.755	585.25
464.975	571.25
465.195	531.25
465.414	511.25
465.634	471.25
465.854	469.25
466.073	469.25
466.293	458.25
466.512	452.25
466.732	456.25
466.951	457.25
467.171	471.25
467.391	448.25
467.61	435.25
467.829	459.25
468.049	455.25
468.268	438.25
468.488	432.25
468.707	443.25
468.927	422.25
469.146	431.25
469.365	425.25
469.585	439.25
469.804	426.25
470.023	454.25
470.243	454.25
470.462	462.25
470.681	468.25
470.901	455.25
471.12	461.25
471.339	444.25
471.558	452.25
471.777	429.25
471.997	421.25
472.216	419.25
472.435	438.25
472.654	402.25
472.873	416.25
473.092	410.25
473.311	424.25
473.53	418.25
473.749	430.25
473.968	430.25
474.187	424.25
474.406	413.25
474.625	406.25
474.844	420.25
475.063	424.25
475.282	416.25
475.501	425.25
475.72	419.25
475.939	417.25
476.158	435.25
476.377	420.25
476.596	439.25
476.814	438.25
477.033	426.25
477.252	470.25
477.471	444.25
477.69	464.25
477.908	464.25
478.127	479.25
478.346	480.25
478.564	493.25
478.783	501.25
479.002	511.25
479.22	493.25
479.439	499.25
479.658	505.25
479.876	508.25
480.095	491.25
480.313	525.25
480.532	540.25
480.751	510.25
480.969	504.25
481.188	484.25
481.406	503.25
481.624	469.25
481.843	458.25
482.061	467.25
482.28	461.25
482.498	454.25
482.717	465.25
482.935	465.25
483.153	462.25
483.372	442.25
483.59	468.25
483.808	436.25
484.027	469.25
484.245	464.25
484.463	466.25
484.681	497.25
484.9	457.25
485.118	465.25
485.336	473.25
485.554	464.25
485.772	452.25
485.99	457.25
486.209	483.25
486.427	482.25
486.645	488.25
486.863	469.25
487.081	477.25
487.299	477.25
487.517	466.25
487.735	467.25
487.953	474.25
488.171	474.25
488.389	478.25
488.607	453.25
488.825	468.25
489.043	467.25
489.261	466.25
489.479	482.25
489.696	477.25
489.914	479.25
490.132	474.25
490.35	480.25
490.568	484.25
490.786	498.25
491.003	493.25
491.221	517.25
491.439	471.25
491.657	474.25
491.874	494.25
492.092	523.25
492.31	515.25
492.527	516.25
492.745	523.25
492.963	484.25
493.18	480.25
493.398	502.25
493.615	505.25
493.833	515.25
494.05	506.25
494.268	512.25
494.485	521.25
494.703	510.25
494.92	503.25
495.138	524.25
495.355	527.25
495.573	535.25
495.79	537.25
496.008	539.25
496.225	523.25
496.442	530.25
496.66	553.25
496.877	549.25
497.094	546.25
497.312	549.25
497.529	547.25
497.746	587.25
497.963	594.25
498.181	625.25
498.398	656.25
498.615	662.25
498.832	705.25
499.049	762.25
499.267	790.25
499.484	871.25
499.701	925.25
499.918	1002.25
500.135	1130.25
500.352	1249.25
500.569	1280.25
500.786	1264.25
501.003	1200.25
501.22	1098.25
501.437	970.25
501.654	887.25
