Data from Fe(NO3)3@0.025M.TitratingCurve.Agarose3%dH2O.NegLispCup.LampEnergy10.LIBS07252019_HRD10591_16-56-16-335.txt Node
Date: Thu Jul 25 16:56:16 EDT 2019
User: cochatt
Spectrometer: HR+D1059
Trigger mode: 1
Integration Time (sec): 1.000000E-1
Scans to average: 1
Electric dark correction enabled: true
Nonlinearity correction enabled: false
Boxcar width: 0
XAxis mode: Wavelengths
Number of Pixels in Spectrum: 2048
>>>>>Begin Spectral Data<<<<<
223.165	-12.88
223.4	-12.88
223.635	-12.88
223.869	-28.88
224.104	-15.88
224.338	-11.88
224.573	-4.88
224.808	-6.88
225.042	-22.88
225.277	-13.88
225.511	7.12
225.746	0.12
225.98	10.12
226.215	12.12
226.449	14.12
226.683	22.12
226.918	24.12
227.152	28.12
227.387	36.12
227.621	31.12
227.856	37.12
228.09	40.12
228.324	49.12
228.559	59.12
228.793	65.12
229.027	57.12
229.262	66.12
229.496	81.12
229.73	92.12
229.964	82.12
230.199	92.12
230.433	91.12
230.667	87.12
230.901	92.12
231.136	90.12
231.37	89.12
231.604	106.12
231.838	88.12
232.072	82.12
232.306	85.12
232.541	100.12
232.775	95.12
233.009	101.12
233.243	98.12
233.477	97.12
233.711	86.12
233.945	105.12
234.179	92.12
234.413	92.12
234.647	99.12
234.881	94.12
235.115	98.12
235.349	96.12
235.583	92.12
235.817	88.12
236.051	88.12
236.285	107.12
236.519	91.12
236.753	96.12
236.987	102.12
237.221	100.12
237.455	94.12
237.689	99.12
237.922	94.12
238.156	96.12
238.39	105.12
238.624	88.12
238.858	85.12
239.091	98.12
239.325	87.12
239.559	87.12
239.793	99.12
240.027	104.12
240.26	105.12
240.494	103.12
240.728	104.12
240.961	103.12
241.195	96.12
241.429	105.12
241.662	114.12
241.896	114.12
242.13	104.12
242.363	108.12
242.597	105.12
242.83	90.12
243.064	94.12
243.298	101.12
243.531	87.12
243.765	110.12
243.998	113.12
244.232	106.12
244.465	101.12
244.699	109.12
244.932	101.12
245.166	101.12
245.399	116.12
245.633	100.12
245.866	104.12
246.099	107.12
246.333	92.12
246.566	89.12
246.8	114.12
247.033	97.12
247.266	97.12
247.5	118.12
247.733	105.12
247.966	105.12
248.2	115.12
248.433	120.12
248.666	124.12
248.899	112.12
249.133	104.12
249.366	123.12
249.599	103.12
249.832	108.12
250.066	108.12
250.299	104.12
250.532	117.12
250.765	113.12
250.998	119.12
251.231	120.12
251.465	117.12
251.698	114.12
251.931	106.12
252.164	116.12
252.397	125.12
252.63	128.12
252.863	124.12
253.096	118.12
253.329	122.12
253.562	117.12
253.795	124.12
254.028	113.12
254.261	129.12
254.494	119.12
254.727	120.12
254.96	128.12
255.193	112.12
255.426	122.12
255.659	128.12
255.892	128.12
256.124	123.12
256.357	123.12
256.59	122.12
256.823	127.12
257.056	124.12
257.289	130.12
257.521	124.12
257.754	121.12
257.987	120.12
258.22	134.12
258.452	132.12
258.685	128.12
258.918	122.12
259.151	121.12
259.383	129.12
259.616	127.12
259.849	129.12
260.081	136.12
260.314	122.12
260.547	126.12
260.779	142.12
261.012	123.12
261.244	124.12
261.477	136.12
261.71	144.12
261.942	123.12
262.175	132.12
262.407	123.12
262.64	124.12
262.872	153.12
263.105	128.12
263.337	137.12
263.57	154.12
263.802	130.12
264.035	140.12
264.267	130.12
264.499	131.12
264.732	132.12
264.964	134.12
265.197	121.12
265.429	136.12
265.661	117.12
265.894	143.12
266.126	119.12
266.358	122.12
266.591	149.12
266.823	128.12
267.055	132.12
267.287	146.12
267.52	138.12
267.752	139.12
267.984	130.12
268.216	141.12
268.448	149.12
268.681	153.12
268.913	140.12
269.145	148.12
269.377	138.12
269.609	134.12
269.841	143.12
270.073	153.12
270.306	140.12
270.538	146.12
270.77	140.12
271.002	135.12
271.234	169.12
271.466	134.12
271.698	124.12
271.93	140.12
272.162	159.12
272.394	157.12
272.626	156.12
272.858	162.12
273.09	154.12
273.322	148.12
273.553	153.12
273.785	153.12
274.017	165.12
274.249	144.12
274.481	148.12
274.713	161.12
274.945	151.12
275.176	162.12
275.408	149.12
275.64	151.12
275.872	165.12
276.104	162.12
276.335	158.12
276.567	151.12
276.799	168.12
277.031	155.12
277.262	157.12
277.494	161.12
277.726	148.12
277.957	164.12
278.189	169.12
278.421	153.12
278.652	150.12
278.884	160.12
279.115	169.12
279.347	155.12
279.579	166.12
279.81	164.12
280.042	157.12
280.273	168.12
280.505	164.12
280.736	145.12
280.968	176.12
281.199	148.12
281.431	178.12
281.662	167.12
281.894	169.12
282.125	157.12
282.356	162.12
282.588	170.12
282.819	172.12
283.051	167.12
283.282	161.12
283.513	166.12
283.745	185.12
283.976	176.12
284.207	163.12
284.439	172.12
284.67	171.12
284.901	171.12
285.132	187.12
285.364	167.12
285.595	198.12
285.826	186.12
286.057	174.12
286.288	187.12
286.52	174.12
286.751	169.12
286.982	174.12
287.213	176.12
287.444	183.12
287.675	178.12
287.906	178.12
288.138	197.12
288.369	187.12
288.6	188.12
288.831	168.12
289.062	171.12
289.293	179.12
289.524	173.12
289.755	186.12
289.986	180.12
290.217	193.12
290.448	171.12
290.679	172.12
290.91	189.12
291.141	176.12
291.371	195.12
291.602	167.12
291.833	190.12
292.064	169.12
292.295	180.12
292.526	187.12
292.757	178.12
292.987	197.12
293.218	171.12
293.449	195.12
293.68	194.12
293.91	198.12
294.141	175.12
294.372	181.12
294.603	202.12
294.833	186.12
295.064	198.12
295.295	200.12
295.525	205.12
295.756	197.12
295.987	205.12
296.217	197.12
296.448	204.12
296.679	195.12
296.909	195.12
297.14	204.12
297.37	201.12
297.601	198.12
297.831	195.12
298.062	216.12
298.292	205.12
298.523	193.12
298.753	225.12
298.984	198.12
299.214	199.12
299.445	191.12
299.675	202.12
299.905	194.12
300.136	211.12
300.366	187.12
300.597	200.12
300.827	203.12
301.057	210.12
301.288	209.12
301.518	194.12
301.748	209.12
301.979	212.12
302.209	213.12
302.439	207.12
302.669	213.12
302.9	219.12
303.13	199.12
303.36	213.12
303.59	225.12
303.82	211.12
304.051	191.12
304.281	203.12
304.511	203.12
304.741	199.12
304.971	205.12
305.201	220.12
305.431	230.12
305.661	212.12
305.891	225.12
306.121	208.12
306.352	206.12
306.582	198.12
306.812	196.12
307.042	208.12
307.272	217.12
307.502	202.12
307.731	229.12
307.961	215.12
308.191	206.12
308.421	214.12
308.651	236.12
308.881	211.12
309.111	212.12
309.341	214.12
309.571	220.12
309.8	206.12
310.03	218.12
310.26	228.12
310.49	207.12
310.72	222.12
310.949	204.12
311.179	219.12
311.409	220.12
311.639	217.12
311.868	230.12
312.098	229.12
312.328	221.12
312.557	237.12
312.787	222.12
313.017	227.12
313.246	224.12
313.476	248.12
313.706	231.12
313.935	214.12
314.165	220.12
314.394	224.12
314.624	227.12
314.853	238.12
315.083	231.12
315.312	241.12
315.542	227.12
315.771	244.12
316.001	228.12
316.23	229.12
316.46	214.12
316.689	233.12
316.919	227.12
317.148	241.12
317.377	231.12
317.607	223.12
317.836	221.12
318.065	218.12
318.295	218.12
318.524	228.12
318.753	203.12
318.983	216.12
319.212	232.12
319.441	220.12
319.67	232.12
319.9	221.12
320.129	240.12
320.358	229.12
320.587	217.12
320.816	236.12
321.046	231.12
321.275	226.12
321.504	243.12
321.733	256.12
321.962	249.12
322.191	238.12
322.42	242.12
322.649	230.12
322.878	219.12
323.108	233.12
323.337	231.12
323.566	225.12
323.795	246.12
324.024	248.12
324.253	250.12
324.482	240.12
324.71	241.12
324.939	233.12
325.168	261.12
325.397	231.12
325.626	244.12
325.855	249.12
326.084	232.12
326.313	236.12
326.542	251.12
326.77	246.12
326.999	230.12
327.228	239.12
327.457	258.12
327.686	254.12
327.914	232.12
328.143	252.12
328.372	252.12
328.6	249.12
328.829	260.12
329.058	237.12
329.287	244.12
329.515	267.12
329.744	238.12
329.972	265.12
330.201	247.12
330.43	258.12
330.658	246.12
330.887	276.12
331.115	267.12
331.344	268.12
331.572	264.12
331.801	258.12
332.03	281.12
332.258	271.12
332.486	265.12
332.715	281.12
332.943	281.12
333.172	265.12
333.4	285.12
333.629	290.12
333.857	306.12
334.085	296.12
334.314	290.12
334.542	293.12
334.771	288.12
334.999	312.12
335.227	306.12
335.455	285.12
335.684	294.12
335.912	294.12
336.14	323.12
336.369	294.12
336.597	306.12
336.825	292.12
337.053	305.12
337.281	288.12
337.51	281.12
337.738	294.12
337.966	287.12
338.194	286.12
338.422	288.12
338.65	282.12
338.878	278.12
339.106	278.12
339.334	284.12
339.562	269.12
339.79	279.12
340.018	288.12
340.246	265.12
340.474	286.12
340.702	267.12
340.93	267.12
341.158	281.12
341.386	259.12
341.614	264.12
341.842	288.12
342.07	276.12
342.298	262.12
342.526	288.12
342.754	292.12
342.981	262.12
343.209	268.12
343.437	282.12
343.665	284.12
343.893	286.12
344.12	308.12
344.348	307.12
344.576	290.12
344.804	294.12
345.031	262.12
345.259	273.12
345.487	266.12
345.714	279.12
345.942	283.12
346.17	281.12
346.397	264.12
346.625	274.12
346.853	270.12
347.08	277.12
347.308	281.12
347.535	272.12
347.763	251.12
347.99	276.12
348.218	242.12
348.445	249.12
348.673	260.12
348.9	269.12
349.128	252.12
349.355	255.12
349.583	268.12
349.81	247.12
350.037	249.12
350.265	274.12
350.492	258.12
350.72	258.12
350.947	276.12
351.174	262.12
351.402	265.12
351.629	264.12
351.856	267.12
352.083	250.12
352.311	256.12
352.538	260.12
352.765	253.12
352.992	269.12
353.22	253.12
353.447	256.12
353.674	268.12
353.901	262.12
354.128	249.12
354.355	258.12
354.583	255.12
354.81	280.12
355.037	249.12
355.264	270.12
355.491	254.12
355.718	267.12
355.945	258.12
356.172	280.12
356.399	269.12
356.626	264.12
356.853	264.12
357.08	267.12
357.307	273.12
357.534	252.12
357.761	265.12
357.988	278.12
358.215	264.12
358.441	282.12
358.668	268.12
358.895	264.12
359.122	270.12
359.349	263.12
359.576	264.12
359.802	267.12
360.029	276.12
360.256	265.12
360.483	270.12
360.709	268.12
360.936	273.12
361.163	256.12
361.39	279.12
361.616	254.12
361.843	278.12
362.07	277.12
362.296	277.12
362.523	265.12
362.749	278.12
362.976	271.12
363.203	277.12
363.429	269.12
363.656	270.12
363.882	277.12
364.109	256.12
364.335	247.12
364.562	264.12
364.788	267.12
365.015	274.12
365.241	271.12
365.468	268.12
365.694	268.12
365.92	269.12
366.147	276.12
366.373	266.12
366.599	280.12
366.826	269.12
367.052	250.12
367.278	264.12
367.505	269.12
367.731	278.12
367.957	274.12
368.184	282.12
368.41	289.12
368.636	278.12
368.862	303.12
369.089	270.12
369.315	261.12
369.541	284.12
369.767	277.12
369.993	282.12
370.219	265.12
370.445	286.12
370.672	286.12
370.898	279.12
371.124	278.12
371.35	282.12
371.576	275.12
371.802	275.12
372.028	295.12
372.254	288.12
372.48	308.12
372.706	300.12
372.932	293.12
373.158	315.12
373.384	288.12
373.61	298.12
373.835	295.12
374.061	293.12
374.287	283.12
374.513	305.12
374.739	302.12
374.965	288.12
375.191	295.12
375.416	301.12
375.642	286.12
375.868	290.12
376.094	292.12
376.319	306.12
376.545	289.12
376.771	281.12
376.997	285.12
377.222	290.12
377.448	294.12
377.674	292.12
377.899	272.12
378.125	288.12
378.35	296.12
378.576	260.12
378.802	278.12
379.027	290.12
379.253	293.12
379.478	278.12
379.704	285.12
379.929	287.12
380.155	278.12
380.38	287.12
380.606	284.12
380.831	284.12
381.057	292.12
381.282	286.12
381.507	296.12
381.733	296.12
381.958	295.12
382.184	314.12
382.409	316.12
382.634	275.12
382.86	295.12
383.085	294.12
383.31	302.12
383.535	311.12
383.761	306.12
383.986	310.12
384.211	322.12
384.436	300.12
384.662	323.12
384.887	325.12
385.112	339.12
385.337	329.12
385.562	326.12
385.787	305.12
386.013	322.12
386.238	310.12
386.463	325.12
386.688	314.12
386.913	318.12
387.138	323.12
387.363	333.12
387.588	339.12
387.813	320.12
388.038	340.12
388.263	324.12
388.488	339.12
388.713	322.12
388.938	344.12
389.163	339.12
389.387	315.12
389.612	318.12
389.837	341.12
390.062	340.12
390.287	337.12
390.512	331.12
390.736	328.12
390.961	337.12
391.186	334.12
391.411	346.12
391.636	342.12
391.86	341.12
392.085	369.12
392.31	352.12
392.534	355.12
392.759	372.12
392.984	342.12
393.208	336.12
393.433	351.12
393.658	342.12
393.882	347.12
394.107	354.12
394.331	364.12
394.556	349.12
394.78	350.12
395.005	333.12
395.229	362.12
395.454	351.12
395.678	364.12
395.903	354.12
396.127	344.12
396.352	363.12
396.576	361.12
396.801	341.12
397.025	365.12
397.249	356.12
397.474	363.12
397.698	360.12
397.922	375.12
398.147	381.12
398.371	407.12
398.595	398.12
398.82	392.12
399.044	412.12
399.268	440.12
399.492	462.12
399.717	454.12
399.941	469.12
400.165	472.12
400.389	433.12
400.613	435.12
400.837	396.12
401.062	426.12
401.286	390.12
401.51	401.12
401.734	404.12
401.958	406.12
402.182	411.12
402.406	396.12
402.63	389.12
402.854	420.12
403.078	397.12
403.302	397.12
403.526	385.12
403.75	416.12
403.974	405.12
404.198	396.12
404.422	411.12
404.645	402.12
404.869	416.12
405.093	385.12
405.317	419.12
405.541	409.12
405.765	407.12
405.988	430.12
406.212	433.12
406.436	424.12
406.66	420.12
406.883	417.12
407.107	452.12
407.331	436.12
407.555	441.12
407.778	456.12
408.002	440.12
408.226	445.12
408.449	422.12
408.673	413.12
408.896	425.12
409.12	412.12
409.344	409.12
409.567	414.12
409.791	401.12
410.014	414.12
410.238	398.12
410.461	424.12
410.685	403.12
410.908	396.12
411.132	402.12
411.355	403.12
411.578	409.12
411.802	403.12
412.025	393.12
412.249	396.12
412.472	395.12
412.695	395.12
412.919	388.12
413.142	380.12
413.365	388.12
413.589	396.12
413.812	377.12
414.035	392.12
414.258	377.12
414.482	372.12
414.705	422.12
414.928	379.12
415.151	389.12
415.374	382.12
415.597	390.12
415.821	381.12
416.044	396.12
416.267	380.12
416.49	392.12
416.713	372.12
416.936	374.12
417.159	391.12
417.382	392.12
417.605	394.12
417.828	390.12
418.051	364.12
418.274	381.12
418.497	396.12
418.72	402.12
418.943	360.12
419.166	392.12
419.389	407.12
419.611	397.12
419.834	396.12
420.057	387.12
420.28	372.12
420.503	382.12
420.726	366.12
420.948	390.12
421.171	368.12
421.394	383.12
421.617	363.12
421.839	378.12
422.062	374.12
422.285	370.12
422.507	375.12
422.73	374.12
422.953	389.12
423.175	356.12
423.398	383.12
423.621	388.12
423.843	384.12
424.066	368.12
424.288	374.12
424.511	384.12
424.733	374.12
424.956	370.12
425.178	373.12
425.401	376.12
425.623	370.12
425.846	375.12
426.068	390.12
426.291	370.12
426.513	370.12
426.735	352.12
426.958	354.12
427.18	349.12
427.402	351.12
427.625	358.12
427.847	349.12
428.069	342.12
428.292	344.12
428.514	347.12
428.736	332.12
428.958	345.12
429.181	370.12
429.403	358.12
429.625	337.12
429.847	322.12
430.069	340.12
430.292	361.12
430.514	336.12
430.736	329.12
430.958	353.12
431.18	356.12
431.402	345.12
431.624	353.12
431.846	356.12
432.068	362.12
432.29	364.12
432.512	348.12
432.734	345.12
432.956	313.12
433.178	375.12
433.4	356.12
433.622	361.12
433.844	370.12
434.066	378.12
434.287	368.12
434.509	369.12
434.731	376.12
434.953	384.12
435.175	386.12
435.397	355.12
435.618	356.12
435.84	359.12
436.062	356.12
436.284	360.12
436.505	353.12
436.727	353.12
436.949	345.12
437.17	353.12
437.392	358.12
437.614	335.12
437.835	328.12
438.057	335.12
438.278	329.12
438.5	344.12
438.721	342.12
438.943	344.12
439.165	322.12
439.386	337.12
439.608	328.12
439.829	355.12
440.05	340.12
440.272	336.12
440.493	363.12
440.715	331.12
440.936	356.12
441.158	371.12
441.379	341.12
441.6	363.12
441.822	346.12
442.043	353.12
442.264	362.12
442.486	361.12
442.707	372.12
442.928	343.12
443.149	374.12
443.371	380.12
443.592	364.12
443.813	397.12
444.034	370.12
444.255	367.12
444.476	387.12
444.698	410.12
444.919	404.12
445.14	459.12
445.361	427.12
445.582	378.12
445.803	389.12
446.024	360.12
446.245	355.12
446.466	344.12
446.687	334.12
446.908	330.12
447.129	326.12
447.35	337.12
447.571	331.12
447.792	341.12
448.013	320.12
448.234	333.12
448.455	324.12
448.675	331.12
448.896	314.12
449.117	330.12
449.338	329.12
449.559	333.12
449.779	308.12
450	315.12
450.221	288.12
450.442	319.12
450.662	320.12
450.883	315.12
451.104	334.12
451.324	308.12
451.545	317.12
451.766	325.12
451.986	319.12
452.207	320.12
452.428	317.12
452.648	308.12
452.869	312.12
453.089	326.12
453.31	314.12
453.53	310.12
453.751	313.12
453.971	307.12
454.192	295.12
454.412	308.12
454.633	309.12
454.853	288.12
455.073	296.12
455.294	306.12
455.514	330.12
455.734	313.12
455.955	288.12
456.175	298.12
456.395	317.12
456.616	316.12
456.836	321.12
457.056	331.12
457.276	323.12
457.497	326.12
457.717	314.12
457.937	308.12
458.157	317.12
458.377	310.12
458.598	325.12
458.818	344.12
459.038	325.12
459.258	353.12
459.478	321.12
459.698	363.12
459.918	347.12
460.138	371.12
460.358	370.12
460.578	377.12
460.798	381.12
461.018	385.12
461.238	386.12
461.458	382.12
461.678	399.12
461.898	374.12
462.118	373.12
462.338	412.12
462.558	412.12
462.777	409.12
462.997	432.12
463.217	440.12
463.437	462.12
463.657	416.12
463.876	448.12
464.096	432.12
464.316	415.12
464.536	430.12
464.755	394.12
464.975	408.12
465.195	393.12
465.414	378.12
465.634	376.12
465.854	358.12
466.073	338.12
466.293	355.12
466.512	342.12
466.732	345.12
466.951	341.12
467.171	341.12
467.391	331.12
467.61	345.12
467.829	352.12
468.049	332.12
468.268	331.12
468.488	318.12
468.707	340.12
468.927	344.12
469.146	345.12
469.365	326.12
469.585	348.12
469.804	344.12
470.023	329.12
470.243	321.12
470.462	344.12
470.681	350.12
470.901	331.12
471.12	341.12
471.339	337.12
471.558	346.12
471.777	337.12
471.997	345.12
472.216	323.12
472.435	335.12
472.654	334.12
472.873	339.12
473.092	341.12
473.311	355.12
473.53	330.12
473.749	349.12
473.968	328.12
474.187	344.12
474.406	336.12
474.625	339.12
474.844	346.12
475.063	329.12
475.282	333.12
475.501	340.12
475.72	349.12
475.939	374.12
476.158	361.12
476.377	349.12
476.596	343.12
476.814	356.12
477.033	358.12
477.252	356.12
477.471	347.12
477.69	364.12
477.908	370.12
478.127	386.12
478.346	376.12
478.564	378.12
478.783	369.12
479.002	389.12
479.22	398.12
479.439	402.12
479.658	379.12
479.876	396.12
480.095	398.12
480.313	387.12
480.532	414.12
480.751	425.12
480.969	402.12
481.188	397.12
481.406	381.12
481.624	378.12
481.843	397.12
482.061	373.12
482.28	396.12
482.498	390.12
482.717	375.12
482.935	381.12
483.153	377.12
483.372	377.12
483.59	398.12
483.808	388.12
484.027	402.12
484.245	398.12
484.463	401.12
484.681	410.12
484.9	410.12
485.118	393.12
485.336	393.12
485.554	404.12
485.772	410.12
485.99	409.12
486.209	410.12
486.427	411.12
486.645	415.12
486.863	393.12
487.081	410.12
487.299	394.12
487.517	401.12
487.735	397.12
487.953	404.12
488.171	392.12
488.389	397.12
488.607	390.12
488.825	389.12
489.043	399.12
489.261	404.12
489.479	398.12
489.696	408.12
489.914	394.12
490.132	403.12
490.35	398.12
490.568	412.12
490.786	402.12
491.003	402.12
491.221	401.12
491.439	405.12
491.657	408.12
491.874	420.12
492.092	412.12
492.31	419.12
492.527	404.12
492.745	414.12
492.963	407.12
493.18	396.12
493.398	421.12
493.615	420.12
493.833	402.12
494.05	411.12
494.268	421.12
494.485	448.12
494.703	412.12
494.92	396.12
495.138	411.12
495.355	396.12
495.573	425.12
495.79	420.12
496.008	427.12
496.225	415.12
496.442	443.12
496.66	432.12
496.877	459.12
497.094	453.12
497.312	455.12
497.529	473.12
497.746	477.12
497.963	490.12
498.181	481.12
498.398	545.12
498.615	530.12
498.832	570.12
499.049	571.12
499.267	596.12
499.484	638.12
499.701	678.12
499.918	693.12
500.135	736.12
500.352	759.12
500.569	799.12
500.786	759.12
501.003	725.12
501.22	711.12
501.437	673.12
501.654	658.12
501.871	614.12
502.088	586.12
