Data from Fe(NO3)3@0.1M.TitratingCurve.Agarose3%dH2O.NegLispCup.LampEnergy10.LIBS07252019_HRD10591_16-40-00-334.txt Node
Date: Thu Jul 25 16:40:00 EDT 2019
User: cochatt
Spectrometer: HR+D1059
Trigger mode: 1
Integration Time (sec): 1.000000E-1
Scans to average: 1
Electric dark correction enabled: true
Nonlinearity correction enabled: false
Boxcar width: 0
XAxis mode: Wavelengths
Number of Pixels in Spectrum: 2048
>>>>>Begin Spectral Data<<<<<
223.165	-24.88
223.4	-24.88
223.635	-24.88
223.869	-22.88
224.104	-10.88
224.338	-4.88
224.573	-19.88
224.808	-18.88
225.042	4.12
225.277	-9.88
225.511	5.12
225.746	6.12
225.98	-9.88
226.215	17.12
226.449	17.12
226.683	23.12
226.918	17.12
227.152	32.12
227.387	31.12
227.621	34.12
227.856	40.12
228.09	43.12
228.324	57.12
228.559	54.12
228.793	65.12
229.027	71.12
229.262	84.12
229.496	77.12
229.73	86.12
229.964	97.12
230.199	84.12
230.433	94.12
230.667	70.12
230.901	78.12
231.136	93.12
231.37	94.12
231.604	100.12
231.838	101.12
232.072	81.12
232.306	96.12
232.541	100.12
232.775	112.12
233.009	104.12
233.243	96.12
233.477	117.12
233.711	105.12
233.945	94.12
234.179	89.12
234.413	104.12
234.647	97.12
234.881	93.12
235.115	101.12
235.349	93.12
235.583	109.12
235.817	100.12
236.051	92.12
236.285	105.12
236.519	107.12
236.753	103.12
236.987	107.12
237.221	117.12
237.455	97.12
237.689	96.12
237.922	111.12
238.156	109.12
238.39	106.12
238.624	100.12
238.858	114.12
239.091	96.12
239.325	106.12
239.559	102.12
239.793	117.12
240.027	113.12
240.26	121.12
240.494	109.12
240.728	102.12
240.961	111.12
241.195	120.12
241.429	106.12
241.662	106.12
241.896	120.12
242.13	118.12
242.363	121.12
242.597	121.12
242.83	117.12
243.064	116.12
243.298	129.12
243.531	121.12
243.765	106.12
243.998	103.12
244.232	122.12
244.465	124.12
244.699	128.12
244.932	114.12
245.166	119.12
245.399	125.12
245.633	123.12
245.866	118.12
246.099	121.12
246.333	119.12
246.566	112.12
246.8	117.12
247.033	122.12
247.266	125.12
247.5	115.12
247.733	119.12
247.966	128.12
248.2	123.12
248.433	114.12
248.666	133.12
248.899	132.12
249.133	131.12
249.366	134.12
249.599	126.12
249.832	110.12
250.066	137.12
250.299	140.12
250.532	136.12
250.765	141.12
250.998	133.12
251.231	132.12
251.465	123.12
251.698	133.12
251.931	127.12
252.164	119.12
252.397	130.12
252.63	125.12
252.863	132.12
253.096	132.12
253.329	148.12
253.562	155.12
253.795	136.12
254.028	128.12
254.261	131.12
254.494	128.12
254.727	134.12
254.96	138.12
255.193	150.12
255.426	132.12
255.659	143.12
255.892	136.12
256.124	132.12
256.357	137.12
256.59	139.12
256.823	140.12
257.056	137.12
257.289	151.12
257.521	148.12
257.754	147.12
257.987	142.12
258.22	124.12
258.452	151.12
258.685	129.12
258.918	145.12
259.151	139.12
259.383	140.12
259.616	134.12
259.849	155.12
260.081	155.12
260.314	133.12
260.547	165.12
260.779	147.12
261.012	161.12
261.244	144.12
261.477	162.12
261.71	148.12
261.942	154.12
262.175	135.12
262.407	157.12
262.64	168.12
262.872	160.12
263.105	140.12
263.337	169.12
263.57	168.12
263.802	154.12
264.035	160.12
264.267	167.12
264.499	163.12
264.732	159.12
264.964	150.12
265.197	154.12
265.429	161.12
265.661	154.12
265.894	172.12
266.126	160.12
266.358	151.12
266.591	159.12
266.823	161.12
267.055	171.12
267.287	169.12
267.52	159.12
267.752	169.12
267.984	165.12
268.216	157.12
268.448	164.12
268.681	155.12
268.913	164.12
269.145	168.12
269.377	156.12
269.609	165.12
269.841	157.12
270.073	165.12
270.306	171.12
270.538	177.12
270.77	182.12
271.002	169.12
271.234	177.12
271.466	182.12
271.698	191.12
271.93	168.12
272.162	164.12
272.394	162.12
272.626	184.12
272.858	166.12
273.09	169.12
273.322	179.12
273.553	184.12
273.785	192.12
274.017	164.12
274.249	188.12
274.481	190.12
274.713	187.12
274.945	185.12
275.176	180.12
275.408	190.12
275.64	173.12
275.872	184.12
276.104	194.12
276.335	196.12
276.567	185.12
276.799	180.12
277.031	193.12
277.262	179.12
277.494	191.12
277.726	191.12
277.957	179.12
278.189	205.12
278.421	197.12
278.652	196.12
278.884	186.12
279.115	182.12
279.347	198.12
279.579	199.12
279.81	204.12
280.042	211.12
280.273	198.12
280.505	192.12
280.736	200.12
280.968	218.12
281.199	185.12
281.431	203.12
281.662	201.12
281.894	211.12
282.125	200.12
282.356	182.12
282.588	204.12
282.819	217.12
283.051	201.12
283.282	190.12
283.513	203.12
283.745	203.12
283.976	211.12
284.207	192.12
284.439	205.12
284.67	189.12
284.901	213.12
285.132	210.12
285.364	194.12
285.595	221.12
285.826	211.12
286.057	209.12
286.288	204.12
286.52	187.12
286.751	209.12
286.982	209.12
287.213	217.12
287.444	218.12
287.675	214.12
287.906	204.12
288.138	216.12
288.369	208.12
288.6	209.12
288.831	212.12
289.062	217.12
289.293	218.12
289.524	221.12
289.755	221.12
289.986	226.12
290.217	226.12
290.448	199.12
290.679	200.12
290.91	207.12
291.141	203.12
291.371	220.12
291.602	211.12
291.833	222.12
292.064	220.12
292.295	218.12
292.526	206.12
292.757	204.12
292.987	217.12
293.218	214.12
293.449	228.12
293.68	217.12
293.91	206.12
294.141	234.12
294.372	221.12
294.603	220.12
294.833	223.12
295.064	221.12
295.295	226.12
295.525	213.12
295.756	235.12
295.987	204.12
296.217	226.12
296.448	217.12
296.679	244.12
296.909	234.12
297.14	223.12
297.37	240.12
297.601	244.12
297.831	243.12
298.062	240.12
298.292	229.12
298.523	228.12
298.753	247.12
298.984	231.12
299.214	229.12
299.445	235.12
299.675	222.12
299.905	246.12
300.136	222.12
300.366	211.12
300.597	231.12
300.827	244.12
301.057	242.12
301.288	244.12
301.518	258.12
301.748	264.12
301.979	257.12
302.209	250.12
302.439	239.12
302.669	244.12
302.9	254.12
303.13	249.12
303.36	253.12
303.59	250.12
303.82	253.12
304.051	247.12
304.281	262.12
304.511	240.12
304.741	232.12
304.971	240.12
305.201	236.12
305.431	256.12
305.661	235.12
305.891	234.12
306.121	251.12
306.352	248.12
306.582	216.12
306.812	231.12
307.042	229.12
307.272	238.12
307.502	226.12
307.731	238.12
307.961	246.12
308.191	269.12
308.421	249.12
308.651	242.12
308.881	242.12
309.111	254.12
309.341	260.12
309.571	254.12
309.8	259.12
310.03	252.12
310.26	254.12
310.49	283.12
310.72	266.12
310.949	256.12
311.179	246.12
311.409	238.12
311.639	257.12
311.868	248.12
312.098	246.12
312.328	268.12
312.557	264.12
312.787	254.12
313.017	260.12
313.246	262.12
313.476	260.12
313.706	276.12
313.935	266.12
314.165	276.12
314.394	280.12
314.624	264.12
314.853	289.12
315.083	282.12
315.312	269.12
315.542	264.12
315.771	250.12
316.001	264.12
316.23	260.12
316.46	266.12
316.689	266.12
316.919	263.12
317.148	250.12
317.377	257.12
317.607	260.12
317.836	238.12
318.065	252.12
318.295	279.12
318.524	263.12
318.753	235.12
318.983	260.12
319.212	269.12
319.441	259.12
319.67	267.12
319.9	272.12
320.129	266.12
320.358	252.12
320.587	261.12
320.816	264.12
321.046	282.12
321.275	266.12
321.504	266.12
321.733	257.12
321.962	265.12
322.191	267.12
322.42	258.12
322.649	268.12
322.878	250.12
323.108	266.12
323.337	272.12
323.566	263.12
323.795	258.12
324.024	273.12
324.253	264.12
324.482	272.12
324.71	277.12
324.939	270.12
325.168	276.12
325.397	278.12
325.626	267.12
325.855	288.12
326.084	292.12
326.313	304.12
326.542	283.12
326.77	298.12
326.999	283.12
327.228	276.12
327.457	278.12
327.686	279.12
327.914	271.12
328.143	288.12
328.372	279.12
328.6	266.12
328.829	280.12
329.058	280.12
329.287	281.12
329.515	287.12
329.744	291.12
329.972	292.12
330.201	295.12
330.43	279.12
330.658	300.12
330.887	299.12
331.115	293.12
331.344	321.12
331.572	296.12
331.801	286.12
332.03	311.12
332.258	322.12
332.486	336.12
332.715	336.12
332.943	319.12
333.172	337.12
333.4	364.12
333.629	343.12
333.857	348.12
334.085	334.12
334.314	375.12
334.542	363.12
334.771	355.12
334.999	342.12
335.227	350.12
335.455	356.12
335.684	355.12
335.912	345.12
336.14	333.12
336.369	336.12
336.597	341.12
336.825	339.12
337.053	329.12
337.281	332.12
337.51	314.12
337.738	345.12
337.966	311.12
338.194	308.12
338.422	298.12
338.65	315.12
338.878	312.12
339.106	306.12
339.334	311.12
339.562	314.12
339.79	294.12
340.018	306.12
340.246	304.12
340.474	309.12
340.702	313.12
340.93	304.12
341.158	304.12
341.386	311.12
341.614	299.12
341.842	300.12
342.07	298.12
342.298	289.12
342.526	297.12
342.754	289.12
342.981	305.12
343.209	306.12
343.437	337.12
343.665	335.12
343.893	366.12
344.12	353.12
344.348	345.12
344.576	335.12
344.804	314.12
345.031	294.12
345.259	317.12
345.487	294.12
345.714	282.12
345.942	297.12
346.17	305.12
346.397	295.12
346.625	294.12
346.853	300.12
347.08	286.12
347.308	285.12
347.535	305.12
347.763	300.12
347.99	297.12
348.218	290.12
348.445	291.12
348.673	281.12
348.9	289.12
349.128	328.12
349.355	289.12
349.583	280.12
349.81	288.12
350.037	302.12
350.265	284.12
350.492	293.12
350.72	288.12
350.947	299.12
351.174	286.12
351.402	285.12
351.629	293.12
351.856	294.12
352.083	285.12
352.311	277.12
352.538	302.12
352.765	293.12
352.992	272.12
353.22	287.12
353.447	280.12
353.674	290.12
353.901	288.12
354.128	269.12
354.355	276.12
354.583	296.12
354.81	294.12
355.037	301.12
355.264	295.12
355.491	289.12
355.718	295.12
355.945	274.12
356.172	268.12
356.399	304.12
356.626	297.12
356.853	294.12
357.08	302.12
357.307	288.12
357.534	268.12
357.761	285.12
357.988	308.12
358.215	300.12
358.441	288.12
358.668	306.12
358.895	295.12
359.122	292.12
359.349	276.12
359.576	307.12
359.802	286.12
360.029	286.12
360.256	281.12
360.483	301.12
360.709	291.12
360.936	285.12
361.163	293.12
361.39	289.12
361.616	302.12
361.843	314.12
362.07	300.12
362.296	285.12
362.523	282.12
362.749	282.12
362.976	296.12
363.203	286.12
363.429	285.12
363.656	299.12
363.882	280.12
364.109	292.12
364.335	286.12
364.562	304.12
364.788	288.12
365.015	278.12
365.241	289.12
365.468	288.12
365.694	286.12
365.92	289.12
366.147	276.12
366.373	300.12
366.599	283.12
366.826	276.12
367.052	280.12
367.278	287.12
367.505	274.12
367.731	277.12
367.957	309.12
368.184	294.12
368.41	294.12
368.636	290.12
368.862	312.12
369.089	303.12
369.315	300.12
369.541	307.12
369.767	309.12
369.993	312.12
370.219	317.12
370.445	331.12
370.672	315.12
370.898	310.12
371.124	309.12
371.35	316.12
371.576	299.12
371.802	314.12
372.028	333.12
372.254	331.12
372.48	314.12
372.706	302.12
372.932	314.12
373.158	332.12
373.384	339.12
373.61	324.12
373.835	293.12
374.061	327.12
374.287	328.12
374.513	317.12
374.739	340.12
374.965	341.12
375.191	348.12
375.416	340.12
375.642	324.12
375.868	322.12
376.094	338.12
376.319	322.12
376.545	324.12
376.771	313.12
376.997	329.12
377.222	331.12
377.448	340.12
377.674	324.12
377.899	326.12
378.125	316.12
378.35	320.12
378.576	321.12
378.802	300.12
379.027	311.12
379.253	291.12
379.478	294.12
379.704	324.12
379.929	330.12
380.155	333.12
380.38	320.12
380.606	314.12
380.831	318.12
381.057	316.12
381.282	316.12
381.507	329.12
381.733	311.12
381.958	312.12
382.184	325.12
382.409	308.12
382.634	318.12
382.86	326.12
383.085	337.12
383.31	342.12
383.535	340.12
383.761	350.12
383.986	347.12
384.211	364.12
384.436	369.12
384.662	374.12
384.887	360.12
385.112	392.12
385.337	364.12
385.562	364.12
385.787	381.12
386.013	396.12
386.238	376.12
386.463	383.12
386.688	368.12
386.913	375.12
387.138	372.12
387.363	378.12
387.588	374.12
387.813	361.12
388.038	379.12
388.263	386.12
388.488	381.12
388.713	380.12
388.938	380.12
389.163	381.12
389.387	375.12
389.612	395.12
389.837	382.12
390.062	363.12
390.287	380.12
390.512	373.12
390.736	364.12
390.961	378.12
391.186	388.12
391.411	385.12
391.636	400.12
391.86	411.12
392.085	404.12
392.31	414.12
392.534	406.12
392.759	416.12
392.984	394.12
393.208	395.12
393.433	394.12
393.658	381.12
393.882	410.12
394.107	393.12
394.331	403.12
394.556	391.12
394.78	414.12
395.005	403.12
395.229	400.12
395.454	434.12
395.678	416.12
395.903	419.12
396.127	420.12
396.352	391.12
396.576	412.12
396.801	386.12
397.025	388.12
397.249	398.12
397.474	426.12
397.698	427.12
397.922	410.12
398.147	424.12
398.371	437.12
398.595	430.12
398.82	428.12
399.044	481.12
399.268	547.12
399.492	597.12
399.717	653.12
399.941	601.12
400.165	588.12
400.389	529.12
400.613	486.12
400.837	491.12
401.062	460.12
401.286	461.12
401.51	471.12
401.734	467.12
401.958	469.12
402.182	460.12
402.406	452.12
402.63	462.12
402.854	502.12
403.078	477.12
403.302	519.12
403.526	496.12
403.75	498.12
403.974	505.12
404.198	485.12
404.422	524.12
404.645	506.12
404.869	501.12
405.093	486.12
405.317	474.12
405.541	483.12
405.765	520.12
405.988	497.12
406.212	505.12
406.436	480.12
406.66	522.12
406.883	508.12
407.107	555.12
407.331	537.12
407.555	560.12
407.778	565.12
408.002	541.12
408.226	551.12
408.449	548.12
408.673	534.12
408.896	526.12
409.12	515.12
409.344	526.12
409.567	527.12
409.791	534.12
410.014	546.12
410.238	510.12
410.461	489.12
410.685	490.12
410.908	502.12
411.132	517.12
411.355	487.12
411.578	488.12
411.802	475.12
412.025	475.12
412.249	506.12
412.472	490.12
412.695	466.12
412.919	466.12
413.142	501.12
413.365	471.12
413.589	483.12
413.812	478.12
414.035	470.12
414.258	494.12
414.482	465.12
414.705	477.12
414.928	480.12
415.151	474.12
415.374	466.12
415.597	473.12
415.821	464.12
416.044	440.12
416.267	446.12
416.49	450.12
416.713	469.12
416.936	458.12
417.159	472.12
417.382	474.12
417.605	471.12
417.828	465.12
418.051	466.12
418.274	469.12
418.497	473.12
418.72	476.12
418.943	471.12
419.166	516.12
419.389	530.12
419.611	498.12
419.834	484.12
420.057	488.12
420.28	462.12
420.503	484.12
420.726	477.12
420.948	454.12
421.171	475.12
421.394	454.12
421.617	452.12
421.839	456.12
422.062	453.12
422.285	460.12
422.507	474.12
422.73	472.12
422.953	476.12
423.175	495.12
423.398	468.12
423.621	476.12
423.843	477.12
424.066	487.12
424.288	490.12
424.511	472.12
424.733	484.12
424.956	489.12
425.178	504.12
425.401	454.12
425.623	479.12
425.846	451.12
426.068	466.12
426.291	455.12
426.513	449.12
426.735	441.12
426.958	446.12
427.18	427.12
427.402	442.12
427.625	459.12
427.847	434.12
428.069	438.12
428.292	443.12
428.514	406.12
428.736	413.12
428.958	456.12
429.181	422.12
429.403	418.12
429.625	429.12
429.847	419.12
430.069	413.12
430.292	406.12
430.514	405.12
430.736	418.12
430.958	443.12
431.18	419.12
431.402	440.12
431.624	428.12
431.846	418.12
432.068	408.12
432.29	418.12
432.512	417.12
432.734	429.12
432.956	432.12
433.178	452.12
433.4	453.12
433.622	423.12
433.844	455.12
434.066	433.12
434.287	454.12
434.509	449.12
434.731	455.12
434.953	469.12
435.175	473.12
435.397	468.12
435.618	470.12
435.84	448.12
436.062	429.12
436.284	432.12
436.505	420.12
436.727	449.12
436.949	447.12
437.17	441.12
437.392	441.12
437.614	399.12
437.835	408.12
438.057	416.12
438.278	443.12
438.5	420.12
438.721	423.12
438.943	425.12
439.165	426.12
439.386	428.12
439.608	446.12
439.829	419.12
440.05	436.12
440.272	449.12
440.493	434.12
440.715	436.12
440.936	465.12
441.158	448.12
441.379	468.12
441.6	475.12
441.822	483.12
442.043	464.12
442.264	450.12
442.486	470.12
442.707	493.12
442.928	469.12
443.149	467.12
443.371	453.12
443.592	476.12
443.813	468.12
444.034	489.12
444.255	493.12
444.476	516.12
444.698	505.12
444.919	549.12
445.14	594.12
445.361	533.12
445.582	500.12
445.803	490.12
446.024	461.12
446.245	461.12
446.466	458.12
446.687	440.12
446.908	452.12
447.129	462.12
447.35	447.12
447.571	437.12
447.792	411.12
448.013	420.12
448.234	421.12
448.455	420.12
448.675	407.12
448.896	425.12
449.117	414.12
449.338	389.12
449.559	404.12
449.779	405.12
450	403.12
450.221	406.12
450.442	413.12
450.662	400.12
450.883	407.12
451.104	394.12
451.324	382.12
451.545	384.12
451.766	421.12
451.986	400.12
452.207	406.12
452.428	421.12
452.648	419.12
452.869	409.12
453.089	399.12
453.31	399.12
453.53	388.12
453.751	384.12
453.971	385.12
454.192	379.12
454.412	392.12
454.633	391.12
454.853	392.12
455.073	384.12
455.294	404.12
455.514	381.12
455.734	393.12
455.955	381.12
456.175	371.12
456.395	386.12
456.616	382.12
456.836	368.12
457.056	387.12
457.276	381.12
457.497	377.12
457.717	390.12
457.937	380.12
458.157	400.12
458.377	379.12
458.598	397.12
458.818	399.12
459.038	420.12
459.258	418.12
459.478	396.12
459.698	431.12
459.918	443.12
460.138	477.12
460.358	469.12
460.578	488.12
460.798	503.12
461.018	494.12
461.238	487.12
461.458	481.12
461.678	496.12
461.898	486.12
462.118	481.12
462.338	521.12
462.558	556.12
462.777	550.12
462.997	572.12
463.217	608.12
463.437	619.12
463.657	583.12
463.876	578.12
464.096	558.12
464.316	549.12
464.536	554.12
464.755	544.12
464.975	520.12
465.195	474.12
465.414	496.12
465.634	472.12
465.854	454.12
466.073	440.12
466.293	441.12
466.512	421.12
466.732	406.12
466.951	414.12
467.171	431.12
467.391	424.12
467.61	398.12
467.829	412.12
468.049	416.12
468.268	407.12
468.488	392.12
468.707	405.12
468.927	419.12
469.146	413.12
469.365	404.12
469.585	394.12
469.804	420.12
470.023	416.12
470.243	419.12
470.462	430.12
470.681	438.12
470.901	422.12
471.12	408.12
471.339	413.12
471.558	413.12
471.777	406.12
471.997	405.12
472.216	413.12
472.435	397.12
472.654	409.12
472.873	409.12
473.092	381.12
473.311	404.12
473.53	392.12
473.749	416.12
473.968	391.12
474.187	377.12
474.406	396.12
474.625	405.12
474.844	398.12
475.063	408.12
475.282	377.12
475.501	389.12
475.72	410.12
475.939	396.12
476.158	390.12
476.377	401.12
476.596	412.12
476.814	418.12
477.033	413.12
477.252	408.12
477.471	425.12
477.69	435.12
477.908	451.12
478.127	466.12
478.346	450.12
478.564	483.12
478.783	429.12
479.002	469.12
479.22	472.12
479.439	458.12
479.658	470.12
479.876	475.12
480.095	453.12
480.313	501.12
480.532	487.12
480.751	490.12
480.969	471.12
481.188	451.12
481.406	440.12
481.624	458.12
481.843	430.12
482.061	461.12
482.28	440.12
482.498	426.12
482.717	432.12
482.935	426.12
483.153	437.12
483.372	443.12
483.59	448.12
483.808	444.12
484.027	441.12
484.245	436.12
484.463	438.12
484.681	447.12
484.9	461.12
485.118	448.12
485.336	442.12
485.554	446.12
485.772	461.12
485.99	461.12
486.209	447.12
486.427	442.12
486.645	447.12
486.863	448.12
487.081	466.12
487.299	454.12
487.517	447.12
487.735	470.12
487.953	452.12
488.171	467.12
488.389	469.12
488.607	446.12
488.825	428.12
489.043	436.12
489.261	447.12
489.479	462.12
489.696	461.12
489.914	449.12
490.132	456.12
490.35	441.12
490.568	455.12
490.786	436.12
491.003	460.12
491.221	461.12
491.439	456.12
491.657	468.12
491.874	465.12
492.092	466.12
492.31	487.12
492.527	483.12
492.745	474.12
492.963	444.12
493.18	469.12
493.398	486.12
493.615	463.12
493.833	478.12
494.05	480.12
494.268	476.12
494.485	473.12
494.703	473.12
494.92	482.12
495.138	486.12
495.355	505.12
495.573	474.12
495.79	492.12
496.008	481.12
496.225	495.12
496.442	495.12
496.66	491.12
496.877	498.12
497.094	507.12
497.312	510.12
497.529	520.12
497.746	528.12
497.963	550.12
498.181	577.12
498.398	594.12
498.615	645.12
498.832	652.12
499.049	683.12
499.267	734.12
499.484	792.12
499.701	867.12
499.918	938.12
500.135	1061.12
500.352	1184.12
500.569	1184.12
500.786	1179.12
501.003	1087.12
501.22	981.12
501.437	901.12
501.654	816.12
501.871	763.12
