Data from Fe(NO3)3@0.05M.TitratingCurve.Agarose3%dH2O.NegLispCup.LampEnergy10.LIBS07252019_HRD10591_16-48-23-334.txt Node
Date: Thu Jul 25 16:48:23 EDT 2019
User: cochatt
Spectrometer: HR+D1059
Trigger mode: 1
Integration Time (sec): 1.000000E-1
Scans to average: 1
Electric dark correction enabled: true
Nonlinearity correction enabled: false
Boxcar width: 0
XAxis mode: Wavelengths
Number of Pixels in Spectrum: 2048
>>>>>Begin Spectral Data<<<<<
223.165	-13.06
223.4	-13.06
223.635	-13.06
223.869	-25.06
224.104	-10.06
224.338	-0.06
224.573	-25.06
224.808	-6.06
225.042	-9.06
225.277	-2.06
225.511	1.94
225.746	8.94
225.98	1.94
226.215	10.94
226.449	11.94
226.683	13.94
226.918	22.94
227.152	17.94
227.387	32.94
227.621	41.94
227.856	50.94
228.09	50.94
228.324	70.94
228.559	55.94
228.793	57.94
229.027	73.94
229.262	70.94
229.496	61.94
229.73	78.94
229.964	81.94
230.199	93.94
230.433	83.94
230.667	87.94
230.901	75.94
231.136	86.94
231.37	99.94
231.604	90.94
231.838	89.94
232.072	95.94
232.306	76.94
232.541	95.94
232.775	96.94
233.009	90.94
233.243	93.94
233.477	82.94
233.711	96.94
233.945	97.94
234.179	100.94
234.413	98.94
234.647	106.94
234.881	87.94
235.115	75.94
235.349	87.94
235.583	93.94
235.817	83.94
236.051	85.94
236.285	91.94
236.519	84.94
236.753	88.94
236.987	91.94
237.221	82.94
237.455	85.94
237.689	85.94
237.922	79.94
238.156	91.94
238.39	88.94
238.624	92.94
238.858	93.94
239.091	93.94
239.325	97.94
239.559	85.94
239.793	110.94
240.027	91.94
240.26	106.94
240.494	105.94
240.728	90.94
240.961	91.94
241.195	99.94
241.429	103.94
241.662	87.94
241.896	116.94
242.13	91.94
242.363	110.94
242.597	94.94
242.83	98.94
243.064	108.94
243.298	103.94
243.531	103.94
243.765	96.94
243.998	107.94
244.232	96.94
244.465	93.94
244.699	102.94
244.932	96.94
245.166	93.94
245.399	105.94
245.633	99.94
245.866	92.94
246.099	116.94
246.333	99.94
246.566	113.94
246.8	105.94
247.033	97.94
247.266	108.94
247.5	100.94
247.733	104.94
247.966	91.94
248.2	108.94
248.433	105.94
248.666	101.94
248.899	117.94
249.133	104.94
249.366	103.94
249.599	106.94
249.832	117.94
250.066	117.94
250.299	103.94
250.532	98.94
250.765	113.94
250.998	121.94
251.231	104.94
251.465	109.94
251.698	124.94
251.931	97.94
252.164	118.94
252.397	119.94
252.63	105.94
252.863	117.94
253.096	102.94
253.329	113.94
253.562	107.94
253.795	125.94
254.028	119.94
254.261	110.94
254.494	104.94
254.727	114.94
254.96	121.94
255.193	104.94
255.426	109.94
255.659	104.94
255.892	116.94
256.124	111.94
256.357	110.94
256.59	135.94
256.823	120.94
257.056	118.94
257.289	114.94
257.521	123.94
257.754	121.94
257.987	117.94
258.22	120.94
258.452	129.94
258.685	116.94
258.918	116.94
259.151	121.94
259.383	127.94
259.616	119.94
259.849	125.94
260.081	133.94
260.314	136.94
260.547	117.94
260.779	125.94
261.012	127.94
261.244	122.94
261.477	131.94
261.71	121.94
261.942	128.94
262.175	122.94
262.407	139.94
262.64	135.94
262.872	137.94
263.105	133.94
263.337	141.94
263.57	119.94
263.802	125.94
264.035	129.94
264.267	125.94
264.499	132.94
264.732	144.94
264.964	133.94
265.197	120.94
265.429	125.94
265.661	130.94
265.894	133.94
266.126	141.94
266.358	131.94
266.591	127.94
266.823	122.94
267.055	114.94
267.287	131.94
267.52	116.94
267.752	133.94
267.984	130.94
268.216	126.94
268.448	123.94
268.681	137.94
268.913	133.94
269.145	143.94
269.377	129.94
269.609	129.94
269.841	123.94
270.073	137.94
270.306	126.94
270.538	136.94
270.77	137.94
271.002	126.94
271.234	129.94
271.466	131.94
271.698	150.94
271.93	129.94
272.162	151.94
272.394	121.94
272.626	138.94
272.858	147.94
273.09	131.94
273.322	138.94
273.553	123.94
273.785	146.94
274.017	153.94
274.249	135.94
274.481	145.94
274.713	146.94
274.945	150.94
275.176	161.94
275.408	147.94
275.64	163.94
275.872	155.94
276.104	149.94
276.335	136.94
276.567	161.94
276.799	136.94
277.031	153.94
277.262	137.94
277.494	146.94
277.726	147.94
277.957	140.94
278.189	145.94
278.421	151.94
278.652	131.94
278.884	152.94
279.115	144.94
279.347	146.94
279.579	161.94
279.81	162.94
280.042	145.94
280.273	145.94
280.505	152.94
280.736	154.94
280.968	155.94
281.199	150.94
281.431	132.94
281.662	158.94
281.894	150.94
282.125	141.94
282.356	152.94
282.588	168.94
282.819	139.94
283.051	139.94
283.282	161.94
283.513	159.94
283.745	152.94
283.976	155.94
284.207	154.94
284.439	145.94
284.67	165.94
284.901	167.94
285.132	169.94
285.364	164.94
285.595	150.94
285.826	153.94
286.057	176.94
286.288	143.94
286.52	145.94
286.751	153.94
286.982	172.94
287.213	152.94
287.444	153.94
287.675	168.94
287.906	159.94
288.138	175.94
288.369	171.94
288.6	168.94
288.831	158.94
289.062	165.94
289.293	163.94
289.524	142.94
289.755	180.94
289.986	159.94
290.217	153.94
290.448	161.94
290.679	153.94
290.91	143.94
291.141	161.94
291.371	161.94
291.602	151.94
291.833	157.94
292.064	163.94
292.295	170.94
292.526	156.94
292.757	172.94
292.987	169.94
293.218	159.94
293.449	159.94
293.68	157.94
293.91	158.94
294.141	150.94
294.372	179.94
294.603	176.94
294.833	171.94
295.064	158.94
295.295	174.94
295.525	159.94
295.756	174.94
295.987	158.94
296.217	163.94
296.448	158.94
296.679	171.94
296.909	169.94
297.14	168.94
297.37	173.94
297.601	173.94
297.831	170.94
298.062	174.94
298.292	179.94
298.523	175.94
298.753	183.94
298.984	178.94
299.214	183.94
299.445	193.94
299.675	181.94
299.905	187.94
300.136	162.94
300.366	165.94
300.597	179.94
300.827	169.94
301.057	190.94
301.288	187.94
301.518	166.94
301.748	161.94
301.979	194.94
302.209	188.94
302.439	181.94
302.669	200.94
302.9	180.94
303.13	182.94
303.36	189.94
303.59	177.94
303.82	183.94
304.051	186.94
304.281	188.94
304.511	185.94
304.741	186.94
304.971	185.94
305.201	194.94
305.431	161.94
305.661	184.94
305.891	177.94
306.121	182.94
306.352	185.94
306.582	174.94
306.812	192.94
307.042	192.94
307.272	183.94
307.502	184.94
307.731	170.94
307.961	184.94
308.191	184.94
308.421	191.94
308.651	175.94
308.881	189.94
309.111	177.94
309.341	160.94
309.571	183.94
309.8	173.94
310.03	208.94
310.26	194.94
310.49	192.94
310.72	171.94
310.949	197.94
311.179	187.94
311.409	189.94
311.639	168.94
311.868	192.94
312.098	205.94
312.328	177.94
312.557	195.94
312.787	183.94
313.017	195.94
313.246	191.94
313.476	199.94
313.706	190.94
313.935	186.94
314.165	194.94
314.394	191.94
314.624	179.94
314.853	182.94
315.083	180.94
315.312	189.94
315.542	189.94
315.771	188.94
316.001	193.94
316.23	179.94
316.46	182.94
316.689	186.94
316.919	202.94
317.148	193.94
317.377	193.94
317.607	198.94
317.836	189.94
318.065	196.94
318.295	195.94
318.524	184.94
318.753	193.94
318.983	185.94
319.212	191.94
319.441	200.94
319.67	190.94
319.9	197.94
320.129	193.94
320.358	200.94
320.587	193.94
320.816	201.94
321.046	196.94
321.275	194.94
321.504	192.94
321.733	194.94
321.962	204.94
322.191	185.94
322.42	181.94
322.649	205.94
322.878	194.94
323.108	195.94
323.337	191.94
323.566	189.94
323.795	186.94
324.024	195.94
324.253	195.94
324.482	202.94
324.71	190.94
324.939	207.94
325.168	214.94
325.397	216.94
325.626	210.94
325.855	198.94
326.084	191.94
326.313	203.94
326.542	201.94
326.77	202.94
326.999	211.94
327.228	202.94
327.457	202.94
327.686	208.94
327.914	190.94
328.143	202.94
328.372	199.94
328.6	222.94
328.829	218.94
329.058	212.94
329.287	199.94
329.515	195.94
329.744	206.94
329.972	207.94
330.201	215.94
330.43	227.94
330.658	214.94
330.887	208.94
331.115	200.94
331.344	218.94
331.572	211.94
331.801	217.94
332.03	221.94
332.258	202.94
332.486	221.94
332.715	232.94
332.943	225.94
333.172	235.94
333.4	237.94
333.629	214.94
333.857	257.94
334.085	235.94
334.314	247.94
334.542	231.94
334.771	248.94
334.999	232.94
335.227	231.94
335.455	225.94
335.684	227.94
335.912	241.94
336.14	244.94
336.369	243.94
336.597	243.94
336.825	244.94
337.053	239.94
337.281	227.94
337.51	244.94
337.738	231.94
337.966	219.94
338.194	212.94
338.422	215.94
338.65	213.94
338.878	230.94
339.106	212.94
339.334	226.94
339.562	228.94
339.79	211.94
340.018	201.94
340.246	214.94
340.474	219.94
340.702	215.94
340.93	231.94
341.158	219.94
341.386	218.94
341.614	211.94
341.842	209.94
342.07	203.94
342.298	203.94
342.526	211.94
342.754	218.94
342.981	225.94
343.209	207.94
343.437	209.94
343.665	215.94
343.893	221.94
344.12	237.94
344.348	243.94
344.576	224.94
344.804	223.94
345.031	230.94
345.259	217.94
345.487	222.94
345.714	191.94
345.942	212.94
346.17	211.94
346.397	192.94
346.625	199.94
346.853	221.94
347.08	203.94
347.308	214.94
347.535	211.94
347.763	200.94
347.99	199.94
348.218	211.94
348.445	213.94
348.673	222.94
348.9	209.94
349.128	216.94
349.355	202.94
349.583	212.94
349.81	217.94
350.037	211.94
350.265	193.94
350.492	217.94
350.72	212.94
350.947	197.94
351.174	212.94
351.402	216.94
351.629	221.94
351.856	202.94
352.083	210.94
352.311	213.94
352.538	206.94
352.765	208.94
352.992	198.94
353.22	218.94
353.447	210.94
353.674	200.94
353.901	207.94
354.128	197.94
354.355	191.94
354.583	206.94
354.81	211.94
355.037	201.94
355.264	195.94
355.491	188.94
355.718	210.94
355.945	206.94
356.172	207.94
356.399	220.94
356.626	192.94
356.853	212.94
357.08	201.94
357.307	221.94
357.534	203.94
357.761	225.94
357.988	208.94
358.215	190.94
358.441	210.94
358.668	210.94
358.895	214.94
359.122	206.94
359.349	211.94
359.576	208.94
359.802	211.94
360.029	220.94
360.256	202.94
360.483	215.94
360.709	214.94
360.936	227.94
361.163	221.94
361.39	214.94
361.616	207.94
361.843	208.94
362.07	214.94
362.296	204.94
362.523	220.94
362.749	215.94
362.976	213.94
363.203	218.94
363.429	207.94
363.656	216.94
363.882	203.94
364.109	213.94
364.335	212.94
364.562	208.94
364.788	232.94
365.015	223.94
365.241	227.94
365.468	209.94
365.694	214.94
365.92	221.94
366.147	215.94
366.373	205.94
366.599	211.94
366.826	237.94
367.052	217.94
367.278	207.94
367.505	192.94
367.731	217.94
367.957	198.94
368.184	218.94
368.41	208.94
368.636	233.94
368.862	227.94
369.089	231.94
369.315	221.94
369.541	223.94
369.767	226.94
369.993	215.94
370.219	226.94
370.445	233.94
370.672	233.94
370.898	231.94
371.124	225.94
371.35	223.94
371.576	217.94
371.802	221.94
372.028	219.94
372.254	237.94
372.48	224.94
372.706	210.94
372.932	223.94
373.158	251.94
373.384	232.94
373.61	240.94
373.835	251.94
374.061	241.94
374.287	224.94
374.513	233.94
374.739	254.94
374.965	252.94
375.191	256.94
375.416	246.94
375.642	227.94
375.868	237.94
376.094	260.94
376.319	239.94
376.545	245.94
376.771	228.94
376.997	230.94
377.222	227.94
377.448	244.94
377.674	232.94
377.899	219.94
378.125	210.94
378.35	230.94
378.576	225.94
378.802	232.94
379.027	239.94
379.253	238.94
379.478	226.94
379.704	226.94
379.929	237.94
380.155	226.94
380.38	227.94
380.606	231.94
380.831	224.94
381.057	223.94
381.282	241.94
381.507	255.94
381.733	238.94
381.958	241.94
382.184	253.94
382.409	249.94
382.634	248.94
382.86	256.94
383.085	242.94
383.31	250.94
383.535	261.94
383.761	239.94
383.986	260.94
384.211	253.94
384.436	239.94
384.662	263.94
384.887	269.94
385.112	259.94
385.337	259.94
385.562	257.94
385.787	260.94
386.013	277.94
386.238	283.94
386.463	261.94
386.688	251.94
386.913	247.94
387.138	262.94
387.363	271.94
387.588	279.94
387.813	260.94
388.038	279.94
388.263	246.94
388.488	268.94
388.713	283.94
388.938	270.94
389.163	265.94
389.387	273.94
389.612	261.94
389.837	258.94
390.062	273.94
390.287	268.94
390.512	274.94
390.736	259.94
390.961	265.94
391.186	282.94
391.411	282.94
391.636	284.94
391.86	281.94
392.085	292.94
392.31	291.94
392.534	292.94
392.759	268.94
392.984	282.94
393.208	287.94
393.433	281.94
393.658	273.94
393.882	287.94
394.107	289.94
394.331	294.94
394.556	280.94
394.78	273.94
395.005	296.94
395.229	306.94
395.454	286.94
395.678	292.94
395.903	305.94
396.127	311.94
396.352	289.94
396.576	297.94
396.801	276.94
397.025	296.94
397.249	315.94
397.474	302.94
397.698	283.94
397.922	306.94
398.147	300.94
398.371	324.94
398.595	301.94
398.82	310.94
399.044	337.94
399.268	337.94
399.492	358.94
399.717	383.94
399.941	391.94
400.165	369.94
400.389	353.94
400.613	367.94
400.837	335.94
401.062	339.94
401.286	331.94
401.51	333.94
401.734	317.94
401.958	316.94
402.182	338.94
402.406	311.94
402.63	340.94
402.854	308.94
403.078	345.94
403.302	331.94
403.526	338.94
403.75	341.94
403.974	336.94
404.198	330.94
404.422	339.94
404.645	345.94
404.869	357.94
405.093	344.94
405.317	340.94
405.541	338.94
405.765	328.94
405.988	335.94
406.212	365.94
406.436	334.94
406.66	361.94
406.883	371.94
407.107	379.94
407.331	386.94
407.555	388.94
407.778	394.94
408.002	375.94
408.226	373.94
408.449	383.94
408.673	351.94
408.896	383.94
409.12	355.94
409.344	374.94
409.567	389.94
409.791	351.94
410.014	362.94
410.238	354.94
410.461	360.94
410.685	372.94
410.908	348.94
411.132	360.94
411.355	354.94
411.578	335.94
411.802	350.94
412.025	341.94
412.249	356.94
412.472	350.94
412.695	346.94
412.919	342.94
413.142	340.94
413.365	342.94
413.589	339.94
413.812	351.94
414.035	353.94
414.258	334.94
414.482	323.94
414.705	348.94
414.928	338.94
415.151	357.94
415.374	335.94
415.597	343.94
415.821	341.94
416.044	325.94
416.267	328.94
416.49	335.94
416.713	317.94
416.936	303.94
417.159	307.94
417.382	307.94
417.605	322.94
417.828	332.94
418.051	335.94
418.274	312.94
418.497	327.94
418.72	372.94
418.943	339.94
419.166	347.94
419.389	358.94
419.611	351.94
419.834	354.94
420.057	350.94
420.28	333.94
420.503	320.94
420.726	337.94
420.948	314.94
421.171	321.94
421.394	330.94
421.617	336.94
421.839	340.94
422.062	339.94
422.285	337.94
422.507	329.94
422.73	340.94
422.953	347.94
423.175	337.94
423.398	322.94
423.621	325.94
423.843	350.94
424.066	323.94
424.288	333.94
424.511	352.94
424.733	318.94
424.956	327.94
425.178	333.94
425.401	328.94
425.623	358.94
425.846	330.94
426.068	324.94
426.291	334.94
426.513	322.94
426.735	327.94
426.958	339.94
427.18	329.94
427.402	321.94
427.625	318.94
427.847	306.94
428.069	321.94
428.292	337.94
428.514	308.94
428.736	321.94
428.958	311.94
429.181	322.94
429.403	315.94
429.625	317.94
429.847	314.94
430.069	320.94
430.292	309.94
430.514	332.94
430.736	318.94
430.958	337.94
431.18	305.94
431.402	329.94
431.624	289.94
431.846	307.94
432.068	307.94
432.29	329.94
432.512	297.94
432.734	340.94
432.956	314.94
433.178	320.94
433.4	322.94
433.622	321.94
433.844	323.94
434.066	310.94
434.287	329.94
434.509	326.94
434.731	322.94
434.953	311.94
435.175	328.94
435.397	337.94
435.618	330.94
435.84	313.94
436.062	303.94
436.284	324.94
436.505	323.94
436.727	333.94
436.949	337.94
437.17	318.94
437.392	305.94
437.614	291.94
437.835	321.94
438.057	317.94
438.278	328.94
438.5	315.94
438.721	322.94
438.943	333.94
439.165	328.94
439.386	312.94
439.608	331.94
439.829	321.94
440.05	321.94
440.272	319.94
440.493	323.94
440.715	310.94
440.936	321.94
441.158	310.94
441.379	337.94
441.6	350.94
441.822	370.94
442.043	346.94
442.264	343.94
442.486	342.94
442.707	335.94
442.928	352.94
443.149	362.94
443.371	344.94
443.592	314.94
443.813	337.94
444.034	335.94
444.255	337.94
444.476	355.94
444.698	376.94
444.919	375.94
445.14	488.94
445.361	417.94
445.582	340.94
445.803	351.94
446.024	339.94
446.245	355.94
446.466	340.94
446.687	342.94
446.908	343.94
447.129	335.94
447.35	328.94
447.571	341.94
447.792	305.94
448.013	311.94
448.234	311.94
448.455	313.94
448.675	320.94
448.896	295.94
449.117	317.94
449.338	334.94
449.559	313.94
449.779	306.94
450	292.94
450.221	311.94
450.442	293.94
450.662	295.94
450.883	302.94
451.104	311.94
451.324	320.94
451.545	315.94
451.766	315.94
451.986	294.94
452.207	310.94
452.428	318.94
452.648	308.94
452.869	285.94
453.089	298.94
453.31	291.94
453.53	282.94
453.751	292.94
453.971	304.94
454.192	289.94
454.412	289.94
454.633	274.94
454.853	282.94
455.073	293.94
455.294	287.94
455.514	282.94
455.734	290.94
455.955	295.94
456.175	269.94
456.395	283.94
456.616	273.94
456.836	286.94
457.056	277.94
457.276	277.94
457.497	274.94
457.717	286.94
457.937	282.94
458.157	293.94
458.377	296.94
458.598	301.94
458.818	317.94
459.038	289.94
459.258	297.94
459.478	320.94
459.698	313.94
459.918	334.94
460.138	336.94
460.358	341.94
460.578	353.94
460.798	345.94
461.018	339.94
461.238	350.94
461.458	357.94
461.678	346.94
461.898	362.94
462.118	363.94
462.338	354.94
462.558	372.94
462.777	381.94
462.997	383.94
463.217	404.94
463.437	414.94
463.657	379.94
463.876	383.94
464.096	389.94
464.316	372.94
464.536	394.94
464.755	381.94
464.975	359.94
465.195	354.94
465.414	341.94
465.634	334.94
465.854	336.94
466.073	325.94
466.293	329.94
466.512	335.94
466.732	323.94
466.951	319.94
467.171	323.94
467.391	311.94
467.61	305.94
467.829	317.94
468.049	297.94
468.268	314.94
468.488	316.94
468.707	303.94
468.927	305.94
469.146	310.94
469.365	317.94
469.585	309.94
469.804	313.94
470.023	307.94
470.243	317.94
470.462	327.94
470.681	318.94
470.901	307.94
471.12	323.94
471.339	314.94
471.558	319.94
471.777	338.94
471.997	294.94
472.216	316.94
472.435	317.94
472.654	290.94
472.873	287.94
473.092	291.94
473.311	308.94
473.53	297.94
473.749	305.94
473.968	305.94
474.187	301.94
474.406	296.94
474.625	312.94
474.844	301.94
475.063	304.94
475.282	320.94
475.501	296.94
475.72	326.94
475.939	291.94
476.158	295.94
476.377	311.94
476.596	314.94
476.814	318.94
477.033	317.94
477.252	326.94
477.471	333.94
477.69	331.94
477.908	347.94
478.127	349.94
478.346	341.94
478.564	352.94
478.783	348.94
479.002	338.94
479.22	362.94
479.439	365.94
479.658	376.94
479.876	344.94
480.095	339.94
480.313	348.94
480.532	375.94
480.751	338.94
480.969	370.94
481.188	340.94
481.406	358.94
481.624	339.94
481.843	340.94
482.061	343.94
482.28	351.94
482.498	358.94
482.717	352.94
482.935	335.94
483.153	338.94
483.372	344.94
483.59	345.94
483.808	347.94
484.027	350.94
484.245	354.94
484.463	344.94
484.681	342.94
484.9	359.94
485.118	373.94
485.336	331.94
485.554	365.94
485.772	349.94
485.99	341.94
486.209	360.94
486.427	352.94
486.645	354.94
486.863	354.94
487.081	361.94
487.299	347.94
487.517	357.94
487.735	367.94
487.953	375.94
488.171	371.94
488.389	368.94
488.607	361.94
488.825	353.94
489.043	354.94
489.261	357.94
489.479	373.94
489.696	354.94
489.914	363.94
490.132	363.94
490.35	362.94
490.568	358.94
490.786	362.94
491.003	362.94
491.221	359.94
491.439	381.94
491.657	379.94
491.874	370.94
492.092	376.94
492.31	383.94
492.527	402.94
492.745	379.94
492.963	369.94
493.18	362.94
493.398	377.94
493.615	375.94
493.833	362.94
494.05	374.94
494.268	373.94
494.485	356.94
494.703	368.94
494.92	365.94
495.138	361.94
495.355	359.94
495.573	387.94
495.79	376.94
496.008	392.94
496.225	365.94
496.442	375.94
496.66	389.94
496.877	385.94
497.094	415.94
497.312	417.94
497.529	400.94
497.746	400.94
497.963	396.94
498.181	431.94
498.398	439.94
498.615	449.94
498.832	473.94
499.049	483.94
499.267	516.94
499.484	536.94
499.701	594.94
499.918	604.94
500.135	634.94
500.352	715.94
500.569	721.94
500.786	689.94
501.003	687.94
501.22	626.94
501.437	601.94
501.654	553.94
501.871	510.94
502.088	506.94
502.305	482.94
502.522	463.94
