Data from Fe(NO3)3@0.0125M.TitratingCurve.Agarose3%dH2O.NegLispCup.LampEnergy10.LIBS07252019_HRD10591_17-01-22-337.txt Node
Date: Thu Jul 25 17:01:22 EDT 2019
User: cochatt
Spectrometer: HR+D1059
Trigger mode: 1
Integration Time (sec): 1.000000E-1
Scans to average: 1
Electric dark correction enabled: true
Nonlinearity correction enabled: false
Boxcar width: 0
XAxis mode: Wavelengths
Number of Pixels in Spectrum: 2048
>>>>>Begin Spectral Data<<<<<
223.165	-27.19
223.4	-27.19
223.635	-27.19
223.869	-22.19
224.104	-24.19
224.338	-17.19
224.573	1.81
224.808	-9.19
225.042	-4.19
225.277	-9.19
225.511	-9.19
225.746	13.81
225.98	6.81
226.215	-5.19
226.449	20.81
226.683	13.81
226.918	28.81
227.152	41.81
227.387	35.81
227.621	29.81
227.856	42.81
228.09	23.81
228.324	50.81
228.559	68.81
228.793	63.81
229.027	82.81
229.262	84.81
229.496	77.81
229.73	92.81
229.964	85.81
230.199	86.81
230.433	92.81
230.667	101.81
230.901	100.81
231.136	96.81
231.37	95.81
231.604	101.81
231.838	106.81
232.072	109.81
232.306	82.81
232.541	101.81
232.775	91.81
233.009	107.81
233.243	117.81
233.477	100.81
233.711	99.81
233.945	110.81
234.179	117.81
234.413	106.81
234.647	101.81
234.881	114.81
235.115	81.81
235.349	96.81
235.583	102.81
235.817	113.81
236.051	107.81
236.285	102.81
236.519	110.81
236.753	101.81
236.987	116.81
237.221	94.81
237.455	100.81
237.689	116.81
237.922	115.81
238.156	96.81
238.39	116.81
238.624	103.81
238.858	106.81
239.091	116.81
239.325	107.81
239.559	108.81
239.793	112.81
240.027	116.81
240.26	105.81
240.494	115.81
240.728	112.81
240.961	114.81
241.195	116.81
241.429	120.81
241.662	113.81
241.896	125.81
242.13	120.81
242.363	107.81
242.597	110.81
242.83	132.81
243.064	112.81
243.298	114.81
243.531	124.81
243.765	120.81
243.998	121.81
244.232	123.81
244.465	119.81
244.699	120.81
244.932	119.81
245.166	142.81
245.399	124.81
245.633	120.81
245.866	128.81
246.099	123.81
246.333	118.81
246.566	121.81
246.8	120.81
247.033	134.81
247.266	120.81
247.5	123.81
247.733	125.81
247.966	133.81
248.2	146.81
248.433	130.81
248.666	124.81
248.899	140.81
249.133	139.81
249.366	149.81
249.599	143.81
249.832	143.81
250.066	149.81
250.299	130.81
250.532	143.81
250.765	121.81
250.998	150.81
251.231	131.81
251.465	126.81
251.698	149.81
251.931	147.81
252.164	140.81
252.397	138.81
252.63	135.81
252.863	132.81
253.096	146.81
253.329	140.81
253.562	132.81
253.795	147.81
254.028	163.81
254.261	158.81
254.494	140.81
254.727	151.81
254.96	146.81
255.193	158.81
255.426	153.81
255.659	148.81
255.892	146.81
256.124	162.81
256.357	167.81
256.59	154.81
256.823	141.81
257.056	146.81
257.289	169.81
257.521	186.81
257.754	161.81
257.987	146.81
258.22	142.81
258.452	154.81
258.685	174.81
258.918	152.81
259.151	157.81
259.383	148.81
259.616	163.81
259.849	147.81
260.081	157.81
260.314	184.81
260.547	164.81
260.779	160.81
261.012	182.81
261.244	174.81
261.477	171.81
261.71	173.81
261.942	168.81
262.175	168.81
262.407	168.81
262.64	176.81
262.872	175.81
263.105	182.81
263.337	172.81
263.57	170.81
263.802	163.81
264.035	187.81
264.267	168.81
264.499	205.81
264.732	175.81
264.964	179.81
265.197	169.81
265.429	169.81
265.661	186.81
265.894	175.81
266.126	184.81
266.358	150.81
266.591	186.81
266.823	188.81
267.055	177.81
267.287	185.81
267.52	184.81
267.752	181.81
267.984	184.81
268.216	181.81
268.448	194.81
268.681	179.81
268.913	190.81
269.145	189.81
269.377	186.81
269.609	174.81
269.841	180.81
270.073	196.81
270.306	201.81
270.538	190.81
270.77	200.81
271.002	212.81
271.234	190.81
271.466	207.81
271.698	197.81
271.93	189.81
272.162	205.81
272.394	202.81
272.626	198.81
272.858	197.81
273.09	202.81
273.322	189.81
273.553	193.81
273.785	205.81
274.017	210.81
274.249	214.81
274.481	207.81
274.713	212.81
274.945	226.81
275.176	221.81
275.408	204.81
275.64	204.81
275.872	217.81
276.104	217.81
276.335	223.81
276.567	208.81
276.799	196.81
277.031	214.81
277.262	214.81
277.494	224.81
277.726	199.81
277.957	183.81
278.189	209.81
278.421	215.81
278.652	233.81
278.884	224.81
279.115	232.81
279.347	214.81
279.579	209.81
279.81	225.81
280.042	235.81
280.273	221.81
280.505	224.81
280.736	221.81
280.968	228.81
281.199	231.81
281.431	225.81
281.662	214.81
281.894	217.81
282.125	227.81
282.356	238.81
282.588	224.81
282.819	227.81
283.051	211.81
283.282	235.81
283.513	229.81
283.745	230.81
283.976	223.81
284.207	224.81
284.439	232.81
284.67	237.81
284.901	240.81
285.132	237.81
285.364	224.81
285.595	245.81
285.826	230.81
286.057	228.81
286.288	249.81
286.52	223.81
286.751	252.81
286.982	252.81
287.213	251.81
287.444	259.81
287.675	234.81
287.906	250.81
288.138	249.81
288.369	258.81
288.6	245.81
288.831	248.81
289.062	240.81
289.293	252.81
289.524	246.81
289.755	244.81
289.986	250.81
290.217	255.81
290.448	251.81
290.679	246.81
290.91	249.81
291.141	254.81
291.371	251.81
291.602	260.81
291.833	257.81
292.064	237.81
292.295	254.81
292.526	281.81
292.757	248.81
292.987	258.81
293.218	264.81
293.449	260.81
293.68	262.81
293.91	264.81
294.141	269.81
294.372	252.81
294.603	258.81
294.833	261.81
295.064	291.81
295.295	285.81
295.525	274.81
295.756	268.81
295.987	258.81
296.217	262.81
296.448	266.81
296.679	261.81
296.909	256.81
297.14	273.81
297.37	261.81
297.601	278.81
297.831	273.81
298.062	271.81
298.292	279.81
298.523	276.81
298.753	287.81
298.984	274.81
299.214	284.81
299.445	271.81
299.675	281.81
299.905	289.81
300.136	276.81
300.366	264.81
300.597	284.81
300.827	284.81
301.057	280.81
301.288	283.81
301.518	285.81
301.748	295.81
301.979	275.81
302.209	294.81
302.439	301.81
302.669	293.81
302.9	298.81
303.13	313.81
303.36	284.81
303.59	286.81
303.82	298.81
304.051	300.81
304.281	275.81
304.511	293.81
304.741	298.81
304.971	293.81
305.201	305.81
305.431	291.81
305.661	288.81
305.891	303.81
306.121	308.81
306.352	298.81
306.582	310.81
306.812	296.81
307.042	297.81
307.272	335.81
307.502	306.81
307.731	305.81
307.961	308.81
308.191	304.81
308.421	310.81
308.651	291.81
308.881	310.81
309.111	313.81
309.341	306.81
309.571	311.81
309.8	294.81
310.03	290.81
310.26	305.81
310.49	305.81
310.72	321.81
310.949	297.81
311.179	312.81
311.409	334.81
311.639	314.81
311.868	315.81
312.098	323.81
312.328	328.81
312.557	311.81
312.787	319.81
313.017	324.81
313.246	309.81
313.476	313.81
313.706	317.81
313.935	317.81
314.165	325.81
314.394	333.81
314.624	338.81
314.853	324.81
315.083	326.81
315.312	351.81
315.542	329.81
315.771	330.81
316.001	317.81
316.23	338.81
316.46	323.81
316.689	342.81
316.919	321.81
317.148	327.81
317.377	359.81
317.607	325.81
317.836	333.81
318.065	343.81
318.295	343.81
318.524	325.81
318.753	340.81
318.983	333.81
319.212	329.81
319.441	344.81
319.67	339.81
319.9	345.81
320.129	328.81
320.358	348.81
320.587	345.81
320.816	335.81
321.046	354.81
321.275	355.81
321.504	343.81
321.733	344.81
321.962	345.81
322.191	344.81
322.42	348.81
322.649	352.81
322.878	347.81
323.108	357.81
323.337	351.81
323.566	359.81
323.795	348.81
324.024	346.81
324.253	353.81
324.482	357.81
324.71	362.81
324.939	346.81
325.168	354.81
325.397	356.81
325.626	369.81
325.855	352.81
326.084	368.81
326.313	349.81
326.542	346.81
326.77	353.81
326.999	370.81
327.228	352.81
327.457	346.81
327.686	373.81
327.914	368.81
328.143	368.81
328.372	363.81
328.6	363.81
328.829	363.81
329.058	364.81
329.287	377.81
329.515	361.81
329.744	377.81
329.972	354.81
330.201	387.81
330.43	345.81
330.658	355.81
330.887	383.81
331.115	371.81
331.344	378.81
331.572	374.81
331.801	384.81
332.03	390.81
332.258	405.81
332.486	358.81
332.715	373.81
332.943	424.81
333.172	394.81
333.4	410.81
333.629	404.81
333.857	432.81
334.085	420.81
334.314	417.81
334.542	402.81
334.771	418.81
334.999	395.81
335.227	424.81
335.455	415.81
335.684	452.81
335.912	414.81
336.14	404.81
336.369	409.81
336.597	402.81
336.825	412.81
337.053	422.81
337.281	388.81
337.51	425.81
337.738	398.81
337.966	407.81
338.194	401.81
338.422	403.81
338.65	393.81
338.878	410.81
339.106	394.81
339.334	414.81
339.562	409.81
339.79	414.81
340.018	387.81
340.246	390.81
340.474	410.81
340.702	383.81
340.93	394.81
341.158	404.81
341.386	402.81
341.614	415.81
341.842	417.81
342.07	399.81
342.298	392.81
342.526	395.81
342.754	398.81
342.981	408.81
343.209	405.81
343.437	414.81
343.665	432.81
343.893	432.81
344.12	419.81
344.348	427.81
344.576	416.81
344.804	413.81
345.031	393.81
345.259	398.81
345.487	406.81
345.714	413.81
345.942	397.81
346.17	388.81
346.397	388.81
346.625	378.81
346.853	396.81
347.08	358.81
347.308	389.81
347.535	392.81
347.763	408.81
347.99	376.81
348.218	378.81
348.445	390.81
348.673	376.81
348.9	382.81
349.128	392.81
349.355	388.81
349.583	392.81
349.81	386.81
350.037	384.81
350.265	383.81
350.492	375.81
350.72	374.81
350.947	392.81
351.174	388.81
351.402	388.81
351.629	390.81
351.856	379.81
352.083	374.81
352.311	370.81
352.538	369.81
352.765	404.81
352.992	370.81
353.22	372.81
353.447	378.81
353.674	394.81
353.901	377.81
354.128	365.81
354.355	361.81
354.583	370.81
354.81	377.81
355.037	385.81
355.264	371.81
355.491	376.81
355.718	385.81
355.945	392.81
356.172	380.81
356.399	394.81
356.626	380.81
356.853	399.81
357.08	388.81
357.307	380.81
357.534	387.81
357.761	404.81
357.988	404.81
358.215	397.81
358.441	388.81
358.668	398.81
358.895	390.81
359.122	383.81
359.349	387.81
359.576	379.81
359.802	391.81
360.029	390.81
360.256	388.81
360.483	380.81
360.709	394.81
360.936	402.81
361.163	396.81
361.39	382.81
361.616	390.81
361.843	403.81
362.07	391.81
362.296	383.81
362.523	388.81
362.749	391.81
362.976	384.81
363.203	404.81
363.429	388.81
363.656	399.81
363.882	403.81
364.109	399.81
364.335	401.81
364.562	399.81
364.788	405.81
365.015	395.81
365.241	404.81
365.468	419.81
365.694	407.81
365.92	413.81
366.147	403.81
366.373	396.81
366.599	402.81
366.826	374.81
367.052	397.81
367.278	399.81
367.505	428.81
367.731	418.81
367.957	416.81
368.184	408.81
368.41	418.81
368.636	405.81
368.862	392.81
369.089	396.81
369.315	414.81
369.541	430.81
369.767	437.81
369.993	404.81
370.219	427.81
370.445	406.81
370.672	426.81
370.898	423.81
371.124	428.81
371.35	430.81
371.576	412.81
371.802	420.81
372.028	424.81
372.254	434.81
372.48	428.81
372.706	428.81
372.932	448.81
373.158	438.81
373.384	448.81
373.61	444.81
373.835	436.81
374.061	427.81
374.287	438.81
374.513	418.81
374.739	448.81
374.965	448.81
375.191	419.81
375.416	437.81
375.642	413.81
375.868	448.81
376.094	421.81
376.319	412.81
376.545	426.81
376.771	429.81
376.997	431.81
377.222	431.81
377.448	450.81
377.674	444.81
377.899	438.81
378.125	429.81
378.35	421.81
378.576	424.81
378.802	417.81
379.027	420.81
379.253	415.81
379.478	420.81
379.704	421.81
379.929	423.81
380.155	426.81
380.38	401.81
380.606	412.81
380.831	427.81
381.057	423.81
381.282	433.81
381.507	422.81
381.733	444.81
381.958	436.81
382.184	440.81
382.409	418.81
382.634	437.81
382.86	448.81
383.085	441.81
383.31	451.81
383.535	462.81
383.761	452.81
383.986	459.81
384.211	448.81
384.436	446.81
384.662	463.81
384.887	452.81
385.112	440.81
385.337	462.81
385.562	459.81
385.787	482.81
386.013	480.81
386.238	466.81
386.463	475.81
386.688	473.81
386.913	467.81
387.138	466.81
387.363	502.81
387.588	452.81
387.813	471.81
388.038	476.81
388.263	483.81
388.488	484.81
388.713	510.81
388.938	474.81
389.163	483.81
389.387	493.81
389.612	472.81
389.837	483.81
390.062	490.81
390.287	501.81
390.512	500.81
390.736	511.81
390.961	500.81
391.186	500.81
391.411	521.81
391.636	514.81
391.86	509.81
392.085	503.81
392.31	520.81
392.534	521.81
392.759	518.81
392.984	536.81
393.208	525.81
393.433	535.81
393.658	494.81
393.882	493.81
394.107	526.81
394.331	510.81
394.556	496.81
394.78	491.81
395.005	502.81
395.229	523.81
395.454	514.81
395.678	532.81
395.903	523.81
396.127	534.81
396.352	513.81
396.576	537.81
396.801	520.81
397.025	530.81
397.249	520.81
397.474	560.81
397.698	530.81
397.922	526.81
398.147	566.81
398.371	598.81
398.595	561.81
398.82	573.81
399.044	574.81
399.268	618.81
399.492	630.81
399.717	642.81
399.941	644.81
400.165	636.81
400.389	635.81
400.613	602.81
400.837	592.81
401.062	604.81
401.286	580.81
401.51	568.81
401.734	572.81
401.958	577.81
402.182	562.81
402.406	580.81
402.63	562.81
402.854	592.81
403.078	585.81
403.302	580.81
403.526	571.81
403.75	576.81
403.974	558.81
404.198	564.81
404.422	603.81
404.645	587.81
404.869	586.81
405.093	581.81
405.317	576.81
405.541	571.81
405.765	576.81
405.988	575.81
406.212	605.81
406.436	590.81
406.66	598.81
406.883	603.81
407.107	637.81
407.331	627.81
407.555	615.81
407.778	620.81
408.002	646.81
408.226	628.81
408.449	621.81
408.673	630.81
408.896	617.81
409.12	598.81
409.344	604.81
409.567	602.81
409.791	604.81
410.014	610.81
410.238	584.81
410.461	591.81
410.685	624.81
410.908	602.81
411.132	568.81
411.355	580.81
411.578	577.81
411.802	585.81
412.025	592.81
412.249	584.81
412.472	585.81
412.695	582.81
412.919	556.81
413.142	575.81
413.365	582.81
413.589	569.81
413.812	578.81
414.035	577.81
414.258	569.81
414.482	559.81
414.705	585.81
414.928	561.81
415.151	560.81
415.374	588.81
415.597	547.81
415.821	562.81
416.044	554.81
416.267	545.81
416.49	582.81
416.713	556.81
416.936	549.81
417.159	538.81
417.382	538.81
417.605	519.81
417.828	532.81
418.051	550.81
418.274	549.81
418.497	553.81
418.72	550.81
418.943	546.81
419.166	557.81
419.389	582.81
419.611	588.81
419.834	584.81
420.057	567.81
420.28	545.81
420.503	544.81
420.726	537.81
420.948	535.81
421.171	544.81
421.394	546.81
421.617	542.81
421.839	536.81
422.062	542.81
422.285	536.81
422.507	548.81
422.73	545.81
422.953	535.81
423.175	526.81
423.398	551.81
423.621	527.81
423.843	556.81
424.066	547.81
424.288	554.81
424.511	528.81
424.733	564.81
424.956	524.81
425.178	548.81
425.401	523.81
425.623	537.81
425.846	538.81
426.068	547.81
426.291	520.81
426.513	542.81
426.735	537.81
426.958	542.81
427.18	523.81
427.402	514.81
427.625	525.81
427.847	512.81
428.069	516.81
428.292	515.81
428.514	525.81
428.736	524.81
428.958	531.81
429.181	508.81
429.403	529.81
429.625	516.81
429.847	522.81
430.069	499.81
430.292	525.81
430.514	523.81
430.736	537.81
430.958	516.81
431.18	525.81
431.402	506.81
431.624	511.81
431.846	529.81
432.068	524.81
432.29	535.81
432.512	505.81
432.734	526.81
432.956	515.81
433.178	520.81
433.4	522.81
433.622	499.81
433.844	535.81
434.066	514.81
434.287	541.81
434.509	531.81
434.731	516.81
434.953	553.81
435.175	537.81
435.397	537.81
435.618	527.81
435.84	520.81
436.062	538.81
436.284	506.81
436.505	505.81
436.727	519.81
436.949	523.81
437.17	522.81
437.392	524.81
437.614	507.81
437.835	489.81
438.057	526.81
438.278	490.81
438.5	477.81
438.721	502.81
438.943	500.81
439.165	509.81
439.386	492.81
439.608	510.81
439.829	537.81
440.05	492.81
440.272	492.81
440.493	502.81
440.715	516.81
440.936	520.81
441.158	514.81
441.379	524.81
441.6	518.81
441.822	537.81
442.043	518.81
442.264	508.81
442.486	519.81
442.707	535.81
442.928	519.81
443.149	531.81
443.371	529.81
443.592	556.81
443.813	522.81
444.034	534.81
444.255	530.81
444.476	541.81
444.698	552.81
444.919	530.81
445.14	630.81
445.361	584.81
445.582	556.81
445.803	523.81
446.024	532.81
446.245	524.81
446.466	501.81
446.687	527.81
446.908	505.81
447.129	486.81
447.35	480.81
447.571	498.81
447.792	494.81
448.013	488.81
448.234	481.81
448.455	477.81
448.675	490.81
448.896	490.81
449.117	472.81
449.338	489.81
449.559	471.81
449.779	474.81
450	482.81
450.221	449.81
450.442	473.81
450.662	482.81
450.883	479.81
451.104	457.81
451.324	453.81
451.545	465.81
451.766	453.81
451.986	466.81
452.207	453.81
452.428	462.81
452.648	477.81
452.869	447.81
453.089	462.81
453.31	454.81
453.53	442.81
453.751	468.81
453.971	452.81
454.192	457.81
454.412	476.81
454.633	445.81
454.853	463.81
455.073	446.81
455.294	460.81
455.514	447.81
455.734	455.81
455.955	455.81
456.175	454.81
456.395	453.81
456.616	446.81
456.836	472.81
457.056	487.81
457.276	469.81
457.497	470.81
457.717	472.81
457.937	474.81
458.157	461.81
458.377	489.81
458.598	481.81
458.818	484.81
459.038	485.81
459.258	501.81
459.478	495.81
459.698	493.81
459.918	516.81
460.138	521.81
460.358	543.81
460.578	534.81
460.798	566.81
461.018	537.81
461.238	556.81
461.458	567.81
461.678	578.81
461.898	570.81
462.118	577.81
462.338	582.81
462.558	573.81
462.777	563.81
462.997	603.81
463.217	598.81
463.437	623.81
463.657	594.81
463.876	596.81
464.096	628.81
464.316	582.81
464.536	578.81
464.755	570.81
464.975	579.81
465.195	566.81
465.414	553.81
465.634	544.81
465.854	526.81
466.073	511.81
466.293	536.81
466.512	508.81
466.732	512.81
466.951	510.81
467.171	505.81
467.391	505.81
467.61	496.81
467.829	511.81
468.049	499.81
468.268	488.81
468.488	507.81
468.707	509.81
468.927	486.81
469.146	500.81
469.365	513.81
469.585	497.81
469.804	523.81
470.023	502.81
470.243	496.81
470.462	518.81
470.681	527.81
470.901	489.81
471.12	512.81
471.339	502.81
471.558	501.81
471.777	529.81
471.997	494.81
472.216	482.81
472.435	509.81
472.654	510.81
472.873	494.81
473.092	490.81
473.311	492.81
473.53	520.81
473.749	484.81
473.968	480.81
474.187	501.81
474.406	509.81
474.625	509.81
474.844	525.81
475.063	486.81
475.282	502.81
475.501	534.81
475.72	515.81
475.939	523.81
476.158	526.81
476.377	553.81
476.596	536.81
476.814	535.81
477.033	552.81
477.252	547.81
477.471	555.81
477.69	542.81
477.908	547.81
478.127	538.81
478.346	598.81
478.564	578.81
478.783	580.81
479.002	579.81
479.22	577.81
479.439	585.81
479.658	605.81
479.876	605.81
480.095	603.81
480.313	606.81
480.532	601.81
480.751	597.81
480.969	619.81
481.188	584.81
481.406	615.81
481.624	582.81
481.843	605.81
482.061	597.81
482.28	582.81
482.498	596.81
482.717	593.81
482.935	609.81
483.153	618.81
483.372	614.81
483.59	604.81
483.808	598.81
484.027	648.81
484.245	620.81
484.463	624.81
484.681	592.81
484.9	627.81
485.118	620.81
485.336	624.81
485.554	617.81
485.772	635.81
485.99	654.81
486.209	617.81
486.427	608.81
486.645	642.81
486.863	632.81
487.081	660.81
487.299	626.81
487.517	604.81
487.735	652.81
487.953	636.81
488.171	632.81
488.389	617.81
488.607	620.81
488.825	628.81
489.043	634.81
489.261	610.81
489.479	612.81
489.696	615.81
489.914	621.81
490.132	636.81
490.35	630.81
490.568	619.81
490.786	634.81
491.003	618.81
491.221	624.81
491.439	619.81
491.657	625.81
491.874	629.81
492.092	658.81
492.31	636.81
492.527	625.81
492.745	637.81
492.963	635.81
493.18	643.81
493.398	627.81
493.615	644.81
493.833	614.81
494.05	625.81
494.268	642.81
494.485	677.81
494.703	640.81
494.92	668.81
495.138	658.81
495.355	659.81
495.573	645.81
495.79	663.81
496.008	664.81
496.225	689.81
496.442	682.81
496.66	659.81
496.877	679.81
497.094	704.81
497.312	725.81
497.529	712.81
497.746	715.81
497.963	739.81
498.181	746.81
498.398	787.81
498.615	804.81
498.832	838.81
499.049	847.81
499.267	860.81
499.484	899.81
499.701	912.81
499.918	990.81
500.135	976.81
500.352	1043.81
500.569	1039.81
500.786	1041.81
501.003	1036.81
501.22	973.81
501.437	955.81
501.654	914.81
