Data from Fe(NO3)3@0.1M.TitratingCurve.Agarose3%dH2O.NegLispCup.LampEnergy10.LIBS07252019_HRD10591_16-38-29-332.txt Node
Date: Thu Jul 25 16:38:29 EDT 2019
User: cochatt
Spectrometer: HR+D1059
Trigger mode: 1
Integration Time (sec): 1.000000E-1
Scans to average: 1
Electric dark correction enabled: true
Nonlinearity correction enabled: false
Boxcar width: 0
XAxis mode: Wavelengths
Number of Pixels in Spectrum: 2048
>>>>>Begin Spectral Data<<<<<
223.165	-5.25
223.4	-5.25
223.635	-5.25
223.869	-14.25
224.104	-8.25
224.338	-11.25
224.573	1.75
224.808	-21.25
225.042	-14.25
225.277	-8.25
225.511	1.75
225.746	2.75
225.98	5.75
226.215	8.75
226.449	3.75
226.683	13.75
226.918	21.75
227.152	22.75
227.387	39.75
227.621	33.75
227.856	47.75
228.09	43.75
228.324	60.75
228.559	60.75
228.793	49.75
229.027	57.75
229.262	66.75
229.496	65.75
229.73	74.75
229.964	66.75
230.199	66.75
230.433	77.75
230.667	76.75
230.901	72.75
231.136	82.75
231.37	76.75
231.604	71.75
231.838	79.75
232.072	87.75
232.306	82.75
232.541	77.75
232.775	85.75
233.009	75.75
233.243	78.75
233.477	90.75
233.711	88.75
233.945	100.75
234.179	90.75
234.413	69.75
234.647	97.75
234.881	77.75
235.115	78.75
235.349	92.75
235.583	78.75
235.817	85.75
236.051	89.75
236.285	89.75
236.519	83.75
236.753	98.75
236.987	80.75
237.221	85.75
237.455	77.75
237.689	89.75
237.922	77.75
238.156	92.75
238.39	82.75
238.624	81.75
238.858	74.75
239.091	76.75
239.325	72.75
239.559	66.75
239.793	76.75
240.027	76.75
240.26	97.75
240.494	86.75
240.728	76.75
240.961	83.75
241.195	84.75
241.429	97.75
241.662	85.75
241.896	86.75
242.13	90.75
242.363	101.75
242.597	84.75
242.83	88.75
243.064	77.75
243.298	81.75
243.531	89.75
243.765	83.75
243.998	92.75
244.232	94.75
244.465	82.75
244.699	82.75
244.932	82.75
245.166	88.75
245.399	101.75
245.633	79.75
245.866	79.75
246.099	91.75
246.333	88.75
246.566	77.75
246.8	80.75
247.033	88.75
247.266	97.75
247.5	95.75
247.733	76.75
247.966	87.75
248.2	84.75
248.433	96.75
248.666	101.75
248.899	97.75
249.133	100.75
249.366	89.75
249.599	77.75
249.832	90.75
250.066	92.75
250.299	97.75
250.532	85.75
250.765	80.75
250.998	97.75
251.231	83.75
251.465	91.75
251.698	92.75
251.931	98.75
252.164	81.75
252.397	97.75
252.63	104.75
252.863	89.75
253.096	99.75
253.329	94.75
253.562	90.75
253.795	91.75
254.028	94.75
254.261	90.75
254.494	100.75
254.727	99.75
254.96	106.75
255.193	97.75
255.426	85.75
255.659	91.75
255.892	101.75
256.124	96.75
256.357	85.75
256.59	82.75
256.823	83.75
257.056	104.75
257.289	97.75
257.521	85.75
257.754	89.75
257.987	97.75
258.22	101.75
258.452	94.75
258.685	87.75
258.918	90.75
259.151	91.75
259.383	77.75
259.616	96.75
259.849	105.75
260.081	98.75
260.314	92.75
260.547	98.75
260.779	89.75
261.012	89.75
261.244	90.75
261.477	101.75
261.71	105.75
261.942	97.75
262.175	93.75
262.407	85.75
262.64	90.75
262.872	95.75
263.105	96.75
263.337	106.75
263.57	107.75
263.802	105.75
264.035	109.75
264.267	104.75
264.499	110.75
264.732	104.75
264.964	101.75
265.197	100.75
265.429	103.75
265.661	102.75
265.894	110.75
266.126	107.75
266.358	94.75
266.591	100.75
266.823	92.75
267.055	82.75
267.287	101.75
267.52	93.75
267.752	96.75
267.984	106.75
268.216	108.75
268.448	89.75
268.681	97.75
268.913	98.75
269.145	102.75
269.377	107.75
269.609	99.75
269.841	106.75
270.073	99.75
270.306	92.75
270.538	95.75
270.77	106.75
271.002	104.75
271.234	113.75
271.466	93.75
271.698	101.75
271.93	93.75
272.162	107.75
272.394	108.75
272.626	105.75
272.858	110.75
273.09	103.75
273.322	102.75
273.553	96.75
273.785	99.75
274.017	93.75
274.249	99.75
274.481	110.75
274.713	96.75
274.945	92.75
275.176	106.75
275.408	116.75
275.64	101.75
275.872	118.75
276.104	92.75
276.335	105.75
276.567	109.75
276.799	111.75
277.031	111.75
277.262	97.75
277.494	109.75
277.726	107.75
277.957	102.75
278.189	101.75
278.421	97.75
278.652	115.75
278.884	120.75
279.115	89.75
279.347	99.75
279.579	113.75
279.81	101.75
280.042	106.75
280.273	115.75
280.505	105.75
280.736	106.75
280.968	106.75
281.199	102.75
281.431	107.75
281.662	118.75
281.894	108.75
282.125	87.75
282.356	97.75
282.588	98.75
282.819	113.75
283.051	81.75
283.282	92.75
283.513	115.75
283.745	117.75
283.976	106.75
284.207	106.75
284.439	107.75
284.67	118.75
284.901	103.75
285.132	103.75
285.364	111.75
285.595	99.75
285.826	105.75
286.057	104.75
286.288	108.75
286.52	113.75
286.751	113.75
286.982	116.75
287.213	101.75
287.444	113.75
287.675	107.75
287.906	107.75
288.138	94.75
288.369	117.75
288.6	110.75
288.831	104.75
289.062	108.75
289.293	102.75
289.524	117.75
289.755	117.75
289.986	105.75
290.217	106.75
290.448	111.75
290.679	119.75
290.91	110.75
291.141	105.75
291.371	118.75
291.602	113.75
291.833	123.75
292.064	107.75
292.295	103.75
292.526	126.75
292.757	115.75
292.987	107.75
293.218	115.75
293.449	110.75
293.68	107.75
293.91	112.75
294.141	101.75
294.372	117.75
294.603	117.75
294.833	114.75
295.064	121.75
295.295	119.75
295.525	106.75
295.756	90.75
295.987	118.75
296.217	117.75
296.448	115.75
296.679	121.75
296.909	119.75
297.14	110.75
297.37	115.75
297.601	117.75
297.831	109.75
298.062	117.75
298.292	110.75
298.523	108.75
298.753	116.75
298.984	102.75
299.214	108.75
299.445	124.75
299.675	131.75
299.905	125.75
300.136	133.75
300.366	133.75
300.597	118.75
300.827	110.75
301.057	111.75
301.288	129.75
301.518	107.75
301.748	127.75
301.979	116.75
302.209	123.75
302.439	116.75
302.669	119.75
302.9	117.75
303.13	125.75
303.36	121.75
303.59	113.75
303.82	109.75
304.051	122.75
304.281	122.75
304.511	97.75
304.741	109.75
304.971	108.75
305.201	133.75
305.431	113.75
305.661	125.75
305.891	131.75
306.121	120.75
306.352	118.75
306.582	107.75
306.812	115.75
307.042	123.75
307.272	117.75
307.502	120.75
307.731	120.75
307.961	117.75
308.191	117.75
308.421	123.75
308.651	129.75
308.881	119.75
309.111	122.75
309.341	117.75
309.571	109.75
309.8	125.75
310.03	118.75
310.26	121.75
310.49	113.75
310.72	125.75
310.949	120.75
311.179	116.75
311.409	123.75
311.639	115.75
311.868	127.75
312.098	122.75
312.328	125.75
312.557	127.75
312.787	135.75
313.017	108.75
313.246	114.75
313.476	117.75
313.706	106.75
313.935	119.75
314.165	139.75
314.394	134.75
314.624	115.75
314.853	122.75
315.083	104.75
315.312	115.75
315.542	119.75
315.771	106.75
316.001	107.75
316.23	103.75
316.46	117.75
316.689	119.75
316.919	112.75
317.148	116.75
317.377	132.75
317.607	140.75
317.836	102.75
318.065	123.75
318.295	127.75
318.524	119.75
318.753	124.75
318.983	122.75
319.212	123.75
319.441	131.75
319.67	124.75
319.9	112.75
320.129	125.75
320.358	123.75
320.587	130.75
320.816	117.75
321.046	120.75
321.275	127.75
321.504	122.75
321.733	122.75
321.962	117.75
322.191	111.75
322.42	122.75
322.649	131.75
322.878	126.75
323.108	115.75
323.337	121.75
323.566	114.75
323.795	129.75
324.024	119.75
324.253	124.75
324.482	116.75
324.71	116.75
324.939	118.75
325.168	129.75
325.397	119.75
325.626	124.75
325.855	119.75
326.084	125.75
326.313	119.75
326.542	131.75
326.77	135.75
326.999	144.75
327.228	134.75
327.457	121.75
327.686	141.75
327.914	114.75
328.143	135.75
328.372	116.75
328.6	132.75
328.829	141.75
329.058	141.75
329.287	123.75
329.515	119.75
329.744	129.75
329.972	134.75
330.201	124.75
330.43	123.75
330.658	122.75
330.887	127.75
331.115	130.75
331.344	141.75
331.572	126.75
331.801	117.75
332.03	125.75
332.258	118.75
332.486	125.75
332.715	144.75
332.943	107.75
333.172	133.75
333.4	149.75
333.629	142.75
333.857	140.75
334.085	132.75
334.314	135.75
334.542	146.75
334.771	132.75
334.999	133.75
335.227	135.75
335.455	136.75
335.684	137.75
335.912	134.75
336.14	132.75
336.369	132.75
336.597	148.75
336.825	148.75
337.053	138.75
337.281	128.75
337.51	125.75
337.738	138.75
337.966	125.75
338.194	131.75
338.422	116.75
338.65	127.75
338.878	140.75
339.106	124.75
339.334	137.75
339.562	123.75
339.79	133.75
340.018	111.75
340.246	113.75
340.474	123.75
340.702	126.75
340.93	124.75
341.158	135.75
341.386	127.75
341.614	124.75
341.842	123.75
342.07	131.75
342.298	132.75
342.526	137.75
342.754	122.75
342.981	127.75
343.209	111.75
343.437	134.75
343.665	134.75
343.893	149.75
344.12	140.75
344.348	133.75
344.576	126.75
344.804	131.75
345.031	141.75
345.259	146.75
345.487	142.75
345.714	129.75
345.942	120.75
346.17	121.75
346.397	121.75
346.625	124.75
346.853	128.75
347.08	126.75
347.308	129.75
347.535	129.75
347.763	127.75
347.99	124.75
348.218	131.75
348.445	131.75
348.673	135.75
348.9	133.75
349.128	120.75
349.355	149.75
349.583	124.75
349.81	125.75
350.037	117.75
350.265	133.75
350.492	126.75
350.72	144.75
350.947	137.75
351.174	125.75
351.402	124.75
351.629	124.75
351.856	131.75
352.083	140.75
352.311	129.75
352.538	132.75
352.765	131.75
352.992	120.75
353.22	138.75
353.447	126.75
353.674	127.75
353.901	104.75
354.128	113.75
354.355	117.75
354.583	127.75
354.81	137.75
355.037	125.75
355.264	115.75
355.491	118.75
355.718	120.75
355.945	134.75
356.172	126.75
356.399	128.75
356.626	117.75
356.853	134.75
357.08	135.75
357.307	143.75
357.534	131.75
357.761	130.75
357.988	126.75
358.215	117.75
358.441	109.75
358.668	131.75
358.895	122.75
359.122	121.75
359.349	130.75
359.576	126.75
359.802	131.75
360.029	124.75
360.256	110.75
360.483	120.75
360.709	125.75
360.936	124.75
361.163	122.75
361.39	134.75
361.616	125.75
361.843	135.75
362.07	125.75
362.296	124.75
362.523	125.75
362.749	118.75
362.976	124.75
363.203	140.75
363.429	118.75
363.656	121.75
363.882	121.75
364.109	133.75
364.335	129.75
364.562	126.75
364.788	127.75
365.015	127.75
365.241	122.75
365.468	134.75
365.694	130.75
365.92	137.75
366.147	133.75
366.373	123.75
366.599	125.75
366.826	143.75
367.052	142.75
367.278	126.75
367.505	115.75
367.731	139.75
367.957	121.75
368.184	130.75
368.41	130.75
368.636	140.75
368.862	120.75
369.089	118.75
369.315	113.75
369.541	123.75
369.767	139.75
369.993	123.75
370.219	127.75
370.445	139.75
370.672	130.75
370.898	118.75
371.124	131.75
371.35	136.75
371.576	129.75
371.802	127.75
372.028	133.75
372.254	129.75
372.48	128.75
372.706	132.75
372.932	137.75
373.158	137.75
373.384	147.75
373.61	139.75
373.835	118.75
374.061	130.75
374.287	131.75
374.513	149.75
374.739	137.75
374.965	149.75
375.191	151.75
375.416	132.75
375.642	129.75
375.868	135.75
376.094	155.75
376.319	133.75
376.545	141.75
376.771	136.75
376.997	147.75
377.222	129.75
377.448	127.75
377.674	129.75
377.899	134.75
378.125	129.75
378.35	137.75
378.576	129.75
378.802	141.75
379.027	133.75
379.253	132.75
379.478	138.75
379.704	126.75
379.929	126.75
380.155	147.75
380.38	137.75
380.606	139.75
380.831	141.75
381.057	157.75
381.282	140.75
381.507	138.75
381.733	128.75
381.958	148.75
382.184	152.75
382.409	139.75
382.634	139.75
382.86	146.75
383.085	160.75
383.31	151.75
383.535	158.75
383.761	152.75
383.986	140.75
384.211	157.75
384.436	149.75
384.662	163.75
384.887	155.75
385.112	157.75
385.337	153.75
385.562	150.75
385.787	159.75
386.013	164.75
386.238	155.75
386.463	155.75
386.688	157.75
386.913	145.75
387.138	150.75
387.363	157.75
387.588	177.75
387.813	171.75
388.038	168.75
388.263	149.75
388.488	153.75
388.713	157.75
388.938	164.75
389.163	149.75
389.387	152.75
389.612	161.75
389.837	150.75
390.062	177.75
390.287	161.75
390.512	159.75
390.736	171.75
390.961	158.75
391.186	162.75
391.411	163.75
391.636	159.75
391.86	183.75
392.085	167.75
392.31	167.75
392.534	166.75
392.759	177.75
392.984	172.75
393.208	165.75
393.433	164.75
393.658	172.75
393.882	176.75
394.107	164.75
394.331	176.75
394.556	173.75
394.78	170.75
395.005	183.75
395.229	171.75
395.454	182.75
395.678	172.75
395.903	162.75
396.127	182.75
396.352	170.75
396.576	171.75
396.801	157.75
397.025	172.75
397.249	173.75
397.474	166.75
397.698	170.75
397.922	171.75
398.147	171.75
398.371	183.75
398.595	169.75
398.82	179.75
399.044	195.75
399.268	216.75
399.492	222.75
399.717	249.75
399.941	249.75
400.165	226.75
400.389	214.75
400.613	206.75
400.837	206.75
401.062	201.75
401.286	206.75
401.51	186.75
401.734	174.75
401.958	183.75
402.182	206.75
402.406	194.75
402.63	196.75
402.854	207.75
403.078	199.75
403.302	215.75
403.526	209.75
403.75	189.75
403.974	215.75
404.198	203.75
404.422	201.75
404.645	214.75
404.869	193.75
405.093	201.75
405.317	211.75
405.541	214.75
405.765	213.75
405.988	202.75
406.212	191.75
406.436	215.75
406.66	216.75
406.883	211.75
407.107	218.75
407.331	237.75
407.555	224.75
407.778	229.75
408.002	221.75
408.226	214.75
408.449	238.75
408.673	213.75
408.896	206.75
409.12	212.75
409.344	216.75
409.567	197.75
409.791	207.75
410.014	205.75
410.238	199.75
410.461	215.75
410.685	214.75
410.908	222.75
411.132	221.75
411.355	190.75
411.578	194.75
411.802	198.75
412.025	201.75
412.249	206.75
412.472	204.75
412.695	207.75
412.919	197.75
413.142	190.75
413.365	199.75
413.589	199.75
413.812	206.75
414.035	215.75
414.258	196.75
414.482	203.75
414.705	203.75
414.928	206.75
415.151	209.75
415.374	187.75
415.597	221.75
415.821	206.75
416.044	179.75
416.267	205.75
416.49	186.75
416.713	191.75
416.936	203.75
417.159	208.75
417.382	180.75
417.605	189.75
417.828	200.75
418.051	209.75
418.274	204.75
418.497	200.75
418.72	218.75
418.943	206.75
419.166	214.75
419.389	211.75
419.611	204.75
419.834	209.75
420.057	201.75
420.28	217.75
420.503	195.75
420.726	204.75
420.948	198.75
421.171	190.75
421.394	193.75
421.617	208.75
421.839	210.75
422.062	218.75
422.285	207.75
422.507	213.75
422.73	209.75
422.953	194.75
423.175	200.75
423.398	190.75
423.621	212.75
423.843	213.75
424.066	209.75
424.288	197.75
424.511	195.75
424.733	202.75
424.956	213.75
425.178	197.75
425.401	190.75
425.623	204.75
425.846	217.75
426.068	189.75
426.291	190.75
426.513	189.75
426.735	200.75
426.958	191.75
427.18	193.75
427.402	190.75
427.625	194.75
427.847	185.75
428.069	187.75
428.292	193.75
428.514	210.75
428.736	204.75
428.958	197.75
429.181	183.75
429.403	203.75
429.625	182.75
429.847	181.75
430.069	182.75
430.292	199.75
430.514	185.75
430.736	196.75
430.958	182.75
431.18	183.75
431.402	191.75
431.624	194.75
431.846	183.75
432.068	192.75
432.29	187.75
432.512	200.75
432.734	191.75
432.956	198.75
433.178	188.75
433.4	195.75
433.622	207.75
433.844	208.75
434.066	191.75
434.287	188.75
434.509	187.75
434.731	207.75
434.953	207.75
435.175	182.75
435.397	183.75
435.618	198.75
435.84	191.75
436.062	198.75
436.284	197.75
436.505	180.75
436.727	202.75
436.949	218.75
437.17	197.75
437.392	188.75
437.614	184.75
437.835	179.75
438.057	187.75
438.278	178.75
438.5	192.75
438.721	192.75
438.943	180.75
439.165	187.75
439.386	194.75
439.608	201.75
439.829	183.75
440.05	186.75
440.272	189.75
440.493	193.75
440.715	195.75
440.936	178.75
441.158	204.75
441.379	195.75
441.6	200.75
441.822	193.75
442.043	207.75
442.264	211.75
442.486	198.75
442.707	205.75
442.928	199.75
443.149	198.75
443.371	213.75
443.592	200.75
443.813	213.75
444.034	217.75
444.255	196.75
444.476	224.75
444.698	242.75
444.919	238.75
445.14	324.75
445.361	251.75
445.582	212.75
445.803	189.75
446.024	213.75
446.245	194.75
446.466	206.75
446.687	198.75
446.908	197.75
447.129	198.75
447.35	211.75
447.571	194.75
447.792	198.75
448.013	191.75
448.234	184.75
448.455	198.75
448.675	203.75
448.896	186.75
449.117	179.75
449.338	196.75
449.559	202.75
449.779	186.75
450	195.75
450.221	172.75
450.442	182.75
450.662	177.75
450.883	188.75
451.104	183.75
451.324	185.75
451.545	174.75
451.766	202.75
451.986	185.75
452.207	189.75
452.428	172.75
452.648	184.75
452.869	159.75
453.089	163.75
453.31	171.75
453.53	175.75
453.751	177.75
453.971	183.75
454.192	182.75
454.412	177.75
454.633	171.75
454.853	183.75
455.073	187.75
455.294	175.75
455.514	184.75
455.734	179.75
455.955	177.75
456.175	174.75
456.395	174.75
456.616	162.75
456.836	165.75
457.056	171.75
457.276	163.75
457.497	175.75
457.717	162.75
457.937	179.75
458.157	191.75
458.377	169.75
458.598	171.75
458.818	181.75
459.038	184.75
459.258	182.75
459.478	185.75
459.698	177.75
459.918	192.75
460.138	200.75
460.358	217.75
460.578	212.75
460.798	207.75
461.018	205.75
461.238	201.75
461.458	211.75
461.678	227.75
461.898	221.75
462.118	205.75
462.338	233.75
462.558	228.75
462.777	224.75
462.997	242.75
463.217	258.75
463.437	248.75
463.657	239.75
463.876	222.75
464.096	243.75
464.316	235.75
464.536	249.75
464.755	236.75
464.975	222.75
465.195	212.75
465.414	207.75
465.634	222.75
465.854	197.75
466.073	206.75
466.293	186.75
466.512	186.75
466.732	207.75
466.951	207.75
467.171	198.75
467.391	185.75
467.61	187.75
467.829	175.75
468.049	186.75
468.268	185.75
468.488	211.75
468.707	199.75
468.927	173.75
469.146	190.75
469.365	192.75
469.585	214.75
469.804	198.75
470.023	187.75
470.243	200.75
470.462	186.75
470.681	201.75
470.901	197.75
471.12	207.75
471.339	208.75
471.558	199.75
471.777	201.75
471.997	199.75
472.216	190.75
472.435	178.75
472.654	180.75
472.873	185.75
473.092	187.75
473.311	186.75
473.53	172.75
473.749	175.75
473.968	199.75
474.187	200.75
474.406	187.75
474.625	197.75
474.844	184.75
475.063	198.75
475.282	183.75
475.501	185.75
475.72	171.75
475.939	186.75
476.158	190.75
476.377	195.75
476.596	194.75
476.814	211.75
477.033	182.75
477.252	182.75
477.471	213.75
477.69	206.75
477.908	200.75
478.127	217.75
478.346	226.75
478.564	211.75
478.783	205.75
479.002	189.75
479.22	222.75
479.439	213.75
479.658	197.75
479.876	217.75
480.095	205.75
480.313	210.75
480.532	214.75
480.751	212.75
480.969	199.75
481.188	207.75
481.406	217.75
481.624	203.75
481.843	221.75
482.061	210.75
482.28	194.75
482.498	206.75
482.717	186.75
482.935	205.75
483.153	208.75
483.372	214.75
483.59	190.75
483.808	192.75
484.027	218.75
484.245	204.75
484.463	211.75
484.681	217.75
484.9	202.75
485.118	214.75
485.336	191.75
485.554	210.75
485.772	197.75
485.99	204.75
486.209	205.75
486.427	193.75
486.645	212.75
486.863	219.75
487.081	215.75
487.299	202.75
487.517	207.75
487.735	203.75
487.953	222.75
488.171	207.75
488.389	206.75
488.607	206.75
488.825	214.75
489.043	225.75
489.261	205.75
489.479	221.75
489.696	211.75
489.914	225.75
490.132	201.75
490.35	199.75
490.568	203.75
490.786	215.75
491.003	226.75
491.221	204.75
491.439	222.75
491.657	230.75
491.874	229.75
492.092	231.75
492.31	234.75
492.527	236.75
492.745	225.75
492.963	217.75
493.18	218.75
493.398	226.75
493.615	227.75
493.833	228.75
494.05	223.75
494.268	235.75
494.485	232.75
494.703	226.75
494.92	230.75
495.138	230.75
495.355	211.75
495.573	232.75
495.79	233.75
496.008	237.75
496.225	223.75
496.442	230.75
496.66	221.75
496.877	227.75
497.094	242.75
497.312	243.75
497.529	232.75
497.746	249.75
497.963	251.75
498.181	259.75
498.398	262.75
498.615	275.75
498.832	277.75
499.049	281.75
499.267	309.75
499.484	332.75
499.701	359.75
499.918	366.75
500.135	417.75
500.352	437.75
500.569	464.75
500.786	453.75
501.003	422.75
501.22	391.75
501.437	383.75
501.654	338.75
501.871	297.75
502.088	289.75
502.305	284.75
502.522	271.75
502.739	259.75
502.956	244.75
503.172	265.75
503.389	233.75
503.606	230.75
503.823	243.75
504.04	225.75
