Data from Fe(NO3)3@0.1M.TitratingCurve.Agarose3%dH2O.NegLispCup.LampEnergy10.LIBS07252019_HRD10591_16-39-29-332.txt Node
Date: Thu Jul 25 16:39:29 EDT 2019
User: cochatt
Spectrometer: HR+D1059
Trigger mode: 1
Integration Time (sec): 1.000000E-1
Scans to average: 1
Electric dark correction enabled: true
Nonlinearity correction enabled: false
Boxcar width: 0
XAxis mode: Wavelengths
Number of Pixels in Spectrum: 2048
>>>>>Begin Spectral Data<<<<<
223.165	-6.94
223.4	-6.94
223.635	-6.94
223.869	-16.94
224.104	-24.94
224.338	-21.94
224.573	-21.94
224.808	-2.94
225.042	-5.94
225.277	-1.94
225.511	-9.94
225.746	-0.94
225.98	16.06
226.215	11.06
226.449	12.06
226.683	20.06
226.918	22.06
227.152	33.06
227.387	40.06
227.621	42.06
227.856	36.06
228.09	44.06
228.324	40.06
228.559	59.06
228.793	51.06
229.027	71.06
229.262	71.06
229.496	79.06
229.73	81.06
229.964	83.06
230.199	84.06
230.433	81.06
230.667	90.06
230.901	88.06
231.136	81.06
231.37	94.06
231.604	85.06
231.838	93.06
232.072	101.06
232.306	109.06
232.541	97.06
232.775	92.06
233.009	113.06
233.243	98.06
233.477	97.06
233.711	104.06
233.945	100.06
234.179	95.06
234.413	92.06
234.647	110.06
234.881	106.06
235.115	105.06
235.349	83.06
235.583	107.06
235.817	90.06
236.051	96.06
236.285	104.06
236.519	107.06
236.753	96.06
236.987	109.06
237.221	97.06
237.455	122.06
237.689	100.06
237.922	102.06
238.156	107.06
238.39	101.06
238.624	105.06
238.858	107.06
239.091	92.06
239.325	104.06
239.559	98.06
239.793	108.06
240.027	106.06
240.26	106.06
240.494	103.06
240.728	115.06
240.961	107.06
241.195	109.06
241.429	115.06
241.662	100.06
241.896	93.06
242.13	103.06
242.363	96.06
242.597	84.06
242.83	111.06
243.064	106.06
243.298	113.06
243.531	97.06
243.765	102.06
243.998	99.06
244.232	107.06
244.465	114.06
244.699	106.06
244.932	108.06
245.166	105.06
245.399	119.06
245.633	113.06
245.866	105.06
246.099	99.06
246.333	103.06
246.566	115.06
246.8	112.06
247.033	121.06
247.266	109.06
247.5	115.06
247.733	108.06
247.966	111.06
248.2	110.06
248.433	108.06
248.666	113.06
248.899	133.06
249.133	118.06
249.366	126.06
249.599	119.06
249.832	117.06
250.066	122.06
250.299	119.06
250.532	117.06
250.765	120.06
250.998	129.06
251.231	118.06
251.465	136.06
251.698	135.06
251.931	122.06
252.164	131.06
252.397	121.06
252.63	136.06
252.863	129.06
253.096	115.06
253.329	131.06
253.562	120.06
253.795	136.06
254.028	124.06
254.261	130.06
254.494	129.06
254.727	124.06
254.96	130.06
255.193	124.06
255.426	132.06
255.659	114.06
255.892	136.06
256.124	125.06
256.357	119.06
256.59	129.06
256.823	123.06
257.056	133.06
257.289	124.06
257.521	136.06
257.754	127.06
257.987	142.06
258.22	138.06
258.452	129.06
258.685	127.06
258.918	116.06
259.151	130.06
259.383	135.06
259.616	123.06
259.849	130.06
260.081	123.06
260.314	137.06
260.547	149.06
260.779	147.06
261.012	133.06
261.244	129.06
261.477	143.06
261.71	144.06
261.942	124.06
262.175	129.06
262.407	135.06
262.64	133.06
262.872	130.06
263.105	146.06
263.337	136.06
263.57	131.06
263.802	136.06
264.035	151.06
264.267	135.06
264.499	137.06
264.732	151.06
264.964	142.06
265.197	138.06
265.429	140.06
265.661	143.06
265.894	140.06
266.126	147.06
266.358	155.06
266.591	138.06
266.823	142.06
267.055	141.06
267.287	144.06
267.52	142.06
267.752	146.06
267.984	149.06
268.216	132.06
268.448	147.06
268.681	135.06
268.913	147.06
269.145	149.06
269.377	152.06
269.609	151.06
269.841	151.06
270.073	157.06
270.306	151.06
270.538	148.06
270.77	142.06
271.002	161.06
271.234	150.06
271.466	179.06
271.698	154.06
271.93	144.06
272.162	154.06
272.394	165.06
272.626	156.06
272.858	153.06
273.09	178.06
273.322	149.06
273.553	149.06
273.785	171.06
274.017	168.06
274.249	167.06
274.481	170.06
274.713	151.06
274.945	152.06
275.176	163.06
275.408	167.06
275.64	152.06
275.872	160.06
276.104	165.06
276.335	161.06
276.567	168.06
276.799	165.06
277.031	154.06
277.262	161.06
277.494	146.06
277.726	175.06
277.957	160.06
278.189	151.06
278.421	160.06
278.652	156.06
278.884	170.06
279.115	149.06
279.347	177.06
279.579	173.06
279.81	172.06
280.042	182.06
280.273	176.06
280.505	183.06
280.736	159.06
280.968	178.06
281.199	172.06
281.431	181.06
281.662	170.06
281.894	188.06
282.125	181.06
282.356	174.06
282.588	180.06
282.819	163.06
283.051	177.06
283.282	170.06
283.513	191.06
283.745	191.06
283.976	187.06
284.207	180.06
284.439	184.06
284.67	186.06
284.901	190.06
285.132	181.06
285.364	173.06
285.595	188.06
285.826	188.06
286.057	177.06
286.288	173.06
286.52	178.06
286.751	196.06
286.982	165.06
287.213	187.06
287.444	185.06
287.675	196.06
287.906	183.06
288.138	184.06
288.369	179.06
288.6	187.06
288.831	172.06
289.062	200.06
289.293	188.06
289.524	172.06
289.755	182.06
289.986	197.06
290.217	193.06
290.448	193.06
290.679	197.06
290.91	191.06
291.141	194.06
291.371	194.06
291.602	197.06
291.833	198.06
292.064	198.06
292.295	216.06
292.526	180.06
292.757	213.06
292.987	201.06
293.218	205.06
293.449	200.06
293.68	191.06
293.91	190.06
294.141	179.06
294.372	201.06
294.603	203.06
294.833	200.06
295.064	200.06
295.295	205.06
295.525	200.06
295.756	180.06
295.987	202.06
296.217	213.06
296.448	201.06
296.679	207.06
296.909	209.06
297.14	206.06
297.37	204.06
297.601	206.06
297.831	210.06
298.062	193.06
298.292	225.06
298.523	223.06
298.753	227.06
298.984	207.06
299.214	212.06
299.445	210.06
299.675	196.06
299.905	207.06
300.136	202.06
300.366	211.06
300.597	210.06
300.827	227.06
301.057	207.06
301.288	210.06
301.518	195.06
301.748	214.06
301.979	229.06
302.209	220.06
302.439	219.06
302.669	218.06
302.9	227.06
303.13	207.06
303.36	228.06
303.59	216.06
303.82	219.06
304.051	207.06
304.281	210.06
304.511	208.06
304.741	201.06
304.971	220.06
305.201	219.06
305.431	211.06
305.661	220.06
305.891	214.06
306.121	224.06
306.352	208.06
306.582	201.06
306.812	205.06
307.042	222.06
307.272	228.06
307.502	237.06
307.731	196.06
307.961	195.06
308.191	236.06
308.421	219.06
308.651	215.06
308.881	233.06
309.111	245.06
309.341	206.06
309.571	220.06
309.8	228.06
310.03	246.06
310.26	220.06
310.49	220.06
310.72	224.06
310.949	215.06
311.179	208.06
311.409	217.06
311.639	227.06
311.868	239.06
312.098	233.06
312.328	220.06
312.557	229.06
312.787	219.06
313.017	231.06
313.246	228.06
313.476	216.06
313.706	235.06
313.935	250.06
314.165	228.06
314.394	229.06
314.624	232.06
314.853	232.06
315.083	235.06
315.312	244.06
315.542	244.06
315.771	234.06
316.001	228.06
316.23	229.06
316.46	233.06
316.689	250.06
316.919	235.06
317.148	230.06
317.377	225.06
317.607	227.06
317.836	228.06
318.065	247.06
318.295	228.06
318.524	223.06
318.753	210.06
318.983	227.06
319.212	235.06
319.441	246.06
319.67	222.06
319.9	226.06
320.129	233.06
320.358	241.06
320.587	223.06
320.816	246.06
321.046	232.06
321.275	256.06
321.504	224.06
321.733	229.06
321.962	247.06
322.191	241.06
322.42	220.06
322.649	253.06
322.878	247.06
323.108	222.06
323.337	241.06
323.566	221.06
323.795	242.06
324.024	234.06
324.253	233.06
324.482	230.06
324.71	240.06
324.939	216.06
325.168	241.06
325.397	252.06
325.626	241.06
325.855	257.06
326.084	243.06
326.313	268.06
326.542	282.06
326.77	263.06
326.999	245.06
327.228	239.06
327.457	256.06
327.686	259.06
327.914	245.06
328.143	247.06
328.372	276.06
328.6	264.06
328.829	256.06
329.058	270.06
329.287	258.06
329.515	255.06
329.744	273.06
329.972	263.06
330.201	242.06
330.43	255.06
330.658	262.06
330.887	255.06
331.115	263.06
331.344	265.06
331.572	261.06
331.801	271.06
332.03	296.06
332.258	288.06
332.486	290.06
332.715	283.06
332.943	304.06
333.172	302.06
333.4	321.06
333.629	330.06
333.857	329.06
334.085	325.06
334.314	320.06
334.542	304.06
334.771	301.06
334.999	304.06
335.227	309.06
335.455	308.06
335.684	291.06
335.912	302.06
336.14	299.06
336.369	309.06
336.597	291.06
336.825	320.06
337.053	291.06
337.281	301.06
337.51	293.06
337.738	305.06
337.966	292.06
338.194	291.06
338.422	280.06
338.65	283.06
338.878	290.06
339.106	299.06
339.334	255.06
339.562	280.06
339.79	268.06
340.018	270.06
340.246	258.06
340.474	261.06
340.702	285.06
340.93	277.06
341.158	288.06
341.386	272.06
341.614	271.06
341.842	273.06
342.07	263.06
342.298	259.06
342.526	252.06
342.754	262.06
342.981	260.06
343.209	274.06
343.437	290.06
343.665	329.06
343.893	300.06
344.12	308.06
344.348	319.06
344.576	288.06
344.804	300.06
345.031	298.06
345.259	255.06
345.487	275.06
345.714	258.06
345.942	259.06
346.17	278.06
346.397	265.06
346.625	248.06
346.853	262.06
347.08	276.06
347.308	261.06
347.535	270.06
347.763	269.06
347.99	253.06
348.218	266.06
348.445	256.06
348.673	273.06
348.9	258.06
349.128	285.06
349.355	248.06
349.583	248.06
349.81	258.06
350.037	256.06
350.265	240.06
350.492	269.06
350.72	250.06
350.947	262.06
351.174	260.06
351.402	265.06
351.629	246.06
351.856	262.06
352.083	281.06
352.311	236.06
352.538	267.06
352.765	247.06
352.992	240.06
353.22	243.06
353.447	257.06
353.674	261.06
353.901	259.06
354.128	256.06
354.355	252.06
354.583	261.06
354.81	266.06
355.037	262.06
355.264	263.06
355.491	264.06
355.718	244.06
355.945	264.06
356.172	259.06
356.399	268.06
356.626	259.06
356.853	257.06
357.08	265.06
357.307	261.06
357.534	247.06
357.761	253.06
357.988	273.06
358.215	250.06
358.441	260.06
358.668	287.06
358.895	273.06
359.122	266.06
359.349	267.06
359.576	264.06
359.802	255.06
360.029	263.06
360.256	268.06
360.483	248.06
360.709	257.06
360.936	259.06
361.163	249.06
361.39	246.06
361.616	245.06
361.843	265.06
362.07	265.06
362.296	262.06
362.523	255.06
362.749	262.06
362.976	261.06
363.203	259.06
363.429	260.06
363.656	265.06
363.882	268.06
364.109	249.06
364.335	264.06
364.562	274.06
364.788	255.06
365.015	259.06
365.241	255.06
365.468	258.06
365.694	265.06
365.92	287.06
366.147	249.06
366.373	242.06
366.599	263.06
366.826	275.06
367.052	260.06
367.278	263.06
367.505	268.06
367.731	268.06
367.957	255.06
368.184	273.06
368.41	259.06
368.636	266.06
368.862	269.06
369.089	271.06
369.315	260.06
369.541	256.06
369.767	280.06
369.993	266.06
370.219	281.06
370.445	269.06
370.672	283.06
370.898	283.06
371.124	275.06
371.35	266.06
371.576	284.06
371.802	285.06
372.028	276.06
372.254	294.06
372.48	315.06
372.706	305.06
372.932	285.06
373.158	298.06
373.384	297.06
373.61	284.06
373.835	289.06
374.061	289.06
374.287	291.06
374.513	288.06
374.739	292.06
374.965	304.06
375.191	301.06
375.416	306.06
375.642	293.06
375.868	295.06
376.094	278.06
376.319	296.06
376.545	295.06
376.771	297.06
376.997	293.06
377.222	276.06
377.448	275.06
377.674	278.06
377.899	288.06
378.125	295.06
378.35	285.06
378.576	292.06
378.802	291.06
379.027	275.06
379.253	292.06
379.478	277.06
379.704	277.06
379.929	297.06
380.155	291.06
380.38	304.06
380.606	285.06
380.831	298.06
381.057	305.06
381.282	300.06
381.507	303.06
381.733	315.06
381.958	309.06
382.184	297.06
382.409	295.06
382.634	320.06
382.86	306.06
383.085	303.06
383.31	309.06
383.535	313.06
383.761	321.06
383.986	321.06
384.211	319.06
384.436	347.06
384.662	339.06
384.887	325.06
385.112	336.06
385.337	353.06
385.562	346.06
385.787	333.06
386.013	360.06
386.238	334.06
386.463	333.06
386.688	338.06
386.913	336.06
387.138	355.06
387.363	343.06
387.588	345.06
387.813	343.06
388.038	335.06
388.263	332.06
388.488	331.06
388.713	346.06
388.938	338.06
389.163	324.06
389.387	335.06
389.612	331.06
389.837	336.06
390.062	359.06
390.287	325.06
390.512	360.06
390.736	335.06
390.961	363.06
391.186	355.06
391.411	347.06
391.636	353.06
391.86	383.06
392.085	367.06
392.31	379.06
392.534	376.06
392.759	374.06
392.984	375.06
393.208	368.06
393.433	375.06
393.658	353.06
393.882	356.06
394.107	370.06
394.331	367.06
394.556	371.06
394.78	380.06
395.005	362.06
395.229	373.06
395.454	381.06
395.678	387.06
395.903	393.06
396.127	373.06
396.352	364.06
396.576	367.06
396.801	372.06
397.025	382.06
397.249	385.06
397.474	376.06
397.698	390.06
397.922	392.06
398.147	394.06
398.371	414.06
398.595	416.06
398.82	426.06
399.044	474.06
399.268	495.06
399.492	547.06
399.717	601.06
399.941	599.06
400.165	537.06
400.389	488.06
400.613	471.06
400.837	439.06
401.062	448.06
401.286	427.06
401.51	417.06
401.734	413.06
401.958	424.06
402.182	427.06
402.406	428.06
402.63	430.06
402.854	437.06
403.078	461.06
403.302	458.06
403.526	478.06
403.75	479.06
403.974	458.06
404.198	467.06
404.422	483.06
404.645	489.06
404.869	465.06
405.093	464.06
405.317	453.06
405.541	458.06
405.765	439.06
405.988	442.06
406.212	451.06
406.436	451.06
406.66	479.06
406.883	460.06
407.107	491.06
407.331	504.06
407.555	522.06
407.778	517.06
408.002	506.06
408.226	500.06
408.449	465.06
408.673	463.06
408.896	475.06
409.12	476.06
409.344	487.06
409.567	453.06
409.791	485.06
410.014	484.06
410.238	471.06
410.461	479.06
410.685	461.06
410.908	460.06
411.132	443.06
411.355	435.06
411.578	447.06
411.802	457.06
412.025	467.06
412.249	433.06
412.472	436.06
412.695	440.06
412.919	443.06
413.142	409.06
413.365	437.06
413.589	452.06
413.812	436.06
414.035	425.06
414.258	437.06
414.482	417.06
414.705	431.06
414.928	445.06
415.151	450.06
415.374	433.06
415.597	418.06
415.821	431.06
416.044	434.06
416.267	434.06
416.49	421.06
416.713	431.06
416.936	442.06
417.159	427.06
417.382	443.06
417.605	411.06
417.828	434.06
418.051	432.06
418.274	434.06
418.497	419.06
418.72	428.06
418.943	447.06
419.166	453.06
419.389	468.06
419.611	450.06
419.834	441.06
420.057	446.06
420.28	418.06
420.503	417.06
420.726	425.06
420.948	436.06
421.171	405.06
421.394	423.06
421.617	420.06
421.839	438.06
422.062	451.06
422.285	403.06
422.507	428.06
422.73	453.06
422.953	445.06
423.175	421.06
423.398	454.06
423.621	450.06
423.843	455.06
424.066	457.06
424.288	453.06
424.511	436.06
424.733	445.06
424.956	421.06
425.178	433.06
425.401	421.06
425.623	410.06
425.846	419.06
426.068	404.06
426.291	426.06
426.513	414.06
426.735	423.06
426.958	404.06
427.18	383.06
427.402	398.06
427.625	383.06
427.847	406.06
428.069	395.06
428.292	397.06
428.514	409.06
428.736	388.06
428.958	399.06
429.181	389.06
429.403	378.06
429.625	379.06
429.847	363.06
430.069	383.06
430.292	369.06
430.514	388.06
430.736	382.06
430.958	378.06
431.18	375.06
431.402	383.06
431.624	388.06
431.846	403.06
432.068	390.06
432.29	379.06
432.512	384.06
432.734	404.06
432.956	378.06
433.178	412.06
433.4	412.06
433.622	391.06
433.844	396.06
434.066	398.06
434.287	393.06
434.509	398.06
434.731	422.06
434.953	434.06
435.175	459.06
435.397	427.06
435.618	397.06
435.84	401.06
436.062	395.06
436.284	413.06
436.505	401.06
436.727	419.06
436.949	400.06
437.17	387.06
437.392	373.06
437.614	374.06
437.835	377.06
438.057	361.06
438.278	377.06
438.5	380.06
438.721	388.06
438.943	383.06
439.165	394.06
439.386	412.06
439.608	403.06
439.829	418.06
440.05	387.06
440.272	401.06
440.493	398.06
440.715	406.06
440.936	409.06
441.158	437.06
441.379	426.06
441.6	423.06
441.822	468.06
442.043	441.06
442.264	462.06
442.486	439.06
442.707	423.06
442.928	434.06
443.149	452.06
443.371	427.06
443.592	427.06
443.813	447.06
444.034	441.06
444.255	453.06
444.476	480.06
444.698	488.06
444.919	510.06
445.14	584.06
445.361	514.06
445.582	451.06
445.803	432.06
446.024	413.06
446.245	423.06
446.466	425.06
446.687	395.06
446.908	391.06
447.129	402.06
447.35	402.06
447.571	408.06
447.792	396.06
448.013	400.06
448.234	396.06
448.455	379.06
448.675	379.06
448.896	384.06
449.117	364.06
449.338	348.06
449.559	372.06
449.779	377.06
450	365.06
450.221	376.06
450.442	391.06
450.662	371.06
450.883	379.06
451.104	397.06
451.324	388.06
451.545	392.06
451.766	375.06
451.986	373.06
452.207	377.06
452.428	365.06
452.648	360.06
452.869	367.06
453.089	347.06
453.31	381.06
453.53	352.06
453.751	367.06
453.971	343.06
454.192	344.06
454.412	354.06
454.633	352.06
454.853	362.06
455.073	374.06
455.294	359.06
455.514	359.06
455.734	370.06
455.955	352.06
456.175	347.06
456.395	353.06
456.616	332.06
456.836	346.06
457.056	340.06
457.276	329.06
457.497	365.06
457.717	355.06
457.937	347.06
458.157	355.06
458.377	357.06
458.598	364.06
458.818	358.06
459.038	373.06
459.258	379.06
459.478	401.06
459.698	411.06
459.918	415.06
460.138	439.06
460.358	435.06
460.578	438.06
460.798	437.06
461.018	447.06
461.238	460.06
461.458	464.06
461.678	449.06
461.898	449.06
462.118	468.06
462.338	486.06
462.558	470.06
462.777	496.06
462.997	537.06
463.217	575.06
463.437	570.06
463.657	531.06
463.876	525.06
464.096	522.06
464.316	521.06
464.536	519.06
464.755	510.06
464.975	495.06
465.195	481.06
465.414	459.06
465.634	429.06
465.854	416.06
466.073	395.06
466.293	416.06
466.512	413.06
466.732	379.06
466.951	387.06
467.171	396.06
467.391	373.06
467.61	382.06
467.829	389.06
468.049	401.06
468.268	367.06
468.488	374.06
468.707	375.06
468.927	367.06
469.146	388.06
469.365	377.06
469.585	382.06
469.804	397.06
470.023	403.06
470.243	397.06
470.462	400.06
470.681	406.06
470.901	379.06
471.12	388.06
471.339	399.06
471.558	387.06
471.777	389.06
471.997	377.06
472.216	372.06
472.435	371.06
472.654	359.06
472.873	373.06
473.092	371.06
473.311	376.06
473.53	358.06
473.749	361.06
473.968	364.06
474.187	337.06
474.406	358.06
474.625	363.06
474.844	363.06
475.063	364.06
475.282	363.06
475.501	380.06
475.72	356.06
475.939	354.06
476.158	385.06
476.377	369.06
476.596	378.06
476.814	377.06
477.033	364.06
477.252	389.06
477.471	393.06
477.69	400.06
477.908	410.06
478.127	409.06
478.346	428.06
478.564	411.06
478.783	448.06
479.002	472.06
479.22	437.06
479.439	430.06
479.658	429.06
479.876	436.06
480.095	433.06
480.313	435.06
480.532	443.06
480.751	436.06
480.969	426.06
481.188	422.06
481.406	421.06
481.624	401.06
481.843	391.06
482.061	418.06
482.28	417.06
482.498	386.06
482.717	386.06
482.935	403.06
483.153	388.06
483.372	418.06
483.59	395.06
483.808	401.06
484.027	401.06
484.245	402.06
484.463	401.06
484.681	406.06
484.9	399.06
485.118	410.06
485.336	395.06
485.554	404.06
485.772	433.06
485.99	417.06
486.209	417.06
486.427	404.06
486.645	427.06
486.863	438.06
487.081	402.06
487.299	417.06
487.517	419.06
487.735	422.06
487.953	421.06
488.171	444.06
488.389	395.06
488.607	411.06
488.825	403.06
489.043	395.06
489.261	392.06
489.479	432.06
489.696	410.06
489.914	411.06
490.132	421.06
490.35	405.06
490.568	400.06
490.786	406.06
491.003	407.06
491.221	404.06
491.439	418.06
491.657	419.06
491.874	437.06
492.092	438.06
492.31	431.06
492.527	433.06
492.745	447.06
492.963	425.06
493.18	417.06
493.398	430.06
493.615	409.06
493.833	436.06
494.05	439.06
494.268	427.06
494.485	458.06
494.703	431.06
494.92	445.06
495.138	434.06
495.355	435.06
495.573	432.06
495.79	444.06
496.008	456.06
496.225	464.06
496.442	458.06
496.66	475.06
496.877	466.06
497.094	488.06
497.312	468.06
497.529	497.06
497.746	478.06
497.963	533.06
498.181	528.06
498.398	552.06
498.615	567.06
498.832	606.06
499.049	667.06
499.267	695.06
499.484	756.06
499.701	839.06
499.918	911.06
500.135	1004.06
500.352	1117.06
500.569	1114.06
500.786	1126.06
501.003	1031.06
501.22	948.06
501.437	878.06
501.654	771.06
501.871	697.06
