Data from Fe(NO3)3@0.1M.TitratingCurve.Agarose3%dH2O.NegLispCup.LampEnergy10.LIBS07252019_HRD10591_16-42-17-333.txt Node
Date: Thu Jul 25 16:42:17 EDT 2019
User: cochatt
Spectrometer: HR+D1059
Trigger mode: 1
Integration Time (sec): 1.000000E-1
Scans to average: 1
Electric dark correction enabled: true
Nonlinearity correction enabled: false
Boxcar width: 0
XAxis mode: Wavelengths
Number of Pixels in Spectrum: 2048
>>>>>Begin Spectral Data<<<<<
223.165	-17.75
223.4	-17.75
223.635	-17.75
223.869	-18.75
224.104	-21.75
224.338	-7.75
224.573	-14.75
224.808	-19.75
225.042	-12.75
225.277	-3.75
225.511	-15.75
225.746	11.25
225.98	19.25
226.215	9.25
226.449	9.25
226.683	28.25
226.918	36.25
227.152	19.25
227.387	32.25
227.621	38.25
227.856	31.25
228.09	33.25
228.324	43.25
228.559	56.25
228.793	63.25
229.027	86.25
229.262	82.25
229.496	91.25
229.73	95.25
229.964	77.25
230.199	104.25
230.433	102.25
230.667	106.25
230.901	104.25
231.136	103.25
231.37	92.25
231.604	108.25
231.838	96.25
232.072	114.25
232.306	119.25
232.541	117.25
232.775	108.25
233.009	104.25
233.243	102.25
233.477	95.25
233.711	109.25
233.945	108.25
234.179	96.25
234.413	99.25
234.647	120.25
234.881	102.25
235.115	111.25
235.349	115.25
235.583	98.25
235.817	112.25
236.051	102.25
236.285	111.25
236.519	111.25
236.753	113.25
236.987	89.25
237.221	117.25
237.455	102.25
237.689	114.25
237.922	110.25
238.156	117.25
238.39	113.25
238.624	120.25
238.858	118.25
239.091	114.25
239.325	117.25
239.559	112.25
239.793	114.25
240.027	132.25
240.26	112.25
240.494	114.25
240.728	106.25
240.961	116.25
241.195	106.25
241.429	122.25
241.662	116.25
241.896	115.25
242.13	126.25
242.363	124.25
242.597	130.25
242.83	127.25
243.064	122.25
243.298	120.25
243.531	132.25
243.765	145.25
243.998	142.25
244.232	144.25
244.465	136.25
244.699	128.25
244.932	118.25
245.166	137.25
245.399	135.25
245.633	138.25
245.866	134.25
246.099	127.25
246.333	127.25
246.566	134.25
246.8	143.25
247.033	136.25
247.266	135.25
247.5	134.25
247.733	140.25
247.966	142.25
248.2	133.25
248.433	148.25
248.666	153.25
248.899	149.25
249.133	158.25
249.366	148.25
249.599	139.25
249.832	154.25
250.066	161.25
250.299	139.25
250.532	146.25
250.765	150.25
250.998	133.25
251.231	148.25
251.465	155.25
251.698	165.25
251.931	153.25
252.164	145.25
252.397	161.25
252.63	165.25
252.863	148.25
253.096	168.25
253.329	153.25
253.562	162.25
253.795	169.25
254.028	161.25
254.261	177.25
254.494	152.25
254.727	174.25
254.96	153.25
255.193	161.25
255.426	160.25
255.659	167.25
255.892	176.25
256.124	184.25
256.357	154.25
256.59	162.25
256.823	157.25
257.056	172.25
257.289	176.25
257.521	168.25
257.754	181.25
257.987	165.25
258.22	176.25
258.452	169.25
258.685	164.25
258.918	161.25
259.151	180.25
259.383	185.25
259.616	179.25
259.849	179.25
260.081	192.25
260.314	176.25
260.547	167.25
260.779	185.25
261.012	167.25
261.244	165.25
261.477	183.25
261.71	176.25
261.942	186.25
262.175	167.25
262.407	180.25
262.64	185.25
262.872	183.25
263.105	195.25
263.337	186.25
263.57	177.25
263.802	185.25
264.035	185.25
264.267	189.25
264.499	184.25
264.732	189.25
264.964	190.25
265.197	190.25
265.429	197.25
265.661	201.25
265.894	181.25
266.126	190.25
266.358	192.25
266.591	199.25
266.823	172.25
267.055	184.25
267.287	193.25
267.52	210.25
267.752	197.25
267.984	187.25
268.216	211.25
268.448	201.25
268.681	195.25
268.913	201.25
269.145	220.25
269.377	189.25
269.609	209.25
269.841	201.25
270.073	196.25
270.306	215.25
270.538	217.25
270.77	194.25
271.002	198.25
271.234	202.25
271.466	212.25
271.698	209.25
271.93	199.25
272.162	206.25
272.394	218.25
272.626	217.25
272.858	194.25
273.09	210.25
273.322	221.25
273.553	217.25
273.785	222.25
274.017	215.25
274.249	230.25
274.481	217.25
274.713	222.25
274.945	217.25
275.176	217.25
275.408	214.25
275.64	209.25
275.872	225.25
276.104	233.25
276.335	234.25
276.567	252.25
276.799	240.25
277.031	234.25
277.262	221.25
277.494	214.25
277.726	238.25
277.957	229.25
278.189	237.25
278.421	239.25
278.652	225.25
278.884	236.25
279.115	224.25
279.347	232.25
279.579	252.25
279.81	236.25
280.042	236.25
280.273	226.25
280.505	228.25
280.736	246.25
280.968	244.25
281.199	260.25
281.431	240.25
281.662	238.25
281.894	245.25
282.125	250.25
282.356	243.25
282.588	247.25
282.819	232.25
283.051	252.25
283.282	236.25
283.513	265.25
283.745	246.25
283.976	252.25
284.207	264.25
284.439	252.25
284.67	252.25
284.901	221.25
285.132	257.25
285.364	267.25
285.595	264.25
285.826	256.25
286.057	242.25
286.288	255.25
286.52	252.25
286.751	265.25
286.982	276.25
287.213	268.25
287.444	279.25
287.675	257.25
287.906	239.25
288.138	273.25
288.369	274.25
288.6	282.25
288.831	279.25
289.062	272.25
289.293	289.25
289.524	272.25
289.755	281.25
289.986	264.25
290.217	274.25
290.448	255.25
290.679	284.25
290.91	286.25
291.141	260.25
291.371	279.25
291.602	296.25
291.833	258.25
292.064	291.25
292.295	281.25
292.526	287.25
292.757	262.25
292.987	264.25
293.218	279.25
293.449	277.25
293.68	261.25
293.91	291.25
294.141	272.25
294.372	270.25
294.603	275.25
294.833	270.25
295.064	296.25
295.295	291.25
295.525	264.25
295.756	286.25
295.987	281.25
296.217	297.25
296.448	293.25
296.679	278.25
296.909	291.25
297.14	288.25
297.37	295.25
297.601	294.25
297.831	291.25
298.062	293.25
298.292	284.25
298.523	322.25
298.753	302.25
298.984	303.25
299.214	295.25
299.445	290.25
299.675	289.25
299.905	311.25
300.136	307.25
300.366	294.25
300.597	314.25
300.827	319.25
301.057	309.25
301.288	327.25
301.518	312.25
301.748	309.25
301.979	301.25
302.209	331.25
302.439	324.25
302.669	308.25
302.9	308.25
303.13	306.25
303.36	301.25
303.59	307.25
303.82	312.25
304.051	332.25
304.281	310.25
304.511	308.25
304.741	317.25
304.971	295.25
305.201	312.25
305.431	312.25
305.661	321.25
305.891	321.25
306.121	306.25
306.352	311.25
306.582	323.25
306.812	314.25
307.042	295.25
307.272	326.25
307.502	336.25
307.731	312.25
307.961	307.25
308.191	297.25
308.421	300.25
308.651	312.25
308.881	314.25
309.111	319.25
309.341	294.25
309.571	320.25
309.8	292.25
310.03	320.25
310.26	314.25
310.49	317.25
310.72	316.25
310.949	302.25
311.179	306.25
311.409	323.25
311.639	310.25
311.868	320.25
312.098	321.25
312.328	311.25
312.557	333.25
312.787	326.25
313.017	343.25
313.246	332.25
313.476	328.25
313.706	345.25
313.935	330.25
314.165	329.25
314.394	318.25
314.624	316.25
314.853	327.25
315.083	335.25
315.312	335.25
315.542	318.25
315.771	329.25
316.001	317.25
316.23	320.25
316.46	339.25
316.689	336.25
316.919	320.25
317.148	339.25
317.377	336.25
317.607	329.25
317.836	324.25
318.065	327.25
318.295	333.25
318.524	332.25
318.753	321.25
318.983	324.25
319.212	330.25
319.441	330.25
319.67	328.25
319.9	345.25
320.129	337.25
320.358	318.25
320.587	330.25
320.816	340.25
321.046	343.25
321.275	337.25
321.504	316.25
321.733	319.25
321.962	342.25
322.191	339.25
322.42	337.25
322.649	368.25
322.878	324.25
323.108	324.25
323.337	320.25
323.566	345.25
323.795	328.25
324.024	339.25
324.253	319.25
324.482	354.25
324.71	343.25
324.939	365.25
325.168	342.25
325.397	344.25
325.626	352.25
325.855	353.25
326.084	355.25
326.313	352.25
326.542	379.25
326.77	364.25
326.999	355.25
327.228	364.25
327.457	368.25
327.686	354.25
327.914	336.25
328.143	352.25
328.372	358.25
328.6	362.25
328.829	353.25
329.058	364.25
329.287	359.25
329.515	345.25
329.744	360.25
329.972	371.25
330.201	360.25
330.43	365.25
330.658	366.25
330.887	349.25
331.115	367.25
331.344	396.25
331.572	384.25
331.801	397.25
332.03	398.25
332.258	400.25
332.486	409.25
332.715	423.25
332.943	413.25
333.172	412.25
333.4	420.25
333.629	448.25
333.857	455.25
334.085	456.25
334.314	465.25
334.542	452.25
334.771	447.25
334.999	447.25
335.227	457.25
335.455	436.25
335.684	450.25
335.912	429.25
336.14	438.25
336.369	410.25
336.597	418.25
336.825	423.25
337.053	438.25
337.281	444.25
337.51	445.25
337.738	413.25
337.966	389.25
338.194	379.25
338.422	369.25
338.65	404.25
338.878	401.25
339.106	416.25
339.334	401.25
339.562	368.25
339.79	388.25
340.018	393.25
340.246	376.25
340.474	408.25
340.702	377.25
340.93	397.25
341.158	394.25
341.386	380.25
341.614	387.25
341.842	378.25
342.07	366.25
342.298	358.25
342.526	402.25
342.754	376.25
342.981	392.25
343.209	388.25
343.437	411.25
343.665	426.25
343.893	429.25
344.12	436.25
344.348	407.25
344.576	434.25
344.804	393.25
345.031	384.25
345.259	386.25
345.487	384.25
345.714	375.25
345.942	375.25
346.17	367.25
346.397	379.25
346.625	385.25
346.853	374.25
347.08	373.25
347.308	357.25
347.535	376.25
347.763	384.25
347.99	372.25
348.218	389.25
348.445	384.25
348.673	372.25
348.9	384.25
349.128	370.25
349.355	369.25
349.583	360.25
349.81	366.25
350.037	343.25
350.265	346.25
350.492	366.25
350.72	373.25
350.947	358.25
351.174	366.25
351.402	358.25
351.629	357.25
351.856	356.25
352.083	354.25
352.311	364.25
352.538	354.25
352.765	364.25
352.992	365.25
353.22	369.25
353.447	351.25
353.674	367.25
353.901	364.25
354.128	357.25
354.355	369.25
354.583	360.25
354.81	358.25
355.037	369.25
355.264	358.25
355.491	359.25
355.718	357.25
355.945	367.25
356.172	362.25
356.399	360.25
356.626	365.25
356.853	390.25
357.08	371.25
357.307	366.25
357.534	375.25
357.761	368.25
357.988	374.25
358.215	368.25
358.441	346.25
358.668	374.25
358.895	368.25
359.122	372.25
359.349	352.25
359.576	367.25
359.802	343.25
360.029	356.25
360.256	371.25
360.483	364.25
360.709	370.25
360.936	364.25
361.163	351.25
361.39	364.25
361.616	353.25
361.843	359.25
362.07	367.25
362.296	378.25
362.523	365.25
362.749	366.25
362.976	350.25
363.203	384.25
363.429	362.25
363.656	376.25
363.882	339.25
364.109	370.25
364.335	369.25
364.562	384.25
364.788	388.25
365.015	367.25
365.241	333.25
365.468	377.25
365.694	370.25
365.92	369.25
366.147	374.25
366.373	360.25
366.599	372.25
366.826	360.25
367.052	357.25
367.278	372.25
367.505	366.25
367.731	390.25
367.957	375.25
368.184	396.25
368.41	381.25
368.636	386.25
368.862	366.25
369.089	359.25
369.315	358.25
369.541	397.25
369.767	384.25
369.993	377.25
370.219	392.25
370.445	388.25
370.672	380.25
370.898	387.25
371.124	401.25
371.35	369.25
371.576	389.25
371.802	401.25
372.028	377.25
372.254	405.25
372.48	399.25
372.706	409.25
372.932	391.25
373.158	415.25
373.384	406.25
373.61	397.25
373.835	410.25
374.061	403.25
374.287	385.25
374.513	413.25
374.739	422.25
374.965	414.25
375.191	422.25
375.416	423.25
375.642	414.25
375.868	426.25
376.094	414.25
376.319	404.25
376.545	401.25
376.771	422.25
376.997	394.25
377.222	405.25
377.448	405.25
377.674	389.25
377.899	415.25
378.125	381.25
378.35	383.25
378.576	387.25
378.802	399.25
379.027	424.25
379.253	398.25
379.478	378.25
379.704	380.25
379.929	406.25
380.155	408.25
380.38	378.25
380.606	405.25
380.831	398.25
381.057	395.25
381.282	408.25
381.507	414.25
381.733	386.25
381.958	401.25
382.184	414.25
382.409	420.25
382.634	442.25
382.86	420.25
383.085	425.25
383.31	426.25
383.535	430.25
383.761	425.25
383.986	439.25
384.211	438.25
384.436	455.25
384.662	448.25
384.887	454.25
385.112	475.25
385.337	459.25
385.562	454.25
385.787	455.25
386.013	462.25
386.238	471.25
386.463	492.25
386.688	479.25
386.913	454.25
387.138	459.25
387.363	480.25
387.588	458.25
387.813	448.25
388.038	479.25
388.263	461.25
388.488	453.25
388.713	469.25
388.938	481.25
389.163	456.25
389.387	504.25
389.612	456.25
389.837	451.25
390.062	466.25
390.287	456.25
390.512	448.25
390.736	467.25
390.961	476.25
391.186	506.25
391.411	489.25
391.636	514.25
391.86	506.25
392.085	524.25
392.31	520.25
392.534	514.25
392.759	501.25
392.984	520.25
393.208	501.25
393.433	530.25
393.658	486.25
393.882	509.25
394.107	494.25
394.331	494.25
394.556	499.25
394.78	521.25
395.005	514.25
395.229	517.25
395.454	525.25
395.678	537.25
395.903	510.25
396.127	537.25
396.352	511.25
396.576	503.25
396.801	485.25
397.025	511.25
397.249	537.25
397.474	520.25
397.698	536.25
397.922	536.25
398.147	557.25
398.371	539.25
398.595	578.25
398.82	590.25
399.044	615.25
399.268	652.25
399.492	700.25
399.717	774.25
399.941	778.25
400.165	728.25
400.389	675.25
400.613	661.25
400.837	641.25
401.062	617.25
401.286	592.25
401.51	560.25
401.734	600.25
401.958	603.25
402.182	597.25
402.406	601.25
402.63	598.25
402.854	619.25
403.078	629.25
403.302	605.25
403.526	606.25
403.75	638.25
403.974	628.25
404.198	630.25
404.422	645.25
404.645	632.25
404.869	645.25
405.093	629.25
405.317	633.25
405.541	643.25
405.765	625.25
405.988	625.25
406.212	618.25
406.436	629.25
406.66	645.25
406.883	665.25
407.107	683.25
407.331	668.25
407.555	731.25
407.778	714.25
408.002	706.25
408.226	692.25
408.449	695.25
408.673	669.25
408.896	668.25
409.12	662.25
409.344	672.25
409.567	659.25
409.791	652.25
410.014	640.25
410.238	624.25
410.461	661.25
410.685	649.25
410.908	615.25
411.132	628.25
411.355	599.25
411.578	598.25
411.802	603.25
412.025	630.25
412.249	609.25
412.472	611.25
412.695	625.25
412.919	610.25
413.142	601.25
413.365	610.25
413.589	585.25
413.812	596.25
414.035	598.25
414.258	615.25
414.482	607.25
414.705	603.25
414.928	596.25
415.151	611.25
415.374	588.25
415.597	582.25
415.821	597.25
416.044	598.25
416.267	581.25
416.49	600.25
416.713	548.25
416.936	578.25
417.159	590.25
417.382	561.25
417.605	568.25
417.828	584.25
418.051	552.25
418.274	567.25
418.497	584.25
418.72	578.25
418.943	581.25
419.166	598.25
419.389	649.25
419.611	625.25
419.834	632.25
420.057	620.25
420.28	586.25
420.503	574.25
420.726	572.25
420.948	583.25
421.171	580.25
421.394	598.25
421.617	560.25
421.839	571.25
422.062	583.25
422.285	573.25
422.507	590.25
422.73	605.25
422.953	589.25
423.175	591.25
423.398	586.25
423.621	586.25
423.843	603.25
424.066	618.25
424.288	577.25
424.511	601.25
424.733	607.25
424.956	576.25
425.178	582.25
425.401	589.25
425.623	584.25
425.846	576.25
426.068	578.25
426.291	558.25
426.513	546.25
426.735	553.25
426.958	560.25
427.18	527.25
427.402	553.25
427.625	543.25
427.847	566.25
428.069	552.25
428.292	548.25
428.514	532.25
428.736	531.25
428.958	566.25
429.181	525.25
429.403	518.25
429.625	510.25
429.847	530.25
430.069	558.25
430.292	528.25
430.514	517.25
430.736	540.25
430.958	515.25
431.18	535.25
431.402	529.25
431.624	557.25
431.846	525.25
432.068	518.25
432.29	554.25
432.512	554.25
432.734	562.25
432.956	542.25
433.178	549.25
433.4	534.25
433.622	554.25
433.844	562.25
434.066	556.25
434.287	543.25
434.509	560.25
434.731	605.25
434.953	583.25
435.175	581.25
435.397	590.25
435.618	585.25
435.84	563.25
436.062	534.25
436.284	570.25
436.505	534.25
436.727	548.25
436.949	543.25
437.17	543.25
437.392	538.25
437.614	536.25
437.835	499.25
438.057	533.25
438.278	522.25
438.5	553.25
438.721	528.25
438.943	532.25
439.165	526.25
439.386	537.25
439.608	538.25
439.829	564.25
440.05	551.25
440.272	556.25
440.493	560.25
440.715	546.25
440.936	561.25
441.158	556.25
441.379	575.25
441.6	582.25
441.822	591.25
442.043	594.25
442.264	580.25
442.486	564.25
442.707	579.25
442.928	577.25
443.149	587.25
443.371	587.25
443.592	593.25
443.813	581.25
444.034	600.25
444.255	629.25
444.476	640.25
444.698	647.25
444.919	650.25
445.14	696.25
445.361	647.25
445.582	597.25
445.803	601.25
446.024	580.25
446.245	573.25
446.466	577.25
446.687	558.25
446.908	567.25
447.129	550.25
447.35	520.25
447.571	549.25
447.792	505.25
448.013	542.25
448.234	516.25
448.455	521.25
448.675	523.25
448.896	518.25
449.117	521.25
449.338	505.25
449.559	497.25
449.779	495.25
450	523.25
450.221	509.25
450.442	504.25
450.662	505.25
450.883	521.25
451.104	523.25
451.324	522.25
451.545	522.25
451.766	493.25
451.986	479.25
452.207	504.25
452.428	505.25
452.648	489.25
452.869	486.25
453.089	481.25
453.31	468.25
453.53	485.25
453.751	481.25
453.971	484.25
454.192	497.25
454.412	465.25
454.633	486.25
454.853	482.25
455.073	477.25
455.294	486.25
455.514	487.25
455.734	468.25
455.955	489.25
456.175	456.25
456.395	462.25
456.616	457.25
456.836	492.25
457.056	473.25
457.276	493.25
457.497	478.25
457.717	484.25
457.937	506.25
458.157	470.25
458.377	470.25
458.598	511.25
458.818	514.25
459.038	510.25
459.258	519.25
459.478	535.25
459.698	540.25
459.918	533.25
460.138	575.25
460.358	602.25
460.578	601.25
460.798	600.25
461.018	621.25
461.238	607.25
461.458	608.25
461.678	611.25
461.898	621.25
462.118	606.25
462.338	650.25
462.558	648.25
462.777	668.25
462.997	708.25
463.217	726.25
463.437	756.25
463.657	726.25
463.876	692.25
464.096	711.25
464.316	711.25
464.536	681.25
464.755	667.25
464.975	646.25
465.195	639.25
465.414	622.25
465.634	568.25
465.854	538.25
466.073	546.25
466.293	550.25
466.512	525.25
466.732	532.25
466.951	525.25
467.171	536.25
467.391	531.25
467.61	534.25
467.829	535.25
468.049	531.25
468.268	516.25
468.488	508.25
468.707	487.25
468.927	523.25
469.146	491.25
469.365	535.25
469.585	493.25
469.804	536.25
470.023	521.25
470.243	527.25
470.462	530.25
470.681	532.25
470.901	550.25
471.12	527.25
471.339	515.25
471.558	513.25
471.777	522.25
471.997	510.25
472.216	477.25
472.435	483.25
472.654	463.25
472.873	488.25
473.092	493.25
473.311	495.25
473.53	489.25
473.749	470.25
473.968	467.25
474.187	474.25
474.406	497.25
474.625	459.25
474.844	496.25
475.063	485.25
475.282	483.25
475.501	475.25
475.72	501.25
475.939	504.25
476.158	526.25
476.377	501.25
476.596	490.25
476.814	517.25
477.033	505.25
477.252	528.25
477.471	534.25
477.69	537.25
477.908	540.25
478.127	552.25
478.346	559.25
478.564	601.25
478.783	581.25
479.002	583.25
479.22	586.25
479.439	584.25
479.658	572.25
479.876	567.25
480.095	574.25
480.313	583.25
480.532	609.25
480.751	598.25
480.969	582.25
481.188	587.25
481.406	560.25
481.624	545.25
481.843	557.25
482.061	541.25
482.28	561.25
482.498	541.25
482.717	541.25
482.935	552.25
483.153	550.25
483.372	560.25
483.59	562.25
483.808	559.25
484.027	556.25
484.245	531.25
484.463	549.25
484.681	573.25
484.9	559.25
485.118	566.25
485.336	541.25
485.554	567.25
485.772	553.25
485.99	573.25
486.209	560.25
486.427	560.25
486.645	570.25
486.863	562.25
487.081	582.25
487.299	541.25
487.517	570.25
487.735	578.25
487.953	577.25
488.171	561.25
488.389	566.25
488.607	566.25
488.825	551.25
489.043	549.25
489.261	560.25
489.479	581.25
489.696	531.25
489.914	568.25
490.132	551.25
490.35	558.25
490.568	553.25
490.786	572.25
491.003	578.25
491.221	567.25
491.439	575.25
491.657	574.25
491.874	588.25
492.092	608.25
492.31	614.25
492.527	580.25
492.745	580.25
492.963	602.25
493.18	590.25
493.398	582.25
493.615	577.25
493.833	597.25
494.05	606.25
494.268	622.25
494.485	600.25
494.703	607.25
494.92	600.25
495.138	602.25
495.355	599.25
495.573	609.25
495.79	630.25
496.008	627.25
496.225	601.25
496.442	617.25
496.66	651.25
496.877	652.25
497.094	674.25
497.312	659.25
497.529	664.25
497.746	691.25
497.963	700.25
498.181	734.25
498.398	751.25
498.615	789.25
498.832	837.25
499.049	868.25
499.267	904.25
499.484	960.25
499.701	1071.25
499.918	1168.25
500.135	1241.25
500.352	1329.25
500.569	1405.25
500.786	1400.25
501.003	1335.25
501.22	1234.25
501.437	1119.25
501.654	1029.25
