Data from Fe(NO3)3@0.025M.TitratingCurve.Agarose3%dH2O.NegLispCup.LampEnergy10.LIBS07252019_HRD10591_16-56-30-336.txt Node
Date: Thu Jul 25 16:56:30 EDT 2019
User: cochatt
Spectrometer: HR+D1059
Trigger mode: 1
Integration Time (sec): 1.000000E-1
Scans to average: 1
Electric dark correction enabled: true
Nonlinearity correction enabled: false
Boxcar width: 0
XAxis mode: Wavelengths
Number of Pixels in Spectrum: 2048
>>>>>Begin Spectral Data<<<<<
223.165	-14.56
223.4	-14.56
223.635	-14.56
223.869	-4.56
224.104	-24.56
224.338	-19.56
224.573	-32.56
224.808	-15.56
225.042	0.44
225.277	-12.56
225.511	-3.56
225.746	10.44
225.98	7.44
226.215	9.44
226.449	21.44
226.683	25.44
226.918	22.44
227.152	30.44
227.387	40.44
227.621	36.44
227.856	37.44
228.09	39.44
228.324	54.44
228.559	59.44
228.793	60.44
229.027	74.44
229.262	69.44
229.496	93.44
229.73	82.44
229.964	79.44
230.199	82.44
230.433	81.44
230.667	95.44
230.901	81.44
231.136	88.44
231.37	107.44
231.604	102.44
231.838	107.44
232.072	93.44
232.306	110.44
232.541	108.44
232.775	89.44
233.009	111.44
233.243	100.44
233.477	94.44
233.711	116.44
233.945	103.44
234.179	114.44
234.413	100.44
234.647	105.44
234.881	91.44
235.115	96.44
235.349	104.44
235.583	101.44
235.817	114.44
236.051	99.44
236.285	88.44
236.519	101.44
236.753	95.44
236.987	101.44
237.221	100.44
237.455	106.44
237.689	111.44
237.922	99.44
238.156	105.44
238.39	101.44
238.624	107.44
238.858	105.44
239.091	100.44
239.325	115.44
239.559	116.44
239.793	113.44
240.027	114.44
240.26	100.44
240.494	116.44
240.728	124.44
240.961	103.44
241.195	110.44
241.429	130.44
241.662	101.44
241.896	103.44
242.13	100.44
242.363	115.44
242.597	106.44
242.83	107.44
243.064	121.44
243.298	108.44
243.531	99.44
243.765	117.44
243.998	120.44
244.232	103.44
244.465	113.44
244.699	117.44
244.932	121.44
245.166	124.44
245.399	122.44
245.633	97.44
245.866	139.44
246.099	111.44
246.333	113.44
246.566	126.44
246.8	120.44
247.033	125.44
247.266	127.44
247.5	129.44
247.733	117.44
247.966	120.44
248.2	136.44
248.433	125.44
248.666	132.44
248.899	138.44
249.133	131.44
249.366	132.44
249.599	134.44
249.832	116.44
250.066	144.44
250.299	126.44
250.532	126.44
250.765	134.44
250.998	134.44
251.231	116.44
251.465	124.44
251.698	125.44
251.931	131.44
252.164	125.44
252.397	139.44
252.63	133.44
252.863	128.44
253.096	140.44
253.329	132.44
253.562	143.44
253.795	144.44
254.028	136.44
254.261	132.44
254.494	140.44
254.727	154.44
254.96	146.44
255.193	146.44
255.426	144.44
255.659	131.44
255.892	139.44
256.124	154.44
256.357	132.44
256.59	160.44
256.823	139.44
257.056	155.44
257.289	144.44
257.521	138.44
257.754	132.44
257.987	147.44
258.22	150.44
258.452	134.44
258.685	136.44
258.918	152.44
259.151	148.44
259.383	166.44
259.616	150.44
259.849	148.44
260.081	153.44
260.314	161.44
260.547	150.44
260.779	153.44
261.012	160.44
261.244	156.44
261.477	155.44
261.71	169.44
261.942	154.44
262.175	157.44
262.407	154.44
262.64	155.44
262.872	171.44
263.105	162.44
263.337	176.44
263.57	168.44
263.802	167.44
264.035	166.44
264.267	149.44
264.499	159.44
264.732	154.44
264.964	172.44
265.197	166.44
265.429	175.44
265.661	171.44
265.894	160.44
266.126	156.44
266.358	173.44
266.591	151.44
266.823	157.44
267.055	170.44
267.287	160.44
267.52	150.44
267.752	172.44
267.984	178.44
268.216	176.44
268.448	172.44
268.681	167.44
268.913	166.44
269.145	171.44
269.377	162.44
269.609	178.44
269.841	165.44
270.073	158.44
270.306	172.44
270.538	166.44
270.77	180.44
271.002	174.44
271.234	181.44
271.466	175.44
271.698	169.44
271.93	180.44
272.162	160.44
272.394	182.44
272.626	198.44
272.858	192.44
273.09	200.44
273.322	179.44
273.553	184.44
273.785	197.44
274.017	177.44
274.249	200.44
274.481	179.44
274.713	176.44
274.945	197.44
275.176	186.44
275.408	182.44
275.64	190.44
275.872	190.44
276.104	188.44
276.335	180.44
276.567	184.44
276.799	198.44
277.031	200.44
277.262	192.44
277.494	203.44
277.726	186.44
277.957	198.44
278.189	215.44
278.421	201.44
278.652	203.44
278.884	201.44
279.115	171.44
279.347	195.44
279.579	191.44
279.81	204.44
280.042	184.44
280.273	196.44
280.505	188.44
280.736	204.44
280.968	201.44
281.199	206.44
281.431	199.44
281.662	200.44
281.894	199.44
282.125	226.44
282.356	231.44
282.588	210.44
282.819	202.44
283.051	208.44
283.282	210.44
283.513	222.44
283.745	213.44
283.976	224.44
284.207	225.44
284.439	213.44
284.67	212.44
284.901	215.44
285.132	214.44
285.364	214.44
285.595	214.44
285.826	220.44
286.057	214.44
286.288	212.44
286.52	211.44
286.751	213.44
286.982	221.44
287.213	205.44
287.444	227.44
287.675	237.44
287.906	220.44
288.138	225.44
288.369	225.44
288.6	227.44
288.831	214.44
289.062	225.44
289.293	235.44
289.524	242.44
289.755	229.44
289.986	215.44
290.217	222.44
290.448	215.44
290.679	220.44
290.91	226.44
291.141	225.44
291.371	227.44
291.602	219.44
291.833	258.44
292.064	242.44
292.295	224.44
292.526	251.44
292.757	230.44
292.987	229.44
293.218	228.44
293.449	233.44
293.68	245.44
293.91	251.44
294.141	225.44
294.372	234.44
294.603	224.44
294.833	246.44
295.064	228.44
295.295	257.44
295.525	242.44
295.756	238.44
295.987	240.44
296.217	235.44
296.448	246.44
296.679	247.44
296.909	233.44
297.14	249.44
297.37	240.44
297.601	231.44
297.831	249.44
298.062	240.44
298.292	231.44
298.523	244.44
298.753	244.44
298.984	258.44
299.214	261.44
299.445	247.44
299.675	246.44
299.905	236.44
300.136	248.44
300.366	247.44
300.597	267.44
300.827	262.44
301.057	274.44
301.288	275.44
301.518	270.44
301.748	272.44
301.979	266.44
302.209	278.44
302.439	262.44
302.669	273.44
302.9	249.44
303.13	261.44
303.36	276.44
303.59	272.44
303.82	283.44
304.051	257.44
304.281	275.44
304.511	272.44
304.741	253.44
304.971	264.44
305.201	277.44
305.431	278.44
305.661	261.44
305.891	245.44
306.121	247.44
306.352	279.44
306.582	276.44
306.812	274.44
307.042	257.44
307.272	276.44
307.502	269.44
307.731	266.44
307.961	264.44
308.191	280.44
308.421	272.44
308.651	257.44
308.881	268.44
309.111	295.44
309.341	278.44
309.571	278.44
309.8	264.44
310.03	264.44
310.26	282.44
310.49	268.44
310.72	267.44
310.949	275.44
311.179	274.44
311.409	270.44
311.639	295.44
311.868	299.44
312.098	276.44
312.328	294.44
312.557	275.44
312.787	284.44
313.017	284.44
313.246	267.44
313.476	280.44
313.706	293.44
313.935	304.44
314.165	304.44
314.394	294.44
314.624	288.44
314.853	282.44
315.083	297.44
315.312	282.44
315.542	296.44
315.771	296.44
316.001	288.44
316.23	288.44
316.46	290.44
316.689	305.44
316.919	301.44
317.148	296.44
317.377	299.44
317.607	292.44
317.836	292.44
318.065	301.44
318.295	288.44
318.524	311.44
318.753	292.44
318.983	290.44
319.212	288.44
319.441	292.44
319.67	287.44
319.9	298.44
320.129	307.44
320.358	296.44
320.587	286.44
320.816	300.44
321.046	289.44
321.275	286.44
321.504	298.44
321.733	281.44
321.962	286.44
322.191	304.44
322.42	309.44
322.649	300.44
322.878	295.44
323.108	305.44
323.337	293.44
323.566	309.44
323.795	302.44
324.024	272.44
324.253	311.44
324.482	322.44
324.71	312.44
324.939	299.44
325.168	325.44
325.397	309.44
325.626	311.44
325.855	309.44
326.084	319.44
326.313	317.44
326.542	314.44
326.77	304.44
326.999	300.44
327.228	330.44
327.457	325.44
327.686	299.44
327.914	313.44
328.143	320.44
328.372	313.44
328.6	335.44
328.829	334.44
329.058	333.44
329.287	325.44
329.515	312.44
329.744	324.44
329.972	340.44
330.201	337.44
330.43	332.44
330.658	337.44
330.887	330.44
331.115	355.44
331.344	338.44
331.572	344.44
331.801	341.44
332.03	357.44
332.258	340.44
332.486	348.44
332.715	353.44
332.943	368.44
333.172	373.44
333.4	375.44
333.629	372.44
333.857	365.44
334.085	375.44
334.314	386.44
334.542	380.44
334.771	380.44
334.999	364.44
335.227	404.44
335.455	368.44
335.684	374.44
335.912	362.44
336.14	369.44
336.369	368.44
336.597	363.44
336.825	380.44
337.053	363.44
337.281	361.44
337.51	348.44
337.738	358.44
337.966	349.44
338.194	352.44
338.422	355.44
338.65	340.44
338.878	352.44
339.106	336.44
339.334	365.44
339.562	370.44
339.79	368.44
340.018	345.44
340.246	345.44
340.474	344.44
340.702	333.44
340.93	331.44
341.158	341.44
341.386	327.44
341.614	349.44
341.842	352.44
342.07	333.44
342.298	343.44
342.526	354.44
342.754	349.44
342.981	344.44
343.209	360.44
343.437	364.44
343.665	381.44
343.893	386.44
344.12	387.44
344.348	368.44
344.576	377.44
344.804	378.44
345.031	374.44
345.259	364.44
345.487	341.44
345.714	325.44
345.942	358.44
346.17	339.44
346.397	347.44
346.625	327.44
346.853	327.44
347.08	337.44
347.308	332.44
347.535	317.44
347.763	337.44
347.99	333.44
348.218	318.44
348.445	333.44
348.673	337.44
348.9	342.44
349.128	329.44
349.355	331.44
349.583	324.44
349.81	343.44
350.037	338.44
350.265	325.44
350.492	324.44
350.72	325.44
350.947	329.44
351.174	320.44
351.402	339.44
351.629	357.44
351.856	329.44
352.083	341.44
352.311	327.44
352.538	330.44
352.765	326.44
352.992	340.44
353.22	332.44
353.447	333.44
353.674	345.44
353.901	322.44
354.128	322.44
354.355	322.44
354.583	332.44
354.81	331.44
355.037	360.44
355.264	347.44
355.491	324.44
355.718	332.44
355.945	326.44
356.172	322.44
356.399	337.44
356.626	349.44
356.853	333.44
357.08	344.44
357.307	339.44
357.534	338.44
357.761	341.44
357.988	328.44
358.215	338.44
358.441	337.44
358.668	322.44
358.895	331.44
359.122	332.44
359.349	340.44
359.576	326.44
359.802	360.44
360.029	339.44
360.256	332.44
360.483	324.44
360.709	348.44
360.936	354.44
361.163	352.44
361.39	328.44
361.616	342.44
361.843	332.44
362.07	338.44
362.296	337.44
362.523	339.44
362.749	332.44
362.976	344.44
363.203	350.44
363.429	326.44
363.656	334.44
363.882	358.44
364.109	338.44
364.335	349.44
364.562	332.44
364.788	330.44
365.015	351.44
365.241	333.44
365.468	335.44
365.694	336.44
365.92	327.44
366.147	352.44
366.373	345.44
366.599	336.44
366.826	353.44
367.052	352.44
367.278	325.44
367.505	328.44
367.731	332.44
367.957	331.44
368.184	346.44
368.41	322.44
368.636	340.44
368.862	341.44
369.089	348.44
369.315	345.44
369.541	362.44
369.767	332.44
369.993	354.44
370.219	356.44
370.445	356.44
370.672	347.44
370.898	366.44
371.124	356.44
371.35	358.44
371.576	352.44
371.802	371.44
372.028	362.44
372.254	356.44
372.48	370.44
372.706	368.44
372.932	379.44
373.158	364.44
373.384	362.44
373.61	369.44
373.835	374.44
374.061	358.44
374.287	369.44
374.513	374.44
374.739	387.44
374.965	374.44
375.191	370.44
375.416	378.44
375.642	370.44
375.868	382.44
376.094	373.44
376.319	356.44
376.545	366.44
376.771	374.44
376.997	369.44
377.222	366.44
377.448	360.44
377.674	372.44
377.899	360.44
378.125	350.44
378.35	362.44
378.576	361.44
378.802	370.44
379.027	372.44
379.253	341.44
379.478	357.44
379.704	362.44
379.929	362.44
380.155	364.44
380.38	347.44
380.606	378.44
380.831	368.44
381.057	383.44
381.282	337.44
381.507	369.44
381.733	379.44
381.958	363.44
382.184	372.44
382.409	378.44
382.634	360.44
382.86	372.44
383.085	376.44
383.31	401.44
383.535	399.44
383.761	398.44
383.986	405.44
384.211	382.44
384.436	416.44
384.662	393.44
384.887	412.44
385.112	382.44
385.337	405.44
385.562	408.44
385.787	417.44
386.013	428.44
386.238	418.44
386.463	420.44
386.688	408.44
386.913	401.44
387.138	419.44
387.363	428.44
387.588	420.44
387.813	419.44
388.038	434.44
388.263	426.44
388.488	428.44
388.713	423.44
388.938	422.44
389.163	416.44
389.387	405.44
389.612	398.44
389.837	432.44
390.062	398.44
390.287	423.44
390.512	404.44
390.736	409.44
390.961	422.44
391.186	432.44
391.411	424.44
391.636	441.44
391.86	477.44
392.085	445.44
392.31	456.44
392.534	460.44
392.759	445.44
392.984	461.44
393.208	442.44
393.433	445.44
393.658	427.44
393.882	440.44
394.107	424.44
394.331	448.44
394.556	428.44
394.78	440.44
395.005	451.44
395.229	434.44
395.454	452.44
395.678	477.44
395.903	449.44
396.127	437.44
396.352	439.44
396.576	458.44
396.801	460.44
397.025	433.44
397.249	460.44
397.474	472.44
397.698	455.44
397.922	447.44
398.147	489.44
398.371	489.44
398.595	514.44
398.82	519.44
399.044	518.44
399.268	546.44
399.492	578.44
399.717	600.44
399.941	597.44
400.165	603.44
400.389	550.44
400.613	566.44
400.837	528.44
401.062	509.44
401.286	499.44
401.51	509.44
401.734	494.44
401.958	507.44
402.182	485.44
402.406	476.44
402.63	499.44
402.854	509.44
403.078	509.44
403.302	523.44
403.526	510.44
403.75	501.44
403.974	514.44
404.198	513.44
404.422	522.44
404.645	525.44
404.869	526.44
405.093	518.44
405.317	541.44
405.541	524.44
405.765	522.44
405.988	526.44
406.212	541.44
406.436	537.44
406.66	546.44
406.883	541.44
407.107	557.44
407.331	563.44
407.555	555.44
407.778	587.44
408.002	569.44
408.226	543.44
408.449	577.44
408.673	553.44
408.896	532.44
409.12	557.44
409.344	547.44
409.567	534.44
409.791	524.44
410.014	521.44
410.238	526.44
410.461	516.44
410.685	515.44
410.908	519.44
411.132	518.44
411.355	512.44
411.578	526.44
411.802	499.44
412.025	519.44
412.249	521.44
412.472	517.44
412.695	506.44
412.919	507.44
413.142	514.44
413.365	488.44
413.589	484.44
413.812	489.44
414.035	502.44
414.258	490.44
414.482	480.44
414.705	504.44
414.928	498.44
415.151	479.44
415.374	482.44
415.597	498.44
415.821	477.44
416.044	482.44
416.267	472.44
416.49	483.44
416.713	470.44
416.936	459.44
417.159	480.44
417.382	465.44
417.605	499.44
417.828	475.44
418.051	457.44
418.274	481.44
418.497	468.44
418.72	485.44
418.943	473.44
419.166	490.44
419.389	529.44
419.611	493.44
419.834	491.44
420.057	481.44
420.28	482.44
420.503	461.44
420.726	467.44
420.948	470.44
421.171	471.44
421.394	469.44
421.617	469.44
421.839	507.44
422.062	469.44
422.285	448.44
422.507	486.44
422.73	461.44
422.953	485.44
423.175	472.44
423.398	498.44
423.621	449.44
423.843	466.44
424.066	487.44
424.288	466.44
424.511	460.44
424.733	474.44
424.956	473.44
425.178	443.44
425.401	473.44
425.623	472.44
425.846	453.44
426.068	433.44
426.291	461.44
426.513	419.44
426.735	454.44
426.958	456.44
427.18	444.44
427.402	468.44
427.625	448.44
427.847	465.44
428.069	451.44
428.292	438.44
428.514	437.44
428.736	443.44
428.958	436.44
429.181	437.44
429.403	425.44
429.625	413.44
429.847	422.44
430.069	434.44
430.292	442.44
430.514	445.44
430.736	458.44
430.958	453.44
431.18	430.44
431.402	433.44
431.624	422.44
431.846	452.44
432.068	437.44
432.29	455.44
432.512	438.44
432.734	439.44
432.956	443.44
433.178	432.44
433.4	449.44
433.622	455.44
433.844	445.44
434.066	450.44
434.287	461.44
434.509	479.44
434.731	456.44
434.953	468.44
435.175	460.44
435.397	462.44
435.618	452.44
435.84	438.44
436.062	445.44
436.284	450.44
436.505	440.44
436.727	441.44
436.949	454.44
437.17	437.44
437.392	429.44
437.614	414.44
437.835	425.44
438.057	427.44
438.278	427.44
438.5	415.44
438.721	429.44
438.943	429.44
439.165	426.44
439.386	425.44
439.608	450.44
439.829	454.44
440.05	437.44
440.272	439.44
440.493	436.44
440.715	446.44
440.936	460.44
441.158	418.44
441.379	443.44
441.6	452.44
441.822	448.44
442.043	454.44
442.264	464.44
442.486	443.44
442.707	464.44
442.928	450.44
443.149	437.44
443.371	454.44
443.592	473.44
443.813	452.44
444.034	458.44
444.255	478.44
444.476	486.44
444.698	498.44
444.919	496.44
445.14	569.44
445.361	518.44
445.582	486.44
445.803	451.44
446.024	451.44
446.245	447.44
446.466	449.44
446.687	428.44
446.908	431.44
447.129	436.44
447.35	442.44
447.571	398.44
447.792	404.44
448.013	396.44
448.234	403.44
448.455	412.44
448.675	412.44
448.896	415.44
449.117	403.44
449.338	397.44
449.559	411.44
449.779	396.44
450	397.44
450.221	385.44
450.442	407.44
450.662	409.44
450.883	403.44
451.104	403.44
451.324	393.44
451.545	383.44
451.766	392.44
451.986	398.44
452.207	381.44
452.428	397.44
452.648	397.44
452.869	401.44
453.089	394.44
453.31	380.44
453.53	386.44
453.751	384.44
453.971	381.44
454.192	380.44
454.412	382.44
454.633	392.44
454.853	387.44
455.073	386.44
455.294	382.44
455.514	376.44
455.734	369.44
455.955	404.44
456.175	372.44
456.395	372.44
456.616	381.44
456.836	376.44
457.056	382.44
457.276	372.44
457.497	390.44
457.717	388.44
457.937	388.44
458.157	393.44
458.377	397.44
458.598	403.44
458.818	409.44
459.038	427.44
459.258	410.44
459.478	422.44
459.698	419.44
459.918	445.44
460.138	473.44
460.358	447.44
460.578	481.44
460.798	468.44
461.018	486.44
461.238	472.44
461.458	487.44
461.678	474.44
461.898	502.44
462.118	485.44
462.338	496.44
462.558	491.44
462.777	514.44
462.997	556.44
463.217	554.44
463.437	553.44
463.657	545.44
463.876	551.44
464.096	548.44
464.316	502.44
464.536	507.44
464.755	508.44
464.975	513.44
465.195	469.44
465.414	488.44
465.634	453.44
465.854	452.44
466.073	436.44
466.293	443.44
466.512	444.44
466.732	450.44
466.951	419.44
467.171	433.44
467.391	432.44
467.61	437.44
467.829	424.44
468.049	410.44
468.268	421.44
468.488	396.44
468.707	425.44
468.927	420.44
469.146	421.44
469.365	414.44
469.585	404.44
469.804	418.44
470.023	426.44
470.243	418.44
470.462	429.44
470.681	417.44
470.901	427.44
471.12	428.44
471.339	430.44
471.558	434.44
471.777	416.44
471.997	405.44
472.216	414.44
472.435	414.44
472.654	423.44
472.873	424.44
473.092	412.44
473.311	402.44
473.53	406.44
473.749	399.44
473.968	412.44
474.187	414.44
474.406	416.44
474.625	420.44
474.844	413.44
475.063	420.44
475.282	426.44
475.501	439.44
475.72	436.44
475.939	404.44
476.158	443.44
476.377	429.44
476.596	436.44
476.814	448.44
477.033	466.44
477.252	457.44
477.471	448.44
477.69	479.44
477.908	472.44
478.127	462.44
478.346	476.44
478.564	484.44
478.783	481.44
479.002	477.44
479.22	490.44
479.439	501.44
479.658	492.44
479.876	502.44
480.095	482.44
480.313	530.44
480.532	496.44
480.751	518.44
480.969	512.44
481.188	512.44
481.406	485.44
481.624	493.44
481.843	480.44
482.061	506.44
482.28	487.44
482.498	475.44
482.717	475.44
482.935	501.44
483.153	498.44
483.372	476.44
483.59	487.44
483.808	493.44
484.027	482.44
484.245	480.44
484.463	500.44
484.681	510.44
484.9	484.44
485.118	511.44
485.336	490.44
485.554	514.44
485.772	496.44
485.99	490.44
486.209	511.44
486.427	493.44
486.645	513.44
486.863	504.44
487.081	486.44
487.299	502.44
487.517	516.44
487.735	492.44
487.953	482.44
488.171	518.44
488.389	503.44
488.607	484.44
488.825	510.44
489.043	487.44
489.261	504.44
489.479	495.44
489.696	493.44
489.914	487.44
490.132	515.44
490.35	506.44
490.568	493.44
490.786	492.44
491.003	508.44
491.221	485.44
491.439	494.44
491.657	496.44
491.874	501.44
492.092	481.44
492.31	519.44
492.527	482.44
492.745	496.44
492.963	506.44
493.18	515.44
493.398	513.44
493.615	511.44
493.833	515.44
494.05	516.44
494.268	520.44
494.485	514.44
494.703	519.44
494.92	517.44
495.138	532.44
495.355	538.44
495.573	528.44
495.79	548.44
496.008	525.44
496.225	544.44
496.442	534.44
496.66	528.44
496.877	555.44
497.094	566.44
497.312	578.44
497.529	585.44
497.746	593.44
497.963	619.44
498.181	624.44
498.398	652.44
498.615	658.44
498.832	716.44
499.049	720.44
499.267	741.44
499.484	774.44
499.701	837.44
499.918	904.44
500.135	944.44
500.352	993.44
500.569	1007.44
500.786	984.44
501.003	987.44
501.22	914.44
501.437	856.44
501.654	835.44
501.871	753.44
