Data from Fe(NO3)3@0.025M.TitratingCurve.Agarose3%dH2O.NegLispCup.LampEnergy10.LIBS07252019_HRD10591_16-54-59-335.txt Node
Date: Thu Jul 25 16:54:59 EDT 2019
User: cochatt
Spectrometer: HR+D1059
Trigger mode: 1
Integration Time (sec): 1.000000E-1
Scans to average: 1
Electric dark correction enabled: true
Nonlinearity correction enabled: false
Boxcar width: 0
XAxis mode: Wavelengths
Number of Pixels in Spectrum: 2048
>>>>>Begin Spectral Data<<<<<
223.165	-10.62
223.4	-10.62
223.635	-10.62
223.869	-20.62
224.104	-25.62
224.338	-11.62
224.573	-17.62
224.808	5.38
225.042	-0.62
225.277	-8.62
225.511	11.38
225.746	-4.62
225.98	-9.62
226.215	15.38
226.449	4.38
226.683	16.38
226.918	21.38
227.152	35.38
227.387	44.38
227.621	38.38
227.856	49.38
228.09	39.38
228.324	52.38
228.559	66.38
228.793	62.38
229.027	65.38
229.262	69.38
229.496	83.38
229.73	81.38
229.964	91.38
230.199	93.38
230.433	79.38
230.667	82.38
230.901	81.38
231.136	106.38
231.37	95.38
231.604	92.38
231.838	91.38
232.072	83.38
232.306	89.38
232.541	90.38
232.775	97.38
233.009	90.38
233.243	83.38
233.477	114.38
233.711	83.38
233.945	92.38
234.179	98.38
234.413	106.38
234.647	92.38
234.881	101.38
235.115	95.38
235.349	103.38
235.583	91.38
235.817	84.38
236.051	89.38
236.285	76.38
236.519	76.38
236.753	97.38
236.987	115.38
237.221	83.38
237.455	88.38
237.689	76.38
237.922	97.38
238.156	97.38
238.39	95.38
238.624	86.38
238.858	88.38
239.091	93.38
239.325	89.38
239.559	94.38
239.793	83.38
240.027	102.38
240.26	92.38
240.494	91.38
240.728	101.38
240.961	90.38
241.195	93.38
241.429	97.38
241.662	84.38
241.896	108.38
242.13	99.38
242.363	92.38
242.597	114.38
242.83	92.38
243.064	105.38
243.298	97.38
243.531	109.38
243.765	106.38
243.998	97.38
244.232	117.38
244.465	90.38
244.699	96.38
244.932	99.38
245.166	93.38
245.399	107.38
245.633	84.38
245.866	97.38
246.099	96.38
246.333	80.38
246.566	101.38
246.8	104.38
247.033	100.38
247.266	96.38
247.5	105.38
247.733	88.38
247.966	111.38
248.2	96.38
248.433	107.38
248.666	104.38
248.899	106.38
249.133	97.38
249.366	99.38
249.599	105.38
249.832	108.38
250.066	97.38
250.299	112.38
250.532	109.38
250.765	103.38
250.998	101.38
251.231	106.38
251.465	100.38
251.698	117.38
251.931	106.38
252.164	117.38
252.397	115.38
252.63	117.38
252.863	100.38
253.096	103.38
253.329	106.38
253.562	113.38
253.795	115.38
254.028	117.38
254.261	102.38
254.494	101.38
254.727	116.38
254.96	111.38
255.193	106.38
255.426	111.38
255.659	104.38
255.892	113.38
256.124	127.38
256.357	102.38
256.59	119.38
256.823	108.38
257.056	104.38
257.289	119.38
257.521	109.38
257.754	127.38
257.987	114.38
258.22	119.38
258.452	123.38
258.685	119.38
258.918	128.38
259.151	109.38
259.383	125.38
259.616	114.38
259.849	119.38
260.081	108.38
260.314	117.38
260.547	92.38
260.779	115.38
261.012	127.38
261.244	122.38
261.477	121.38
261.71	125.38
261.942	123.38
262.175	132.38
262.407	120.38
262.64	111.38
262.872	127.38
263.105	127.38
263.337	119.38
263.57	123.38
263.802	115.38
264.035	121.38
264.267	121.38
264.499	136.38
264.732	122.38
264.964	118.38
265.197	128.38
265.429	133.38
265.661	128.38
265.894	136.38
266.126	123.38
266.358	122.38
266.591	128.38
266.823	141.38
267.055	112.38
267.287	128.38
267.52	131.38
267.752	127.38
267.984	131.38
268.216	123.38
268.448	127.38
268.681	126.38
268.913	131.38
269.145	129.38
269.377	134.38
269.609	115.38
269.841	142.38
270.073	135.38
270.306	127.38
270.538	126.38
270.77	125.38
271.002	114.38
271.234	132.38
271.466	128.38
271.698	134.38
271.93	135.38
272.162	146.38
272.394	146.38
272.626	135.38
272.858	131.38
273.09	149.38
273.322	132.38
273.553	136.38
273.785	129.38
274.017	149.38
274.249	145.38
274.481	139.38
274.713	166.38
274.945	143.38
275.176	137.38
275.408	138.38
275.64	147.38
275.872	123.38
276.104	132.38
276.335	129.38
276.567	137.38
276.799	135.38
277.031	140.38
277.262	150.38
277.494	127.38
277.726	137.38
277.957	136.38
278.189	124.38
278.421	148.38
278.652	151.38
278.884	146.38
279.115	140.38
279.347	138.38
279.579	139.38
279.81	156.38
280.042	129.38
280.273	150.38
280.505	131.38
280.736	131.38
280.968	143.38
281.199	145.38
281.431	153.38
281.662	125.38
281.894	146.38
282.125	141.38
282.356	135.38
282.588	148.38
282.819	137.38
283.051	156.38
283.282	148.38
283.513	153.38
283.745	144.38
283.976	138.38
284.207	149.38
284.439	153.38
284.67	148.38
284.901	156.38
285.132	159.38
285.364	143.38
285.595	159.38
285.826	161.38
286.057	160.38
286.288	148.38
286.52	152.38
286.751	163.38
286.982	167.38
287.213	155.38
287.444	175.38
287.675	148.38
287.906	160.38
288.138	149.38
288.369	163.38
288.6	170.38
288.831	154.38
289.062	170.38
289.293	170.38
289.524	143.38
289.755	152.38
289.986	166.38
290.217	171.38
290.448	166.38
290.679	164.38
290.91	160.38
291.141	171.38
291.371	150.38
291.602	160.38
291.833	178.38
292.064	167.38
292.295	156.38
292.526	160.38
292.757	162.38
292.987	147.38
293.218	156.38
293.449	168.38
293.68	176.38
293.91	165.38
294.141	175.38
294.372	157.38
294.603	161.38
294.833	183.38
295.064	169.38
295.295	164.38
295.525	138.38
295.756	177.38
295.987	163.38
296.217	169.38
296.448	175.38
296.679	179.38
296.909	175.38
297.14	180.38
297.37	167.38
297.601	184.38
297.831	165.38
298.062	183.38
298.292	164.38
298.523	179.38
298.753	186.38
298.984	168.38
299.214	172.38
299.445	179.38
299.675	171.38
299.905	160.38
300.136	174.38
300.366	171.38
300.597	177.38
300.827	181.38
301.057	187.38
301.288	198.38
301.518	170.38
301.748	176.38
301.979	180.38
302.209	186.38
302.439	187.38
302.669	176.38
302.9	179.38
303.13	169.38
303.36	188.38
303.59	178.38
303.82	180.38
304.051	205.38
304.281	179.38
304.511	191.38
304.741	176.38
304.971	182.38
305.201	187.38
305.431	170.38
305.661	189.38
305.891	188.38
306.121	186.38
306.352	194.38
306.582	186.38
306.812	184.38
307.042	193.38
307.272	176.38
307.502	181.38
307.731	180.38
307.961	170.38
308.191	188.38
308.421	179.38
308.651	181.38
308.881	191.38
309.111	175.38
309.341	182.38
309.571	188.38
309.8	179.38
310.03	177.38
310.26	203.38
310.49	196.38
310.72	183.38
310.949	185.38
311.179	194.38
311.409	182.38
311.639	195.38
311.868	179.38
312.098	185.38
312.328	202.38
312.557	179.38
312.787	196.38
313.017	199.38
313.246	187.38
313.476	187.38
313.706	184.38
313.935	185.38
314.165	197.38
314.394	198.38
314.624	203.38
314.853	201.38
315.083	177.38
315.312	195.38
315.542	195.38
315.771	202.38
316.001	192.38
316.23	201.38
316.46	208.38
316.689	200.38
316.919	185.38
317.148	189.38
317.377	198.38
317.607	195.38
317.836	186.38
318.065	200.38
318.295	207.38
318.524	204.38
318.753	192.38
318.983	198.38
319.212	185.38
319.441	187.38
319.67	199.38
319.9	203.38
320.129	195.38
320.358	191.38
320.587	200.38
320.816	192.38
321.046	187.38
321.275	203.38
321.504	209.38
321.733	200.38
321.962	196.38
322.191	210.38
322.42	198.38
322.649	210.38
322.878	199.38
323.108	205.38
323.337	196.38
323.566	214.38
323.795	209.38
324.024	208.38
324.253	206.38
324.482	212.38
324.71	213.38
324.939	194.38
325.168	214.38
325.397	212.38
325.626	215.38
325.855	199.38
326.084	204.38
326.313	204.38
326.542	214.38
326.77	200.38
326.999	231.38
327.228	197.38
327.457	211.38
327.686	211.38
327.914	201.38
328.143	213.38
328.372	216.38
328.6	207.38
328.829	214.38
329.058	213.38
329.287	213.38
329.515	196.38
329.744	215.38
329.972	221.38
330.201	232.38
330.43	234.38
330.658	210.38
330.887	230.38
331.115	215.38
331.344	212.38
331.572	233.38
331.801	221.38
332.03	234.38
332.258	236.38
332.486	217.38
332.715	247.38
332.943	232.38
333.172	242.38
333.4	243.38
333.629	243.38
333.857	250.38
334.085	252.38
334.314	248.38
334.542	251.38
334.771	262.38
334.999	247.38
335.227	246.38
335.455	251.38
335.684	243.38
335.912	251.38
336.14	238.38
336.369	244.38
336.597	242.38
336.825	247.38
337.053	255.38
337.281	233.38
337.51	257.38
337.738	244.38
337.966	245.38
338.194	225.38
338.422	221.38
338.65	232.38
338.878	242.38
339.106	239.38
339.334	231.38
339.562	229.38
339.79	239.38
340.018	219.38
340.246	241.38
340.474	232.38
340.702	250.38
340.93	232.38
341.158	231.38
341.386	236.38
341.614	241.38
341.842	220.38
342.07	216.38
342.298	226.38
342.526	223.38
342.754	225.38
342.981	224.38
343.209	231.38
343.437	240.38
343.665	250.38
343.893	232.38
344.12	246.38
344.348	237.38
344.576	253.38
344.804	247.38
345.031	220.38
345.259	243.38
345.487	253.38
345.714	235.38
345.942	232.38
346.17	234.38
346.397	230.38
346.625	254.38
346.853	230.38
347.08	243.38
347.308	237.38
347.535	231.38
347.763	241.38
347.99	208.38
348.218	229.38
348.445	230.38
348.673	212.38
348.9	227.38
349.128	226.38
349.355	232.38
349.583	233.38
349.81	221.38
350.037	229.38
350.265	223.38
350.492	215.38
350.72	216.38
350.947	203.38
351.174	213.38
351.402	219.38
351.629	223.38
351.856	206.38
352.083	217.38
352.311	224.38
352.538	228.38
352.765	243.38
352.992	225.38
353.22	220.38
353.447	215.38
353.674	221.38
353.901	223.38
354.128	233.38
354.355	219.38
354.583	217.38
354.81	220.38
355.037	231.38
355.264	231.38
355.491	223.38
355.718	213.38
355.945	218.38
356.172	228.38
356.399	225.38
356.626	215.38
356.853	231.38
357.08	228.38
357.307	240.38
357.534	211.38
357.761	224.38
357.988	234.38
358.215	213.38
358.441	220.38
358.668	225.38
358.895	214.38
359.122	220.38
359.349	224.38
359.576	236.38
359.802	229.38
360.029	224.38
360.256	225.38
360.483	226.38
360.709	214.38
360.936	228.38
361.163	234.38
361.39	239.38
361.616	218.38
361.843	237.38
362.07	225.38
362.296	229.38
362.523	222.38
362.749	231.38
362.976	213.38
363.203	224.38
363.429	242.38
363.656	229.38
363.882	240.38
364.109	223.38
364.335	228.38
364.562	211.38
364.788	235.38
365.015	224.38
365.241	240.38
365.468	230.38
365.694	219.38
365.92	234.38
366.147	216.38
366.373	216.38
366.599	237.38
366.826	243.38
367.052	242.38
367.278	223.38
367.505	239.38
367.731	233.38
367.957	223.38
368.184	237.38
368.41	240.38
368.636	243.38
368.862	232.38
369.089	224.38
369.315	222.38
369.541	231.38
369.767	237.38
369.993	229.38
370.219	218.38
370.445	248.38
370.672	254.38
370.898	267.38
371.124	236.38
371.35	255.38
371.576	245.38
371.802	252.38
372.028	228.38
372.254	251.38
372.48	253.38
372.706	256.38
372.932	228.38
373.158	241.38
373.384	241.38
373.61	258.38
373.835	248.38
374.061	232.38
374.287	245.38
374.513	241.38
374.739	235.38
374.965	246.38
375.191	264.38
375.416	264.38
375.642	252.38
375.868	251.38
376.094	259.38
376.319	239.38
376.545	242.38
376.771	260.38
376.997	237.38
377.222	239.38
377.448	239.38
377.674	243.38
377.899	226.38
378.125	237.38
378.35	241.38
378.576	232.38
378.802	236.38
379.027	256.38
379.253	220.38
379.478	229.38
379.704	240.38
379.929	257.38
380.155	253.38
380.38	249.38
380.606	220.38
380.831	232.38
381.057	259.38
381.282	241.38
381.507	265.38
381.733	243.38
381.958	249.38
382.184	259.38
382.409	255.38
382.634	258.38
382.86	256.38
383.085	256.38
383.31	265.38
383.535	240.38
383.761	244.38
383.986	260.38
384.211	262.38
384.436	253.38
384.662	261.38
384.887	295.38
385.112	278.38
385.337	293.38
385.562	273.38
385.787	266.38
386.013	285.38
386.238	291.38
386.463	276.38
386.688	277.38
386.913	290.38
387.138	291.38
387.363	280.38
387.588	275.38
387.813	280.38
388.038	272.38
388.263	270.38
388.488	276.38
388.713	272.38
388.938	274.38
389.163	282.38
389.387	264.38
389.612	268.38
389.837	281.38
390.062	286.38
390.287	257.38
390.512	292.38
390.736	279.38
390.961	290.38
391.186	290.38
391.411	290.38
391.636	288.38
391.86	299.38
392.085	301.38
392.31	291.38
392.534	295.38
392.759	300.38
392.984	283.38
393.208	285.38
393.433	295.38
393.658	275.38
393.882	271.38
394.107	292.38
394.331	291.38
394.556	269.38
394.78	295.38
395.005	298.38
395.229	297.38
395.454	278.38
395.678	299.38
395.903	304.38
396.127	317.38
396.352	310.38
396.576	294.38
396.801	308.38
397.025	282.38
397.249	304.38
397.474	286.38
397.698	304.38
397.922	315.38
398.147	306.38
398.371	305.38
398.595	292.38
398.82	325.38
399.044	357.38
399.268	371.38
399.492	391.38
399.717	404.38
399.941	412.38
400.165	367.38
400.389	364.38
400.613	358.38
400.837	332.38
401.062	330.38
401.286	341.38
401.51	308.38
401.734	333.38
401.958	309.38
402.182	351.38
402.406	335.38
402.63	319.38
402.854	355.38
403.078	332.38
403.302	340.38
403.526	341.38
403.75	356.38
403.974	355.38
404.198	344.38
404.422	357.38
404.645	352.38
404.869	326.38
405.093	338.38
405.317	340.38
405.541	328.38
405.765	342.38
405.988	349.38
406.212	345.38
406.436	349.38
406.66	356.38
406.883	364.38
407.107	361.38
407.331	372.38
407.555	371.38
407.778	367.38
408.002	384.38
408.226	363.38
408.449	359.38
408.673	344.38
408.896	357.38
409.12	342.38
409.344	354.38
409.567	340.38
409.791	353.38
410.014	335.38
410.238	333.38
410.461	351.38
410.685	362.38
410.908	348.38
411.132	333.38
411.355	344.38
411.578	334.38
411.802	349.38
412.025	345.38
412.249	339.38
412.472	305.38
412.695	341.38
412.919	327.38
413.142	336.38
413.365	342.38
413.589	332.38
413.812	318.38
414.035	337.38
414.258	334.38
414.482	318.38
414.705	335.38
414.928	327.38
415.151	313.38
415.374	313.38
415.597	330.38
415.821	325.38
416.044	308.38
416.267	319.38
416.49	313.38
416.713	308.38
416.936	318.38
417.159	315.38
417.382	324.38
417.605	303.38
417.828	328.38
418.051	308.38
418.274	322.38
418.497	336.38
418.72	322.38
418.943	316.38
419.166	323.38
419.389	331.38
419.611	322.38
419.834	336.38
420.057	330.38
420.28	321.38
420.503	313.38
420.726	324.38
420.948	319.38
421.171	310.38
421.394	324.38
421.617	299.38
421.839	328.38
422.062	309.38
422.285	331.38
422.507	316.38
422.73	321.38
422.953	325.38
423.175	291.38
423.398	319.38
423.621	299.38
423.843	320.38
424.066	319.38
424.288	319.38
424.511	331.38
424.733	324.38
424.956	328.38
425.178	316.38
425.401	309.38
425.623	285.38
425.846	300.38
426.068	329.38
426.291	307.38
426.513	324.38
426.735	307.38
426.958	331.38
427.18	284.38
427.402	316.38
427.625	303.38
427.847	295.38
428.069	290.38
428.292	284.38
428.514	306.38
428.736	305.38
428.958	290.38
429.181	298.38
429.403	286.38
429.625	281.38
429.847	279.38
430.069	294.38
430.292	297.38
430.514	302.38
430.736	300.38
430.958	280.38
431.18	285.38
431.402	309.38
431.624	311.38
431.846	293.38
432.068	313.38
432.29	303.38
432.512	298.38
432.734	285.38
432.956	288.38
433.178	282.38
433.4	301.38
433.622	288.38
433.844	295.38
434.066	305.38
434.287	294.38
434.509	304.38
434.731	311.38
434.953	319.38
435.175	331.38
435.397	301.38
435.618	295.38
435.84	305.38
436.062	304.38
436.284	291.38
436.505	286.38
436.727	279.38
436.949	309.38
437.17	300.38
437.392	287.38
437.614	299.38
437.835	288.38
438.057	301.38
438.278	295.38
438.5	297.38
438.721	278.38
438.943	275.38
439.165	291.38
439.386	288.38
439.608	295.38
439.829	301.38
440.05	298.38
440.272	305.38
440.493	298.38
440.715	295.38
440.936	305.38
441.158	317.38
441.379	315.38
441.6	314.38
441.822	289.38
442.043	317.38
442.264	315.38
442.486	308.38
442.707	306.38
442.928	320.38
443.149	312.38
443.371	313.38
443.592	298.38
443.813	307.38
444.034	324.38
444.255	324.38
444.476	319.38
444.698	342.38
444.919	329.38
445.14	415.38
445.361	357.38
445.582	315.38
445.803	322.38
446.024	308.38
446.245	300.38
446.466	294.38
446.687	291.38
446.908	288.38
447.129	298.38
447.35	300.38
447.571	299.38
447.792	291.38
448.013	285.38
448.234	299.38
448.455	288.38
448.675	261.38
448.896	287.38
449.117	280.38
449.338	272.38
449.559	277.38
449.779	275.38
450	278.38
450.221	283.38
450.442	276.38
450.662	269.38
450.883	284.38
451.104	279.38
451.324	281.38
451.545	274.38
451.766	264.38
451.986	273.38
452.207	256.38
452.428	284.38
452.648	269.38
452.869	283.38
453.089	264.38
453.31	276.38
453.53	278.38
453.751	260.38
453.971	277.38
454.192	265.38
454.412	260.38
454.633	257.38
454.853	276.38
455.073	282.38
455.294	263.38
455.514	272.38
455.734	268.38
455.955	255.38
456.175	243.38
456.395	260.38
456.616	253.38
456.836	250.38
457.056	252.38
457.276	271.38
457.497	262.38
457.717	247.38
457.937	261.38
458.157	268.38
458.377	264.38
458.598	273.38
458.818	283.38
459.038	272.38
459.258	292.38
459.478	311.38
459.698	297.38
459.918	309.38
460.138	306.38
460.358	314.38
460.578	307.38
460.798	324.38
461.018	321.38
461.238	309.38
461.458	336.38
461.678	339.38
461.898	337.38
462.118	325.38
462.338	342.38
462.558	352.38
462.777	344.38
462.997	380.38
463.217	405.38
463.437	356.38
463.657	358.38
463.876	368.38
464.096	343.38
464.316	346.38
464.536	355.38
464.755	371.38
464.975	342.38
465.195	345.38
465.414	316.38
465.634	293.38
465.854	300.38
466.073	318.38
466.293	310.38
466.512	296.38
466.732	284.38
466.951	291.38
467.171	297.38
467.391	287.38
467.61	280.38
467.829	271.38
468.049	273.38
468.268	282.38
468.488	287.38
468.707	275.38
468.927	287.38
469.146	289.38
469.365	281.38
469.585	275.38
469.804	277.38
470.023	282.38
470.243	283.38
470.462	291.38
470.681	292.38
470.901	280.38
471.12	285.38
471.339	309.38
471.558	288.38
471.777	277.38
471.997	274.38
472.216	287.38
472.435	281.38
472.654	265.38
472.873	281.38
473.092	308.38
473.311	297.38
473.53	281.38
473.749	296.38
473.968	290.38
474.187	277.38
474.406	285.38
474.625	281.38
474.844	298.38
475.063	288.38
475.282	284.38
475.501	270.38
475.72	294.38
475.939	301.38
476.158	315.38
476.377	299.38
476.596	279.38
476.814	301.38
477.033	299.38
477.252	295.38
477.471	319.38
477.69	309.38
477.908	322.38
478.127	324.38
478.346	318.38
478.564	331.38
478.783	317.38
479.002	328.38
479.22	316.38
479.439	313.38
479.658	333.38
479.876	339.38
480.095	333.38
480.313	335.38
480.532	339.38
480.751	315.38
480.969	345.38
481.188	324.38
481.406	327.38
481.624	331.38
481.843	314.38
482.061	323.38
482.28	323.38
482.498	330.38
482.717	320.38
482.935	308.38
483.153	312.38
483.372	316.38
483.59	324.38
483.808	320.38
484.027	330.38
484.245	338.38
484.463	314.38
484.681	325.38
484.9	329.38
485.118	351.38
485.336	320.38
485.554	333.38
485.772	343.38
485.99	320.38
486.209	326.38
486.427	343.38
486.645	330.38
486.863	340.38
487.081	306.38
487.299	317.38
487.517	344.38
487.735	326.38
487.953	328.38
488.171	329.38
488.389	339.38
488.607	330.38
488.825	324.38
489.043	345.38
489.261	327.38
489.479	325.38
489.696	327.38
489.914	311.38
490.132	339.38
490.35	325.38
490.568	336.38
490.786	326.38
491.003	348.38
491.221	328.38
491.439	364.38
491.657	344.38
491.874	347.38
492.092	351.38
492.31	338.38
492.527	351.38
492.745	341.38
492.963	347.38
493.18	349.38
493.398	337.38
493.615	345.38
493.833	360.38
494.05	355.38
494.268	340.38
494.485	347.38
494.703	350.38
494.92	358.38
495.138	356.38
495.355	348.38
495.573	358.38
495.79	354.38
496.008	360.38
496.225	385.38
496.442	352.38
496.66	369.38
496.877	367.38
497.094	391.38
497.312	376.38
497.529	394.38
497.746	397.38
497.963	398.38
498.181	390.38
498.398	408.38
498.615	449.38
498.832	463.38
499.049	477.38
499.267	504.38
499.484	531.38
499.701	559.38
499.918	576.38
500.135	646.38
500.352	687.38
500.569	685.38
500.786	683.38
501.003	660.38
501.22	620.38
501.437	568.38
501.654	533.38
501.871	505.38
502.088	462.38
502.305	465.38
502.522	454.38
