Data from Fe(NO3)3@0.0125M.TitratingCurve.Agarose3%dH2O.NegLispCup.LampEnergy10.LIBS07252019_HRD10591_16-58-34-336.txt Node
Date: Thu Jul 25 16:58:34 EDT 2019
User: cochatt
Spectrometer: HR+D1059
Trigger mode: 1
Integration Time (sec): 1.000000E-1
Scans to average: 1
Electric dark correction enabled: true
Nonlinearity correction enabled: false
Boxcar width: 0
XAxis mode: Wavelengths
Number of Pixels in Spectrum: 2048
>>>>>Begin Spectral Data<<<<<
223.165	-7.12
223.4	-7.12
223.635	-7.12
223.869	-14.12
224.104	-27.12
224.338	-18.12
224.573	-10.12
224.808	0.88
225.042	-9.12
225.277	-3.12
225.511	2.88
225.746	8.88
225.98	6.88
226.215	7.88
226.449	5.88
226.683	16.88
226.918	16.88
227.152	21.88
227.387	33.88
227.621	34.88
227.856	34.88
228.09	44.88
228.324	51.88
228.559	52.88
228.793	73.88
229.027	94.88
229.262	102.88
229.496	114.88
229.73	109.88
229.964	118.88
230.199	128.88
230.433	110.88
230.667	116.88
230.901	120.88
231.136	128.88
231.37	133.88
231.604	126.88
231.838	127.88
232.072	126.88
232.306	130.88
232.541	130.88
232.775	134.88
233.009	137.88
233.243	129.88
233.477	139.88
233.711	140.88
233.945	137.88
234.179	129.88
234.413	133.88
234.647	152.88
234.881	134.88
235.115	131.88
235.349	130.88
235.583	149.88
235.817	132.88
236.051	154.88
236.285	137.88
236.519	142.88
236.753	135.88
236.987	146.88
237.221	150.88
237.455	155.88
237.689	148.88
237.922	141.88
238.156	148.88
238.39	150.88
238.624	154.88
238.858	156.88
239.091	150.88
239.325	171.88
239.559	150.88
239.793	162.88
240.027	168.88
240.26	165.88
240.494	156.88
240.728	172.88
240.961	168.88
241.195	181.88
241.429	165.88
241.662	164.88
241.896	159.88
242.13	170.88
242.363	171.88
242.597	160.88
242.83	175.88
243.064	172.88
243.298	172.88
243.531	194.88
243.765	180.88
243.998	186.88
244.232	179.88
244.465	178.88
244.699	180.88
244.932	187.88
245.166	189.88
245.399	187.88
245.633	180.88
245.866	182.88
246.099	195.88
246.333	200.88
246.566	194.88
246.8	187.88
247.033	180.88
247.266	190.88
247.5	200.88
247.733	192.88
247.966	184.88
248.2	205.88
248.433	207.88
248.666	210.88
248.899	202.88
249.133	208.88
249.366	221.88
249.599	220.88
249.832	219.88
250.066	218.88
250.299	211.88
250.532	204.88
250.765	210.88
250.998	229.88
251.231	211.88
251.465	223.88
251.698	225.88
251.931	226.88
252.164	219.88
252.397	233.88
252.63	226.88
252.863	212.88
253.096	211.88
253.329	244.88
253.562	231.88
253.795	246.88
254.028	242.88
254.261	238.88
254.494	255.88
254.727	241.88
254.96	241.88
255.193	257.88
255.426	261.88
255.659	236.88
255.892	250.88
256.124	252.88
256.357	254.88
256.59	254.88
256.823	235.88
257.056	256.88
257.289	276.88
257.521	249.88
257.754	257.88
257.987	263.88
258.22	271.88
258.452	260.88
258.685	270.88
258.918	280.88
259.151	274.88
259.383	306.88
259.616	269.88
259.849	279.88
260.081	294.88
260.314	286.88
260.547	281.88
260.779	274.88
261.012	292.88
261.244	282.88
261.477	290.88
261.71	290.88
261.942	283.88
262.175	293.88
262.407	288.88
262.64	298.88
262.872	292.88
263.105	292.88
263.337	298.88
263.57	293.88
263.802	316.88
264.035	310.88
264.267	303.88
264.499	293.88
264.732	308.88
264.964	308.88
265.197	322.88
265.429	315.88
265.661	296.88
265.894	320.88
266.126	316.88
266.358	335.88
266.591	325.88
266.823	333.88
267.055	341.88
267.287	345.88
267.52	320.88
267.752	315.88
267.984	323.88
268.216	332.88
268.448	332.88
268.681	338.88
268.913	327.88
269.145	346.88
269.377	343.88
269.609	340.88
269.841	345.88
270.073	346.88
270.306	348.88
270.538	345.88
270.77	346.88
271.002	369.88
271.234	353.88
271.466	364.88
271.698	365.88
271.93	376.88
272.162	352.88
272.394	368.88
272.626	347.88
272.858	345.88
273.09	357.88
273.322	363.88
273.553	386.88
273.785	378.88
274.017	380.88
274.249	376.88
274.481	387.88
274.713	378.88
274.945	378.88
275.176	389.88
275.408	383.88
275.64	404.88
275.872	401.88
276.104	384.88
276.335	408.88
276.567	395.88
276.799	396.88
277.031	416.88
277.262	394.88
277.494	396.88
277.726	403.88
277.957	411.88
278.189	408.88
278.421	415.88
278.652	434.88
278.884	428.88
279.115	432.88
279.347	434.88
279.579	422.88
279.81	432.88
280.042	415.88
280.273	412.88
280.505	420.88
280.736	423.88
280.968	462.88
281.199	425.88
281.431	432.88
281.662	436.88
281.894	417.88
282.125	447.88
282.356	453.88
282.588	445.88
282.819	424.88
283.051	429.88
283.282	443.88
283.513	455.88
283.745	457.88
283.976	470.88
284.207	453.88
284.439	469.88
284.67	477.88
284.901	467.88
285.132	460.88
285.364	460.88
285.595	466.88
285.826	480.88
286.057	470.88
286.288	480.88
286.52	487.88
286.751	477.88
286.982	504.88
287.213	454.88
287.444	476.88
287.675	466.88
287.906	468.88
288.138	482.88
288.369	494.88
288.6	502.88
288.831	520.88
289.062	491.88
289.293	488.88
289.524	490.88
289.755	515.88
289.986	502.88
290.217	498.88
290.448	508.88
290.679	502.88
290.91	492.88
291.141	491.88
291.371	518.88
291.602	509.88
291.833	502.88
292.064	507.88
292.295	507.88
292.526	512.88
292.757	483.88
292.987	500.88
293.218	514.88
293.449	532.88
293.68	514.88
293.91	525.88
294.141	525.88
294.372	515.88
294.603	512.88
294.833	521.88
295.064	522.88
295.295	534.88
295.525	522.88
295.756	549.88
295.987	517.88
296.217	523.88
296.448	531.88
296.679	535.88
296.909	532.88
297.14	541.88
297.37	561.88
297.601	554.88
297.831	564.88
298.062	548.88
298.292	562.88
298.523	562.88
298.753	553.88
298.984	558.88
299.214	541.88
299.445	566.88
299.675	573.88
299.905	587.88
300.136	569.88
300.366	562.88
300.597	580.88
300.827	568.88
301.057	568.88
301.288	565.88
301.518	570.88
301.748	604.88
301.979	588.88
302.209	569.88
302.439	602.88
302.669	575.88
302.9	607.88
303.13	614.88
303.36	605.88
303.59	587.88
303.82	610.88
304.051	618.88
304.281	622.88
304.511	622.88
304.741	613.88
304.971	599.88
305.201	620.88
305.431	622.88
305.661	626.88
305.891	619.88
306.121	617.88
306.352	622.88
306.582	611.88
306.812	612.88
307.042	602.88
307.272	600.88
307.502	601.88
307.731	612.88
307.961	599.88
308.191	584.88
308.421	609.88
308.651	621.88
308.881	625.88
309.111	628.88
309.341	603.88
309.571	616.88
309.8	625.88
310.03	620.88
310.26	638.88
310.49	638.88
310.72	623.88
310.949	632.88
311.179	642.88
311.409	641.88
311.639	651.88
311.868	644.88
312.098	669.88
312.328	649.88
312.557	665.88
312.787	662.88
313.017	666.88
313.246	650.88
313.476	677.88
313.706	660.88
313.935	674.88
314.165	678.88
314.394	665.88
314.624	669.88
314.853	679.88
315.083	659.88
315.312	705.88
315.542	698.88
315.771	690.88
316.001	675.88
316.23	705.88
316.46	698.88
316.689	671.88
316.919	703.88
317.148	716.88
317.377	694.88
317.607	679.88
317.836	695.88
318.065	692.88
318.295	690.88
318.524	716.88
318.753	678.88
318.983	699.88
319.212	720.88
319.441	697.88
319.67	696.88
319.9	715.88
320.129	714.88
320.358	699.88
320.587	718.88
320.816	716.88
321.046	733.88
321.275	726.88
321.504	711.88
321.733	734.88
321.962	697.88
322.191	736.88
322.42	730.88
322.649	745.88
322.878	726.88
323.108	720.88
323.337	747.88
323.566	744.88
323.795	741.88
324.024	729.88
324.253	733.88
324.482	743.88
324.71	762.88
324.939	754.88
325.168	778.88
325.397	743.88
325.626	740.88
325.855	757.88
326.084	778.88
326.313	779.88
326.542	764.88
326.77	772.88
326.999	778.88
327.228	776.88
327.457	753.88
327.686	756.88
327.914	783.88
328.143	762.88
328.372	772.88
328.6	788.88
328.829	749.88
329.058	768.88
329.287	764.88
329.515	799.88
329.744	791.88
329.972	788.88
330.201	798.88
330.43	794.88
330.658	806.88
330.887	796.88
331.115	799.88
331.344	780.88
331.572	802.88
331.801	783.88
332.03	805.88
332.258	797.88
332.486	828.88
332.715	802.88
332.943	809.88
333.172	848.88
333.4	831.88
333.629	823.88
333.857	817.88
334.085	837.88
334.314	828.88
334.542	875.88
334.771	886.88
334.999	836.88
335.227	846.88
335.455	844.88
335.684	853.88
335.912	838.88
336.14	836.88
336.369	851.88
336.597	867.88
336.825	850.88
337.053	855.88
337.281	851.88
337.51	841.88
337.738	869.88
337.966	841.88
338.194	829.88
338.422	839.88
338.65	834.88
338.878	861.88
339.106	866.88
339.334	849.88
339.562	845.88
339.79	837.88
340.018	835.88
340.246	834.88
340.474	837.88
340.702	845.88
340.93	839.88
341.158	830.88
341.386	833.88
341.614	852.88
341.842	856.88
342.07	818.88
342.298	814.88
342.526	860.88
342.754	847.88
342.981	827.88
343.209	838.88
343.437	846.88
343.665	840.88
343.893	838.88
344.12	869.88
344.348	854.88
344.576	836.88
344.804	850.88
345.031	861.88
345.259	838.88
345.487	861.88
345.714	838.88
345.942	826.88
346.17	852.88
346.397	832.88
346.625	817.88
346.853	804.88
347.08	803.88
347.308	825.88
347.535	832.88
347.763	820.88
347.99	806.88
348.218	813.88
348.445	798.88
348.673	779.88
348.9	822.88
349.128	841.88
349.355	806.88
349.583	793.88
349.81	796.88
350.037	803.88
350.265	797.88
350.492	795.88
350.72	786.88
350.947	809.88
351.174	812.88
351.402	802.88
351.629	801.88
351.856	816.88
352.083	812.88
352.311	810.88
352.538	807.88
352.765	817.88
352.992	790.88
353.22	799.88
353.447	793.88
353.674	818.88
353.901	818.88
354.128	816.88
354.355	785.88
354.583	790.88
354.81	786.88
355.037	805.88
355.264	817.88
355.491	820.88
355.718	789.88
355.945	803.88
356.172	826.88
356.399	806.88
356.626	808.88
356.853	804.88
357.08	796.88
357.307	826.88
357.534	813.88
357.761	790.88
357.988	808.88
358.215	804.88
358.441	809.88
358.668	805.88
358.895	781.88
359.122	796.88
359.349	795.88
359.576	826.88
359.802	790.88
360.029	788.88
360.256	801.88
360.483	819.88
360.709	818.88
360.936	818.88
361.163	843.88
361.39	812.88
361.616	840.88
361.843	813.88
362.07	824.88
362.296	810.88
362.523	813.88
362.749	811.88
362.976	845.88
363.203	824.88
363.429	822.88
363.656	839.88
363.882	857.88
364.109	836.88
364.335	820.88
364.562	808.88
364.788	820.88
365.015	830.88
365.241	819.88
365.468	833.88
365.694	832.88
365.92	805.88
366.147	816.88
366.373	820.88
366.599	845.88
366.826	843.88
367.052	853.88
367.278	821.88
367.505	841.88
367.731	834.88
367.957	828.88
368.184	842.88
368.41	840.88
368.636	860.88
368.862	853.88
369.089	846.88
369.315	842.88
369.541	850.88
369.767	869.88
369.993	849.88
370.219	854.88
370.445	871.88
370.672	884.88
370.898	872.88
371.124	878.88
371.35	880.88
371.576	846.88
371.802	858.88
372.028	864.88
372.254	898.88
372.48	884.88
372.706	921.88
372.932	893.88
373.158	882.88
373.384	885.88
373.61	856.88
373.835	882.88
374.061	870.88
374.287	893.88
374.513	858.88
374.739	867.88
374.965	905.88
375.191	868.88
375.416	894.88
375.642	876.88
375.868	896.88
376.094	893.88
376.319	863.88
376.545	894.88
376.771	882.88
376.997	869.88
377.222	857.88
377.448	848.88
377.674	857.88
377.899	881.88
378.125	875.88
378.35	868.88
378.576	883.88
378.802	853.88
379.027	867.88
379.253	863.88
379.478	862.88
379.704	858.88
379.929	864.88
380.155	875.88
380.38	869.88
380.606	857.88
380.831	848.88
381.057	861.88
381.282	869.88
381.507	874.88
381.733	897.88
381.958	869.88
382.184	882.88
382.409	854.88
382.634	885.88
382.86	895.88
383.085	903.88
383.31	899.88
383.535	891.88
383.761	889.88
383.986	895.88
384.211	910.88
384.436	909.88
384.662	911.88
384.887	898.88
385.112	912.88
385.337	928.88
385.562	920.88
385.787	924.88
386.013	932.88
386.238	932.88
386.463	949.88
386.688	959.88
386.913	927.88
387.138	920.88
387.363	928.88
387.588	938.88
387.813	950.88
388.038	968.88
388.263	981.88
388.488	949.88
388.713	953.88
388.938	960.88
389.163	953.88
389.387	980.88
389.612	961.88
389.837	991.88
390.062	969.88
390.287	975.88
390.512	996.88
390.736	938.88
390.961	980.88
391.186	984.88
391.411	989.88
391.636	959.88
391.86	970.88
392.085	997.88
392.31	993.88
392.534	997.88
392.759	1028.88
392.984	976.88
393.208	980.88
393.433	980.88
393.658	1004.88
393.882	982.88
394.107	968.88
394.331	986.88
394.556	977.88
394.78	985.88
395.005	965.88
395.229	978.88
395.454	1014.88
395.678	995.88
395.903	1008.88
396.127	988.88
396.352	1005.88
396.576	1008.88
396.801	987.88
397.025	986.88
397.249	998.88
397.474	1048.88
397.698	1023.88
397.922	1058.88
398.147	1034.88
398.371	1033.88
398.595	1041.88
398.82	1057.88
399.044	1062.88
399.268	1073.88
399.492	1126.88
399.717	1144.88
399.941	1140.88
400.165	1130.88
400.389	1108.88
400.613	1107.88
400.837	1081.88
401.062	1094.88
401.286	1082.88
401.51	1045.88
401.734	1063.88
401.958	1080.88
402.182	1079.88
402.406	1080.88
402.63	1067.88
402.854	1083.88
403.078	1092.88
403.302	1056.88
403.526	1090.88
403.75	1065.88
403.974	1053.88
404.198	1063.88
404.422	1063.88
404.645	1092.88
404.869	1093.88
405.093	1072.88
405.317	1064.88
405.541	1084.88
405.765	1099.88
405.988	1066.88
406.212	1099.88
406.436	1125.88
406.66	1142.88
406.883	1102.88
407.107	1145.88
407.331	1112.88
407.555	1172.88
407.778	1178.88
408.002	1129.88
408.226	1167.88
408.449	1142.88
408.673	1151.88
408.896	1133.88
409.12	1145.88
409.344	1153.88
409.567	1125.88
409.791	1136.88
410.014	1118.88
410.238	1105.88
410.461	1132.88
410.685	1114.88
410.908	1112.88
411.132	1129.88
411.355	1101.88
411.578	1124.88
411.802	1101.88
412.025	1121.88
412.249	1104.88
412.472	1120.88
412.695	1073.88
412.919	1081.88
413.142	1084.88
413.365	1089.88
413.589	1075.88
413.812	1062.88
414.035	1032.88
414.258	1074.88
414.482	1044.88
414.705	1054.88
414.928	1060.88
415.151	1076.88
415.374	1036.88
415.597	1060.88
415.821	1023.88
416.044	1040.88
416.267	1036.88
416.49	1022.88
416.713	1016.88
416.936	1050.88
417.159	1028.88
417.382	1043.88
417.605	1025.88
417.828	1001.88
418.051	1003.88
418.274	1000.88
418.497	1015.88
418.72	1062.88
418.943	999.88
419.166	1023.88
419.389	1121.88
419.611	1057.88
419.834	1088.88
420.057	1038.88
420.28	1016.88
420.503	981.88
420.726	992.88
420.948	1005.88
421.171	1001.88
421.394	1003.88
421.617	978.88
421.839	995.88
422.062	1005.88
422.285	996.88
422.507	980.88
422.73	1020.88
422.953	996.88
423.175	1003.88
423.398	1041.88
423.621	995.88
423.843	984.88
424.066	980.88
424.288	970.88
424.511	1021.88
424.733	973.88
424.956	971.88
425.178	987.88
425.401	965.88
425.623	979.88
425.846	994.88
426.068	996.88
426.291	985.88
426.513	992.88
426.735	1026.88
426.958	998.88
427.18	980.88
427.402	976.88
427.625	985.88
427.847	1001.88
428.069	978.88
428.292	983.88
428.514	964.88
428.736	964.88
428.958	965.88
429.181	989.88
429.403	972.88
429.625	992.88
429.847	938.88
430.069	979.88
430.292	997.88
430.514	952.88
430.736	1005.88
430.958	997.88
431.18	961.88
431.402	987.88
431.624	970.88
431.846	956.88
432.068	962.88
432.29	975.88
432.512	997.88
432.734	959.88
432.956	958.88
433.178	968.88
433.4	965.88
433.622	985.88
433.844	986.88
434.066	992.88
434.287	968.88
434.509	968.88
434.731	999.88
434.953	968.88
435.175	960.88
435.397	1015.88
435.618	990.88
435.84	973.88
436.062	942.88
436.284	981.88
436.505	948.88
436.727	965.88
436.949	983.88
437.17	941.88
437.392	941.88
437.614	972.88
437.835	934.88
438.057	939.88
438.278	933.88
438.5	957.88
438.721	928.88
438.943	948.88
439.165	945.88
439.386	960.88
439.608	960.88
439.829	957.88
440.05	926.88
440.272	952.88
440.493	961.88
440.715	960.88
440.936	952.88
441.158	964.88
441.379	958.88
441.6	975.88
441.822	928.88
442.043	947.88
442.264	940.88
442.486	952.88
442.707	952.88
442.928	982.88
443.149	973.88
443.371	972.88
443.592	966.88
443.813	968.88
444.034	942.88
444.255	957.88
444.476	973.88
444.698	944.88
444.919	981.88
445.14	1067.88
445.361	1046.88
445.582	956.88
445.803	939.88
446.024	925.88
446.245	968.88
446.466	969.88
446.687	925.88
446.908	942.88
447.129	928.88
447.35	930.88
447.571	939.88
447.792	900.88
448.013	900.88
448.234	906.88
448.455	864.88
448.675	909.88
448.896	912.88
449.117	870.88
449.338	885.88
449.559	898.88
449.779	849.88
450	888.88
450.221	896.88
450.442	896.88
450.662	897.88
450.883	881.88
451.104	890.88
451.324	865.88
451.545	856.88
451.766	844.88
451.986	873.88
452.207	864.88
452.428	882.88
452.648	875.88
452.869	887.88
453.089	857.88
453.31	902.88
453.53	841.88
453.751	847.88
453.971	865.88
454.192	860.88
454.412	845.88
454.633	841.88
454.853	882.88
455.073	856.88
455.294	850.88
455.514	852.88
455.734	862.88
455.955	849.88
456.175	878.88
456.395	859.88
456.616	873.88
456.836	873.88
457.056	873.88
457.276	852.88
457.497	878.88
457.717	843.88
457.937	862.88
458.157	876.88
458.377	894.88
458.598	889.88
458.818	909.88
459.038	918.88
459.258	891.88
459.478	908.88
459.698	948.88
459.918	902.88
460.138	931.88
460.358	919.88
460.578	966.88
460.798	952.88
461.018	974.88
461.238	965.88
461.458	982.88
461.678	959.88
461.898	978.88
462.118	999.88
462.338	993.88
462.558	1007.88
462.777	1026.88
462.997	1044.88
463.217	1012.88
463.437	1009.88
463.657	1008.88
463.876	1026.88
464.096	997.88
464.316	1033.88
464.536	1005.88
464.755	1001.88
464.975	996.88
465.195	1003.88
465.414	970.88
465.634	978.88
465.854	962.88
466.073	960.88
466.293	938.88
466.512	920.88
466.732	933.88
466.951	932.88
467.171	921.88
467.391	930.88
467.61	909.88
467.829	916.88
468.049	927.88
468.268	912.88
468.488	900.88
468.707	900.88
468.927	930.88
469.146	901.88
469.365	912.88
469.585	921.88
469.804	933.88
470.023	918.88
470.243	930.88
470.462	919.88
470.681	925.88
470.901	927.88
471.12	923.88
471.339	967.88
471.558	952.88
471.777	924.88
471.997	927.88
472.216	922.88
472.435	948.88
472.654	915.88
472.873	930.88
473.092	949.88
473.311	948.88
473.53	934.88
473.749	943.88
473.968	948.88
474.187	932.88
474.406	958.88
474.625	959.88
474.844	937.88
475.063	986.88
475.282	974.88
475.501	945.88
475.72	1008.88
475.939	972.88
476.158	977.88
476.377	998.88
476.596	960.88
476.814	1005.88
477.033	994.88
477.252	1018.88
477.471	1016.88
477.69	1018.88
477.908	1040.88
478.127	1029.88
478.346	1049.88
478.564	1066.88
478.783	1051.88
479.002	1054.88
479.22	1095.88
479.439	1070.88
479.658	1050.88
479.876	1093.88
480.095	1064.88
480.313	1105.88
480.532	1099.88
480.751	1084.88
480.969	1066.88
481.188	1074.88
481.406	1109.88
481.624	1105.88
481.843	1079.88
482.061	1099.88
482.28	1114.88
482.498	1129.88
482.717	1095.88
482.935	1085.88
483.153	1140.88
483.372	1110.88
483.59	1105.88
483.808	1119.88
484.027	1122.88
484.245	1109.88
484.463	1108.88
484.681	1159.88
484.9	1136.88
485.118	1140.88
485.336	1137.88
485.554	1112.88
485.772	1144.88
485.99	1128.88
486.209	1144.88
486.427	1156.88
486.645	1140.88
486.863	1134.88
487.081	1122.88
487.299	1110.88
487.517	1126.88
487.735	1163.88
487.953	1170.88
488.171	1130.88
488.389	1156.88
488.607	1156.88
488.825	1148.88
489.043	1153.88
489.261	1174.88
489.479	1166.88
489.696	1140.88
489.914	1176.88
490.132	1141.88
490.35	1152.88
490.568	1142.88
490.786	1176.88
491.003	1162.88
491.221	1184.88
491.439	1190.88
491.657	1172.88
491.874	1172.88
492.092	1183.88
492.31	1170.88
492.527	1195.88
492.745	1193.88
492.963	1172.88
493.18	1184.88
493.398	1177.88
493.615	1179.88
493.833	1192.88
494.05	1196.88
494.268	1179.88
494.485	1188.88
494.703	1216.88
494.92	1225.88
495.138	1220.88
495.355	1208.88
495.573	1230.88
495.79	1232.88
496.008	1272.88
496.225	1251.88
496.442	1235.88
496.66	1259.88
496.877	1268.88
497.094	1257.88
497.312	1312.88
497.529	1259.88
497.746	1300.88
497.963	1331.88
498.181	1352.88
498.398	1382.88
