Data from Fe(NO3)3@0.1M.TitratingCurve.Agarose3%dH2O.NegLispCup.LampEnergy10.LIBS07252019_HRD10591_16-41-00-332.txt Node
Date: Thu Jul 25 16:41:00 EDT 2019
User: cochatt
Spectrometer: HR+D1059
Trigger mode: 1
Integration Time (sec): 1.000000E-1
Scans to average: 1
Electric dark correction enabled: true
Nonlinearity correction enabled: false
Boxcar width: 0
XAxis mode: Wavelengths
Number of Pixels in Spectrum: 2048
>>>>>Begin Spectral Data<<<<<
223.165	-14.81
223.4	-14.81
223.635	-14.81
223.869	-10.81
224.104	-2.81
224.338	-9.81
224.573	-9.81
224.808	-22.81
225.042	-16.81
225.277	-7.81
225.511	-15.81
225.746	4.19
225.98	14.19
226.215	10.19
226.449	3.19
226.683	23.19
226.918	23.19
227.152	33.19
227.387	18.19
227.621	37.19
227.856	41.19
228.09	31.19
228.324	38.19
228.559	51.19
228.793	54.19
229.027	59.19
229.262	76.19
229.496	69.19
229.73	73.19
229.964	74.19
230.199	92.19
230.433	83.19
230.667	73.19
230.901	74.19
231.136	69.19
231.37	90.19
231.604	76.19
231.838	83.19
232.072	84.19
232.306	84.19
232.541	90.19
232.775	89.19
233.009	108.19
233.243	73.19
233.477	87.19
233.711	79.19
233.945	94.19
234.179	76.19
234.413	87.19
234.647	95.19
234.881	82.19
235.115	75.19
235.349	93.19
235.583	74.19
235.817	81.19
236.051	88.19
236.285	86.19
236.519	95.19
236.753	80.19
236.987	83.19
237.221	72.19
237.455	72.19
237.689	80.19
237.922	95.19
238.156	102.19
238.39	83.19
238.624	83.19
238.858	76.19
239.091	80.19
239.325	70.19
239.559	83.19
239.793	87.19
240.027	86.19
240.26	84.19
240.494	79.19
240.728	94.19
240.961	81.19
241.195	83.19
241.429	85.19
241.662	88.19
241.896	77.19
242.13	90.19
242.363	77.19
242.597	88.19
242.83	89.19
243.064	68.19
243.298	93.19
243.531	93.19
243.765	80.19
243.998	90.19
244.232	79.19
244.465	87.19
244.699	90.19
244.932	92.19
245.166	83.19
245.399	94.19
245.633	82.19
245.866	90.19
246.099	90.19
246.333	89.19
246.566	92.19
246.8	85.19
247.033	85.19
247.266	65.19
247.5	89.19
247.733	95.19
247.966	94.19
248.2	89.19
248.433	82.19
248.666	83.19
248.899	89.19
249.133	105.19
249.366	87.19
249.599	81.19
249.832	96.19
250.066	87.19
250.299	113.19
250.532	126.19
250.765	93.19
250.998	82.19
251.231	97.19
251.465	93.19
251.698	93.19
251.931	81.19
252.164	92.19
252.397	85.19
252.63	80.19
252.863	82.19
253.096	88.19
253.329	88.19
253.562	76.19
253.795	91.19
254.028	107.19
254.261	97.19
254.494	87.19
254.727	104.19
254.96	90.19
255.193	95.19
255.426	99.19
255.659	102.19
255.892	92.19
256.124	93.19
256.357	96.19
256.59	96.19
256.823	87.19
257.056	97.19
257.289	94.19
257.521	82.19
257.754	106.19
257.987	98.19
258.22	89.19
258.452	92.19
258.685	94.19
258.918	90.19
259.151	104.19
259.383	91.19
259.616	89.19
259.849	105.19
260.081	112.19
260.314	109.19
260.547	105.19
260.779	106.19
261.012	95.19
261.244	95.19
261.477	95.19
261.71	98.19
261.942	110.19
262.175	101.19
262.407	98.19
262.64	100.19
262.872	93.19
263.105	103.19
263.337	78.19
263.57	94.19
263.802	110.19
264.035	90.19
264.267	105.19
264.499	101.19
264.732	106.19
264.964	105.19
265.197	118.19
265.429	107.19
265.661	96.19
265.894	102.19
266.126	91.19
266.358	88.19
266.591	98.19
266.823	101.19
267.055	102.19
267.287	115.19
267.52	114.19
267.752	103.19
267.984	106.19
268.216	93.19
268.448	111.19
268.681	108.19
268.913	105.19
269.145	105.19
269.377	100.19
269.609	110.19
269.841	101.19
270.073	105.19
270.306	110.19
270.538	114.19
270.77	101.19
271.002	118.19
271.234	94.19
271.466	110.19
271.698	124.19
271.93	106.19
272.162	105.19
272.394	97.19
272.626	101.19
272.858	100.19
273.09	111.19
273.322	118.19
273.553	114.19
273.785	104.19
274.017	91.19
274.249	122.19
274.481	104.19
274.713	106.19
274.945	118.19
275.176	112.19
275.408	116.19
275.64	109.19
275.872	112.19
276.104	105.19
276.335	120.19
276.567	116.19
276.799	100.19
277.031	110.19
277.262	111.19
277.494	106.19
277.726	103.19
277.957	117.19
278.189	109.19
278.421	105.19
278.652	104.19
278.884	110.19
279.115	112.19
279.347	103.19
279.579	117.19
279.81	92.19
280.042	102.19
280.273	128.19
280.505	121.19
280.736	112.19
280.968	117.19
281.199	113.19
281.431	122.19
281.662	124.19
281.894	118.19
282.125	124.19
282.356	122.19
282.588	118.19
282.819	109.19
283.051	123.19
283.282	116.19
283.513	129.19
283.745	107.19
283.976	115.19
284.207	108.19
284.439	114.19
284.67	117.19
284.901	121.19
285.132	118.19
285.364	123.19
285.595	128.19
285.826	134.19
286.057	116.19
286.288	117.19
286.52	132.19
286.751	120.19
286.982	122.19
287.213	130.19
287.444	129.19
287.675	103.19
287.906	97.19
288.138	117.19
288.369	115.19
288.6	124.19
288.831	116.19
289.062	117.19
289.293	119.19
289.524	124.19
289.755	114.19
289.986	114.19
290.217	122.19
290.448	120.19
290.679	121.19
290.91	122.19
291.141	135.19
291.371	122.19
291.602	110.19
291.833	112.19
292.064	120.19
292.295	113.19
292.526	126.19
292.757	125.19
292.987	124.19
293.218	124.19
293.449	115.19
293.68	124.19
293.91	130.19
294.141	116.19
294.372	137.19
294.603	116.19
294.833	130.19
295.064	119.19
295.295	116.19
295.525	127.19
295.756	127.19
295.987	126.19
296.217	121.19
296.448	121.19
296.679	121.19
296.909	132.19
297.14	124.19
297.37	122.19
297.601	133.19
297.831	126.19
298.062	126.19
298.292	119.19
298.523	124.19
298.753	130.19
298.984	125.19
299.214	128.19
299.445	144.19
299.675	123.19
299.905	127.19
300.136	128.19
300.366	124.19
300.597	130.19
300.827	126.19
301.057	113.19
301.288	124.19
301.518	125.19
301.748	120.19
301.979	128.19
302.209	115.19
302.439	121.19
302.669	146.19
302.9	119.19
303.13	122.19
303.36	134.19
303.59	115.19
303.82	134.19
304.051	138.19
304.281	132.19
304.511	120.19
304.741	124.19
304.971	119.19
305.201	135.19
305.431	135.19
305.661	135.19
305.891	134.19
306.121	122.19
306.352	127.19
306.582	128.19
306.812	116.19
307.042	121.19
307.272	119.19
307.502	128.19
307.731	126.19
307.961	140.19
308.191	134.19
308.421	135.19
308.651	135.19
308.881	134.19
309.111	130.19
309.341	140.19
309.571	128.19
309.8	125.19
310.03	128.19
310.26	119.19
310.49	126.19
310.72	146.19
310.949	133.19
311.179	122.19
311.409	130.19
311.639	131.19
311.868	123.19
312.098	148.19
312.328	142.19
312.557	143.19
312.787	139.19
313.017	135.19
313.246	129.19
313.476	118.19
313.706	142.19
313.935	138.19
314.165	143.19
314.394	125.19
314.624	125.19
314.853	133.19
315.083	122.19
315.312	133.19
315.542	152.19
315.771	134.19
316.001	130.19
316.23	150.19
316.46	130.19
316.689	126.19
316.919	130.19
317.148	128.19
317.377	131.19
317.607	149.19
317.836	137.19
318.065	132.19
318.295	138.19
318.524	128.19
318.753	133.19
318.983	152.19
319.212	136.19
319.441	136.19
319.67	125.19
319.9	131.19
320.129	132.19
320.358	136.19
320.587	138.19
320.816	133.19
321.046	148.19
321.275	139.19
321.504	134.19
321.733	134.19
321.962	154.19
322.191	134.19
322.42	144.19
322.649	120.19
322.878	130.19
323.108	118.19
323.337	141.19
323.566	134.19
323.795	147.19
324.024	142.19
324.253	154.19
324.482	139.19
324.71	140.19
324.939	135.19
325.168	140.19
325.397	136.19
325.626	135.19
325.855	131.19
326.084	138.19
326.313	148.19
326.542	157.19
326.77	148.19
326.999	138.19
327.228	146.19
327.457	152.19
327.686	157.19
327.914	144.19
328.143	142.19
328.372	150.19
328.6	154.19
328.829	143.19
329.058	141.19
329.287	155.19
329.515	139.19
329.744	146.19
329.972	148.19
330.201	146.19
330.43	129.19
330.658	142.19
330.887	144.19
331.115	148.19
331.344	140.19
331.572	150.19
331.801	135.19
332.03	154.19
332.258	152.19
332.486	153.19
332.715	144.19
332.943	159.19
333.172	155.19
333.4	170.19
333.629	158.19
333.857	169.19
334.085	155.19
334.314	160.19
334.542	150.19
334.771	156.19
334.999	160.19
335.227	134.19
335.455	167.19
335.684	159.19
335.912	156.19
336.14	156.19
336.369	155.19
336.597	166.19
336.825	146.19
337.053	158.19
337.281	163.19
337.51	155.19
337.738	154.19
337.966	149.19
338.194	174.19
338.422	152.19
338.65	162.19
338.878	152.19
339.106	155.19
339.334	149.19
339.562	139.19
339.79	163.19
340.018	150.19
340.246	157.19
340.474	144.19
340.702	143.19
340.93	132.19
341.158	150.19
341.386	146.19
341.614	152.19
341.842	148.19
342.07	147.19
342.298	134.19
342.526	152.19
342.754	132.19
342.981	154.19
343.209	166.19
343.437	179.19
343.665	167.19
343.893	154.19
344.12	178.19
344.348	162.19
344.576	159.19
344.804	161.19
345.031	148.19
345.259	147.19
345.487	159.19
345.714	158.19
345.942	148.19
346.17	154.19
346.397	148.19
346.625	138.19
346.853	152.19
347.08	141.19
347.308	140.19
347.535	166.19
347.763	155.19
347.99	152.19
348.218	156.19
348.445	157.19
348.673	136.19
348.9	138.19
349.128	136.19
349.355	155.19
349.583	144.19
349.81	144.19
350.037	156.19
350.265	136.19
350.492	142.19
350.72	150.19
350.947	139.19
351.174	165.19
351.402	136.19
351.629	145.19
351.856	143.19
352.083	144.19
352.311	142.19
352.538	154.19
352.765	131.19
352.992	152.19
353.22	147.19
353.447	141.19
353.674	159.19
353.901	136.19
354.128	147.19
354.355	138.19
354.583	152.19
354.81	138.19
355.037	150.19
355.264	139.19
355.491	126.19
355.718	146.19
355.945	149.19
356.172	173.19
356.399	149.19
356.626	152.19
356.853	143.19
357.08	151.19
357.307	148.19
357.534	139.19
357.761	128.19
357.988	134.19
358.215	161.19
358.441	146.19
358.668	137.19
358.895	147.19
359.122	133.19
359.349	130.19
359.576	139.19
359.802	143.19
360.029	148.19
360.256	147.19
360.483	141.19
360.709	152.19
360.936	152.19
361.163	151.19
361.39	164.19
361.616	149.19
361.843	141.19
362.07	146.19
362.296	152.19
362.523	139.19
362.749	143.19
362.976	137.19
363.203	157.19
363.429	144.19
363.656	146.19
363.882	123.19
364.109	148.19
364.335	155.19
364.562	148.19
364.788	164.19
365.015	146.19
365.241	149.19
365.468	144.19
365.694	163.19
365.92	165.19
366.147	142.19
366.373	150.19
366.599	154.19
366.826	141.19
367.052	136.19
367.278	158.19
367.505	149.19
367.731	162.19
367.957	155.19
368.184	140.19
368.41	160.19
368.636	170.19
368.862	148.19
369.089	157.19
369.315	152.19
369.541	141.19
369.767	158.19
369.993	161.19
370.219	147.19
370.445	162.19
370.672	138.19
370.898	146.19
371.124	157.19
371.35	150.19
371.576	146.19
371.802	158.19
372.028	165.19
372.254	148.19
372.48	154.19
372.706	163.19
372.932	150.19
373.158	160.19
373.384	160.19
373.61	154.19
373.835	162.19
374.061	167.19
374.287	152.19
374.513	148.19
374.739	146.19
374.965	155.19
375.191	158.19
375.416	174.19
375.642	167.19
375.868	168.19
376.094	161.19
376.319	169.19
376.545	152.19
376.771	156.19
376.997	156.19
377.222	158.19
377.448	159.19
377.674	151.19
377.899	177.19
378.125	152.19
378.35	156.19
378.576	142.19
378.802	146.19
379.027	152.19
379.253	138.19
379.478	146.19
379.704	158.19
379.929	158.19
380.155	155.19
380.38	154.19
380.606	160.19
380.831	155.19
381.057	167.19
381.282	156.19
381.507	142.19
381.733	160.19
381.958	160.19
382.184	148.19
382.409	147.19
382.634	163.19
382.86	164.19
383.085	166.19
383.31	162.19
383.535	169.19
383.761	158.19
383.986	171.19
384.211	174.19
384.436	167.19
384.662	169.19
384.887	169.19
385.112	172.19
385.337	171.19
385.562	169.19
385.787	174.19
386.013	173.19
386.238	173.19
386.463	181.19
386.688	169.19
386.913	172.19
387.138	171.19
387.363	171.19
387.588	180.19
387.813	176.19
388.038	174.19
388.263	197.19
388.488	190.19
388.713	157.19
388.938	171.19
389.163	170.19
389.387	170.19
389.612	177.19
389.837	182.19
390.062	174.19
390.287	191.19
390.512	172.19
390.736	183.19
390.961	177.19
391.186	186.19
391.411	181.19
391.636	174.19
391.86	196.19
392.085	182.19
392.31	200.19
392.534	189.19
392.759	178.19
392.984	171.19
393.208	180.19
393.433	170.19
393.658	173.19
393.882	194.19
394.107	173.19
394.331	173.19
394.556	170.19
394.78	185.19
395.005	192.19
395.229	202.19
395.454	183.19
395.678	192.19
395.903	205.19
396.127	195.19
396.352	196.19
396.576	179.19
396.801	186.19
397.025	181.19
397.249	186.19
397.474	187.19
397.698	204.19
397.922	189.19
398.147	205.19
398.371	206.19
398.595	203.19
398.82	210.19
399.044	209.19
399.268	227.19
399.492	257.19
399.717	271.19
399.941	250.19
400.165	239.19
400.389	214.19
400.613	212.19
400.837	227.19
401.062	213.19
401.286	204.19
401.51	202.19
401.734	202.19
401.958	215.19
402.182	202.19
402.406	200.19
402.63	201.19
402.854	221.19
403.078	210.19
403.302	219.19
403.526	221.19
403.75	224.19
403.974	220.19
404.198	213.19
404.422	223.19
404.645	201.19
404.869	240.19
405.093	233.19
405.317	231.19
405.541	222.19
405.765	224.19
405.988	211.19
406.212	215.19
406.436	231.19
406.66	234.19
406.883	228.19
407.107	230.19
407.331	241.19
407.555	252.19
407.778	245.19
408.002	241.19
408.226	254.19
408.449	236.19
408.673	214.19
408.896	221.19
409.12	226.19
409.344	221.19
409.567	226.19
409.791	228.19
410.014	233.19
410.238	225.19
410.461	221.19
410.685	202.19
410.908	226.19
411.132	219.19
411.355	223.19
411.578	223.19
411.802	209.19
412.025	218.19
412.249	204.19
412.472	223.19
412.695	229.19
412.919	203.19
413.142	205.19
413.365	217.19
413.589	233.19
413.812	217.19
414.035	236.19
414.258	206.19
414.482	210.19
414.705	200.19
414.928	218.19
415.151	222.19
415.374	225.19
415.597	213.19
415.821	209.19
416.044	218.19
416.267	194.19
416.49	209.19
416.713	217.19
416.936	208.19
417.159	201.19
417.382	208.19
417.605	221.19
417.828	218.19
418.051	230.19
418.274	206.19
418.497	219.19
418.72	205.19
418.943	229.19
419.166	239.19
419.389	228.19
419.611	225.19
419.834	226.19
420.057	225.19
420.28	202.19
420.503	222.19
420.726	210.19
420.948	218.19
421.171	219.19
421.394	219.19
421.617	203.19
421.839	217.19
422.062	241.19
422.285	222.19
422.507	219.19
422.73	221.19
422.953	205.19
423.175	216.19
423.398	224.19
423.621	213.19
423.843	224.19
424.066	214.19
424.288	214.19
424.511	198.19
424.733	215.19
424.956	221.19
425.178	227.19
425.401	221.19
425.623	208.19
425.846	223.19
426.068	213.19
426.291	202.19
426.513	219.19
426.735	213.19
426.958	199.19
427.18	199.19
427.402	215.19
427.625	204.19
427.847	207.19
428.069	205.19
428.292	218.19
428.514	225.19
428.736	204.19
428.958	208.19
429.181	203.19
429.403	187.19
429.625	205.19
429.847	219.19
430.069	210.19
430.292	198.19
430.514	191.19
430.736	190.19
430.958	206.19
431.18	197.19
431.402	207.19
431.624	205.19
431.846	221.19
432.068	219.19
432.29	212.19
432.512	204.19
432.734	215.19
432.956	213.19
433.178	211.19
433.4	202.19
433.622	206.19
433.844	222.19
434.066	211.19
434.287	216.19
434.509	223.19
434.731	194.19
434.953	225.19
435.175	222.19
435.397	226.19
435.618	206.19
435.84	197.19
436.062	187.19
436.284	200.19
436.505	201.19
436.727	212.19
436.949	204.19
437.17	225.19
437.392	216.19
437.614	217.19
437.835	213.19
438.057	219.19
438.278	192.19
438.5	203.19
438.721	209.19
438.943	204.19
439.165	221.19
439.386	203.19
439.608	216.19
439.829	227.19
440.05	214.19
440.272	226.19
440.493	218.19
440.715	226.19
440.936	218.19
441.158	230.19
441.379	241.19
441.6	240.19
441.822	240.19
442.043	251.19
442.264	237.19
442.486	226.19
442.707	222.19
442.928	234.19
443.149	235.19
443.371	205.19
443.592	232.19
443.813	226.19
444.034	248.19
444.255	252.19
444.476	245.19
444.698	265.19
444.919	250.19
445.14	362.19
445.361	296.19
445.582	242.19
445.803	242.19
446.024	241.19
446.245	240.19
446.466	245.19
446.687	225.19
446.908	222.19
447.129	218.19
447.35	231.19
447.571	224.19
447.792	218.19
448.013	215.19
448.234	210.19
448.455	216.19
448.675	206.19
448.896	222.19
449.117	224.19
449.338	199.19
449.559	229.19
449.779	211.19
450	209.19
450.221	202.19
450.442	190.19
450.662	204.19
450.883	212.19
451.104	211.19
451.324	221.19
451.545	216.19
451.766	216.19
451.986	214.19
452.207	204.19
452.428	215.19
452.648	204.19
452.869	186.19
453.089	182.19
453.31	194.19
453.53	197.19
453.751	213.19
453.971	206.19
454.192	192.19
454.412	193.19
454.633	206.19
454.853	220.19
455.073	200.19
455.294	194.19
455.514	203.19
455.734	182.19
455.955	209.19
456.175	185.19
456.395	190.19
456.616	196.19
456.836	171.19
457.056	197.19
457.276	202.19
457.497	190.19
457.717	184.19
457.937	182.19
458.157	207.19
458.377	198.19
458.598	205.19
458.818	206.19
459.038	188.19
459.258	201.19
459.478	211.19
459.698	200.19
459.918	197.19
460.138	229.19
460.358	252.19
460.578	234.19
460.798	223.19
461.018	227.19
461.238	255.19
461.458	241.19
461.678	231.19
461.898	230.19
462.118	229.19
462.338	236.19
462.558	240.19
462.777	252.19
462.997	274.19
463.217	280.19
463.437	276.19
463.657	262.19
463.876	260.19
464.096	253.19
464.316	257.19
464.536	261.19
464.755	258.19
464.975	247.19
465.195	242.19
465.414	213.19
465.634	213.19
465.854	216.19
466.073	221.19
466.293	197.19
466.512	190.19
466.732	230.19
466.951	225.19
467.171	223.19
467.391	198.19
467.61	208.19
467.829	204.19
468.049	216.19
468.268	225.19
468.488	201.19
468.707	221.19
468.927	212.19
469.146	215.19
469.365	218.19
469.585	206.19
469.804	209.19
470.023	223.19
470.243	236.19
470.462	210.19
470.681	227.19
470.901	213.19
471.12	217.19
471.339	212.19
471.558	215.19
471.777	217.19
471.997	213.19
472.216	219.19
472.435	204.19
472.654	210.19
472.873	200.19
473.092	182.19
473.311	213.19
473.53	206.19
473.749	191.19
473.968	199.19
474.187	188.19
474.406	195.19
474.625	211.19
474.844	202.19
475.063	192.19
475.282	197.19
475.501	214.19
475.72	198.19
475.939	214.19
476.158	202.19
476.377	211.19
476.596	190.19
476.814	204.19
477.033	206.19
477.252	211.19
477.471	212.19
477.69	219.19
477.908	221.19
478.127	233.19
478.346	228.19
478.564	242.19
478.783	215.19
479.002	242.19
479.22	234.19
479.439	218.19
479.658	217.19
479.876	226.19
480.095	226.19
480.313	219.19
480.532	244.19
480.751	224.19
480.969	202.19
481.188	214.19
481.406	215.19
481.624	215.19
481.843	229.19
482.061	204.19
482.28	203.19
482.498	207.19
482.717	215.19
482.935	233.19
483.153	220.19
483.372	220.19
483.59	226.19
483.808	216.19
484.027	204.19
484.245	201.19
484.463	213.19
484.681	232.19
484.9	228.19
485.118	224.19
485.336	226.19
485.554	215.19
485.772	216.19
485.99	213.19
486.209	232.19
486.427	211.19
486.645	204.19
486.863	216.19
487.081	225.19
487.299	208.19
487.517	228.19
487.735	217.19
487.953	214.19
488.171	233.19
488.389	218.19
488.607	229.19
488.825	199.19
489.043	219.19
489.261	232.19
489.479	221.19
489.696	214.19
489.914	213.19
490.132	219.19
490.35	222.19
490.568	224.19
490.786	224.19
491.003	241.19
491.221	250.19
491.439	231.19
491.657	258.19
491.874	243.19
492.092	243.19
492.31	256.19
492.527	232.19
492.745	234.19
492.963	243.19
493.18	244.19
493.398	252.19
493.615	238.19
493.833	228.19
494.05	231.19
494.268	239.19
494.485	235.19
494.703	225.19
494.92	229.19
495.138	243.19
495.355	245.19
495.573	219.19
495.79	242.19
496.008	223.19
496.225	224.19
496.442	235.19
496.66	255.19
496.877	253.19
497.094	256.19
497.312	236.19
497.529	248.19
497.746	250.19
497.963	252.19
498.181	266.19
498.398	254.19
498.615	273.19
498.832	308.19
499.049	317.19
499.267	331.19
499.484	355.19
499.701	390.19
499.918	407.19
500.135	425.19
500.352	464.19
500.569	483.19
500.786	477.19
501.003	435.19
501.22	430.19
501.437	384.19
501.654	343.19
501.871	328.19
502.088	297.19
502.305	291.19
502.522	285.19
502.739	280.19
502.956	276.19
503.172	269.19
503.389	260.19
503.606	254.19
