Data from Fe(NO3)3@0.1M.TitratingCurve.Agarose3%dH2O.NegLispCup.LampEnergy10.LIBS07252019_HRD10591_16-40-28-333.txt Node
Date: Thu Jul 25 16:40:28 EDT 2019
User: cochatt
Spectrometer: HR+D1059
Trigger mode: 1
Integration Time (sec): 1.000000E-1
Scans to average: 1
Electric dark correction enabled: true
Nonlinearity correction enabled: false
Boxcar width: 0
XAxis mode: Wavelengths
Number of Pixels in Spectrum: 2048
>>>>>Begin Spectral Data<<<<<
223.165	-9.69
223.4	-9.69
223.635	-9.69
223.869	-28.69
224.104	-30.69
224.338	-4.69
224.573	-10.69
224.808	-14.69
225.042	-1.69
225.277	-3.69
225.511	-2.69
225.746	1.31
225.98	7.31
226.215	9.31
226.449	10.31
226.683	5.31
226.918	36.31
227.152	37.31
227.387	39.31
227.621	48.31
227.856	29.31
228.09	40.31
228.324	52.31
228.559	48.31
228.793	68.31
229.027	63.31
229.262	71.31
229.496	73.31
229.73	91.31
229.964	97.31
230.199	80.31
230.433	95.31
230.667	92.31
230.901	84.31
231.136	102.31
231.37	89.31
231.604	105.31
231.838	97.31
232.072	111.31
232.306	102.31
232.541	95.31
232.775	102.31
233.009	106.31
233.243	93.31
233.477	85.31
233.711	106.31
233.945	96.31
234.179	101.31
234.413	108.31
234.647	106.31
234.881	97.31
235.115	96.31
235.349	89.31
235.583	105.31
235.817	98.31
236.051	101.31
236.285	103.31
236.519	99.31
236.753	102.31
236.987	99.31
237.221	101.31
237.455	93.31
237.689	96.31
237.922	95.31
238.156	111.31
238.39	101.31
238.624	99.31
238.858	109.31
239.091	101.31
239.325	106.31
239.559	98.31
239.793	113.31
240.027	109.31
240.26	91.31
240.494	98.31
240.728	113.31
240.961	111.31
241.195	112.31
241.429	106.31
241.662	113.31
241.896	99.31
242.13	98.31
242.363	100.31
242.597	105.31
242.83	129.31
243.064	116.31
243.298	117.31
243.531	116.31
243.765	119.31
243.998	101.31
244.232	102.31
244.465	109.31
244.699	113.31
244.932	109.31
245.166	120.31
245.399	123.31
245.633	103.31
245.866	120.31
246.099	121.31
246.333	116.31
246.566	126.31
246.8	117.31
247.033	127.31
247.266	115.31
247.5	123.31
247.733	115.31
247.966	125.31
248.2	113.31
248.433	119.31
248.666	128.31
248.899	115.31
249.133	140.31
249.366	131.31
249.599	133.31
249.832	117.31
250.066	132.31
250.299	135.31
250.532	137.31
250.765	127.31
250.998	127.31
251.231	117.31
251.465	132.31
251.698	128.31
251.931	123.31
252.164	121.31
252.397	127.31
252.63	135.31
252.863	144.31
253.096	128.31
253.329	130.31
253.562	135.31
253.795	143.31
254.028	129.31
254.261	128.31
254.494	129.31
254.727	137.31
254.96	135.31
255.193	142.31
255.426	123.31
255.659	129.31
255.892	130.31
256.124	136.31
256.357	139.31
256.59	158.31
256.823	145.31
257.056	142.31
257.289	145.31
257.521	149.31
257.754	136.31
257.987	139.31
258.22	139.31
258.452	148.31
258.685	143.31
258.918	137.31
259.151	145.31
259.383	140.31
259.616	131.31
259.849	141.31
260.081	141.31
260.314	139.31
260.547	127.31
260.779	151.31
261.012	149.31
261.244	147.31
261.477	151.31
261.71	155.31
261.942	138.31
262.175	151.31
262.407	152.31
262.64	156.31
262.872	145.31
263.105	148.31
263.337	151.31
263.57	147.31
263.802	161.31
264.035	155.31
264.267	164.31
264.499	146.31
264.732	141.31
264.964	156.31
265.197	161.31
265.429	148.31
265.661	172.31
265.894	137.31
266.126	147.31
266.358	154.31
266.591	160.31
266.823	153.31
267.055	143.31
267.287	154.31
267.52	149.31
267.752	177.31
267.984	168.31
268.216	159.31
268.448	157.31
268.681	154.31
268.913	159.31
269.145	148.31
269.377	171.31
269.609	154.31
269.841	159.31
270.073	160.31
270.306	148.31
270.538	163.31
270.77	163.31
271.002	156.31
271.234	166.31
271.466	169.31
271.698	155.31
271.93	163.31
272.162	156.31
272.394	168.31
272.626	171.31
272.858	172.31
273.09	168.31
273.322	162.31
273.553	175.31
273.785	168.31
274.017	174.31
274.249	173.31
274.481	180.31
274.713	189.31
274.945	195.31
275.176	171.31
275.408	183.31
275.64	172.31
275.872	171.31
276.104	182.31
276.335	195.31
276.567	167.31
276.799	168.31
277.031	193.31
277.262	176.31
277.494	167.31
277.726	168.31
277.957	168.31
278.189	157.31
278.421	184.31
278.652	182.31
278.884	192.31
279.115	184.31
279.347	184.31
279.579	191.31
279.81	186.31
280.042	193.31
280.273	178.31
280.505	186.31
280.736	182.31
280.968	180.31
281.199	186.31
281.431	191.31
281.662	184.31
281.894	196.31
282.125	186.31
282.356	197.31
282.588	203.31
282.819	186.31
283.051	202.31
283.282	173.31
283.513	197.31
283.745	189.31
283.976	193.31
284.207	206.31
284.439	184.31
284.67	192.31
284.901	186.31
285.132	185.31
285.364	198.31
285.595	200.31
285.826	191.31
286.057	200.31
286.288	203.31
286.52	209.31
286.751	212.31
286.982	197.31
287.213	205.31
287.444	201.31
287.675	209.31
287.906	180.31
288.138	203.31
288.369	221.31
288.6	210.31
288.831	217.31
289.062	214.31
289.293	209.31
289.524	221.31
289.755	208.31
289.986	212.31
290.217	201.31
290.448	192.31
290.679	216.31
290.91	216.31
291.141	212.31
291.371	209.31
291.602	209.31
291.833	211.31
292.064	202.31
292.295	214.31
292.526	211.31
292.757	203.31
292.987	218.31
293.218	213.31
293.449	197.31
293.68	213.31
293.91	203.31
294.141	203.31
294.372	218.31
294.603	219.31
294.833	210.31
295.064	218.31
295.295	224.31
295.525	190.31
295.756	210.31
295.987	211.31
296.217	233.31
296.448	223.31
296.679	211.31
296.909	216.31
297.14	219.31
297.37	225.31
297.601	204.31
297.831	199.31
298.062	216.31
298.292	225.31
298.523	210.31
298.753	234.31
298.984	223.31
299.214	229.31
299.445	233.31
299.675	220.31
299.905	219.31
300.136	228.31
300.366	226.31
300.597	227.31
300.827	229.31
301.057	240.31
301.288	240.31
301.518	231.31
301.748	260.31
301.979	240.31
302.209	241.31
302.439	225.31
302.669	240.31
302.9	224.31
303.13	224.31
303.36	234.31
303.59	234.31
303.82	228.31
304.051	226.31
304.281	242.31
304.511	248.31
304.741	233.31
304.971	243.31
305.201	239.31
305.431	232.31
305.661	235.31
305.891	229.31
306.121	227.31
306.352	237.31
306.582	262.31
306.812	242.31
307.042	223.31
307.272	223.31
307.502	238.31
307.731	231.31
307.961	229.31
308.191	233.31
308.421	226.31
308.651	214.31
308.881	229.31
309.111	226.31
309.341	205.31
309.571	198.31
309.8	212.31
310.03	224.31
310.26	239.31
310.49	254.31
310.72	248.31
310.949	224.31
311.179	245.31
311.409	220.31
311.639	244.31
311.868	233.31
312.098	225.31
312.328	241.31
312.557	230.31
312.787	260.31
313.017	237.31
313.246	237.31
313.476	229.31
313.706	236.31
313.935	244.31
314.165	252.31
314.394	257.31
314.624	247.31
314.853	231.31
315.083	240.31
315.312	245.31
315.542	243.31
315.771	234.31
316.001	246.31
316.23	248.31
316.46	265.31
316.689	243.31
316.919	255.31
317.148	241.31
317.377	247.31
317.607	230.31
317.836	224.31
318.065	228.31
318.295	244.31
318.524	237.31
318.753	240.31
318.983	251.31
319.212	254.31
319.441	227.31
319.67	233.31
319.9	258.31
320.129	268.31
320.358	245.31
320.587	246.31
320.816	256.31
321.046	248.31
321.275	244.31
321.504	256.31
321.733	253.31
321.962	226.31
322.191	266.31
322.42	256.31
322.649	250.31
322.878	250.31
323.108	248.31
323.337	265.31
323.566	263.31
323.795	259.31
324.024	253.31
324.253	255.31
324.482	264.31
324.71	245.31
324.939	255.31
325.168	252.31
325.397	260.31
325.626	239.31
325.855	257.31
326.084	256.31
326.313	270.31
326.542	267.31
326.77	280.31
326.999	293.31
327.228	275.31
327.457	278.31
327.686	267.31
327.914	268.31
328.143	280.31
328.372	284.31
328.6	273.31
328.829	266.31
329.058	265.31
329.287	269.31
329.515	281.31
329.744	272.31
329.972	273.31
330.201	264.31
330.43	280.31
330.658	272.31
330.887	273.31
331.115	281.31
331.344	293.31
331.572	292.31
331.801	296.31
332.03	275.31
332.258	303.31
332.486	305.31
332.715	303.31
332.943	316.31
333.172	307.31
333.4	336.31
333.629	336.31
333.857	348.31
334.085	338.31
334.314	328.31
334.542	333.31
334.771	342.31
334.999	348.31
335.227	334.31
335.455	331.31
335.684	301.31
335.912	331.31
336.14	315.31
336.369	338.31
336.597	312.31
336.825	322.31
337.053	316.31
337.281	329.31
337.51	321.31
337.738	304.31
337.966	289.31
338.194	305.31
338.422	290.31
338.65	290.31
338.878	280.31
339.106	293.31
339.334	310.31
339.562	313.31
339.79	287.31
340.018	286.31
340.246	303.31
340.474	284.31
340.702	291.31
340.93	282.31
341.158	282.31
341.386	285.31
341.614	281.31
341.842	290.31
342.07	277.31
342.298	284.31
342.526	290.31
342.754	290.31
342.981	280.31
343.209	290.31
343.437	293.31
343.665	319.31
343.893	339.31
344.12	328.31
344.348	319.31
344.576	304.31
344.804	285.31
345.031	278.31
345.259	304.31
345.487	279.31
345.714	290.31
345.942	278.31
346.17	292.31
346.397	281.31
346.625	270.31
346.853	265.31
347.08	304.31
347.308	287.31
347.535	283.31
347.763	269.31
347.99	284.31
348.218	275.31
348.445	290.31
348.673	275.31
348.9	273.31
349.128	285.31
349.355	266.31
349.583	268.31
349.81	291.31
350.037	271.31
350.265	283.31
350.492	282.31
350.72	269.31
350.947	262.31
351.174	260.31
351.402	276.31
351.629	283.31
351.856	281.31
352.083	258.31
352.311	268.31
352.538	267.31
352.765	269.31
352.992	261.31
353.22	273.31
353.447	263.31
353.674	253.31
353.901	278.31
354.128	274.31
354.355	268.31
354.583	255.31
354.81	255.31
355.037	285.31
355.264	279.31
355.491	279.31
355.718	291.31
355.945	281.31
356.172	275.31
356.399	268.31
356.626	275.31
356.853	290.31
357.08	287.31
357.307	295.31
357.534	272.31
357.761	285.31
357.988	257.31
358.215	272.31
358.441	260.31
358.668	269.31
358.895	275.31
359.122	290.31
359.349	287.31
359.576	287.31
359.802	274.31
360.029	277.31
360.256	277.31
360.483	284.31
360.709	260.31
360.936	266.31
361.163	265.31
361.39	279.31
361.616	256.31
361.843	267.31
362.07	250.31
362.296	259.31
362.523	277.31
362.749	283.31
362.976	265.31
363.203	275.31
363.429	268.31
363.656	274.31
363.882	267.31
364.109	259.31
364.335	285.31
364.562	260.31
364.788	273.31
365.015	279.31
365.241	298.31
365.468	275.31
365.694	277.31
365.92	296.31
366.147	257.31
366.373	282.31
366.599	287.31
366.826	263.31
367.052	274.31
367.278	275.31
367.505	279.31
367.731	278.31
367.957	272.31
368.184	248.31
368.41	285.31
368.636	283.31
368.862	290.31
369.089	283.31
369.315	292.31
369.541	292.31
369.767	292.31
369.993	282.31
370.219	296.31
370.445	273.31
370.672	297.31
370.898	277.31
371.124	285.31
371.35	291.31
371.576	297.31
371.802	298.31
372.028	304.31
372.254	312.31
372.48	295.31
372.706	299.31
372.932	306.31
373.158	320.31
373.384	299.31
373.61	282.31
373.835	304.31
374.061	303.31
374.287	303.31
374.513	311.31
374.739	320.31
374.965	330.31
375.191	335.31
375.416	333.31
375.642	321.31
375.868	327.31
376.094	319.31
376.319	298.31
376.545	296.31
376.771	307.31
376.997	295.31
377.222	296.31
377.448	295.31
377.674	297.31
377.899	293.31
378.125	281.31
378.35	302.31
378.576	287.31
378.802	299.31
379.027	315.31
379.253	313.31
379.478	309.31
379.704	300.31
379.929	313.31
380.155	299.31
380.38	298.31
380.606	319.31
380.831	307.31
381.057	289.31
381.282	281.31
381.507	303.31
381.733	318.31
381.958	295.31
382.184	296.31
382.409	294.31
382.634	298.31
382.86	337.31
383.085	320.31
383.31	314.31
383.535	314.31
383.761	325.31
383.986	308.31
384.211	332.31
384.436	334.31
384.662	330.31
384.887	355.31
385.112	337.31
385.337	366.31
385.562	346.31
385.787	340.31
386.013	373.31
386.238	333.31
386.463	387.31
386.688	347.31
386.913	356.31
387.138	333.31
387.363	364.31
387.588	352.31
387.813	324.31
388.038	338.31
388.263	353.31
388.488	348.31
388.713	347.31
388.938	352.31
389.163	365.31
389.387	349.31
389.612	356.31
389.837	335.31
390.062	349.31
390.287	348.31
390.512	336.31
390.736	374.31
390.961	373.31
391.186	352.31
391.411	357.31
391.636	396.31
391.86	377.31
392.085	377.31
392.31	388.31
392.534	371.31
392.759	381.31
392.984	373.31
393.208	369.31
393.433	368.31
393.658	377.31
393.882	379.31
394.107	374.31
394.331	388.31
394.556	372.31
394.78	387.31
395.005	383.31
395.229	377.31
395.454	396.31
395.678	396.31
395.903	394.31
396.127	354.31
396.352	377.31
396.576	375.31
396.801	372.31
397.025	367.31
397.249	371.31
397.474	398.31
397.698	385.31
397.922	388.31
398.147	381.31
398.371	409.31
398.595	421.31
398.82	438.31
399.044	481.31
399.268	485.31
399.492	555.31
399.717	609.31
399.941	596.31
400.165	530.31
400.389	480.31
400.613	471.31
400.837	480.31
401.062	444.31
401.286	425.31
401.51	419.31
401.734	419.31
401.958	438.31
402.182	423.31
402.406	428.31
402.63	450.31
402.854	443.31
403.078	451.31
403.302	462.31
403.526	484.31
403.75	481.31
403.974	477.31
404.198	471.31
404.422	475.31
404.645	488.31
404.869	455.31
405.093	475.31
405.317	470.31
405.541	482.31
405.765	436.31
405.988	479.31
406.212	469.31
406.436	481.31
406.66	481.31
406.883	469.31
407.107	531.31
407.331	530.31
407.555	547.31
407.778	521.31
408.002	525.31
408.226	521.31
408.449	519.31
408.673	498.31
408.896	487.31
409.12	502.31
409.344	486.31
409.567	479.31
409.791	486.31
410.014	507.31
410.238	501.31
410.461	483.31
410.685	490.31
410.908	458.31
411.132	467.31
411.355	456.31
411.578	467.31
411.802	453.31
412.025	468.31
412.249	447.31
412.472	451.31
412.695	452.31
412.919	442.31
413.142	450.31
413.365	446.31
413.589	435.31
413.812	416.31
414.035	467.31
414.258	453.31
414.482	459.31
414.705	459.31
414.928	466.31
415.151	422.31
415.374	451.31
415.597	435.31
415.821	424.31
416.044	434.31
416.267	421.31
416.49	437.31
416.713	427.31
416.936	433.31
417.159	433.31
417.382	426.31
417.605	433.31
417.828	425.31
418.051	452.31
418.274	467.31
418.497	425.31
418.72	454.31
418.943	450.31
419.166	475.31
419.389	488.31
419.611	467.31
419.834	449.31
420.057	450.31
420.28	449.31
420.503	436.31
420.726	397.31
420.948	442.31
421.171	419.31
421.394	426.31
421.617	424.31
421.839	420.31
422.062	453.31
422.285	449.31
422.507	447.31
422.73	420.31
422.953	451.31
423.175	465.31
423.398	442.31
423.621	423.31
423.843	465.31
424.066	465.31
424.288	466.31
424.511	447.31
424.733	449.31
424.956	440.31
425.178	423.31
425.401	427.31
425.623	425.31
425.846	418.31
426.068	407.31
426.291	421.31
426.513	423.31
426.735	431.31
426.958	401.31
427.18	402.31
427.402	389.31
427.625	412.31
427.847	392.31
428.069	393.31
428.292	403.31
428.514	396.31
428.736	386.31
428.958	375.31
429.181	392.31
429.403	376.31
429.625	391.31
429.847	414.31
430.069	371.31
430.292	388.31
430.514	380.31
430.736	405.31
430.958	412.31
431.18	397.31
431.402	393.31
431.624	419.31
431.846	411.31
432.068	374.31
432.29	413.31
432.512	390.31
432.734	391.31
432.956	423.31
433.178	413.31
433.4	416.31
433.622	404.31
433.844	410.31
434.066	403.31
434.287	425.31
434.509	437.31
434.731	457.31
434.953	448.31
435.175	453.31
435.397	422.31
435.618	433.31
435.84	411.31
436.062	401.31
436.284	412.31
436.505	401.31
436.727	419.31
436.949	416.31
437.17	415.31
437.392	389.31
437.614	391.31
437.835	392.31
438.057	383.31
438.278	380.31
438.5	392.31
438.721	400.31
438.943	419.31
439.165	398.31
439.386	392.31
439.608	414.31
439.829	411.31
440.05	403.31
440.272	420.31
440.493	409.31
440.715	426.31
440.936	425.31
441.158	441.31
441.379	432.31
441.6	466.31
441.822	459.31
442.043	458.31
442.264	452.31
442.486	436.31
442.707	451.31
442.928	443.31
443.149	439.31
443.371	433.31
443.592	443.31
443.813	464.31
444.034	441.31
444.255	481.31
444.476	502.31
444.698	508.31
444.919	489.31
445.14	595.31
445.361	508.31
445.582	482.31
445.803	445.31
446.024	444.31
446.245	425.31
446.466	426.31
446.687	410.31
446.908	416.31
447.129	394.31
447.35	410.31
447.571	403.31
447.792	392.31
448.013	398.31
448.234	406.31
448.455	390.31
448.675	394.31
448.896	386.31
449.117	380.31
449.338	385.31
449.559	374.31
449.779	395.31
450	377.31
450.221	393.31
450.442	391.31
450.662	420.31
450.883	393.31
451.104	413.31
451.324	379.31
451.545	377.31
451.766	399.31
451.986	377.31
452.207	383.31
452.428	380.31
452.648	371.31
452.869	363.31
453.089	371.31
453.31	361.31
453.53	369.31
453.751	371.31
453.971	345.31
454.192	359.31
454.412	358.31
454.633	362.31
454.853	355.31
455.073	376.31
455.294	371.31
455.514	355.31
455.734	356.31
455.955	348.31
456.175	348.31
456.395	358.31
456.616	358.31
456.836	354.31
457.056	337.31
457.276	345.31
457.497	360.31
457.717	361.31
457.937	361.31
458.157	354.31
458.377	352.31
458.598	367.31
458.818	356.31
459.038	377.31
459.258	407.31
459.478	409.31
459.698	405.31
459.918	416.31
460.138	434.31
460.358	457.31
460.578	439.31
460.798	455.31
461.018	456.31
461.238	465.31
461.458	453.31
461.678	473.31
461.898	451.31
462.118	460.31
462.338	478.31
462.558	511.31
462.777	531.31
462.997	562.31
463.217	568.31
463.437	551.31
463.657	562.31
463.876	521.31
464.096	519.31
464.316	524.31
464.536	504.31
464.755	513.31
464.975	492.31
465.195	466.31
465.414	449.31
465.634	425.31
465.854	429.31
466.073	417.31
466.293	411.31
466.512	407.31
466.732	381.31
466.951	389.31
467.171	385.31
467.391	393.31
467.61	381.31
467.829	389.31
468.049	385.31
468.268	384.31
468.488	387.31
468.707	375.31
468.927	384.31
469.146	377.31
469.365	400.31
469.585	401.31
469.804	383.31
470.023	400.31
470.243	409.31
470.462	407.31
470.681	411.31
470.901	410.31
471.12	413.31
471.339	411.31
471.558	390.31
471.777	386.31
471.997	385.31
472.216	393.31
472.435	368.31
472.654	367.31
472.873	358.31
473.092	365.31
473.311	387.31
473.53	365.31
473.749	372.31
473.968	369.31
474.187	374.31
474.406	371.31
474.625	378.31
474.844	359.31
475.063	372.31
475.282	374.31
475.501	371.31
475.72	378.31
475.939	370.31
476.158	385.31
476.377	403.31
476.596	384.31
476.814	389.31
477.033	358.31
477.252	392.31
477.471	402.31
477.69	409.31
477.908	389.31
478.127	420.31
478.346	423.31
478.564	420.31
478.783	436.31
479.002	438.31
479.22	436.31
479.439	455.31
479.658	440.31
479.876	419.31
480.095	447.31
480.313	447.31
480.532	484.31
480.751	466.31
480.969	444.31
481.188	424.31
481.406	389.31
481.624	415.31
481.843	390.31
482.061	414.31
482.28	407.31
482.498	394.31
482.717	390.31
482.935	403.31
483.153	405.31
483.372	398.31
483.59	415.31
483.808	387.31
484.027	394.31
484.245	422.31
484.463	405.31
484.681	425.31
484.9	434.31
485.118	433.31
485.336	437.31
485.554	412.31
485.772	421.31
485.99	405.31
486.209	430.31
486.427	424.31
486.645	418.31
486.863	424.31
487.081	423.31
487.299	418.31
487.517	409.31
487.735	427.31
487.953	415.31
488.171	419.31
488.389	424.31
488.607	415.31
488.825	411.31
489.043	418.31
489.261	431.31
489.479	424.31
489.696	444.31
489.914	403.31
490.132	425.31
490.35	429.31
490.568	419.31
490.786	435.31
491.003	410.31
491.221	437.31
491.439	423.31
491.657	426.31
491.874	444.31
492.092	450.31
492.31	438.31
492.527	439.31
492.745	444.31
492.963	424.31
493.18	447.31
493.398	430.31
493.615	454.31
493.833	451.31
494.05	448.31
494.268	463.31
494.485	461.31
494.703	437.31
494.92	451.31
495.138	448.31
495.355	435.31
495.573	447.31
495.79	455.31
496.008	456.31
496.225	464.31
496.442	465.31
496.66	471.31
496.877	475.31
497.094	455.31
497.312	470.31
497.529	478.31
497.746	497.31
497.963	519.31
498.181	509.31
498.398	546.31
498.615	567.31
498.832	624.31
499.049	675.31
499.267	688.31
499.484	739.31
499.701	807.31
499.918	906.31
500.135	977.31
500.352	1079.31
500.569	1114.31
500.786	1079.31
501.003	1041.31
501.22	960.31
501.437	860.31
501.654	745.31
501.871	700.31
502.088	667.31
