Data from Fe(NO3)3@0.1M.TitratingCurve.Agarose3%dH2O.NegLispCup.LampEnergy10.LIBS07252019_HRD10591_16-40-45-334.txt Node
Date: Thu Jul 25 16:40:45 EDT 2019
User: cochatt
Spectrometer: HR+D1059
Trigger mode: 1
Integration Time (sec): 1.000000E-1
Scans to average: 1
Electric dark correction enabled: true
Nonlinearity correction enabled: false
Boxcar width: 0
XAxis mode: Wavelengths
Number of Pixels in Spectrum: 2048
>>>>>Begin Spectral Data<<<<<
223.165	-26.19
223.4	-26.19
223.635	-26.19
223.869	-15.19
224.104	-28.19
224.338	-8.19
224.573	-21.19
224.808	-16.19
225.042	-11.19
225.277	-9.19
225.511	5.81
225.746	5.81
225.98	18.81
226.215	8.81
226.449	19.81
226.683	29.81
226.918	19.81
227.152	26.81
227.387	38.81
227.621	48.81
227.856	45.81
228.09	46.81
228.324	48.81
228.559	50.81
228.793	56.81
229.027	50.81
229.262	63.81
229.496	67.81
229.73	76.81
229.964	61.81
230.199	71.81
230.433	80.81
230.667	75.81
230.901	73.81
231.136	71.81
231.37	71.81
231.604	102.81
231.838	75.81
232.072	89.81
232.306	74.81
232.541	75.81
232.775	95.81
233.009	90.81
233.243	92.81
233.477	85.81
233.711	90.81
233.945	88.81
234.179	84.81
234.413	93.81
234.647	75.81
234.881	90.81
235.115	81.81
235.349	96.81
235.583	93.81
235.817	86.81
236.051	84.81
236.285	78.81
236.519	89.81
236.753	87.81
236.987	87.81
237.221	79.81
237.455	88.81
237.689	86.81
237.922	86.81
238.156	78.81
238.39	75.81
238.624	95.81
238.858	90.81
239.091	80.81
239.325	89.81
239.559	79.81
239.793	89.81
240.027	96.81
240.26	95.81
240.494	80.81
240.728	83.81
240.961	71.81
241.195	86.81
241.429	88.81
241.662	90.81
241.896	98.81
242.13	88.81
242.363	88.81
242.597	80.81
242.83	114.81
243.064	96.81
243.298	86.81
243.531	81.81
243.765	100.81
243.998	91.81
244.232	89.81
244.465	105.81
244.699	86.81
244.932	96.81
245.166	84.81
245.399	87.81
245.633	88.81
245.866	89.81
246.099	83.81
246.333	89.81
246.566	84.81
246.8	86.81
247.033	93.81
247.266	113.81
247.5	93.81
247.733	92.81
247.966	94.81
248.2	90.81
248.433	96.81
248.666	97.81
248.899	94.81
249.133	111.81
249.366	114.81
249.599	94.81
249.832	96.81
250.066	105.81
250.299	98.81
250.532	101.81
250.765	105.81
250.998	82.81
251.231	93.81
251.465	91.81
251.698	97.81
251.931	112.81
252.164	97.81
252.397	95.81
252.63	104.81
252.863	90.81
253.096	87.81
253.329	104.81
253.562	96.81
253.795	100.81
254.028	85.81
254.261	79.81
254.494	93.81
254.727	93.81
254.96	113.81
255.193	94.81
255.426	93.81
255.659	87.81
255.892	105.81
256.124	100.81
256.357	99.81
256.59	102.81
256.823	99.81
257.056	105.81
257.289	97.81
257.521	95.81
257.754	102.81
257.987	115.81
258.22	104.81
258.452	109.81
258.685	102.81
258.918	102.81
259.151	97.81
259.383	122.81
259.616	98.81
259.849	110.81
260.081	120.81
260.314	98.81
260.547	102.81
260.779	117.81
261.012	110.81
261.244	102.81
261.477	117.81
261.71	120.81
261.942	115.81
262.175	109.81
262.407	108.81
262.64	116.81
262.872	117.81
263.105	103.81
263.337	114.81
263.57	109.81
263.802	113.81
264.035	95.81
264.267	105.81
264.499	102.81
264.732	115.81
264.964	115.81
265.197	121.81
265.429	110.81
265.661	122.81
265.894	113.81
266.126	127.81
266.358	111.81
266.591	113.81
266.823	115.81
267.055	105.81
267.287	107.81
267.52	113.81
267.752	111.81
267.984	123.81
268.216	116.81
268.448	110.81
268.681	107.81
268.913	121.81
269.145	111.81
269.377	125.81
269.609	115.81
269.841	112.81
270.073	125.81
270.306	107.81
270.538	113.81
270.77	105.81
271.002	113.81
271.234	123.81
271.466	136.81
271.698	112.81
271.93	134.81
272.162	129.81
272.394	116.81
272.626	121.81
272.858	115.81
273.09	119.81
273.322	128.81
273.553	122.81
273.785	117.81
274.017	114.81
274.249	122.81
274.481	123.81
274.713	120.81
274.945	111.81
275.176	122.81
275.408	129.81
275.64	122.81
275.872	121.81
276.104	127.81
276.335	123.81
276.567	111.81
276.799	116.81
277.031	122.81
277.262	121.81
277.494	143.81
277.726	127.81
277.957	118.81
278.189	122.81
278.421	128.81
278.652	131.81
278.884	123.81
279.115	119.81
279.347	122.81
279.579	134.81
279.81	119.81
280.042	130.81
280.273	117.81
280.505	115.81
280.736	133.81
280.968	133.81
281.199	126.81
281.431	129.81
281.662	116.81
281.894	124.81
282.125	132.81
282.356	131.81
282.588	141.81
282.819	148.81
283.051	129.81
283.282	132.81
283.513	131.81
283.745	129.81
283.976	136.81
284.207	129.81
284.439	135.81
284.67	136.81
284.901	130.81
285.132	123.81
285.364	137.81
285.595	147.81
285.826	143.81
286.057	128.81
286.288	139.81
286.52	138.81
286.751	142.81
286.982	135.81
287.213	139.81
287.444	131.81
287.675	135.81
287.906	130.81
288.138	145.81
288.369	140.81
288.6	125.81
288.831	124.81
289.062	137.81
289.293	140.81
289.524	129.81
289.755	129.81
289.986	146.81
290.217	138.81
290.448	126.81
290.679	132.81
290.91	145.81
291.141	137.81
291.371	137.81
291.602	127.81
291.833	131.81
292.064	135.81
292.295	126.81
292.526	146.81
292.757	124.81
292.987	135.81
293.218	129.81
293.449	148.81
293.68	159.81
293.91	132.81
294.141	148.81
294.372	144.81
294.603	132.81
294.833	144.81
295.064	143.81
295.295	141.81
295.525	165.81
295.756	141.81
295.987	149.81
296.217	123.81
296.448	130.81
296.679	137.81
296.909	138.81
297.14	146.81
297.37	149.81
297.601	139.81
297.831	149.81
298.062	148.81
298.292	153.81
298.523	153.81
298.753	144.81
298.984	146.81
299.214	131.81
299.445	155.81
299.675	152.81
299.905	157.81
300.136	131.81
300.366	154.81
300.597	159.81
300.827	154.81
301.057	143.81
301.288	163.81
301.518	131.81
301.748	151.81
301.979	144.81
302.209	146.81
302.439	142.81
302.669	154.81
302.9	150.81
303.13	155.81
303.36	131.81
303.59	133.81
303.82	149.81
304.051	136.81
304.281	156.81
304.511	146.81
304.741	141.81
304.971	150.81
305.201	154.81
305.431	150.81
305.661	150.81
305.891	177.81
306.121	143.81
306.352	141.81
306.582	146.81
306.812	163.81
307.042	152.81
307.272	165.81
307.502	139.81
307.731	152.81
307.961	142.81
308.191	155.81
308.421	146.81
308.651	153.81
308.881	149.81
309.111	140.81
309.341	157.81
309.571	154.81
309.8	143.81
310.03	163.81
310.26	152.81
310.49	142.81
310.72	161.81
310.949	153.81
311.179	145.81
311.409	131.81
311.639	154.81
311.868	165.81
312.098	149.81
312.328	153.81
312.557	146.81
312.787	159.81
313.017	163.81
313.246	168.81
313.476	149.81
313.706	153.81
313.935	166.81
314.165	157.81
314.394	143.81
314.624	145.81
314.853	165.81
315.083	149.81
315.312	178.81
315.542	167.81
315.771	158.81
316.001	173.81
316.23	150.81
316.46	152.81
316.689	164.81
316.919	158.81
317.148	162.81
317.377	143.81
317.607	177.81
317.836	159.81
318.065	155.81
318.295	152.81
318.524	156.81
318.753	150.81
318.983	150.81
319.212	156.81
319.441	139.81
319.67	165.81
319.9	160.81
320.129	168.81
320.358	149.81
320.587	153.81
320.816	159.81
321.046	174.81
321.275	159.81
321.504	137.81
321.733	158.81
321.962	144.81
322.191	150.81
322.42	177.81
322.649	161.81
322.878	168.81
323.108	166.81
323.337	152.81
323.566	154.81
323.795	157.81
324.024	160.81
324.253	158.81
324.482	170.81
324.71	176.81
324.939	185.81
325.168	161.81
325.397	178.81
325.626	157.81
325.855	160.81
326.084	153.81
326.313	168.81
326.542	164.81
326.77	170.81
326.999	168.81
327.228	153.81
327.457	170.81
327.686	159.81
327.914	163.81
328.143	173.81
328.372	176.81
328.6	187.81
328.829	156.81
329.058	159.81
329.287	162.81
329.515	177.81
329.744	177.81
329.972	187.81
330.201	162.81
330.43	182.81
330.658	167.81
330.887	175.81
331.115	169.81
331.344	176.81
331.572	165.81
331.801	183.81
332.03	169.81
332.258	202.81
332.486	181.81
332.715	193.81
332.943	202.81
333.172	198.81
333.4	208.81
333.629	201.81
333.857	191.81
334.085	205.81
334.314	216.81
334.542	198.81
334.771	204.81
334.999	202.81
335.227	191.81
335.455	185.81
335.684	194.81
335.912	188.81
336.14	174.81
336.369	203.81
336.597	202.81
336.825	195.81
337.053	195.81
337.281	174.81
337.51	180.81
337.738	174.81
337.966	180.81
338.194	190.81
338.422	173.81
338.65	183.81
338.878	179.81
339.106	182.81
339.334	177.81
339.562	166.81
339.79	175.81
340.018	160.81
340.246	163.81
340.474	186.81
340.702	158.81
340.93	165.81
341.158	181.81
341.386	169.81
341.614	176.81
341.842	175.81
342.07	183.81
342.298	184.81
342.526	182.81
342.754	168.81
342.981	174.81
343.209	181.81
343.437	186.81
343.665	191.81
343.893	211.81
344.12	193.81
344.348	201.81
344.576	192.81
344.804	190.81
345.031	173.81
345.259	166.81
345.487	157.81
345.714	167.81
345.942	168.81
346.17	185.81
346.397	175.81
346.625	180.81
346.853	161.81
347.08	169.81
347.308	198.81
347.535	196.81
347.763	162.81
347.99	168.81
348.218	173.81
348.445	166.81
348.673	188.81
348.9	184.81
349.128	179.81
349.355	182.81
349.583	184.81
349.81	168.81
350.037	173.81
350.265	181.81
350.492	169.81
350.72	157.81
350.947	177.81
351.174	168.81
351.402	155.81
351.629	180.81
351.856	161.81
352.083	170.81
352.311	170.81
352.538	169.81
352.765	174.81
352.992	171.81
353.22	173.81
353.447	182.81
353.674	170.81
353.901	171.81
354.128	174.81
354.355	171.81
354.583	185.81
354.81	161.81
355.037	183.81
355.264	165.81
355.491	161.81
355.718	179.81
355.945	181.81
356.172	177.81
356.399	181.81
356.626	192.81
356.853	170.81
357.08	175.81
357.307	165.81
357.534	160.81
357.761	167.81
357.988	174.81
358.215	175.81
358.441	177.81
358.668	175.81
358.895	177.81
359.122	168.81
359.349	177.81
359.576	178.81
359.802	188.81
360.029	182.81
360.256	175.81
360.483	177.81
360.709	169.81
360.936	184.81
361.163	166.81
361.39	161.81
361.616	169.81
361.843	145.81
362.07	178.81
362.296	173.81
362.523	164.81
362.749	161.81
362.976	157.81
363.203	175.81
363.429	173.81
363.656	178.81
363.882	177.81
364.109	177.81
364.335	161.81
364.562	164.81
364.788	193.81
365.015	185.81
365.241	168.81
365.468	174.81
365.694	163.81
365.92	169.81
366.147	164.81
366.373	175.81
366.599	173.81
366.826	181.81
367.052	173.81
367.278	165.81
367.505	167.81
367.731	188.81
367.957	166.81
368.184	171.81
368.41	177.81
368.636	170.81
368.862	181.81
369.089	172.81
369.315	174.81
369.541	181.81
369.767	174.81
369.993	181.81
370.219	164.81
370.445	185.81
370.672	179.81
370.898	181.81
371.124	174.81
371.35	195.81
371.576	190.81
371.802	177.81
372.028	190.81
372.254	190.81
372.48	181.81
372.706	187.81
372.932	186.81
373.158	168.81
373.384	207.81
373.61	194.81
373.835	179.81
374.061	178.81
374.287	185.81
374.513	183.81
374.739	181.81
374.965	191.81
375.191	199.81
375.416	168.81
375.642	189.81
375.868	181.81
376.094	186.81
376.319	191.81
376.545	179.81
376.771	206.81
376.997	183.81
377.222	193.81
377.448	192.81
377.674	184.81
377.899	195.81
378.125	181.81
378.35	184.81
378.576	184.81
378.802	182.81
379.027	183.81
379.253	199.81
379.478	199.81
379.704	177.81
379.929	177.81
380.155	192.81
380.38	187.81
380.606	183.81
380.831	203.81
381.057	179.81
381.282	185.81
381.507	201.81
381.733	176.81
381.958	193.81
382.184	189.81
382.409	195.81
382.634	199.81
382.86	166.81
383.085	199.81
383.31	197.81
383.535	170.81
383.761	177.81
383.986	197.81
384.211	195.81
384.436	208.81
384.662	217.81
384.887	208.81
385.112	208.81
385.337	216.81
385.562	212.81
385.787	215.81
386.013	227.81
386.238	212.81
386.463	217.81
386.688	206.81
386.913	213.81
387.138	213.81
387.363	206.81
387.588	215.81
387.813	201.81
388.038	215.81
388.263	208.81
388.488	213.81
388.713	208.81
388.938	208.81
389.163	207.81
389.387	209.81
389.612	208.81
389.837	210.81
390.062	224.81
390.287	216.81
390.512	197.81
390.736	245.81
390.961	206.81
391.186	222.81
391.411	218.81
391.636	229.81
391.86	234.81
392.085	239.81
392.31	245.81
392.534	214.81
392.759	223.81
392.984	213.81
393.208	214.81
393.433	214.81
393.658	224.81
393.882	240.81
394.107	215.81
394.331	229.81
394.556	250.81
394.78	217.81
395.005	219.81
395.229	235.81
395.454	232.81
395.678	246.81
395.903	228.81
396.127	228.81
396.352	231.81
396.576	232.81
396.801	219.81
397.025	221.81
397.249	213.81
397.474	222.81
397.698	246.81
397.922	234.81
398.147	233.81
398.371	231.81
398.595	244.81
398.82	241.81
399.044	265.81
399.268	285.81
399.492	324.81
399.717	337.81
399.941	333.81
400.165	306.81
400.389	282.81
400.613	260.81
400.837	253.81
401.062	257.81
401.286	252.81
401.51	262.81
401.734	248.81
401.958	264.81
402.182	246.81
402.406	254.81
402.63	259.81
402.854	265.81
403.078	266.81
403.302	262.81
403.526	279.81
403.75	267.81
403.974	282.81
404.198	279.81
404.422	294.81
404.645	279.81
404.869	273.81
405.093	291.81
405.317	276.81
405.541	287.81
405.765	271.81
405.988	273.81
406.212	274.81
406.436	289.81
406.66	289.81
406.883	267.81
407.107	297.81
407.331	303.81
407.555	303.81
407.778	303.81
408.002	295.81
408.226	290.81
408.449	291.81
408.673	288.81
408.896	285.81
409.12	281.81
409.344	299.81
409.567	284.81
409.791	295.81
410.014	275.81
410.238	267.81
410.461	276.81
410.685	269.81
410.908	256.81
411.132	276.81
411.355	281.81
411.578	262.81
411.802	279.81
412.025	278.81
412.249	265.81
412.472	268.81
412.695	259.81
412.919	255.81
413.142	264.81
413.365	259.81
413.589	247.81
413.812	268.81
414.035	248.81
414.258	274.81
414.482	259.81
414.705	267.81
414.928	267.81
415.151	271.81
415.374	261.81
415.597	275.81
415.821	243.81
416.044	265.81
416.267	259.81
416.49	249.81
416.713	253.81
416.936	256.81
417.159	253.81
417.382	241.81
417.605	266.81
417.828	261.81
418.051	282.81
418.274	281.81
418.497	254.81
418.72	285.81
418.943	268.81
419.166	289.81
419.389	286.81
419.611	288.81
419.834	272.81
420.057	279.81
420.28	270.81
420.503	260.81
420.726	271.81
420.948	256.81
421.171	247.81
421.394	257.81
421.617	279.81
421.839	257.81
422.062	269.81
422.285	271.81
422.507	262.81
422.73	272.81
422.953	265.81
423.175	273.81
423.398	257.81
423.621	276.81
423.843	283.81
424.066	276.81
424.288	283.81
424.511	248.81
424.733	277.81
424.956	260.81
425.178	265.81
425.401	264.81
425.623	252.81
425.846	256.81
426.068	259.81
426.291	247.81
426.513	248.81
426.735	266.81
426.958	250.81
427.18	239.81
427.402	249.81
427.625	239.81
427.847	254.81
428.069	242.81
428.292	264.81
428.514	253.81
428.736	241.81
428.958	221.81
429.181	236.81
429.403	247.81
429.625	228.81
429.847	253.81
430.069	260.81
430.292	248.81
430.514	246.81
430.736	254.81
430.958	255.81
431.18	225.81
431.402	251.81
431.624	237.81
431.846	228.81
432.068	235.81
432.29	266.81
432.512	246.81
432.734	252.81
432.956	241.81
433.178	255.81
433.4	245.81
433.622	253.81
433.844	265.81
434.066	256.81
434.287	241.81
434.509	261.81
434.731	263.81
434.953	265.81
435.175	286.81
435.397	275.81
435.618	271.81
435.84	257.81
436.062	236.81
436.284	238.81
436.505	261.81
436.727	246.81
436.949	250.81
437.17	250.81
437.392	232.81
437.614	255.81
437.835	224.81
438.057	251.81
438.278	242.81
438.5	267.81
438.721	248.81
438.943	250.81
439.165	255.81
439.386	257.81
439.608	267.81
439.829	261.81
440.05	254.81
440.272	280.81
440.493	273.81
440.715	259.81
440.936	269.81
441.158	284.81
441.379	272.81
441.6	291.81
441.822	297.81
442.043	261.81
442.264	280.81
442.486	272.81
442.707	275.81
442.928	268.81
443.149	285.81
443.371	283.81
443.592	285.81
443.813	290.81
444.034	287.81
444.255	293.81
444.476	299.81
444.698	303.81
444.919	320.81
445.14	399.81
445.361	338.81
445.582	299.81
445.803	274.81
446.024	265.81
446.245	275.81
446.466	271.81
446.687	289.81
446.908	266.81
447.129	250.81
447.35	265.81
447.571	259.81
447.792	262.81
448.013	259.81
448.234	261.81
448.455	264.81
448.675	250.81
448.896	236.81
449.117	260.81
449.338	246.81
449.559	265.81
449.779	249.81
450	238.81
450.221	231.81
450.442	242.81
450.662	261.81
450.883	252.81
451.104	259.81
451.324	255.81
451.545	247.81
451.766	242.81
451.986	242.81
452.207	250.81
452.428	245.81
452.648	228.81
452.869	242.81
453.089	237.81
453.31	250.81
453.53	242.81
453.751	232.81
453.971	221.81
454.192	222.81
454.412	229.81
454.633	242.81
454.853	236.81
455.073	224.81
455.294	217.81
455.514	230.81
455.734	230.81
455.955	237.81
456.175	224.81
456.395	227.81
456.616	230.81
456.836	218.81
457.056	234.81
457.276	225.81
457.497	224.81
457.717	218.81
457.937	238.81
458.157	229.81
458.377	221.81
458.598	244.81
458.818	238.81
459.038	247.81
459.258	262.81
459.478	245.81
459.698	258.81
459.918	268.81
460.138	269.81
460.358	301.81
460.578	277.81
460.798	281.81
461.018	293.81
461.238	276.81
461.458	283.81
461.678	274.81
461.898	261.81
462.118	287.81
462.338	293.81
462.558	318.81
462.777	303.81
462.997	346.81
463.217	356.81
463.437	343.81
463.657	321.81
463.876	325.81
464.096	306.81
464.316	308.81
464.536	325.81
464.755	313.81
464.975	312.81
465.195	304.81
465.414	278.81
465.634	265.81
465.854	263.81
466.073	273.81
466.293	267.81
466.512	242.81
466.732	243.81
466.951	270.81
467.171	279.81
467.391	231.81
467.61	247.81
467.829	245.81
468.049	249.81
468.268	241.81
468.488	237.81
468.707	244.81
468.927	240.81
469.146	238.81
469.365	248.81
469.585	230.81
469.804	264.81
470.023	248.81
470.243	251.81
470.462	270.81
470.681	265.81
470.901	263.81
471.12	252.81
471.339	249.81
471.558	261.81
471.777	230.81
471.997	241.81
472.216	237.81
472.435	236.81
472.654	233.81
472.873	227.81
473.092	235.81
473.311	228.81
473.53	234.81
473.749	226.81
473.968	243.81
474.187	239.81
474.406	227.81
474.625	225.81
474.844	237.81
475.063	237.81
475.282	246.81
475.501	232.81
475.72	237.81
475.939	231.81
476.158	231.81
476.377	254.81
476.596	232.81
476.814	237.81
477.033	249.81
477.252	247.81
477.471	242.81
477.69	274.81
477.908	272.81
478.127	269.81
478.346	278.81
478.564	271.81
478.783	269.81
479.002	294.81
479.22	280.81
479.439	290.81
479.658	288.81
479.876	279.81
480.095	289.81
480.313	290.81
480.532	292.81
480.751	273.81
480.969	257.81
481.188	263.81
481.406	272.81
481.624	234.81
481.843	275.81
482.061	253.81
482.28	258.81
482.498	250.81
482.717	243.81
482.935	260.81
483.153	261.81
483.372	263.81
483.59	261.81
483.808	275.81
484.027	262.81
484.245	257.81
484.463	255.81
484.681	245.81
484.9	258.81
485.118	264.81
485.336	244.81
485.554	260.81
485.772	258.81
485.99	256.81
486.209	242.81
486.427	257.81
486.645	282.81
486.863	276.81
487.081	238.81
487.299	270.81
487.517	273.81
487.735	266.81
487.953	274.81
488.171	262.81
488.389	259.81
488.607	261.81
488.825	266.81
489.043	266.81
489.261	243.81
489.479	269.81
489.696	259.81
489.914	259.81
490.132	256.81
490.35	258.81
490.568	240.81
490.786	278.81
491.003	286.81
491.221	273.81
491.439	277.81
491.657	268.81
491.874	255.81
492.092	276.81
492.31	290.81
492.527	285.81
492.745	283.81
492.963	289.81
493.18	298.81
493.398	277.81
493.615	285.81
493.833	270.81
494.05	281.81
494.268	287.81
494.485	266.81
494.703	286.81
494.92	279.81
495.138	289.81
495.355	270.81
495.573	282.81
495.79	288.81
496.008	304.81
496.225	299.81
496.442	292.81
496.66	310.81
496.877	277.81
497.094	298.81
497.312	295.81
497.529	324.81
497.746	317.81
497.963	301.81
498.181	318.81
498.398	317.81
498.615	344.81
498.832	356.81
499.049	386.81
499.267	411.81
499.484	419.81
499.701	495.81
499.918	489.81
500.135	566.81
500.352	627.81
500.569	655.81
500.786	633.81
501.003	603.81
501.22	529.81
501.437	479.81
501.654	435.81
501.871	387.81
502.088	373.81
502.305	382.81
502.522	351.81
502.739	354.81
502.956	309.81
