Data from Fe(NO3)3@0.025M.TitratingCurve.Agarose3%dH2O.NegLispCup.LampEnergy10.LIBS07252019_HRD10591_16-56-39-336.txt Node
Date: Thu Jul 25 16:56:39 EDT 2019
User: cochatt
Spectrometer: HR+D1059
Trigger mode: 1
Integration Time (sec): 1.000000E-1
Scans to average: 1
Electric dark correction enabled: true
Nonlinearity correction enabled: false
Boxcar width: 0
XAxis mode: Wavelengths
Number of Pixels in Spectrum: 2048
>>>>>Begin Spectral Data<<<<<
223.165	-34.19
223.4	-34.19
223.635	-34.19
223.869	-20.19
224.104	-16.19
224.338	-8.19
224.573	-17.19
224.808	-8.19
225.042	6.81
225.277	-1.19
225.511	-6.19
225.746	13.81
225.98	2.81
226.215	12.81
226.449	3.81
226.683	12.81
226.918	22.81
227.152	35.81
227.387	49.81
227.621	43.81
227.856	41.81
228.09	35.81
228.324	40.81
228.559	62.81
228.793	58.81
229.027	64.81
229.262	78.81
229.496	78.81
229.73	61.81
229.964	80.81
230.199	74.81
230.433	80.81
230.667	82.81
230.901	91.81
231.136	71.81
231.37	87.81
231.604	78.81
231.838	85.81
232.072	77.81
232.306	63.81
232.541	94.81
232.775	101.81
233.009	77.81
233.243	98.81
233.477	94.81
233.711	95.81
233.945	102.81
234.179	98.81
234.413	104.81
234.647	99.81
234.881	91.81
235.115	108.81
235.349	75.81
235.583	88.81
235.817	77.81
236.051	85.81
236.285	89.81
236.519	99.81
236.753	83.81
236.987	86.81
237.221	90.81
237.455	95.81
237.689	97.81
237.922	86.81
238.156	96.81
238.39	91.81
238.624	82.81
238.858	84.81
239.091	100.81
239.325	110.81
239.559	97.81
239.793	101.81
240.027	95.81
240.26	89.81
240.494	81.81
240.728	81.81
240.961	91.81
241.195	102.81
241.429	98.81
241.662	95.81
241.896	94.81
242.13	103.81
242.363	95.81
242.597	86.81
242.83	91.81
243.064	105.81
243.298	104.81
243.531	102.81
243.765	118.81
243.998	109.81
244.232	106.81
244.465	105.81
244.699	110.81
244.932	99.81
245.166	102.81
245.399	104.81
245.633	95.81
245.866	112.81
246.099	81.81
246.333	120.81
246.566	103.81
246.8	108.81
247.033	99.81
247.266	109.81
247.5	96.81
247.733	103.81
247.966	91.81
248.2	107.81
248.433	104.81
248.666	109.81
248.899	112.81
249.133	105.81
249.366	117.81
249.599	115.81
249.832	111.81
250.066	106.81
250.299	109.81
250.532	102.81
250.765	119.81
250.998	104.81
251.231	102.81
251.465	99.81
251.698	108.81
251.931	103.81
252.164	103.81
252.397	115.81
252.63	113.81
252.863	109.81
253.096	126.81
253.329	122.81
253.562	123.81
253.795	107.81
254.028	121.81
254.261	116.81
254.494	117.81
254.727	115.81
254.96	114.81
255.193	113.81
255.426	122.81
255.659	113.81
255.892	115.81
256.124	121.81
256.357	115.81
256.59	124.81
256.823	133.81
257.056	127.81
257.289	122.81
257.521	125.81
257.754	117.81
257.987	134.81
258.22	123.81
258.452	129.81
258.685	121.81
258.918	118.81
259.151	129.81
259.383	119.81
259.616	125.81
259.849	138.81
260.081	122.81
260.314	143.81
260.547	143.81
260.779	117.81
261.012	131.81
261.244	133.81
261.477	118.81
261.71	139.81
261.942	120.81
262.175	134.81
262.407	128.81
262.64	150.81
262.872	129.81
263.105	139.81
263.337	139.81
263.57	122.81
263.802	135.81
264.035	129.81
264.267	129.81
264.499	136.81
264.732	143.81
264.964	139.81
265.197	135.81
265.429	137.81
265.661	126.81
265.894	145.81
266.126	133.81
266.358	133.81
266.591	126.81
266.823	139.81
267.055	131.81
267.287	141.81
267.52	138.81
267.752	146.81
267.984	145.81
268.216	140.81
268.448	141.81
268.681	147.81
268.913	137.81
269.145	142.81
269.377	142.81
269.609	148.81
269.841	140.81
270.073	137.81
270.306	147.81
270.538	134.81
270.77	129.81
271.002	129.81
271.234	140.81
271.466	157.81
271.698	140.81
271.93	132.81
272.162	139.81
272.394	147.81
272.626	157.81
272.858	143.81
273.09	148.81
273.322	151.81
273.553	140.81
273.785	149.81
274.017	140.81
274.249	144.81
274.481	146.81
274.713	144.81
274.945	161.81
275.176	139.81
275.408	148.81
275.64	140.81
275.872	147.81
276.104	149.81
276.335	151.81
276.567	155.81
276.799	158.81
277.031	154.81
277.262	143.81
277.494	157.81
277.726	163.81
277.957	165.81
278.189	170.81
278.421	144.81
278.652	155.81
278.884	159.81
279.115	163.81
279.347	155.81
279.579	152.81
279.81	173.81
280.042	165.81
280.273	156.81
280.505	160.81
280.736	169.81
280.968	155.81
281.199	166.81
281.431	165.81
281.662	149.81
281.894	170.81
282.125	178.81
282.356	181.81
282.588	153.81
282.819	167.81
283.051	141.81
283.282	166.81
283.513	172.81
283.745	163.81
283.976	168.81
284.207	169.81
284.439	183.81
284.67	163.81
284.901	165.81
285.132	165.81
285.364	153.81
285.595	159.81
285.826	160.81
286.057	178.81
286.288	190.81
286.52	163.81
286.751	170.81
286.982	169.81
287.213	163.81
287.444	164.81
287.675	185.81
287.906	170.81
288.138	179.81
288.369	179.81
288.6	177.81
288.831	172.81
289.062	190.81
289.293	188.81
289.524	182.81
289.755	177.81
289.986	176.81
290.217	185.81
290.448	182.81
290.679	171.81
290.91	165.81
291.141	178.81
291.371	185.81
291.602	184.81
291.833	170.81
292.064	182.81
292.295	194.81
292.526	199.81
292.757	183.81
292.987	187.81
293.218	175.81
293.449	187.81
293.68	193.81
293.91	179.81
294.141	177.81
294.372	196.81
294.603	167.81
294.833	194.81
295.064	186.81
295.295	174.81
295.525	196.81
295.756	190.81
295.987	188.81
296.217	203.81
296.448	189.81
296.679	192.81
296.909	193.81
297.14	207.81
297.37	181.81
297.601	187.81
297.831	182.81
298.062	198.81
298.292	181.81
298.523	195.81
298.753	199.81
298.984	198.81
299.214	186.81
299.445	199.81
299.675	181.81
299.905	198.81
300.136	186.81
300.366	196.81
300.597	211.81
300.827	199.81
301.057	190.81
301.288	193.81
301.518	190.81
301.748	187.81
301.979	209.81
302.209	206.81
302.439	201.81
302.669	200.81
302.9	199.81
303.13	200.81
303.36	209.81
303.59	182.81
303.82	210.81
304.051	224.81
304.281	201.81
304.511	205.81
304.741	198.81
304.971	191.81
305.201	213.81
305.431	186.81
305.661	204.81
305.891	198.81
306.121	211.81
306.352	216.81
306.582	218.81
306.812	214.81
307.042	213.81
307.272	199.81
307.502	215.81
307.731	207.81
307.961	218.81
308.191	208.81
308.421	205.81
308.651	217.81
308.881	203.81
309.111	201.81
309.341	194.81
309.571	203.81
309.8	207.81
310.03	204.81
310.26	206.81
310.49	195.81
310.72	218.81
310.949	205.81
311.179	210.81
311.409	198.81
311.639	224.81
311.868	209.81
312.098	227.81
312.328	214.81
312.557	228.81
312.787	209.81
313.017	219.81
313.246	219.81
313.476	217.81
313.706	216.81
313.935	208.81
314.165	221.81
314.394	219.81
314.624	209.81
314.853	227.81
315.083	217.81
315.312	214.81
315.542	223.81
315.771	226.81
316.001	216.81
316.23	220.81
316.46	218.81
316.689	222.81
316.919	215.81
317.148	228.81
317.377	219.81
317.607	213.81
317.836	220.81
318.065	213.81
318.295	219.81
318.524	205.81
318.753	218.81
318.983	217.81
319.212	220.81
319.441	219.81
319.67	224.81
319.9	217.81
320.129	209.81
320.358	221.81
320.587	236.81
320.816	238.81
321.046	228.81
321.275	221.81
321.504	218.81
321.733	215.81
321.962	225.81
322.191	215.81
322.42	229.81
322.649	223.81
322.878	225.81
323.108	237.81
323.337	209.81
323.566	227.81
323.795	225.81
324.024	254.81
324.253	235.81
324.482	223.81
324.71	247.81
324.939	234.81
325.168	225.81
325.397	252.81
325.626	249.81
325.855	234.81
326.084	243.81
326.313	246.81
326.542	218.81
326.77	222.81
326.999	253.81
327.228	229.81
327.457	241.81
327.686	237.81
327.914	228.81
328.143	253.81
328.372	258.81
328.6	230.81
328.829	251.81
329.058	239.81
329.287	233.81
329.515	225.81
329.744	242.81
329.972	262.81
330.201	239.81
330.43	242.81
330.658	225.81
330.887	245.81
331.115	238.81
331.344	253.81
331.572	246.81
331.801	251.81
332.03	243.81
332.258	261.81
332.486	260.81
332.715	257.81
332.943	265.81
333.172	282.81
333.4	280.81
333.629	281.81
333.857	289.81
334.085	289.81
334.314	291.81
334.542	296.81
334.771	288.81
334.999	279.81
335.227	290.81
335.455	274.81
335.684	289.81
335.912	297.81
336.14	279.81
336.369	291.81
336.597	285.81
336.825	276.81
337.053	265.81
337.281	266.81
337.51	271.81
337.738	295.81
337.966	264.81
338.194	265.81
338.422	263.81
338.65	276.81
338.878	267.81
339.106	240.81
339.334	264.81
339.562	254.81
339.79	259.81
340.018	249.81
340.246	265.81
340.474	263.81
340.702	243.81
340.93	243.81
341.158	244.81
341.386	259.81
341.614	240.81
341.842	241.81
342.07	246.81
342.298	257.81
342.526	242.81
342.754	248.81
342.981	264.81
343.209	277.81
343.437	268.81
343.665	256.81
343.893	292.81
344.12	290.81
344.348	265.81
344.576	289.81
344.804	257.81
345.031	285.81
345.259	268.81
345.487	264.81
345.714	258.81
345.942	248.81
346.17	241.81
346.397	246.81
346.625	252.81
346.853	258.81
347.08	259.81
347.308	239.81
347.535	252.81
347.763	258.81
347.99	244.81
348.218	245.81
348.445	243.81
348.673	256.81
348.9	250.81
349.128	257.81
349.355	235.81
349.583	247.81
349.81	245.81
350.037	255.81
350.265	232.81
350.492	237.81
350.72	255.81
350.947	246.81
351.174	256.81
351.402	243.81
351.629	226.81
351.856	236.81
352.083	239.81
352.311	242.81
352.538	250.81
352.765	251.81
352.992	238.81
353.22	252.81
353.447	244.81
353.674	250.81
353.901	229.81
354.128	237.81
354.355	231.81
354.583	241.81
354.81	234.81
355.037	253.81
355.264	232.81
355.491	238.81
355.718	229.81
355.945	255.81
356.172	245.81
356.399	250.81
356.626	246.81
356.853	239.81
357.08	239.81
357.307	234.81
357.534	232.81
357.761	237.81
357.988	251.81
358.215	240.81
358.441	239.81
358.668	240.81
358.895	253.81
359.122	223.81
359.349	258.81
359.576	251.81
359.802	237.81
360.029	247.81
360.256	233.81
360.483	245.81
360.709	253.81
360.936	267.81
361.163	261.81
361.39	266.81
361.616	260.81
361.843	241.81
362.07	254.81
362.296	244.81
362.523	257.81
362.749	249.81
362.976	234.81
363.203	248.81
363.429	253.81
363.656	267.81
363.882	254.81
364.109	237.81
364.335	236.81
364.562	239.81
364.788	254.81
365.015	246.81
365.241	262.81
365.468	266.81
365.694	241.81
365.92	244.81
366.147	253.81
366.373	242.81
366.599	267.81
366.826	255.81
367.052	237.81
367.278	241.81
367.505	252.81
367.731	235.81
367.957	251.81
368.184	256.81
368.41	259.81
368.636	250.81
368.862	253.81
369.089	253.81
369.315	257.81
369.541	245.81
369.767	266.81
369.993	254.81
370.219	272.81
370.445	257.81
370.672	253.81
370.898	266.81
371.124	269.81
371.35	252.81
371.576	249.81
371.802	275.81
372.028	261.81
372.254	271.81
372.48	264.81
372.706	252.81
372.932	275.81
373.158	271.81
373.384	263.81
373.61	251.81
373.835	264.81
374.061	274.81
374.287	275.81
374.513	283.81
374.739	285.81
374.965	283.81
375.191	281.81
375.416	281.81
375.642	273.81
375.868	288.81
376.094	281.81
376.319	273.81
376.545	285.81
376.771	264.81
376.997	241.81
377.222	260.81
377.448	271.81
377.674	253.81
377.899	279.81
378.125	275.81
378.35	260.81
378.576	271.81
378.802	265.81
379.027	266.81
379.253	280.81
379.478	257.81
379.704	259.81
379.929	250.81
380.155	259.81
380.38	258.81
380.606	256.81
380.831	268.81
381.057	265.81
381.282	265.81
381.507	271.81
381.733	272.81
381.958	268.81
382.184	270.81
382.409	274.81
382.634	275.81
382.86	264.81
383.085	287.81
383.31	271.81
383.535	279.81
383.761	288.81
383.986	263.81
384.211	279.81
384.436	295.81
384.662	297.81
384.887	295.81
385.112	297.81
385.337	287.81
385.562	297.81
385.787	305.81
386.013	325.81
386.238	296.81
386.463	301.81
386.688	295.81
386.913	300.81
387.138	297.81
387.363	327.81
387.588	298.81
387.813	297.81
388.038	306.81
388.263	321.81
388.488	291.81
388.713	305.81
388.938	302.81
389.163	312.81
389.387	310.81
389.612	311.81
389.837	305.81
390.062	297.81
390.287	313.81
390.512	300.81
390.736	295.81
390.961	329.81
391.186	322.81
391.411	304.81
391.636	324.81
391.86	330.81
392.085	333.81
392.31	321.81
392.534	321.81
392.759	314.81
392.984	319.81
393.208	325.81
393.433	307.81
393.658	336.81
393.882	307.81
394.107	307.81
394.331	309.81
394.556	321.81
394.78	313.81
395.005	322.81
395.229	326.81
395.454	345.81
395.678	334.81
395.903	351.81
396.127	338.81
396.352	336.81
396.576	313.81
396.801	352.81
397.025	325.81
397.249	340.81
397.474	334.81
397.698	314.81
397.922	354.81
398.147	346.81
398.371	360.81
398.595	372.81
398.82	359.81
399.044	381.81
399.268	420.81
399.492	447.81
399.717	467.81
399.941	457.81
400.165	435.81
400.389	425.81
400.613	384.81
400.837	375.81
401.062	371.81
401.286	366.81
401.51	352.81
401.734	369.81
401.958	359.81
402.182	365.81
402.406	377.81
402.63	374.81
402.854	373.81
403.078	360.81
403.302	385.81
403.526	381.81
403.75	368.81
403.974	386.81
404.198	373.81
404.422	383.81
404.645	376.81
404.869	385.81
405.093	368.81
405.317	389.81
405.541	399.81
405.765	383.81
405.988	365.81
406.212	377.81
406.436	386.81
406.66	397.81
406.883	391.81
407.107	406.81
407.331	398.81
407.555	433.81
407.778	418.81
408.002	425.81
408.226	410.81
408.449	396.81
408.673	413.81
408.896	397.81
409.12	392.81
409.344	387.81
409.567	380.81
409.791	365.81
410.014	380.81
410.238	374.81
410.461	373.81
410.685	379.81
410.908	378.81
411.132	368.81
411.355	366.81
411.578	386.81
411.802	379.81
412.025	377.81
412.249	374.81
412.472	364.81
412.695	377.81
412.919	391.81
413.142	374.81
413.365	375.81
413.589	380.81
413.812	353.81
414.035	371.81
414.258	354.81
414.482	367.81
414.705	375.81
414.928	358.81
415.151	341.81
415.374	335.81
415.597	358.81
415.821	361.81
416.044	360.81
416.267	358.81
416.49	350.81
416.713	357.81
416.936	352.81
417.159	343.81
417.382	359.81
417.605	351.81
417.828	352.81
418.051	373.81
418.274	362.81
418.497	357.81
418.72	360.81
418.943	359.81
419.166	373.81
419.389	372.81
419.611	394.81
419.834	367.81
420.057	369.81
420.28	359.81
420.503	350.81
420.726	343.81
420.948	358.81
421.171	350.81
421.394	351.81
421.617	358.81
421.839	354.81
422.062	348.81
422.285	359.81
422.507	358.81
422.73	338.81
422.953	346.81
423.175	334.81
423.398	378.81
423.621	361.81
423.843	367.81
424.066	361.81
424.288	359.81
424.511	355.81
424.733	355.81
424.956	347.81
425.178	354.81
425.401	335.81
425.623	332.81
425.846	321.81
426.068	322.81
426.291	330.81
426.513	322.81
426.735	333.81
426.958	350.81
427.18	325.81
427.402	324.81
427.625	339.81
427.847	317.81
428.069	329.81
428.292	331.81
428.514	314.81
428.736	328.81
428.958	321.81
429.181	309.81
429.403	314.81
429.625	309.81
429.847	326.81
430.069	317.81
430.292	338.81
430.514	333.81
430.736	320.81
430.958	331.81
431.18	321.81
431.402	319.81
431.624	326.81
431.846	321.81
432.068	319.81
432.29	335.81
432.512	329.81
432.734	339.81
432.956	317.81
433.178	324.81
433.4	329.81
433.622	351.81
433.844	314.81
434.066	345.81
434.287	331.81
434.509	354.81
434.731	352.81
434.953	370.81
435.175	349.81
435.397	347.81
435.618	351.81
435.84	336.81
436.062	324.81
436.284	305.81
436.505	305.81
436.727	331.81
436.949	338.81
437.17	330.81
437.392	324.81
437.614	322.81
437.835	295.81
438.057	292.81
438.278	313.81
438.5	315.81
438.721	323.81
438.943	326.81
439.165	327.81
439.386	311.81
439.608	321.81
439.829	327.81
440.05	312.81
440.272	333.81
440.493	339.81
440.715	313.81
440.936	307.81
441.158	329.81
441.379	349.81
441.6	361.81
441.822	339.81
442.043	350.81
442.264	336.81
442.486	343.81
442.707	344.81
442.928	343.81
443.149	355.81
443.371	336.81
443.592	328.81
443.813	345.81
444.034	339.81
444.255	345.81
444.476	367.81
444.698	362.81
444.919	369.81
445.14	447.81
445.361	410.81
445.582	363.81
445.803	330.81
446.024	334.81
446.245	333.81
446.466	324.81
446.687	330.81
446.908	334.81
447.129	312.81
447.35	315.81
447.571	296.81
447.792	323.81
448.013	295.81
448.234	314.81
448.455	299.81
448.675	324.81
448.896	281.81
449.117	283.81
449.338	286.81
449.559	284.81
449.779	306.81
450	303.81
450.221	293.81
450.442	305.81
450.662	280.81
450.883	295.81
451.104	289.81
451.324	304.81
451.545	289.81
451.766	304.81
451.986	294.81
452.207	281.81
452.428	297.81
452.648	304.81
452.869	290.81
453.089	285.81
453.31	307.81
453.53	293.81
453.751	283.81
453.971	278.81
454.192	281.81
454.412	282.81
454.633	276.81
454.853	277.81
455.073	299.81
455.294	289.81
455.514	282.81
455.734	289.81
455.955	285.81
456.175	283.81
456.395	277.81
456.616	279.81
456.836	284.81
457.056	299.81
457.276	275.81
457.497	277.81
457.717	291.81
457.937	272.81
458.157	300.81
458.377	298.81
458.598	303.81
458.818	303.81
459.038	305.81
459.258	323.81
459.478	334.81
459.698	331.81
459.918	322.81
460.138	335.81
460.358	351.81
460.578	357.81
460.798	336.81
461.018	357.81
461.238	367.81
461.458	347.81
461.678	363.81
461.898	352.81
462.118	369.81
462.338	376.81
462.558	366.81
462.777	397.81
462.997	404.81
463.217	441.81
463.437	426.81
463.657	427.81
463.876	385.81
464.096	393.81
464.316	394.81
464.536	413.81
464.755	388.81
464.975	359.81
465.195	361.81
465.414	350.81
465.634	343.81
465.854	333.81
466.073	317.81
466.293	321.81
466.512	325.81
466.732	322.81
466.951	301.81
467.171	316.81
467.391	305.81
467.61	298.81
467.829	293.81
468.049	301.81
468.268	303.81
468.488	292.81
468.707	310.81
468.927	294.81
469.146	307.81
469.365	334.81
469.585	306.81
469.804	303.81
470.023	305.81
470.243	306.81
470.462	330.81
470.681	329.81
470.901	315.81
471.12	308.81
471.339	326.81
471.558	297.81
471.777	289.81
471.997	304.81
472.216	305.81
472.435	307.81
472.654	313.81
472.873	318.81
473.092	325.81
473.311	297.81
473.53	305.81
473.749	308.81
473.968	299.81
474.187	279.81
474.406	306.81
474.625	305.81
474.844	310.81
475.063	294.81
475.282	297.81
475.501	280.81
475.72	309.81
475.939	311.81
476.158	325.81
476.377	317.81
476.596	313.81
476.814	327.81
477.033	330.81
477.252	318.81
477.471	319.81
477.69	352.81
477.908	349.81
478.127	317.81
478.346	343.81
478.564	349.81
478.783	362.81
479.002	357.81
479.22	354.81
479.439	339.81
479.658	367.81
479.876	375.81
480.095	350.81
480.313	369.81
480.532	374.81
480.751	356.81
480.969	360.81
481.188	346.81
481.406	354.81
481.624	360.81
481.843	357.81
482.061	348.81
482.28	352.81
482.498	346.81
482.717	337.81
482.935	351.81
483.153	339.81
483.372	317.81
483.59	343.81
483.808	339.81
484.027	350.81
484.245	332.81
484.463	355.81
484.681	340.81
484.9	342.81
485.118	342.81
485.336	354.81
485.554	350.81
485.772	350.81
485.99	338.81
486.209	347.81
486.427	354.81
486.645	349.81
486.863	359.81
487.081	369.81
487.299	358.81
487.517	341.81
487.735	360.81
487.953	356.81
488.171	350.81
488.389	362.81
488.607	346.81
488.825	352.81
489.043	364.81
489.261	367.81
489.479	370.81
489.696	350.81
489.914	349.81
490.132	349.81
490.35	361.81
490.568	337.81
490.786	337.81
491.003	363.81
491.221	375.81
491.439	368.81
491.657	343.81
491.874	373.81
492.092	329.81
492.31	345.81
492.527	359.81
492.745	361.81
492.963	371.81
493.18	365.81
493.398	372.81
493.615	397.81
493.833	377.81
494.05	357.81
494.268	370.81
494.485	387.81
494.703	373.81
494.92	377.81
495.138	390.81
495.355	367.81
495.573	389.81
495.79	379.81
496.008	391.81
496.225	407.81
496.442	380.81
496.66	407.81
496.877	378.81
497.094	397.81
497.312	424.81
497.529	413.81
497.746	425.81
497.963	408.81
498.181	464.81
498.398	472.81
498.615	448.81
498.832	501.81
499.049	530.81
499.267	566.81
499.484	607.81
499.701	614.81
499.918	663.81
500.135	706.81
500.352	757.81
500.569	769.81
500.786	786.81
501.003	726.81
501.22	711.81
501.437	635.81
501.654	605.81
501.871	544.81
502.088	528.81
502.305	516.81
