Data from Fe(NO3)3@0.05M.TitratingCurve.Agarose3%dH2O.NegLispCup.LampEnergy10.LIBS07252019_HRD10591_16-46-46-334.txt Node
Date: Thu Jul 25 16:46:46 EDT 2019
User: cochatt
Spectrometer: HR+D1059
Trigger mode: 1
Integration Time (sec): 1.000000E-1
Scans to average: 1
Electric dark correction enabled: true
Nonlinearity correction enabled: false
Boxcar width: 0
XAxis mode: Wavelengths
Number of Pixels in Spectrum: 2048
>>>>>Begin Spectral Data<<<<<
223.165	-21.94
223.4	-21.94
223.635	-21.94
223.869	-21.94
224.104	-30.94
224.338	-9.94
224.573	-3.94
224.808	-9.94
225.042	-9.94
225.277	-8.94
225.511	-4.94
225.746	7.06
225.98	9.06
226.215	6.06
226.449	15.06
226.683	35.06
226.918	22.06
227.152	28.06
227.387	44.06
227.621	32.06
227.856	47.06
228.09	48.06
228.324	50.06
228.559	55.06
228.793	77.06
229.027	102.06
229.262	114.06
229.496	110.06
229.73	127.06
229.964	141.06
230.199	135.06
230.433	137.06
230.667	135.06
230.901	132.06
231.136	142.06
231.37	139.06
231.604	155.06
231.838	145.06
232.072	143.06
232.306	151.06
232.541	148.06
232.775	136.06
233.009	164.06
233.243	153.06
233.477	150.06
233.711	171.06
233.945	152.06
234.179	160.06
234.413	141.06
234.647	183.06
234.881	175.06
235.115	160.06
235.349	173.06
235.583	163.06
235.817	163.06
236.051	160.06
236.285	184.06
236.519	184.06
236.753	172.06
236.987	178.06
237.221	183.06
237.455	177.06
237.689	172.06
237.922	172.06
238.156	180.06
238.39	183.06
238.624	205.06
238.858	189.06
239.091	185.06
239.325	200.06
239.559	205.06
239.793	198.06
240.027	196.06
240.26	201.06
240.494	196.06
240.728	217.06
240.961	211.06
241.195	207.06
241.429	219.06
241.662	215.06
241.896	206.06
242.13	194.06
242.363	212.06
242.597	213.06
242.83	198.06
243.064	207.06
243.298	219.06
243.531	237.06
243.765	208.06
243.998	216.06
244.232	228.06
244.465	230.06
244.699	228.06
244.932	230.06
245.166	232.06
245.399	240.06
245.633	227.06
245.866	241.06
246.099	243.06
246.333	251.06
246.566	253.06
246.8	259.06
247.033	249.06
247.266	252.06
247.5	251.06
247.733	245.06
247.966	255.06
248.2	268.06
248.433	257.06
248.666	265.06
248.899	282.06
249.133	275.06
249.366	285.06
249.599	274.06
249.832	273.06
250.066	283.06
250.299	287.06
250.532	273.06
250.765	263.06
250.998	302.06
251.231	284.06
251.465	287.06
251.698	267.06
251.931	273.06
252.164	288.06
252.397	313.06
252.63	287.06
252.863	318.06
253.096	310.06
253.329	305.06
253.562	307.06
253.795	326.06
254.028	299.06
254.261	350.06
254.494	319.06
254.727	314.06
254.96	326.06
255.193	319.06
255.426	309.06
255.659	325.06
255.892	321.06
256.124	310.06
256.357	310.06
256.59	332.06
256.823	348.06
257.056	327.06
257.289	331.06
257.521	348.06
257.754	335.06
257.987	344.06
258.22	339.06
258.452	329.06
258.685	341.06
258.918	350.06
259.151	336.06
259.383	341.06
259.616	337.06
259.849	365.06
260.081	395.06
260.314	416.06
260.547	369.06
260.779	347.06
261.012	361.06
261.244	373.06
261.477	367.06
261.71	377.06
261.942	376.06
262.175	384.06
262.407	375.06
262.64	371.06
262.872	355.06
263.105	394.06
263.337	381.06
263.57	379.06
263.802	380.06
264.035	393.06
264.267	381.06
264.499	360.06
264.732	379.06
264.964	389.06
265.197	357.06
265.429	373.06
265.661	387.06
265.894	394.06
266.126	374.06
266.358	384.06
266.591	382.06
266.823	414.06
267.055	403.06
267.287	387.06
267.52	387.06
267.752	395.06
267.984	397.06
268.216	386.06
268.448	388.06
268.681	412.06
268.913	401.06
269.145	404.06
269.377	411.06
269.609	411.06
269.841	415.06
270.073	410.06
270.306	405.06
270.538	438.06
270.77	419.06
271.002	420.06
271.234	432.06
271.466	447.06
271.698	417.06
271.93	460.06
272.162	435.06
272.394	438.06
272.626	451.06
272.858	446.06
273.09	450.06
273.322	467.06
273.553	450.06
273.785	452.06
274.017	470.06
274.249	515.06
274.481	515.06
274.713	541.06
274.945	556.06
275.176	542.06
275.408	523.06
275.64	512.06
275.872	539.06
276.104	516.06
276.335	488.06
276.567	495.06
276.799	462.06
277.031	483.06
277.262	479.06
277.494	472.06
277.726	490.06
277.957	474.06
278.189	480.06
278.421	468.06
278.652	492.06
278.884	479.06
279.115	495.06
279.347	478.06
279.579	474.06
279.81	493.06
280.042	496.06
280.273	501.06
280.505	485.06
280.736	507.06
280.968	503.06
281.199	504.06
281.431	519.06
281.662	494.06
281.894	503.06
282.125	509.06
282.356	531.06
282.588	517.06
282.819	523.06
283.051	516.06
283.282	533.06
283.513	534.06
283.745	534.06
283.976	520.06
284.207	529.06
284.439	530.06
284.67	550.06
284.901	518.06
285.132	531.06
285.364	528.06
285.595	530.06
285.826	531.06
286.057	556.06
286.288	530.06
286.52	536.06
286.751	550.06
286.982	553.06
287.213	555.06
287.444	547.06
287.675	549.06
287.906	555.06
288.138	556.06
288.369	539.06
288.6	547.06
288.831	545.06
289.062	553.06
289.293	560.06
289.524	546.06
289.755	563.06
289.986	545.06
290.217	578.06
290.448	575.06
290.679	563.06
290.91	548.06
291.141	569.06
291.371	571.06
291.602	579.06
291.833	562.06
292.064	573.06
292.295	574.06
292.526	573.06
292.757	556.06
292.987	578.06
293.218	565.06
293.449	576.06
293.68	580.06
293.91	557.06
294.141	564.06
294.372	579.06
294.603	590.06
294.833	608.06
295.064	583.06
295.295	591.06
295.525	586.06
295.756	586.06
295.987	593.06
296.217	595.06
296.448	557.06
296.679	589.06
296.909	585.06
297.14	597.06
297.37	619.06
297.601	603.06
297.831	593.06
298.062	605.06
298.292	583.06
298.523	618.06
298.753	612.06
298.984	615.06
299.214	607.06
299.445	637.06
299.675	609.06
299.905	617.06
300.136	605.06
300.366	605.06
300.597	610.06
300.827	634.06
301.057	644.06
301.288	617.06
301.518	617.06
301.748	636.06
301.979	671.06
302.209	653.06
302.439	657.06
302.669	649.06
302.9	645.06
303.13	640.06
303.36	663.06
303.59	635.06
303.82	672.06
304.051	664.06
304.281	668.06
304.511	638.06
304.741	646.06
304.971	648.06
305.201	639.06
305.431	657.06
305.661	662.06
305.891	634.06
306.121	664.06
306.352	667.06
306.582	662.06
306.812	633.06
307.042	677.06
307.272	679.06
307.502	649.06
307.731	653.06
307.961	637.06
308.191	649.06
308.421	641.06
308.651	645.06
308.881	662.06
309.111	661.06
309.341	667.06
309.571	649.06
309.8	670.06
310.03	664.06
310.26	669.06
310.49	658.06
310.72	666.06
310.949	684.06
311.179	688.06
311.409	689.06
311.639	682.06
311.868	680.06
312.098	689.06
312.328	685.06
312.557	667.06
312.787	670.06
313.017	697.06
313.246	695.06
313.476	670.06
313.706	698.06
313.935	691.06
314.165	692.06
314.394	687.06
314.624	711.06
314.853	678.06
315.083	703.06
315.312	706.06
315.542	716.06
315.771	699.06
316.001	711.06
316.23	689.06
316.46	684.06
316.689	703.06
316.919	711.06
317.148	722.06
317.377	704.06
317.607	730.06
317.836	707.06
318.065	705.06
318.295	703.06
318.524	715.06
318.753	724.06
318.983	720.06
319.212	719.06
319.441	727.06
319.67	730.06
319.9	721.06
320.129	718.06
320.358	704.06
320.587	699.06
320.816	727.06
321.046	746.06
321.275	709.06
321.504	738.06
321.733	741.06
321.962	741.06
322.191	737.06
322.42	741.06
322.649	727.06
322.878	747.06
323.108	717.06
323.337	755.06
323.566	745.06
323.795	759.06
324.024	751.06
324.253	755.06
324.482	748.06
324.71	763.06
324.939	736.06
325.168	765.06
325.397	755.06
325.626	781.06
325.855	753.06
326.084	794.06
326.313	787.06
326.542	770.06
326.77	830.06
326.999	786.06
327.228	786.06
327.457	772.06
327.686	778.06
327.914	776.06
328.143	807.06
328.372	755.06
328.6	763.06
328.829	773.06
329.058	782.06
329.287	791.06
329.515	807.06
329.744	800.06
329.972	791.06
330.201	813.06
330.43	779.06
330.658	797.06
330.887	797.06
331.115	804.06
331.344	813.06
331.572	829.06
331.801	812.06
332.03	819.06
332.258	847.06
332.486	855.06
332.715	861.06
332.943	841.06
333.172	851.06
333.4	885.06
333.629	885.06
333.857	905.06
334.085	928.06
334.314	909.06
334.542	900.06
334.771	898.06
334.999	932.06
335.227	911.06
335.455	915.06
335.684	930.06
335.912	927.06
336.14	911.06
336.369	908.06
336.597	907.06
336.825	905.06
337.053	910.06
337.281	869.06
337.51	874.06
337.738	880.06
337.966	877.06
338.194	881.06
338.422	859.06
338.65	859.06
338.878	850.06
339.106	848.06
339.334	861.06
339.562	876.06
339.79	840.06
340.018	836.06
340.246	849.06
340.474	864.06
340.702	855.06
340.93	827.06
341.158	823.06
341.386	805.06
341.614	818.06
341.842	831.06
342.07	809.06
342.298	813.06
342.526	803.06
342.754	840.06
342.981	845.06
343.209	835.06
343.437	856.06
343.665	873.06
343.893	905.06
344.12	899.06
344.348	929.06
344.576	898.06
344.804	901.06
345.031	891.06
345.259	834.06
345.487	871.06
345.714	855.06
345.942	841.06
346.17	845.06
346.397	819.06
346.625	815.06
346.853	810.06
347.08	835.06
347.308	790.06
347.535	795.06
347.763	796.06
347.99	805.06
348.218	778.06
348.445	792.06
348.673	781.06
348.9	801.06
349.128	797.06
349.355	777.06
349.583	806.06
349.81	803.06
350.037	821.06
350.265	784.06
350.492	791.06
350.72	773.06
350.947	776.06
351.174	780.06
351.402	786.06
351.629	801.06
351.856	811.06
352.083	788.06
352.311	799.06
352.538	777.06
352.765	773.06
352.992	778.06
353.22	764.06
353.447	777.06
353.674	770.06
353.901	796.06
354.128	775.06
354.355	769.06
354.583	795.06
354.81	791.06
355.037	810.06
355.264	784.06
355.491	797.06
355.718	766.06
355.945	796.06
356.172	788.06
356.399	812.06
356.626	823.06
356.853	820.06
357.08	827.06
357.307	829.06
357.534	799.06
357.761	819.06
357.988	810.06
358.215	840.06
358.441	809.06
358.668	809.06
358.895	793.06
359.122	828.06
359.349	783.06
359.576	801.06
359.802	779.06
360.029	791.06
360.256	799.06
360.483	788.06
360.709	802.06
360.936	818.06
361.163	847.06
361.39	788.06
361.616	815.06
361.843	799.06
362.07	827.06
362.296	799.06
362.523	804.06
362.749	791.06
362.976	805.06
363.203	781.06
363.429	828.06
363.656	803.06
363.882	807.06
364.109	817.06
364.335	793.06
364.562	812.06
364.788	826.06
365.015	805.06
365.241	808.06
365.468	819.06
365.694	837.06
365.92	811.06
366.147	811.06
366.373	808.06
366.599	819.06
366.826	830.06
367.052	799.06
367.278	806.06
367.505	821.06
367.731	815.06
367.957	824.06
368.184	852.06
368.41	842.06
368.636	828.06
368.862	876.06
369.089	856.06
369.315	855.06
369.541	835.06
369.767	851.06
369.993	818.06
370.219	840.06
370.445	867.06
370.672	855.06
370.898	873.06
371.124	871.06
371.35	885.06
371.576	870.06
371.802	870.06
372.028	860.06
372.254	890.06
372.48	918.06
372.706	916.06
372.932	935.06
373.158	904.06
373.384	928.06
373.61	957.06
373.835	947.06
374.061	912.06
374.287	907.06
374.513	952.06
374.739	947.06
374.965	963.06
375.191	959.06
375.416	953.06
375.642	950.06
375.868	944.06
376.094	947.06
376.319	929.06
376.545	919.06
376.771	906.06
376.997	873.06
377.222	886.06
377.448	895.06
377.674	900.06
377.899	915.06
378.125	889.06
378.35	906.06
378.576	882.06
378.802	858.06
379.027	889.06
379.253	875.06
379.478	907.06
379.704	862.06
379.929	890.06
380.155	930.06
380.38	891.06
380.606	893.06
380.831	896.06
381.057	902.06
381.282	905.06
381.507	908.06
381.733	923.06
381.958	938.06
382.184	958.06
382.409	939.06
382.634	972.06
382.86	966.06
383.085	947.06
383.31	953.06
383.535	955.06
383.761	970.06
383.986	983.06
384.211	948.06
384.436	993.06
384.662	974.06
384.887	1002.06
385.112	1013.06
385.337	1016.06
385.562	998.06
385.787	994.06
386.013	1024.06
386.238	1032.06
386.463	1027.06
386.688	1021.06
386.913	1037.06
387.138	1028.06
387.363	1060.06
387.588	1022.06
387.813	1052.06
388.038	1037.06
388.263	1067.06
388.488	1073.06
388.713	1063.06
388.938	1063.06
389.163	1027.06
389.387	1058.06
389.612	1017.06
389.837	1057.06
390.062	1041.06
390.287	1083.06
390.512	1043.06
390.736	1083.06
390.961	1088.06
391.186	1041.06
391.411	1092.06
391.636	1109.06
391.86	1128.06
392.085	1113.06
392.31	1111.06
392.534	1132.06
392.759	1136.06
392.984	1135.06
393.208	1117.06
393.433	1158.06
393.658	1109.06
393.882	1116.06
394.107	1099.06
394.331	1117.06
394.556	1092.06
394.78	1120.06
395.005	1118.06
395.229	1138.06
395.454	1163.06
395.678	1135.06
395.903	1137.06
396.127	1165.06
396.352	1160.06
396.576	1139.06
396.801	1157.06
397.025	1150.06
397.249	1184.06
397.474	1194.06
397.698	1171.06
397.922	1197.06
398.147	1187.06
398.371	1217.06
398.595	1237.06
398.82	1280.06
399.044	1330.06
399.268	1353.06
399.492	1457.06
399.717	1507.06
399.941	1519.06
400.165	1502.06
400.389	1468.06
400.613	1395.06
400.837	1362.06
401.062	1335.06
401.286	1304.06
401.51	1307.06
401.734	1282.06
401.958	1265.06
402.182	1296.06
402.406	1290.06
402.63	1269.06
402.854	1312.06
403.078	1285.06
403.302	1277.06
403.526	1293.06
403.75	1269.06
403.974	1308.06
404.198	1292.06
404.422	1331.06
404.645	1333.06
404.869	1348.06
405.093	1331.06
405.317	1335.06
405.541	1331.06
405.765	1345.06
405.988	1356.06
406.212	1368.06
406.436	1359.06
406.66	1407.06
406.883	1394.06
407.107	1434.06
407.331	1485.06
407.555	1480.06
407.778	1525.06
408.002	1467.06
408.226	1471.06
408.449	1477.06
408.673	1427.06
408.896	1401.06
409.12	1383.06
409.344	1398.06
409.567	1395.06
409.791	1413.06
410.014	1352.06
410.238	1388.06
410.461	1405.06
410.685	1375.06
410.908	1337.06
411.132	1341.06
411.355	1330.06
411.578	1335.06
411.802	1348.06
412.025	1343.06
412.249	1335.06
412.472	1332.06
412.695	1334.06
412.919	1279.06
413.142	1335.06
413.365	1311.06
413.589	1309.06
413.812	1316.06
414.035	1312.06
414.258	1291.06
414.482	1306.06
414.705	1282.06
414.928	1297.06
415.151	1299.06
415.374	1306.06
415.597	1291.06
415.821	1297.06
416.044	1241.06
416.267	1250.06
416.49	1242.06
416.713	1209.06
416.936	1234.06
417.159	1239.06
417.382	1226.06
417.605	1213.06
417.828	1197.06
418.051	1237.06
418.274	1228.06
418.497	1235.06
418.72	1236.06
418.943	1237.06
419.166	1309.06
419.389	1368.06
419.611	1361.06
419.834	1315.06
420.057	1331.06
420.28	1251.06
420.503	1221.06
420.726	1212.06
420.948	1222.06
421.171	1225.06
421.394	1188.06
421.617	1215.06
421.839	1239.06
422.062	1225.06
422.285	1196.06
422.507	1264.06
422.73	1239.06
422.953	1248.06
423.175	1196.06
423.398	1240.06
423.621	1246.06
423.843	1222.06
424.066	1231.06
424.288	1220.06
424.511	1192.06
424.733	1218.06
424.956	1235.06
425.178	1218.06
425.401	1215.06
425.623	1217.06
425.846	1161.06
426.068	1209.06
426.291	1239.06
426.513	1207.06
426.735	1181.06
426.958	1187.06
427.18	1155.06
427.402	1213.06
427.625	1181.06
427.847	1170.06
428.069	1164.06
428.292	1173.06
428.514	1191.06
428.736	1181.06
428.958	1180.06
429.181	1189.06
429.403	1123.06
429.625	1145.06
429.847	1193.06
430.069	1164.06
430.292	1200.06
430.514	1105.06
430.736	1159.06
430.958	1161.06
431.18	1159.06
431.402	1148.06
431.624	1150.06
431.846	1146.06
432.068	1155.06
432.29	1171.06
432.512	1159.06
432.734	1195.06
432.956	1171.06
433.178	1213.06
433.4	1202.06
433.622	1200.06
433.844	1195.06
434.066	1161.06
434.287	1174.06
434.509	1181.06
434.731	1213.06
434.953	1222.06
435.175	1222.06
435.397	1219.06
435.618	1215.06
435.84	1216.06
436.062	1169.06
436.284	1155.06
436.505	1175.06
436.727	1153.06
436.949	1179.06
437.17	1161.06
437.392	1171.06
437.614	1146.06
437.835	1113.06
438.057	1135.06
438.278	1147.06
438.5	1142.06
438.721	1149.06
438.943	1135.06
439.165	1103.06
439.386	1106.06
439.608	1146.06
439.829	1160.06
440.05	1151.06
440.272	1148.06
440.493	1159.06
440.715	1181.06
440.936	1173.06
441.158	1200.06
441.379	1194.06
441.6	1249.06
441.822	1273.06
442.043	1221.06
442.264	1173.06
442.486	1195.06
442.707	1228.06
442.928	1192.06
443.149	1192.06
443.371	1217.06
443.592	1219.06
443.813	1198.06
444.034	1233.06
444.255	1265.06
444.476	1284.06
444.698	1282.06
444.919	1286.06
445.14	1369.06
445.361	1283.06
445.582	1277.06
445.803	1224.06
446.024	1193.06
446.245	1228.06
446.466	1193.06
446.687	1163.06
446.908	1152.06
447.129	1181.06
447.35	1147.06
447.571	1150.06
447.792	1135.06
448.013	1086.06
448.234	1101.06
448.455	1082.06
448.675	1098.06
448.896	1102.06
449.117	1084.06
449.338	1084.06
449.559	1093.06
449.779	1056.06
450	1041.06
450.221	1050.06
450.442	1068.06
450.662	1046.06
450.883	1081.06
451.104	1075.06
451.324	1055.06
451.545	1054.06
451.766	1042.06
451.986	1082.06
452.207	1039.06
452.428	1024.06
452.648	1040.06
452.869	1021.06
453.089	1048.06
453.31	1039.06
453.53	1003.06
453.751	1025.06
453.971	1022.06
454.192	1030.06
454.412	1038.06
454.633	1021.06
454.853	997.06
455.073	1004.06
455.294	1027.06
455.514	990.06
455.734	1045.06
455.955	1011.06
456.175	1033.06
456.395	1020.06
456.616	1023.06
456.836	1029.06
457.056	1031.06
457.276	1041.06
457.497	1043.06
457.717	1019.06
457.937	1047.06
458.157	1081.06
458.377	1033.06
458.598	1075.06
458.818	1086.06
459.038	1094.06
459.258	1100.06
459.478	1142.06
459.698	1194.06
459.918	1161.06
460.138	1188.06
460.358	1214.06
460.578	1224.06
460.798	1228.06
461.018	1267.06
461.238	1248.06
461.458	1258.06
461.678	1262.06
461.898	1275.06
462.118	1291.06
462.338	1344.06
462.558	1361.06
462.777	1371.06
462.997	1429.06
463.217	1446.06
463.437	1475.06
463.657	1451.06
463.876	1430.06
464.096	1427.06
464.316	1375.06
464.536	1383.06
464.755	1358.06
464.975	1355.06
465.195	1295.06
465.414	1269.06
465.634	1221.06
465.854	1201.06
466.073	1221.06
466.293	1139.06
466.512	1147.06
466.732	1129.06
466.951	1157.06
467.171	1139.06
467.391	1137.06
467.61	1107.06
467.829	1095.06
468.049	1107.06
468.268	1107.06
468.488	1114.06
468.707	1106.06
468.927	1123.06
469.146	1126.06
469.365	1109.06
469.585	1114.06
469.804	1162.06
470.023	1124.06
470.243	1101.06
470.462	1115.06
470.681	1144.06
470.901	1165.06
471.12	1145.06
471.339	1153.06
471.558	1149.06
471.777	1138.06
471.997	1142.06
472.216	1117.06
472.435	1109.06
472.654	1092.06
472.873	1109.06
473.092	1116.06
473.311	1108.06
473.53	1107.06
473.749	1137.06
473.968	1096.06
474.187	1114.06
474.406	1108.06
474.625	1136.06
474.844	1111.06
475.063	1157.06
475.282	1131.06
475.501	1135.06
475.72	1164.06
475.939	1129.06
476.158	1156.06
476.377	1162.06
476.596	1214.06
476.814	1218.06
477.033	1197.06
477.252	1212.06
477.471	1220.06
477.69	1207.06
477.908	1231.06
478.127	1288.06
478.346	1291.06
478.564	1306.06
478.783	1251.06
479.002	1319.06
479.22	1325.06
479.439	1360.06
479.658	1336.06
479.876	1338.06
480.095	1334.06
480.313	1393.06
480.532	1373.06
480.751	1350.06
480.969	1320.06
481.188	1329.06
481.406	1359.06
481.624	1342.06
481.843	1287.06
482.061	1281.06
482.28	1305.06
482.498	1311.06
482.717	1266.06
482.935	1294.06
483.153	1290.06
483.372	1304.06
483.59	1316.06
483.808	1303.06
484.027	1277.06
484.245	1318.06
484.463	1327.06
484.681	1315.06
484.9	1330.06
485.118	1329.06
485.336	1300.06
485.554	1306.06
485.772	1323.06
485.99	1325.06
486.209	1332.06
486.427	1339.06
486.645	1373.06
486.863	1393.06
487.081	1320.06
487.299	1342.06
487.517	1307.06
487.735	1344.06
487.953	1361.06
488.171	1351.06
488.389	1317.06
488.607	1310.06
488.825	1328.06
489.043	1333.06
489.261	1348.06
489.479	1316.06
489.696	1318.06
489.914	1320.06
490.132	1348.06
490.35	1343.06
490.568	1386.06
490.786	1345.06
491.003	1349.06
491.221	1373.06
491.439	1357.06
491.657	1385.06
491.874	1373.06
492.092	1373.06
492.31	1381.06
492.527	1416.06
492.745	1389.06
492.963	1369.06
493.18	1383.06
493.398	1422.06
493.615	1397.06
493.833	1412.06
494.05	1418.06
494.268	1402.06
494.485	1382.06
494.703	1395.06
494.92	1419.06
