Data from Fe(NO3)3@0.05M.TitratingCurve.Agarose3%dH2O.NegLispCup.LampEnergy10.LIBS07252019_HRD10591_16-47-19-334.txt Node
Date: Thu Jul 25 16:47:19 EDT 2019
User: cochatt
Spectrometer: HR+D1059
Trigger mode: 1
Integration Time (sec): 1.000000E-1
Scans to average: 1
Electric dark correction enabled: true
Nonlinearity correction enabled: false
Boxcar width: 0
XAxis mode: Wavelengths
Number of Pixels in Spectrum: 2048
>>>>>Begin Spectral Data<<<<<
223.165	-7.69
223.4	-7.69
223.635	-7.69
223.869	-9.69
224.104	-16.69
224.338	-14.69
224.573	-19.69
224.808	-30.69
225.042	-17.69
225.277	-0.69
225.511	-8.69
225.746	-2.69
225.98	-1.69
226.215	25.31
226.449	8.31
226.683	25.31
226.918	37.31
227.152	34.31
227.387	28.31
227.621	39.31
227.856	52.31
228.09	36.31
228.324	54.31
228.559	61.31
228.793	57.31
229.027	72.31
229.262	75.31
229.496	77.31
229.73	91.31
229.964	79.31
230.199	80.31
230.433	92.31
230.667	98.31
230.901	97.31
231.136	97.31
231.37	110.31
231.604	91.31
231.838	106.31
232.072	91.31
232.306	111.31
232.541	107.31
232.775	106.31
233.009	106.31
233.243	118.31
233.477	123.31
233.711	109.31
233.945	112.31
234.179	102.31
234.413	122.31
234.647	99.31
234.881	100.31
235.115	91.31
235.349	101.31
235.583	115.31
235.817	117.31
236.051	113.31
236.285	109.31
236.519	110.31
236.753	110.31
236.987	115.31
237.221	113.31
237.455	116.31
237.689	104.31
237.922	124.31
238.156	124.31
238.39	122.31
238.624	136.31
238.858	115.31
239.091	109.31
239.325	103.31
239.559	102.31
239.793	106.31
240.027	129.31
240.26	137.31
240.494	116.31
240.728	118.31
240.961	128.31
241.195	136.31
241.429	133.31
241.662	118.31
241.896	124.31
242.13	111.31
242.363	128.31
242.597	125.31
242.83	135.31
243.064	122.31
243.298	118.31
243.531	125.31
243.765	130.31
243.998	132.31
244.232	125.31
244.465	142.31
244.699	133.31
244.932	128.31
245.166	121.31
245.399	137.31
245.633	134.31
245.866	132.31
246.099	138.31
246.333	132.31
246.566	145.31
246.8	158.31
247.033	136.31
247.266	153.31
247.5	132.31
247.733	156.31
247.966	143.31
248.2	137.31
248.433	151.31
248.666	149.31
248.899	141.31
249.133	149.31
249.366	163.31
249.599	163.31
249.832	152.31
250.066	144.31
250.299	146.31
250.532	150.31
250.765	151.31
250.998	161.31
251.231	163.31
251.465	156.31
251.698	136.31
251.931	156.31
252.164	167.31
252.397	160.31
252.63	146.31
252.863	165.31
253.096	166.31
253.329	161.31
253.562	152.31
253.795	178.31
254.028	186.31
254.261	170.31
254.494	167.31
254.727	157.31
254.96	174.31
255.193	172.31
255.426	163.31
255.659	166.31
255.892	164.31
256.124	160.31
256.357	179.31
256.59	173.31
256.823	183.31
257.056	160.31
257.289	176.31
257.521	174.31
257.754	158.31
257.987	177.31
258.22	168.31
258.452	179.31
258.685	169.31
258.918	185.31
259.151	173.31
259.383	169.31
259.616	166.31
259.849	193.31
260.081	207.31
260.314	220.31
260.547	183.31
260.779	190.31
261.012	193.31
261.244	190.31
261.477	184.31
261.71	178.31
261.942	190.31
262.175	175.31
262.407	180.31
262.64	197.31
262.872	206.31
263.105	186.31
263.337	198.31
263.57	210.31
263.802	180.31
264.035	202.31
264.267	197.31
264.499	204.31
264.732	197.31
264.964	193.31
265.197	191.31
265.429	187.31
265.661	194.31
265.894	202.31
266.126	191.31
266.358	186.31
266.591	180.31
266.823	199.31
267.055	200.31
267.287	212.31
267.52	213.31
267.752	201.31
267.984	198.31
268.216	193.31
268.448	201.31
268.681	200.31
268.913	216.31
269.145	202.31
269.377	219.31
269.609	206.31
269.841	200.31
270.073	181.31
270.306	206.31
270.538	214.31
270.77	208.31
271.002	205.31
271.234	209.31
271.466	213.31
271.698	208.31
271.93	216.31
272.162	228.31
272.394	230.31
272.626	223.31
272.858	222.31
273.09	224.31
273.322	225.31
273.553	224.31
273.785	226.31
274.017	232.31
274.249	238.31
274.481	254.31
274.713	258.31
274.945	264.31
275.176	256.31
275.408	250.31
275.64	222.31
275.872	259.31
276.104	248.31
276.335	205.31
276.567	229.31
276.799	224.31
277.031	232.31
277.262	220.31
277.494	242.31
277.726	241.31
277.957	231.31
278.189	240.31
278.421	222.31
278.652	232.31
278.884	226.31
279.115	246.31
279.347	217.31
279.579	249.31
279.81	248.31
280.042	254.31
280.273	243.31
280.505	236.31
280.736	228.31
280.968	252.31
281.199	253.31
281.431	260.31
281.662	229.31
281.894	256.31
282.125	256.31
282.356	245.31
282.588	252.31
282.819	250.31
283.051	266.31
283.282	266.31
283.513	252.31
283.745	252.31
283.976	267.31
284.207	259.31
284.439	249.31
284.67	253.31
284.901	254.31
285.132	262.31
285.364	248.31
285.595	261.31
285.826	270.31
286.057	272.31
286.288	258.31
286.52	253.31
286.751	272.31
286.982	266.31
287.213	255.31
287.444	261.31
287.675	276.31
287.906	272.31
288.138	264.31
288.369	259.31
288.6	273.31
288.831	282.31
289.062	287.31
289.293	287.31
289.524	269.31
289.755	273.31
289.986	284.31
290.217	289.31
290.448	266.31
290.679	274.31
290.91	276.31
291.141	254.31
291.371	270.31
291.602	283.31
291.833	285.31
292.064	293.31
292.295	278.31
292.526	278.31
292.757	281.31
292.987	290.31
293.218	274.31
293.449	284.31
293.68	272.31
293.91	287.31
294.141	266.31
294.372	266.31
294.603	272.31
294.833	294.31
295.064	292.31
295.295	295.31
295.525	277.31
295.756	268.31
295.987	277.31
296.217	301.31
296.448	282.31
296.679	292.31
296.909	288.31
297.14	305.31
297.37	299.31
297.601	299.31
297.831	292.31
298.062	286.31
298.292	297.31
298.523	314.31
298.753	312.31
298.984	310.31
299.214	292.31
299.445	298.31
299.675	311.31
299.905	304.31
300.136	286.31
300.366	306.31
300.597	314.31
300.827	306.31
301.057	306.31
301.288	312.31
301.518	302.31
301.748	307.31
301.979	321.31
302.209	306.31
302.439	333.31
302.669	313.31
302.9	296.31
303.13	304.31
303.36	310.31
303.59	321.31
303.82	306.31
304.051	307.31
304.281	310.31
304.511	318.31
304.741	298.31
304.971	309.31
305.201	303.31
305.431	298.31
305.661	300.31
305.891	323.31
306.121	313.31
306.352	310.31
306.582	299.31
306.812	313.31
307.042	325.31
307.272	302.31
307.502	289.31
307.731	306.31
307.961	335.31
308.191	305.31
308.421	319.31
308.651	301.31
308.881	304.31
309.111	317.31
309.341	309.31
309.571	307.31
309.8	311.31
310.03	300.31
310.26	305.31
310.49	305.31
310.72	322.31
310.949	308.31
311.179	321.31
311.409	316.31
311.639	328.31
311.868	325.31
312.098	322.31
312.328	319.31
312.557	325.31
312.787	337.31
313.017	324.31
313.246	336.31
313.476	321.31
313.706	309.31
313.935	338.31
314.165	335.31
314.394	333.31
314.624	342.31
314.853	334.31
315.083	339.31
315.312	334.31
315.542	335.31
315.771	313.31
316.001	320.31
316.23	333.31
316.46	343.31
316.689	321.31
316.919	329.31
317.148	311.31
317.377	323.31
317.607	308.31
317.836	325.31
318.065	311.31
318.295	333.31
318.524	327.31
318.753	319.31
318.983	326.31
319.212	333.31
319.441	310.31
319.67	326.31
319.9	326.31
320.129	324.31
320.358	335.31
320.587	336.31
320.816	328.31
321.046	335.31
321.275	337.31
321.504	320.31
321.733	320.31
321.962	333.31
322.191	347.31
322.42	343.31
322.649	330.31
322.878	340.31
323.108	338.31
323.337	368.31
323.566	345.31
323.795	354.31
324.024	360.31
324.253	327.31
324.482	357.31
324.71	338.31
324.939	342.31
325.168	352.31
325.397	344.31
325.626	343.31
325.855	352.31
326.084	359.31
326.313	370.31
326.542	358.31
326.77	364.31
326.999	357.31
327.228	345.31
327.457	370.31
327.686	349.31
327.914	366.31
328.143	366.31
328.372	365.31
328.6	359.31
328.829	349.31
329.058	361.31
329.287	362.31
329.515	371.31
329.744	348.31
329.972	375.31
330.201	386.31
330.43	370.31
330.658	358.31
330.887	380.31
331.115	370.31
331.344	377.31
331.572	372.31
331.801	371.31
332.03	375.31
332.258	392.31
332.486	411.31
332.715	427.31
332.943	425.31
333.172	438.31
333.4	435.31
333.629	457.31
333.857	457.31
334.085	454.31
334.314	449.31
334.542	465.31
334.771	421.31
334.999	428.31
335.227	439.31
335.455	428.31
335.684	436.31
335.912	429.31
336.14	418.31
336.369	410.31
336.597	423.31
336.825	409.31
337.053	419.31
337.281	394.31
337.51	401.31
337.738	400.31
337.966	394.31
338.194	381.31
338.422	392.31
338.65	404.31
338.878	394.31
339.106	390.31
339.334	402.31
339.562	381.31
339.79	402.31
340.018	391.31
340.246	380.31
340.474	395.31
340.702	391.31
340.93	377.31
341.158	387.31
341.386	385.31
341.614	389.31
341.842	387.31
342.07	389.31
342.298	376.31
342.526	365.31
342.754	374.31
342.981	408.31
343.209	392.31
343.437	407.31
343.665	413.31
343.893	444.31
344.12	456.31
344.348	424.31
344.576	409.31
344.804	408.31
345.031	391.31
345.259	390.31
345.487	387.31
345.714	386.31
345.942	386.31
346.17	359.31
346.397	364.31
346.625	373.31
346.853	363.31
347.08	366.31
347.308	387.31
347.535	360.31
347.763	372.31
347.99	377.31
348.218	362.31
348.445	370.31
348.673	358.31
348.9	374.31
349.128	361.31
349.355	370.31
349.583	356.31
349.81	357.31
350.037	370.31
350.265	370.31
350.492	367.31
350.72	372.31
350.947	353.31
351.174	365.31
351.402	358.31
351.629	352.31
351.856	350.31
352.083	349.31
352.311	357.31
352.538	358.31
352.765	373.31
352.992	375.31
353.22	352.31
353.447	351.31
353.674	355.31
353.901	361.31
354.128	356.31
354.355	369.31
354.583	362.31
354.81	372.31
355.037	377.31
355.264	371.31
355.491	352.31
355.718	364.31
355.945	355.31
356.172	353.31
356.399	379.31
356.626	363.31
356.853	368.31
357.08	353.31
357.307	372.31
357.534	374.31
357.761	361.31
357.988	344.31
358.215	377.31
358.441	376.31
358.668	375.31
358.895	363.31
359.122	382.31
359.349	383.31
359.576	357.31
359.802	368.31
360.029	366.31
360.256	375.31
360.483	375.31
360.709	367.31
360.936	402.31
361.163	355.31
361.39	373.31
361.616	376.31
361.843	369.31
362.07	367.31
362.296	377.31
362.523	374.31
362.749	362.31
362.976	369.31
363.203	358.31
363.429	355.31
363.656	378.31
363.882	366.31
364.109	363.31
364.335	358.31
364.562	374.31
364.788	370.31
365.015	388.31
365.241	372.31
365.468	377.31
365.694	361.31
365.92	368.31
366.147	364.31
366.373	370.31
366.599	367.31
366.826	374.31
367.052	372.31
367.278	375.31
367.505	374.31
367.731	388.31
367.957	371.31
368.184	370.31
368.41	386.31
368.636	376.31
368.862	383.31
369.089	391.31
369.315	393.31
369.541	381.31
369.767	385.31
369.993	384.31
370.219	380.31
370.445	387.31
370.672	394.31
370.898	386.31
371.124	397.31
371.35	409.31
371.576	401.31
371.802	402.31
372.028	412.31
372.254	413.31
372.48	399.31
372.706	418.31
372.932	420.31
373.158	419.31
373.384	436.31
373.61	412.31
373.835	421.31
374.061	410.31
374.287	400.31
374.513	408.31
374.739	448.31
374.965	447.31
375.191	445.31
375.416	455.31
375.642	431.31
375.868	445.31
376.094	439.31
376.319	419.31
376.545	416.31
376.771	416.31
376.997	410.31
377.222	408.31
377.448	408.31
377.674	399.31
377.899	402.31
378.125	379.31
378.35	393.31
378.576	394.31
378.802	418.31
379.027	400.31
379.253	399.31
379.478	410.31
379.704	408.31
379.929	408.31
380.155	402.31
380.38	423.31
380.606	415.31
380.831	398.31
381.057	436.31
381.282	425.31
381.507	431.31
381.733	421.31
381.958	394.31
382.184	475.31
382.409	438.31
382.634	433.31
382.86	428.31
383.085	409.31
383.31	453.31
383.535	442.31
383.761	435.31
383.986	465.31
384.211	472.31
384.436	472.31
384.662	467.31
384.887	467.31
385.112	480.31
385.337	484.31
385.562	488.31
385.787	459.31
386.013	471.31
386.238	492.31
386.463	474.31
386.688	496.31
386.913	488.31
387.138	501.31
387.363	487.31
387.588	504.31
387.813	484.31
388.038	486.31
388.263	477.31
388.488	493.31
388.713	493.31
388.938	488.31
389.163	485.31
389.387	483.31
389.612	482.31
389.837	480.31
390.062	467.31
390.287	498.31
390.512	483.31
390.736	500.31
390.961	510.31
391.186	510.31
391.411	516.31
391.636	505.31
391.86	507.31
392.085	530.31
392.31	561.31
392.534	550.31
392.759	541.31
392.984	508.31
393.208	513.31
393.433	541.31
393.658	526.31
393.882	542.31
394.107	518.31
394.331	505.31
394.556	508.31
394.78	512.31
395.005	536.31
395.229	509.31
395.454	556.31
395.678	541.31
395.903	548.31
396.127	522.31
396.352	519.31
396.576	514.31
396.801	532.31
397.025	553.31
397.249	540.31
397.474	574.31
397.698	556.31
397.922	557.31
398.147	573.31
398.371	551.31
398.595	590.31
398.82	590.31
399.044	645.31
399.268	712.31
399.492	751.31
399.717	816.31
399.941	824.31
400.165	774.31
400.389	729.31
400.613	664.31
400.837	625.31
401.062	610.31
401.286	637.31
401.51	611.31
401.734	626.31
401.958	627.31
402.182	608.31
402.406	632.31
402.63	645.31
402.854	629.31
403.078	631.31
403.302	654.31
403.526	654.31
403.75	651.31
403.974	664.31
404.198	671.31
404.422	650.31
404.645	673.31
404.869	658.31
405.093	667.31
405.317	654.31
405.541	661.31
405.765	650.31
405.988	644.31
406.212	657.31
406.436	666.31
406.66	673.31
406.883	644.31
407.107	727.31
407.331	705.31
407.555	739.31
407.778	735.31
408.002	733.31
408.226	730.31
408.449	719.31
408.673	675.31
408.896	679.31
409.12	684.31
409.344	672.31
409.567	668.31
409.791	650.31
410.014	672.31
410.238	649.31
410.461	638.31
410.685	631.31
410.908	630.31
411.132	661.31
411.355	640.31
411.578	643.31
411.802	641.31
412.025	635.31
412.249	649.31
412.472	634.31
412.695	639.31
412.919	607.31
413.142	616.31
413.365	625.31
413.589	629.31
413.812	622.31
414.035	601.31
414.258	618.31
414.482	624.31
414.705	625.31
414.928	610.31
415.151	610.31
415.374	632.31
415.597	624.31
415.821	585.31
416.044	602.31
416.267	612.31
416.49	607.31
416.713	594.31
416.936	609.31
417.159	601.31
417.382	590.31
417.605	581.31
417.828	624.31
418.051	632.31
418.274	615.31
418.497	601.31
418.72	630.31
418.943	602.31
419.166	652.31
419.389	672.31
419.611	684.31
419.834	648.31
420.057	632.31
420.28	618.31
420.503	601.31
420.726	614.31
420.948	606.31
421.171	603.31
421.394	621.31
421.617	604.31
421.839	599.31
422.062	604.31
422.285	601.31
422.507	593.31
422.73	618.31
422.953	608.31
423.175	631.31
423.398	620.31
423.621	621.31
423.843	615.31
424.066	636.31
424.288	633.31
424.511	609.31
424.733	628.31
424.956	609.31
425.178	615.31
425.401	604.31
425.623	605.31
425.846	599.31
426.068	600.31
426.291	605.31
426.513	594.31
426.735	574.31
426.958	562.31
427.18	562.31
427.402	594.31
427.625	587.31
427.847	547.31
428.069	576.31
428.292	554.31
428.514	565.31
428.736	548.31
428.958	584.31
429.181	546.31
429.403	540.31
429.625	545.31
429.847	559.31
430.069	538.31
430.292	566.31
430.514	552.31
430.736	549.31
430.958	572.31
431.18	554.31
431.402	564.31
431.624	562.31
431.846	565.31
432.068	554.31
432.29	547.31
432.512	567.31
432.734	593.31
432.956	549.31
433.178	601.31
433.4	569.31
433.622	578.31
433.844	554.31
434.066	591.31
434.287	567.31
434.509	579.31
434.731	591.31
434.953	596.31
435.175	626.31
435.397	597.31
435.618	590.31
435.84	567.31
436.062	565.31
436.284	552.31
436.505	573.31
436.727	564.31
436.949	553.31
437.17	553.31
437.392	545.31
437.614	559.31
437.835	541.31
438.057	522.31
438.278	538.31
438.5	546.31
438.721	579.31
438.943	564.31
439.165	543.31
439.386	552.31
439.608	572.31
439.829	542.31
440.05	576.31
440.272	567.31
440.493	566.31
440.715	595.31
440.936	593.31
441.158	589.31
441.379	608.31
441.6	628.31
441.822	622.31
442.043	632.31
442.264	598.31
442.486	614.31
442.707	636.31
442.928	624.31
443.149	622.31
443.371	604.31
443.592	606.31
443.813	632.31
444.034	640.31
444.255	638.31
444.476	678.31
444.698	694.31
444.919	688.31
445.14	767.31
445.361	662.31
445.582	619.31
445.803	638.31
446.024	634.31
446.245	608.31
446.466	597.31
446.687	551.31
446.908	581.31
447.129	581.31
447.35	577.31
447.571	565.31
447.792	549.31
448.013	560.31
448.234	540.31
448.455	541.31
448.675	527.31
448.896	548.31
449.117	530.31
449.338	540.31
449.559	537.31
449.779	509.31
450	538.31
450.221	507.31
450.442	524.31
450.662	506.31
450.883	540.31
451.104	535.31
451.324	522.31
451.545	517.31
451.766	507.31
451.986	523.31
452.207	528.31
452.428	509.31
452.648	518.31
452.869	509.31
453.089	510.31
453.31	485.31
453.53	499.31
453.751	511.31
453.971	498.31
454.192	503.31
454.412	485.31
454.633	512.31
454.853	506.31
455.073	494.31
455.294	487.31
455.514	494.31
455.734	514.31
455.955	493.31
456.175	479.31
456.395	503.31
456.616	479.31
456.836	483.31
457.056	487.31
457.276	491.31
457.497	526.31
457.717	509.31
457.937	505.31
458.157	512.31
458.377	519.31
458.598	514.31
458.818	530.31
459.038	525.31
459.258	546.31
459.478	588.31
459.698	568.31
459.918	585.31
460.138	594.31
460.358	632.31
460.578	636.31
460.798	641.31
461.018	666.31
461.238	648.31
461.458	664.31
461.678	638.31
461.898	640.31
462.118	655.31
462.338	673.31
462.558	671.31
462.777	717.31
462.997	755.31
463.217	789.31
463.437	790.31
463.657	749.31
463.876	757.31
464.096	719.31
464.316	735.31
464.536	713.31
464.755	702.31
464.975	685.31
465.195	655.31
465.414	640.31
465.634	616.31
465.854	590.31
466.073	585.31
466.293	587.31
466.512	535.31
466.732	570.31
466.951	545.31
467.171	551.31
467.391	546.31
467.61	564.31
467.829	561.31
468.049	550.31
468.268	547.31
468.488	536.31
468.707	547.31
468.927	545.31
469.146	528.31
469.365	547.31
469.585	537.31
469.804	546.31
470.023	566.31
470.243	572.31
470.462	574.31
470.681	566.31
470.901	566.31
471.12	576.31
471.339	552.31
471.558	555.31
471.777	544.31
471.997	540.31
472.216	528.31
472.435	527.31
472.654	528.31
472.873	544.31
473.092	549.31
473.311	534.31
473.53	553.31
473.749	526.31
473.968	519.31
474.187	532.31
474.406	534.31
474.625	503.31
474.844	530.31
475.063	533.31
475.282	556.31
475.501	554.31
475.72	544.31
475.939	544.31
476.158	567.31
476.377	573.31
476.596	565.31
476.814	571.31
477.033	594.31
477.252	570.31
477.471	580.31
477.69	600.31
477.908	598.31
478.127	640.31
478.346	588.31
478.564	593.31
478.783	625.31
479.002	657.31
479.22	634.31
479.439	641.31
479.658	636.31
479.876	629.31
480.095	631.31
480.313	672.31
480.532	687.31
480.751	670.31
480.969	672.31
481.188	641.31
481.406	626.31
481.624	607.31
481.843	606.31
482.061	597.31
482.28	607.31
482.498	620.31
482.717	588.31
482.935	610.31
483.153	600.31
483.372	592.31
483.59	591.31
483.808	597.31
484.027	598.31
484.245	613.31
484.463	631.31
484.681	625.31
484.9	614.31
485.118	635.31
485.336	604.31
485.554	615.31
485.772	629.31
485.99	613.31
486.209	602.31
486.427	617.31
486.645	610.31
486.863	629.31
487.081	648.31
487.299	622.31
487.517	640.31
487.735	626.31
487.953	626.31
488.171	622.31
488.389	637.31
488.607	636.31
488.825	602.31
489.043	613.31
489.261	611.31
489.479	633.31
489.696	601.31
489.914	645.31
490.132	640.31
490.35	616.31
490.568	627.31
490.786	632.31
491.003	646.31
491.221	647.31
491.439	645.31
491.657	633.31
491.874	645.31
492.092	669.31
492.31	677.31
492.527	673.31
492.745	646.31
492.963	632.31
493.18	638.31
493.398	677.31
493.615	676.31
493.833	644.31
494.05	646.31
494.268	660.31
494.485	670.31
494.703	630.31
494.92	646.31
495.138	664.31
495.355	677.31
495.573	679.31
495.79	668.31
496.008	666.31
496.225	696.31
496.442	687.31
496.66	680.31
496.877	715.31
497.094	692.31
497.312	693.31
497.529	748.31
497.746	744.31
497.963	775.31
498.181	778.31
498.398	815.31
498.615	868.31
498.832	892.31
499.049	948.31
499.267	1004.31
499.484	1065.31
499.701	1148.31
499.918	1222.31
500.135	1381.31
500.352	1505.31
500.569	1544.31
500.786	1520.31
501.003	1473.31
501.22	1365.31
501.437	1239.31
501.654	1119.31
