Data from Fe(NO3)3@0.1M.TitratingCurve.Agarose3%dH2O.NegLispCup.LampEnergy10.LIBS07252019_HRD10591_16-40-49-333.txt Node
Date: Thu Jul 25 16:40:49 EDT 2019
User: cochatt
Spectrometer: HR+D1059
Trigger mode: 1
Integration Time (sec): 1.000000E-1
Scans to average: 1
Electric dark correction enabled: true
Nonlinearity correction enabled: false
Boxcar width: 0
XAxis mode: Wavelengths
Number of Pixels in Spectrum: 2048
>>>>>Begin Spectral Data<<<<<
223.165	-15.12
223.4	-15.12
223.635	-15.12
223.869	-14.12
224.104	-14.12
224.338	-14.12
224.573	-18.12
224.808	-3.12
225.042	-13.12
225.277	-7.12
225.511	4.88
225.746	17.88
225.98	7.88
226.215	-3.12
226.449	16.88
226.683	12.88
226.918	7.88
227.152	33.88
227.387	40.88
227.621	40.88
227.856	41.88
228.09	49.88
228.324	56.88
228.559	69.88
228.793	73.88
229.027	81.88
229.262	81.88
229.496	75.88
229.73	80.88
229.964	94.88
230.199	93.88
230.433	82.88
230.667	96.88
230.901	108.88
231.136	96.88
231.37	104.88
231.604	95.88
231.838	83.88
232.072	96.88
232.306	85.88
232.541	104.88
232.775	105.88
233.009	109.88
233.243	107.88
233.477	106.88
233.711	97.88
233.945	112.88
234.179	106.88
234.413	101.88
234.647	100.88
234.881	98.88
235.115	108.88
235.349	100.88
235.583	110.88
235.817	97.88
236.051	87.88
236.285	102.88
236.519	94.88
236.753	111.88
236.987	108.88
237.221	105.88
237.455	92.88
237.689	103.88
237.922	104.88
238.156	110.88
238.39	101.88
238.624	90.88
238.858	96.88
239.091	100.88
239.325	117.88
239.559	98.88
239.793	101.88
240.027	107.88
240.26	98.88
240.494	107.88
240.728	103.88
240.961	100.88
241.195	112.88
241.429	107.88
241.662	104.88
241.896	98.88
242.13	120.88
242.363	107.88
242.597	122.88
242.83	128.88
243.064	114.88
243.298	105.88
243.531	123.88
243.765	110.88
243.998	104.88
244.232	106.88
244.465	121.88
244.699	123.88
244.932	114.88
245.166	109.88
245.399	116.88
245.633	118.88
245.866	118.88
246.099	101.88
246.333	94.88
246.566	109.88
246.8	127.88
247.033	124.88
247.266	121.88
247.5	118.88
247.733	124.88
247.966	127.88
248.2	126.88
248.433	124.88
248.666	117.88
248.899	111.88
249.133	134.88
249.366	134.88
249.599	127.88
249.832	108.88
250.066	121.88
250.299	124.88
250.532	120.88
250.765	123.88
250.998	123.88
251.231	142.88
251.465	105.88
251.698	130.88
251.931	124.88
252.164	123.88
252.397	133.88
252.63	130.88
252.863	116.88
253.096	127.88
253.329	127.88
253.562	131.88
253.795	111.88
254.028	132.88
254.261	119.88
254.494	129.88
254.727	109.88
254.96	126.88
255.193	150.88
255.426	136.88
255.659	131.88
255.892	129.88
256.124	136.88
256.357	122.88
256.59	141.88
256.823	137.88
257.056	126.88
257.289	123.88
257.521	120.88
257.754	127.88
257.987	116.88
258.22	129.88
258.452	133.88
258.685	139.88
258.918	141.88
259.151	138.88
259.383	144.88
259.616	152.88
259.849	126.88
260.081	120.88
260.314	137.88
260.547	135.88
260.779	144.88
261.012	145.88
261.244	135.88
261.477	138.88
261.71	156.88
261.942	149.88
262.175	129.88
262.407	139.88
262.64	159.88
262.872	136.88
263.105	129.88
263.337	154.88
263.57	133.88
263.802	140.88
264.035	143.88
264.267	134.88
264.499	134.88
264.732	152.88
264.964	144.88
265.197	145.88
265.429	149.88
265.661	142.88
265.894	136.88
266.126	158.88
266.358	148.88
266.591	143.88
266.823	142.88
267.055	146.88
267.287	135.88
267.52	137.88
267.752	140.88
267.984	143.88
268.216	147.88
268.448	167.88
268.681	151.88
268.913	174.88
269.145	167.88
269.377	153.88
269.609	172.88
269.841	167.88
270.073	146.88
270.306	148.88
270.538	136.88
270.77	139.88
271.002	156.88
271.234	158.88
271.466	163.88
271.698	156.88
271.93	167.88
272.162	161.88
272.394	162.88
272.626	158.88
272.858	160.88
273.09	160.88
273.322	162.88
273.553	165.88
273.785	156.88
274.017	153.88
274.249	158.88
274.481	172.88
274.713	154.88
274.945	166.88
275.176	159.88
275.408	167.88
275.64	166.88
275.872	168.88
276.104	167.88
276.335	174.88
276.567	157.88
276.799	164.88
277.031	160.88
277.262	174.88
277.494	183.88
277.726	164.88
277.957	173.88
278.189	175.88
278.421	156.88
278.652	158.88
278.884	151.88
279.115	153.88
279.347	165.88
279.579	177.88
279.81	148.88
280.042	174.88
280.273	166.88
280.505	168.88
280.736	181.88
280.968	178.88
281.199	164.88
281.431	175.88
281.662	174.88
281.894	169.88
282.125	169.88
282.356	186.88
282.588	179.88
282.819	175.88
283.051	187.88
283.282	169.88
283.513	177.88
283.745	187.88
283.976	183.88
284.207	191.88
284.439	188.88
284.67	176.88
284.901	190.88
285.132	177.88
285.364	181.88
285.595	179.88
285.826	200.88
286.057	189.88
286.288	184.88
286.52	177.88
286.751	191.88
286.982	176.88
287.213	195.88
287.444	199.88
287.675	177.88
287.906	190.88
288.138	180.88
288.369	180.88
288.6	184.88
288.831	197.88
289.062	175.88
289.293	184.88
289.524	186.88
289.755	167.88
289.986	186.88
290.217	185.88
290.448	184.88
290.679	198.88
290.91	196.88
291.141	189.88
291.371	191.88
291.602	196.88
291.833	187.88
292.064	194.88
292.295	188.88
292.526	169.88
292.757	190.88
292.987	184.88
293.218	195.88
293.449	197.88
293.68	192.88
293.91	180.88
294.141	191.88
294.372	187.88
294.603	209.88
294.833	205.88
295.064	193.88
295.295	191.88
295.525	197.88
295.756	191.88
295.987	187.88
296.217	199.88
296.448	189.88
296.679	181.88
296.909	206.88
297.14	198.88
297.37	194.88
297.601	198.88
297.831	200.88
298.062	207.88
298.292	176.88
298.523	197.88
298.753	224.88
298.984	214.88
299.214	203.88
299.445	192.88
299.675	199.88
299.905	210.88
300.136	213.88
300.366	202.88
300.597	193.88
300.827	199.88
301.057	209.88
301.288	213.88
301.518	226.88
301.748	220.88
301.979	191.88
302.209	218.88
302.439	205.88
302.669	210.88
302.9	216.88
303.13	212.88
303.36	214.88
303.59	208.88
303.82	200.88
304.051	225.88
304.281	207.88
304.511	207.88
304.741	201.88
304.971	211.88
305.201	208.88
305.431	212.88
305.661	209.88
305.891	200.88
306.121	219.88
306.352	206.88
306.582	212.88
306.812	214.88
307.042	209.88
307.272	223.88
307.502	221.88
307.731	208.88
307.961	206.88
308.191	221.88
308.421	206.88
308.651	200.88
308.881	225.88
309.111	206.88
309.341	207.88
309.571	209.88
309.8	206.88
310.03	219.88
310.26	212.88
310.49	205.88
310.72	205.88
310.949	209.88
311.179	208.88
311.409	199.88
311.639	214.88
311.868	224.88
312.098	219.88
312.328	225.88
312.557	228.88
312.787	218.88
313.017	219.88
313.246	220.88
313.476	220.88
313.706	222.88
313.935	215.88
314.165	228.88
314.394	239.88
314.624	230.88
314.853	244.88
315.083	218.88
315.312	219.88
315.542	225.88
315.771	222.88
316.001	205.88
316.23	224.88
316.46	225.88
316.689	228.88
316.919	223.88
317.148	217.88
317.377	208.88
317.607	212.88
317.836	211.88
318.065	218.88
318.295	214.88
318.524	217.88
318.753	215.88
318.983	202.88
319.212	217.88
319.441	206.88
319.67	217.88
319.9	222.88
320.129	231.88
320.358	222.88
320.587	222.88
320.816	224.88
321.046	224.88
321.275	224.88
321.504	213.88
321.733	217.88
321.962	222.88
322.191	230.88
322.42	238.88
322.649	215.88
322.878	224.88
323.108	228.88
323.337	238.88
323.566	246.88
323.795	222.88
324.024	227.88
324.253	228.88
324.482	240.88
324.71	217.88
324.939	243.88
325.168	240.88
325.397	237.88
325.626	244.88
325.855	235.88
326.084	235.88
326.313	253.88
326.542	231.88
326.77	252.88
326.999	250.88
327.228	256.88
327.457	256.88
327.686	231.88
327.914	223.88
328.143	251.88
328.372	247.88
328.6	261.88
328.829	245.88
329.058	244.88
329.287	240.88
329.515	238.88
329.744	234.88
329.972	235.88
330.201	247.88
330.43	264.88
330.658	260.88
330.887	246.88
331.115	252.88
331.344	256.88
331.572	256.88
331.801	266.88
332.03	263.88
332.258	259.88
332.486	278.88
332.715	278.88
332.943	271.88
333.172	283.88
333.4	272.88
333.629	297.88
333.857	290.88
334.085	286.88
334.314	303.88
334.542	296.88
334.771	277.88
334.999	289.88
335.227	273.88
335.455	272.88
335.684	289.88
335.912	278.88
336.14	298.88
336.369	301.88
336.597	270.88
336.825	279.88
337.053	270.88
337.281	287.88
337.51	273.88
337.738	278.88
337.966	270.88
338.194	282.88
338.422	269.88
338.65	261.88
338.878	272.88
339.106	267.88
339.334	276.88
339.562	252.88
339.79	261.88
340.018	252.88
340.246	258.88
340.474	249.88
340.702	250.88
340.93	245.88
341.158	233.88
341.386	246.88
341.614	237.88
341.842	252.88
342.07	241.88
342.298	255.88
342.526	248.88
342.754	231.88
342.981	236.88
343.209	240.88
343.437	286.88
343.665	270.88
343.893	296.88
344.12	296.88
344.348	293.88
344.576	274.88
344.804	275.88
345.031	266.88
345.259	261.88
345.487	267.88
345.714	266.88
345.942	239.88
346.17	246.88
346.397	248.88
346.625	232.88
346.853	241.88
347.08	240.88
347.308	244.88
347.535	241.88
347.763	254.88
347.99	254.88
348.218	224.88
348.445	240.88
348.673	227.88
348.9	253.88
349.128	248.88
349.355	251.88
349.583	252.88
349.81	234.88
350.037	240.88
350.265	226.88
350.492	231.88
350.72	241.88
350.947	241.88
351.174	238.88
351.402	245.88
351.629	235.88
351.856	240.88
352.083	246.88
352.311	227.88
352.538	231.88
352.765	217.88
352.992	233.88
353.22	236.88
353.447	232.88
353.674	222.88
353.901	230.88
354.128	245.88
354.355	246.88
354.583	228.88
354.81	260.88
355.037	248.88
355.264	235.88
355.491	240.88
355.718	245.88
355.945	263.88
356.172	248.88
356.399	220.88
356.626	258.88
356.853	247.88
357.08	232.88
357.307	216.88
357.534	227.88
357.761	244.88
357.988	235.88
358.215	234.88
358.441	243.88
358.668	254.88
358.895	250.88
359.122	234.88
359.349	250.88
359.576	230.88
359.802	248.88
360.029	256.88
360.256	246.88
360.483	252.88
360.709	251.88
360.936	239.88
361.163	236.88
361.39	243.88
361.616	240.88
361.843	239.88
362.07	250.88
362.296	244.88
362.523	234.88
362.749	229.88
362.976	231.88
363.203	228.88
363.429	235.88
363.656	258.88
363.882	264.88
364.109	240.88
364.335	256.88
364.562	231.88
364.788	249.88
365.015	236.88
365.241	227.88
365.468	246.88
365.694	232.88
365.92	239.88
366.147	265.88
366.373	254.88
366.599	232.88
366.826	250.88
367.052	245.88
367.278	238.88
367.505	252.88
367.731	246.88
367.957	254.88
368.184	233.88
368.41	236.88
368.636	243.88
368.862	247.88
369.089	250.88
369.315	231.88
369.541	262.88
369.767	250.88
369.993	241.88
370.219	260.88
370.445	264.88
370.672	247.88
370.898	249.88
371.124	257.88
371.35	270.88
371.576	275.88
371.802	255.88
372.028	259.88
372.254	264.88
372.48	261.88
372.706	270.88
372.932	265.88
373.158	275.88
373.384	270.88
373.61	257.88
373.835	268.88
374.061	273.88
374.287	266.88
374.513	277.88
374.739	278.88
374.965	279.88
375.191	289.88
375.416	281.88
375.642	277.88
375.868	281.88
376.094	274.88
376.319	261.88
376.545	267.88
376.771	255.88
376.997	250.88
377.222	262.88
377.448	269.88
377.674	264.88
377.899	249.88
378.125	263.88
378.35	280.88
378.576	249.88
378.802	261.88
379.027	249.88
379.253	266.88
379.478	277.88
379.704	253.88
379.929	261.88
380.155	280.88
380.38	254.88
380.606	262.88
380.831	272.88
381.057	253.88
381.282	259.88
381.507	251.88
381.733	285.88
381.958	273.88
382.184	273.88
382.409	273.88
382.634	284.88
382.86	278.88
383.085	283.88
383.31	265.88
383.535	294.88
383.761	302.88
383.986	273.88
384.211	296.88
384.436	294.88
384.662	308.88
384.887	288.88
385.112	290.88
385.337	301.88
385.562	310.88
385.787	302.88
386.013	326.88
386.238	321.88
386.463	303.88
386.688	312.88
386.913	324.88
387.138	303.88
387.363	320.88
387.588	315.88
387.813	305.88
388.038	294.88
388.263	310.88
388.488	319.88
388.713	326.88
388.938	314.88
389.163	317.88
389.387	297.88
389.612	304.88
389.837	298.88
390.062	305.88
390.287	293.88
390.512	317.88
390.736	308.88
390.961	310.88
391.186	315.88
391.411	333.88
391.636	333.88
391.86	359.88
392.085	344.88
392.31	329.88
392.534	320.88
392.759	342.88
392.984	324.88
393.208	325.88
393.433	326.88
393.658	320.88
393.882	324.88
394.107	329.88
394.331	341.88
394.556	308.88
394.78	338.88
395.005	344.88
395.229	328.88
395.454	330.88
395.678	344.88
395.903	340.88
396.127	327.88
396.352	337.88
396.576	326.88
396.801	326.88
397.025	338.88
397.249	334.88
397.474	356.88
397.698	354.88
397.922	335.88
398.147	334.88
398.371	352.88
398.595	352.88
398.82	368.88
399.044	384.88
399.268	446.88
399.492	464.88
399.717	522.88
399.941	484.88
400.165	463.88
400.389	414.88
400.613	402.88
400.837	402.88
401.062	362.88
401.286	388.88
401.51	378.88
401.734	380.88
401.958	385.88
402.182	383.88
402.406	386.88
402.63	397.88
402.854	374.88
403.078	379.88
403.302	411.88
403.526	424.88
403.75	405.88
403.974	428.88
404.198	414.88
404.422	417.88
404.645	421.88
404.869	406.88
405.093	403.88
405.317	401.88
405.541	406.88
405.765	410.88
405.988	421.88
406.212	415.88
406.436	409.88
406.66	412.88
406.883	415.88
407.107	438.88
407.331	451.88
407.555	474.88
407.778	456.88
408.002	454.88
408.226	437.88
408.449	437.88
408.673	447.88
408.896	396.88
409.12	414.88
409.344	426.88
409.567	403.88
409.791	418.88
410.014	407.88
410.238	408.88
410.461	411.88
410.685	394.88
410.908	390.88
411.132	395.88
411.355	391.88
411.578	405.88
411.802	399.88
412.025	408.88
412.249	426.88
412.472	395.88
412.695	380.88
412.919	368.88
413.142	384.88
413.365	392.88
413.589	386.88
413.812	373.88
414.035	378.88
414.258	396.88
414.482	400.88
414.705	399.88
414.928	390.88
415.151	384.88
415.374	386.88
415.597	369.88
415.821	388.88
416.044	385.88
416.267	382.88
416.49	381.88
416.713	362.88
416.936	374.88
417.159	360.88
417.382	376.88
417.605	377.88
417.828	392.88
418.051	390.88
418.274	377.88
418.497	370.88
418.72	402.88
418.943	389.88
419.166	402.88
419.389	397.88
419.611	406.88
419.834	395.88
420.057	376.88
420.28	399.88
420.503	369.88
420.726	378.88
420.948	382.88
421.171	392.88
421.394	394.88
421.617	375.88
421.839	392.88
422.062	396.88
422.285	381.88
422.507	378.88
422.73	373.88
422.953	380.88
423.175	367.88
423.398	400.88
423.621	396.88
423.843	378.88
424.066	402.88
424.288	394.88
424.511	378.88
424.733	396.88
424.956	396.88
425.178	376.88
425.401	385.88
425.623	389.88
425.846	388.88
426.068	384.88
426.291	391.88
426.513	372.88
426.735	354.88
426.958	371.88
427.18	365.88
427.402	361.88
427.625	361.88
427.847	344.88
428.069	360.88
428.292	372.88
428.514	350.88
428.736	372.88
428.958	358.88
429.181	350.88
429.403	359.88
429.625	378.88
429.847	357.88
430.069	356.88
430.292	351.88
430.514	346.88
430.736	348.88
430.958	360.88
431.18	348.88
431.402	353.88
431.624	349.88
431.846	344.88
432.068	342.88
432.29	361.88
432.512	373.88
432.734	356.88
432.956	366.88
433.178	364.88
433.4	362.88
433.622	384.88
433.844	376.88
434.066	359.88
434.287	370.88
434.509	358.88
434.731	367.88
434.953	378.88
435.175	380.88
435.397	389.88
435.618	372.88
435.84	378.88
436.062	359.88
436.284	342.88
436.505	369.88
436.727	372.88
436.949	365.88
437.17	360.88
437.392	351.88
437.614	373.88
437.835	349.88
438.057	353.88
438.278	360.88
438.5	341.88
438.721	350.88
438.943	366.88
439.165	343.88
439.386	376.88
439.608	363.88
439.829	369.88
440.05	375.88
440.272	374.88
440.493	367.88
440.715	373.88
440.936	380.88
441.158	376.88
441.379	409.88
441.6	400.88
441.822	387.88
442.043	386.88
442.264	367.88
442.486	389.88
442.707	402.88
442.928	403.88
443.149	394.88
443.371	383.88
443.592	401.88
443.813	394.88
444.034	399.88
444.255	424.88
444.476	416.88
444.698	428.88
444.919	453.88
445.14	536.88
445.361	465.88
445.582	409.88
445.803	395.88
446.024	384.88
446.245	389.88
446.466	381.88
446.687	372.88
446.908	363.88
447.129	378.88
447.35	376.88
447.571	361.88
447.792	347.88
448.013	366.88
448.234	339.88
448.455	353.88
448.675	340.88
448.896	334.88
449.117	362.88
449.338	348.88
449.559	336.88
449.779	352.88
450	343.88
450.221	344.88
450.442	357.88
450.662	334.88
450.883	344.88
451.104	337.88
451.324	340.88
451.545	338.88
451.766	318.88
451.986	322.88
452.207	351.88
452.428	342.88
452.648	332.88
452.869	330.88
453.089	325.88
453.31	346.88
453.53	331.88
453.751	325.88
453.971	324.88
454.192	322.88
454.412	323.88
454.633	322.88
454.853	329.88
455.073	324.88
455.294	323.88
455.514	309.88
455.734	298.88
455.955	303.88
456.175	319.88
456.395	318.88
456.616	317.88
456.836	330.88
457.056	312.88
457.276	305.88
457.497	320.88
457.717	303.88
457.937	320.88
458.157	310.88
458.377	317.88
458.598	328.88
458.818	332.88
459.038	336.88
459.258	349.88
459.478	351.88
459.698	365.88
459.918	367.88
460.138	374.88
460.358	404.88
460.578	402.88
460.798	384.88
461.018	399.88
461.238	400.88
461.458	399.88
461.678	399.88
461.898	409.88
462.118	416.88
462.338	448.88
462.558	445.88
462.777	438.88
462.997	469.88
463.217	506.88
463.437	481.88
463.657	484.88
463.876	464.88
464.096	446.88
464.316	462.88
464.536	458.88
464.755	433.88
464.975	415.88
465.195	398.88
465.414	398.88
465.634	362.88
465.854	376.88
466.073	372.88
466.293	360.88
466.512	374.88
466.732	357.88
466.951	354.88
467.171	357.88
467.391	342.88
467.61	335.88
467.829	349.88
468.049	361.88
468.268	346.88
468.488	352.88
468.707	369.88
468.927	333.88
469.146	338.88
469.365	341.88
469.585	325.88
469.804	353.88
470.023	364.88
470.243	338.88
470.462	363.88
470.681	355.88
470.901	361.88
471.12	355.88
471.339	360.88
471.558	352.88
471.777	360.88
471.997	369.88
472.216	352.88
472.435	334.88
472.654	334.88
472.873	335.88
473.092	343.88
473.311	338.88
473.53	340.88
473.749	329.88
473.968	346.88
474.187	311.88
474.406	328.88
474.625	328.88
474.844	343.88
475.063	341.88
475.282	351.88
475.501	331.88
475.72	327.88
475.939	326.88
476.158	343.88
476.377	345.88
476.596	355.88
476.814	346.88
477.033	326.88
477.252	347.88
477.471	363.88
477.69	351.88
477.908	357.88
478.127	377.88
478.346	380.88
478.564	363.88
478.783	382.88
479.002	390.88
479.22	377.88
479.439	392.88
479.658	364.88
479.876	384.88
480.095	384.88
480.313	383.88
480.532	404.88
480.751	408.88
480.969	398.88
481.188	396.88
481.406	388.88
481.624	365.88
481.843	359.88
482.061	361.88
482.28	377.88
482.498	376.88
482.717	344.88
482.935	345.88
483.153	363.88
483.372	366.88
483.59	372.88
483.808	358.88
484.027	365.88
484.245	348.88
484.463	373.88
484.681	375.88
484.9	357.88
485.118	381.88
485.336	365.88
485.554	372.88
485.772	381.88
485.99	368.88
486.209	383.88
486.427	367.88
486.645	358.88
486.863	368.88
487.081	374.88
487.299	365.88
487.517	372.88
487.735	408.88
487.953	384.88
488.171	383.88
488.389	381.88
488.607	365.88
488.825	364.88
489.043	355.88
489.261	378.88
489.479	379.88
489.696	370.88
489.914	382.88
490.132	385.88
490.35	367.88
490.568	384.88
490.786	394.88
491.003	371.88
491.221	390.88
491.439	386.88
491.657	384.88
491.874	398.88
492.092	376.88
492.31	402.88
492.527	389.88
492.745	394.88
492.963	380.88
493.18	410.88
493.398	399.88
493.615	382.88
493.833	392.88
494.05	386.88
494.268	394.88
494.485	401.88
494.703	418.88
494.92	401.88
495.138	402.88
495.355	393.88
495.573	415.88
495.79	392.88
496.008	416.88
496.225	412.88
496.442	416.88
496.66	422.88
496.877	409.88
497.094	433.88
497.312	430.88
497.529	445.88
497.746	452.88
497.963	432.88
498.181	474.88
498.398	471.88
498.615	494.88
498.832	544.88
499.049	570.88
499.267	585.88
499.484	623.88
499.701	700.88
499.918	751.88
500.135	820.88
500.352	886.88
500.569	925.88
500.786	906.88
501.003	839.88
501.22	792.88
501.437	717.88
501.654	662.88
501.871	622.88
