Data from Fe(NO3)3@0.1M.TitratingCurve.Agarose3%dH2O.NegLispCup.LampEnergy10.LIBS07252019_HRD10591_16-41-36-335.txt Node
Date: Thu Jul 25 16:41:36 EDT 2019
User: cochatt
Spectrometer: HR+D1059
Trigger mode: 1
Integration Time (sec): 1.000000E-1
Scans to average: 1
Electric dark correction enabled: true
Nonlinearity correction enabled: false
Boxcar width: 0
XAxis mode: Wavelengths
Number of Pixels in Spectrum: 2048
>>>>>Begin Spectral Data<<<<<
223.165	-21.75
223.4	-21.75
223.635	-21.75
223.869	-17.75
224.104	-17.75
224.338	-23.75
224.573	-5.75
224.808	-29.75
225.042	-12.75
225.277	0.25
225.511	-2.75
225.746	-10.75
225.98	10.25
226.215	10.25
226.449	36.25
226.683	34.25
226.918	27.25
227.152	24.25
227.387	33.25
227.621	37.25
227.856	53.25
228.09	47.25
228.324	47.25
228.559	64.25
228.793	66.25
229.027	75.25
229.262	78.25
229.496	76.25
229.73	74.25
229.964	106.25
230.199	90.25
230.433	86.25
230.667	104.25
230.901	103.25
231.136	102.25
231.37	98.25
231.604	106.25
231.838	111.25
232.072	102.25
232.306	103.25
232.541	104.25
232.775	90.25
233.009	117.25
233.243	115.25
233.477	106.25
233.711	100.25
233.945	101.25
234.179	99.25
234.413	107.25
234.647	115.25
234.881	102.25
235.115	109.25
235.349	107.25
235.583	96.25
235.817	92.25
236.051	111.25
236.285	83.25
236.519	98.25
236.753	92.25
236.987	103.25
237.221	110.25
237.455	86.25
237.689	87.25
237.922	105.25
238.156	110.25
238.39	104.25
238.624	116.25
238.858	112.25
239.091	114.25
239.325	111.25
239.559	103.25
239.793	115.25
240.027	128.25
240.26	118.25
240.494	112.25
240.728	113.25
240.961	116.25
241.195	112.25
241.429	124.25
241.662	104.25
241.896	106.25
242.13	109.25
242.363	119.25
242.597	114.25
242.83	112.25
243.064	103.25
243.298	115.25
243.531	106.25
243.765	114.25
243.998	116.25
244.232	116.25
244.465	120.25
244.699	109.25
244.932	128.25
245.166	113.25
245.399	112.25
245.633	130.25
245.866	124.25
246.099	129.25
246.333	112.25
246.566	112.25
246.8	135.25
247.033	105.25
247.266	134.25
247.5	118.25
247.733	141.25
247.966	127.25
248.2	142.25
248.433	123.25
248.666	126.25
248.899	128.25
249.133	148.25
249.366	123.25
249.599	126.25
249.832	136.25
250.066	126.25
250.299	118.25
250.532	140.25
250.765	121.25
250.998	133.25
251.231	126.25
251.465	128.25
251.698	135.25
251.931	138.25
252.164	139.25
252.397	154.25
252.63	132.25
252.863	136.25
253.096	136.25
253.329	139.25
253.562	137.25
253.795	135.25
254.028	142.25
254.261	154.25
254.494	136.25
254.727	134.25
254.96	123.25
255.193	122.25
255.426	127.25
255.659	137.25
255.892	144.25
256.124	152.25
256.357	140.25
256.59	150.25
256.823	136.25
257.056	140.25
257.289	148.25
257.521	134.25
257.754	141.25
257.987	144.25
258.22	146.25
258.452	146.25
258.685	131.25
258.918	147.25
259.151	151.25
259.383	150.25
259.616	148.25
259.849	149.25
260.081	147.25
260.314	147.25
260.547	160.25
260.779	149.25
261.012	144.25
261.244	156.25
261.477	155.25
261.71	152.25
261.942	165.25
262.175	157.25
262.407	159.25
262.64	158.25
262.872	145.25
263.105	151.25
263.337	166.25
263.57	150.25
263.802	160.25
264.035	148.25
264.267	146.25
264.499	168.25
264.732	155.25
264.964	166.25
265.197	164.25
265.429	171.25
265.661	169.25
265.894	162.25
266.126	165.25
266.358	165.25
266.591	164.25
266.823	154.25
267.055	163.25
267.287	148.25
267.52	175.25
267.752	170.25
267.984	171.25
268.216	172.25
268.448	170.25
268.681	162.25
268.913	158.25
269.145	165.25
269.377	155.25
269.609	172.25
269.841	168.25
270.073	175.25
270.306	175.25
270.538	180.25
270.77	170.25
271.002	164.25
271.234	165.25
271.466	179.25
271.698	165.25
271.93	164.25
272.162	183.25
272.394	166.25
272.626	165.25
272.858	175.25
273.09	191.25
273.322	171.25
273.553	161.25
273.785	175.25
274.017	181.25
274.249	171.25
274.481	185.25
274.713	164.25
274.945	175.25
275.176	185.25
275.408	175.25
275.64	182.25
275.872	184.25
276.104	175.25
276.335	174.25
276.567	186.25
276.799	182.25
277.031	197.25
277.262	204.25
277.494	194.25
277.726	177.25
277.957	177.25
278.189	195.25
278.421	184.25
278.652	196.25
278.884	204.25
279.115	193.25
279.347	200.25
279.579	180.25
279.81	187.25
280.042	195.25
280.273	184.25
280.505	203.25
280.736	206.25
280.968	199.25
281.199	198.25
281.431	200.25
281.662	196.25
281.894	189.25
282.125	204.25
282.356	192.25
282.588	185.25
282.819	186.25
283.051	195.25
283.282	193.25
283.513	195.25
283.745	214.25
283.976	199.25
284.207	210.25
284.439	217.25
284.67	212.25
284.901	204.25
285.132	206.25
285.364	202.25
285.595	209.25
285.826	219.25
286.057	220.25
286.288	225.25
286.52	226.25
286.751	207.25
286.982	207.25
287.213	192.25
287.444	222.25
287.675	247.25
287.906	214.25
288.138	216.25
288.369	213.25
288.6	220.25
288.831	211.25
289.062	214.25
289.293	234.25
289.524	210.25
289.755	226.25
289.986	207.25
290.217	212.25
290.448	219.25
290.679	212.25
290.91	215.25
291.141	207.25
291.371	215.25
291.602	214.25
291.833	214.25
292.064	208.25
292.295	221.25
292.526	224.25
292.757	218.25
292.987	216.25
293.218	213.25
293.449	222.25
293.68	221.25
293.91	213.25
294.141	210.25
294.372	219.25
294.603	208.25
294.833	234.25
295.064	229.25
295.295	226.25
295.525	233.25
295.756	232.25
295.987	230.25
296.217	216.25
296.448	220.25
296.679	238.25
296.909	226.25
297.14	221.25
297.37	243.25
297.601	237.25
297.831	238.25
298.062	222.25
298.292	231.25
298.523	252.25
298.753	239.25
298.984	225.25
299.214	239.25
299.445	236.25
299.675	243.25
299.905	242.25
300.136	222.25
300.366	238.25
300.597	228.25
300.827	231.25
301.057	247.25
301.288	243.25
301.518	230.25
301.748	258.25
301.979	263.25
302.209	256.25
302.439	261.25
302.669	241.25
302.9	255.25
303.13	230.25
303.36	234.25
303.59	235.25
303.82	242.25
304.051	246.25
304.281	232.25
304.511	250.25
304.741	258.25
304.971	243.25
305.201	239.25
305.431	247.25
305.661	248.25
305.891	250.25
306.121	256.25
306.352	238.25
306.582	268.25
306.812	230.25
307.042	258.25
307.272	243.25
307.502	238.25
307.731	252.25
307.961	239.25
308.191	244.25
308.421	248.25
308.651	258.25
308.881	247.25
309.111	242.25
309.341	230.25
309.571	244.25
309.8	258.25
310.03	239.25
310.26	242.25
310.49	239.25
310.72	247.25
310.949	250.25
311.179	247.25
311.409	260.25
311.639	242.25
311.868	267.25
312.098	239.25
312.328	249.25
312.557	256.25
312.787	247.25
313.017	237.25
313.246	258.25
313.476	260.25
313.706	259.25
313.935	232.25
314.165	261.25
314.394	265.25
314.624	261.25
314.853	238.25
315.083	261.25
315.312	266.25
315.542	271.25
315.771	259.25
316.001	252.25
316.23	265.25
316.46	259.25
316.689	255.25
316.919	252.25
317.148	254.25
317.377	264.25
317.607	251.25
317.836	251.25
318.065	265.25
318.295	262.25
318.524	245.25
318.753	259.25
318.983	249.25
319.212	258.25
319.441	259.25
319.67	263.25
319.9	274.25
320.129	257.25
320.358	259.25
320.587	264.25
320.816	259.25
321.046	271.25
321.275	272.25
321.504	260.25
321.733	282.25
321.962	266.25
322.191	268.25
322.42	272.25
322.649	263.25
322.878	253.25
323.108	251.25
323.337	275.25
323.566	276.25
323.795	272.25
324.024	273.25
324.253	249.25
324.482	281.25
324.71	271.25
324.939	272.25
325.168	270.25
325.397	267.25
325.626	286.25
325.855	278.25
326.084	269.25
326.313	284.25
326.542	284.25
326.77	276.25
326.999	270.25
327.228	264.25
327.457	275.25
327.686	292.25
327.914	280.25
328.143	282.25
328.372	277.25
328.6	283.25
328.829	291.25
329.058	295.25
329.287	293.25
329.515	291.25
329.744	266.25
329.972	292.25
330.201	284.25
330.43	283.25
330.658	297.25
330.887	285.25
331.115	280.25
331.344	325.25
331.572	294.25
331.801	300.25
332.03	289.25
332.258	322.25
332.486	314.25
332.715	310.25
332.943	338.25
333.172	340.25
333.4	345.25
333.629	359.25
333.857	345.25
334.085	346.25
334.314	344.25
334.542	354.25
334.771	350.25
334.999	346.25
335.227	354.25
335.455	372.25
335.684	336.25
335.912	335.25
336.14	326.25
336.369	331.25
336.597	344.25
336.825	319.25
337.053	319.25
337.281	327.25
337.51	327.25
337.738	326.25
337.966	318.25
338.194	300.25
338.422	283.25
338.65	318.25
338.878	299.25
339.106	297.25
339.334	327.25
339.562	292.25
339.79	278.25
340.018	301.25
340.246	289.25
340.474	301.25
340.702	285.25
340.93	310.25
341.158	312.25
341.386	293.25
341.614	290.25
341.842	299.25
342.07	282.25
342.298	295.25
342.526	290.25
342.754	295.25
342.981	302.25
343.209	291.25
343.437	310.25
343.665	331.25
343.893	346.25
344.12	333.25
344.348	359.25
344.576	315.25
344.804	318.25
345.031	298.25
345.259	309.25
345.487	302.25
345.714	304.25
345.942	309.25
346.17	309.25
346.397	290.25
346.625	288.25
346.853	286.25
347.08	286.25
347.308	275.25
347.535	281.25
347.763	315.25
347.99	298.25
348.218	284.25
348.445	289.25
348.673	282.25
348.9	286.25
349.128	287.25
349.355	275.25
349.583	286.25
349.81	291.25
350.037	262.25
350.265	282.25
350.492	283.25
350.72	279.25
350.947	298.25
351.174	273.25
351.402	283.25
351.629	300.25
351.856	284.25
352.083	279.25
352.311	267.25
352.538	262.25
352.765	285.25
352.992	266.25
353.22	279.25
353.447	294.25
353.674	286.25
353.901	291.25
354.128	277.25
354.355	242.25
354.583	299.25
354.81	285.25
355.037	272.25
355.264	279.25
355.491	264.25
355.718	286.25
355.945	303.25
356.172	280.25
356.399	272.25
356.626	279.25
356.853	276.25
357.08	280.25
357.307	285.25
357.534	290.25
357.761	283.25
357.988	284.25
358.215	295.25
358.441	298.25
358.668	295.25
358.895	279.25
359.122	301.25
359.349	267.25
359.576	284.25
359.802	277.25
360.029	289.25
360.256	280.25
360.483	267.25
360.709	296.25
360.936	271.25
361.163	278.25
361.39	274.25
361.616	290.25
361.843	279.25
362.07	276.25
362.296	295.25
362.523	297.25
362.749	304.25
362.976	272.25
363.203	272.25
363.429	291.25
363.656	272.25
363.882	287.25
364.109	273.25
364.335	272.25
364.562	284.25
364.788	292.25
365.015	268.25
365.241	302.25
365.468	289.25
365.694	287.25
365.92	277.25
366.147	276.25
366.373	275.25
366.599	300.25
366.826	271.25
367.052	271.25
367.278	285.25
367.505	300.25
367.731	304.25
367.957	276.25
368.184	279.25
368.41	288.25
368.636	282.25
368.862	291.25
369.089	306.25
369.315	308.25
369.541	279.25
369.767	315.25
369.993	298.25
370.219	304.25
370.445	285.25
370.672	303.25
370.898	294.25
371.124	310.25
371.35	313.25
371.576	314.25
371.802	318.25
372.028	301.25
372.254	322.25
372.48	298.25
372.706	304.25
372.932	325.25
373.158	320.25
373.384	318.25
373.61	290.25
373.835	329.25
374.061	302.25
374.287	318.25
374.513	312.25
374.739	307.25
374.965	327.25
375.191	328.25
375.416	318.25
375.642	312.25
375.868	330.25
376.094	329.25
376.319	318.25
376.545	316.25
376.771	314.25
376.997	316.25
377.222	298.25
377.448	308.25
377.674	322.25
377.899	302.25
378.125	314.25
378.35	308.25
378.576	301.25
378.802	316.25
379.027	303.25
379.253	314.25
379.478	293.25
379.704	296.25
379.929	311.25
380.155	320.25
380.38	330.25
380.606	302.25
380.831	291.25
381.057	328.25
381.282	332.25
381.507	307.25
381.733	314.25
381.958	317.25
382.184	316.25
382.409	334.25
382.634	309.25
382.86	322.25
383.085	318.25
383.31	339.25
383.535	350.25
383.761	341.25
383.986	337.25
384.211	352.25
384.436	347.25
384.662	370.25
384.887	345.25
385.112	343.25
385.337	361.25
385.562	376.25
385.787	376.25
386.013	385.25
386.238	354.25
386.463	350.25
386.688	354.25
386.913	380.25
387.138	365.25
387.363	375.25
387.588	375.25
387.813	353.25
388.038	363.25
388.263	359.25
388.488	351.25
388.713	351.25
388.938	360.25
389.163	348.25
389.387	367.25
389.612	351.25
389.837	358.25
390.062	362.25
390.287	350.25
390.512	366.25
390.736	373.25
390.961	384.25
391.186	366.25
391.411	383.25
391.636	382.25
391.86	406.25
392.085	387.25
392.31	384.25
392.534	382.25
392.759	389.25
392.984	394.25
393.208	360.25
393.433	385.25
393.658	372.25
393.882	379.25
394.107	389.25
394.331	398.25
394.556	374.25
394.78	367.25
395.005	382.25
395.229	384.25
395.454	394.25
395.678	409.25
395.903	403.25
396.127	392.25
396.352	396.25
396.576	385.25
396.801	375.25
397.025	375.25
397.249	392.25
397.474	401.25
397.698	414.25
397.922	400.25
398.147	404.25
398.371	403.25
398.595	414.25
398.82	431.25
399.044	459.25
399.268	482.25
399.492	576.25
399.717	606.25
399.941	585.25
400.165	536.25
400.389	503.25
400.613	472.25
400.837	458.25
401.062	452.25
401.286	452.25
401.51	448.25
401.734	435.25
401.958	449.25
402.182	454.25
402.406	444.25
402.63	464.25
402.854	455.25
403.078	471.25
403.302	471.25
403.526	486.25
403.75	480.25
403.974	500.25
404.198	477.25
404.422	501.25
404.645	514.25
404.869	466.25
405.093	518.25
405.317	490.25
405.541	480.25
405.765	486.25
405.988	472.25
406.212	499.25
406.436	476.25
406.66	490.25
406.883	515.25
407.107	522.25
407.331	507.25
407.555	524.25
407.778	540.25
408.002	530.25
408.226	519.25
408.449	514.25
408.673	514.25
408.896	502.25
409.12	491.25
409.344	493.25
409.567	488.25
409.791	504.25
410.014	499.25
410.238	478.25
410.461	494.25
410.685	476.25
410.908	463.25
411.132	484.25
411.355	468.25
411.578	474.25
411.802	469.25
412.025	460.25
412.249	448.25
412.472	443.25
412.695	451.25
412.919	440.25
413.142	452.25
413.365	454.25
413.589	437.25
413.812	452.25
414.035	449.25
414.258	436.25
414.482	451.25
414.705	456.25
414.928	459.25
415.151	445.25
415.374	474.25
415.597	438.25
415.821	445.25
416.044	438.25
416.267	459.25
416.49	438.25
416.713	426.25
416.936	434.25
417.159	428.25
417.382	452.25
417.605	454.25
417.828	428.25
418.051	434.25
418.274	458.25
418.497	455.25
418.72	446.25
418.943	440.25
419.166	479.25
419.389	496.25
419.611	485.25
419.834	450.25
420.057	455.25
420.28	458.25
420.503	445.25
420.726	448.25
420.948	432.25
421.171	452.25
421.394	452.25
421.617	440.25
421.839	450.25
422.062	423.25
422.285	441.25
422.507	445.25
422.73	461.25
422.953	451.25
423.175	452.25
423.398	460.25
423.621	455.25
423.843	456.25
424.066	471.25
424.288	474.25
424.511	462.25
424.733	444.25
424.956	414.25
425.178	455.25
425.401	445.25
425.623	445.25
425.846	421.25
426.068	435.25
426.291	434.25
426.513	420.25
426.735	440.25
426.958	443.25
427.18	409.25
427.402	427.25
427.625	437.25
427.847	416.25
428.069	408.25
428.292	406.25
428.514	407.25
428.736	415.25
428.958	391.25
429.181	412.25
429.403	391.25
429.625	405.25
429.847	386.25
430.069	393.25
430.292	406.25
430.514	392.25
430.736	401.25
430.958	399.25
431.18	364.25
431.402	399.25
431.624	398.25
431.846	399.25
432.068	420.25
432.29	407.25
432.512	389.25
432.734	409.25
432.956	410.25
433.178	410.25
433.4	427.25
433.622	415.25
433.844	431.25
434.066	408.25
434.287	410.25
434.509	443.25
434.731	427.25
434.953	444.25
435.175	425.25
435.397	434.25
435.618	435.25
435.84	409.25
436.062	413.25
436.284	438.25
436.505	416.25
436.727	416.25
436.949	417.25
437.17	415.25
437.392	410.25
437.614	413.25
437.835	400.25
438.057	388.25
438.278	400.25
438.5	381.25
438.721	411.25
438.943	386.25
439.165	418.25
439.386	411.25
439.608	424.25
439.829	415.25
440.05	426.25
440.272	431.25
440.493	408.25
440.715	430.25
440.936	428.25
441.158	439.25
441.379	461.25
441.6	479.25
441.822	451.25
442.043	450.25
442.264	442.25
442.486	451.25
442.707	438.25
442.928	463.25
443.149	458.25
443.371	448.25
443.592	464.25
443.813	466.25
444.034	471.25
444.255	472.25
444.476	484.25
444.698	505.25
444.919	519.25
445.14	599.25
445.361	538.25
445.582	486.25
445.803	441.25
446.024	443.25
446.245	443.25
446.466	420.25
446.687	421.25
446.908	412.25
447.129	407.25
447.35	426.25
447.571	410.25
447.792	426.25
448.013	406.25
448.234	407.25
448.455	393.25
448.675	394.25
448.896	376.25
449.117	406.25
449.338	379.25
449.559	379.25
449.779	375.25
450	387.25
450.221	397.25
450.442	402.25
450.662	396.25
450.883	386.25
451.104	409.25
451.324	398.25
451.545	385.25
451.766	428.25
451.986	378.25
452.207	390.25
452.428	387.25
452.648	385.25
452.869	378.25
453.089	365.25
453.31	374.25
453.53	370.25
453.751	392.25
453.971	379.25
454.192	366.25
454.412	369.25
454.633	347.25
454.853	370.25
455.073	396.25
455.294	350.25
455.514	356.25
455.734	351.25
455.955	346.25
456.175	343.25
456.395	373.25
456.616	367.25
456.836	361.25
457.056	361.25
457.276	356.25
457.497	371.25
457.717	349.25
457.937	371.25
458.157	376.25
458.377	375.25
458.598	379.25
458.818	379.25
459.038	389.25
459.258	406.25
459.478	404.25
459.698	427.25
459.918	430.25
460.138	434.25
460.358	477.25
460.578	471.25
460.798	483.25
461.018	461.25
461.238	471.25
461.458	463.25
461.678	472.25
461.898	475.25
462.118	484.25
462.338	501.25
462.558	508.25
462.777	528.25
462.997	566.25
463.217	609.25
463.437	588.25
463.657	544.25
463.876	520.25
464.096	535.25
464.316	522.25
464.536	535.25
464.755	502.25
464.975	496.25
465.195	482.25
465.414	457.25
465.634	439.25
465.854	443.25
466.073	420.25
466.293	394.25
466.512	418.25
466.732	411.25
466.951	384.25
467.171	391.25
467.391	400.25
467.61	395.25
467.829	383.25
468.049	382.25
468.268	388.25
468.488	388.25
468.707	380.25
468.927	391.25
469.146	381.25
469.365	410.25
469.585	397.25
469.804	401.25
470.023	411.25
470.243	410.25
470.462	399.25
470.681	402.25
470.901	408.25
471.12	413.25
471.339	391.25
471.558	413.25
471.777	400.25
471.997	393.25
472.216	388.25
472.435	377.25
472.654	376.25
472.873	383.25
473.092	376.25
473.311	370.25
473.53	370.25
473.749	379.25
473.968	373.25
474.187	370.25
474.406	378.25
474.625	388.25
474.844	378.25
475.063	388.25
475.282	386.25
475.501	395.25
475.72	382.25
475.939	379.25
476.158	386.25
476.377	399.25
476.596	373.25
476.814	386.25
477.033	383.25
477.252	394.25
477.471	393.25
477.69	407.25
477.908	408.25
478.127	420.25
478.346	431.25
478.564	450.25
478.783	443.25
479.002	456.25
479.22	450.25
479.439	441.25
479.658	437.25
479.876	454.25
480.095	439.25
480.313	458.25
480.532	464.25
480.751	455.25
480.969	473.25
481.188	418.25
481.406	425.25
481.624	423.25
481.843	422.25
482.061	414.25
482.28	409.25
482.498	419.25
482.717	395.25
482.935	412.25
483.153	430.25
483.372	418.25
483.59	404.25
483.808	415.25
484.027	399.25
484.245	415.25
484.463	424.25
484.681	408.25
484.9	422.25
485.118	415.25
485.336	418.25
485.554	440.25
485.772	435.25
485.99	425.25
486.209	412.25
486.427	447.25
486.645	431.25
486.863	443.25
487.081	445.25
487.299	426.25
487.517	418.25
487.735	439.25
487.953	405.25
488.171	424.25
488.389	416.25
488.607	416.25
488.825	403.25
489.043	412.25
489.261	421.25
489.479	442.25
489.696	418.25
489.914	428.25
490.132	451.25
490.35	436.25
490.568	444.25
490.786	433.25
491.003	430.25
491.221	440.25
491.439	454.25
491.657	446.25
491.874	452.25
492.092	460.25
492.31	448.25
492.527	447.25
492.745	436.25
492.963	440.25
493.18	465.25
493.398	456.25
493.615	459.25
493.833	457.25
494.05	452.25
494.268	444.25
494.485	458.25
494.703	472.25
494.92	471.25
495.138	458.25
495.355	454.25
495.573	443.25
495.79	470.25
496.008	454.25
496.225	472.25
496.442	460.25
496.66	480.25
496.877	498.25
497.094	489.25
497.312	491.25
497.529	478.25
497.746	520.25
497.963	516.25
498.181	540.25
498.398	566.25
498.615	578.25
498.832	618.25
499.049	644.25
499.267	708.25
499.484	736.25
499.701	825.25
499.918	924.25
500.135	1007.25
500.352	1099.25
500.569	1176.25
500.786	1114.25
501.003	1050.25
501.22	945.25
501.437	834.25
501.654	755.25
