Data from Fe(NO3)3@0.025M.TitratingCurve.Agarose3%dH2O.NegLispCup.LampEnergy10.LIBS07252019_HRD10591_16-53-48-335.txt Node
Date: Thu Jul 25 16:53:48 EDT 2019
User: cochatt
Spectrometer: HR+D1059
Trigger mode: 1
Integration Time (sec): 1.000000E-1
Scans to average: 1
Electric dark correction enabled: true
Nonlinearity correction enabled: false
Boxcar width: 0
XAxis mode: Wavelengths
Number of Pixels in Spectrum: 2048
>>>>>Begin Spectral Data<<<<<
223.165	-16.62
223.4	-16.62
223.635	-16.62
223.869	-24.62
224.104	-30.62
224.338	-27.62
224.573	-5.62
224.808	-8.62
225.042	-7.62
225.277	-5.62
225.511	-1.62
225.746	9.38
225.98	4.38
226.215	7.38
226.449	31.38
226.683	21.38
226.918	28.38
227.152	26.38
227.387	23.38
227.621	27.38
227.856	39.38
228.09	35.38
228.324	36.38
228.559	47.38
228.793	59.38
229.027	89.38
229.262	79.38
229.496	77.38
229.73	86.38
229.964	68.38
230.199	89.38
230.433	91.38
230.667	95.38
230.901	88.38
231.136	83.38
231.37	112.38
231.604	95.38
231.838	110.38
232.072	92.38
232.306	94.38
232.541	79.38
232.775	94.38
233.009	104.38
233.243	112.38
233.477	112.38
233.711	113.38
233.945	116.38
234.179	102.38
234.413	110.38
234.647	91.38
234.881	97.38
235.115	111.38
235.349	104.38
235.583	112.38
235.817	89.38
236.051	100.38
236.285	106.38
236.519	96.38
236.753	84.38
236.987	98.38
237.221	110.38
237.455	107.38
237.689	101.38
237.922	126.38
238.156	102.38
238.39	103.38
238.624	95.38
238.858	124.38
239.091	114.38
239.325	113.38
239.559	102.38
239.793	101.38
240.027	111.38
240.26	119.38
240.494	98.38
240.728	126.38
240.961	102.38
241.195	104.38
241.429	107.38
241.662	128.38
241.896	114.38
242.13	114.38
242.363	110.38
242.597	100.38
242.83	122.38
243.064	108.38
243.298	123.38
243.531	112.38
243.765	118.38
243.998	145.38
244.232	127.38
244.465	118.38
244.699	132.38
244.932	130.38
245.166	120.38
245.399	126.38
245.633	116.38
245.866	129.38
246.099	124.38
246.333	135.38
246.566	132.38
246.8	132.38
247.033	131.38
247.266	134.38
247.5	135.38
247.733	136.38
247.966	136.38
248.2	123.38
248.433	131.38
248.666	127.38
248.899	146.38
249.133	145.38
249.366	139.38
249.599	128.38
249.832	149.38
250.066	143.38
250.299	132.38
250.532	131.38
250.765	138.38
250.998	123.38
251.231	131.38
251.465	154.38
251.698	139.38
251.931	128.38
252.164	134.38
252.397	152.38
252.63	151.38
252.863	138.38
253.096	132.38
253.329	148.38
253.562	128.38
253.795	161.38
254.028	160.38
254.261	159.38
254.494	153.38
254.727	147.38
254.96	160.38
255.193	134.38
255.426	154.38
255.659	150.38
255.892	148.38
256.124	167.38
256.357	168.38
256.59	147.38
256.823	133.38
257.056	158.38
257.289	149.38
257.521	156.38
257.754	154.38
257.987	140.38
258.22	160.38
258.452	162.38
258.685	147.38
258.918	165.38
259.151	168.38
259.383	153.38
259.616	161.38
259.849	156.38
260.081	170.38
260.314	187.38
260.547	164.38
260.779	178.38
261.012	169.38
261.244	167.38
261.477	171.38
261.71	186.38
261.942	180.38
262.175	157.38
262.407	167.38
262.64	165.38
262.872	178.38
263.105	161.38
263.337	178.38
263.57	154.38
263.802	161.38
264.035	185.38
264.267	159.38
264.499	178.38
264.732	173.38
264.964	182.38
265.197	168.38
265.429	171.38
265.661	185.38
265.894	188.38
266.126	176.38
266.358	180.38
266.591	191.38
266.823	191.38
267.055	185.38
267.287	182.38
267.52	192.38
267.752	186.38
267.984	186.38
268.216	177.38
268.448	194.38
268.681	190.38
268.913	188.38
269.145	200.38
269.377	203.38
269.609	185.38
269.841	188.38
270.073	182.38
270.306	190.38
270.538	193.38
270.77	185.38
271.002	193.38
271.234	184.38
271.466	187.38
271.698	194.38
271.93	199.38
272.162	204.38
272.394	212.38
272.626	198.38
272.858	216.38
273.09	201.38
273.322	200.38
273.553	197.38
273.785	207.38
274.017	198.38
274.249	213.38
274.481	212.38
274.713	213.38
274.945	218.38
275.176	222.38
275.408	218.38
275.64	219.38
275.872	204.38
276.104	218.38
276.335	217.38
276.567	198.38
276.799	210.38
277.031	210.38
277.262	204.38
277.494	217.38
277.726	209.38
277.957	205.38
278.189	217.38
278.421	216.38
278.652	223.38
278.884	207.38
279.115	219.38
279.347	219.38
279.579	219.38
279.81	212.38
280.042	215.38
280.273	223.38
280.505	218.38
280.736	217.38
280.968	230.38
281.199	222.38
281.431	217.38
281.662	223.38
281.894	227.38
282.125	224.38
282.356	232.38
282.588	210.38
282.819	232.38
283.051	238.38
283.282	228.38
283.513	231.38
283.745	225.38
283.976	228.38
284.207	238.38
284.439	236.38
284.67	232.38
284.901	225.38
285.132	231.38
285.364	230.38
285.595	243.38
285.826	236.38
286.057	257.38
286.288	256.38
286.52	240.38
286.751	260.38
286.982	242.38
287.213	238.38
287.444	232.38
287.675	240.38
287.906	234.38
288.138	249.38
288.369	252.38
288.6	243.38
288.831	252.38
289.062	259.38
289.293	239.38
289.524	243.38
289.755	244.38
289.986	259.38
290.217	235.38
290.448	238.38
290.679	244.38
290.91	242.38
291.141	259.38
291.371	257.38
291.602	252.38
291.833	241.38
292.064	259.38
292.295	240.38
292.526	242.38
292.757	241.38
292.987	253.38
293.218	249.38
293.449	239.38
293.68	270.38
293.91	245.38
294.141	250.38
294.372	268.38
294.603	250.38
294.833	261.38
295.064	251.38
295.295	250.38
295.525	251.38
295.756	278.38
295.987	227.38
296.217	270.38
296.448	258.38
296.679	260.38
296.909	277.38
297.14	264.38
297.37	265.38
297.601	264.38
297.831	246.38
298.062	266.38
298.292	248.38
298.523	263.38
298.753	275.38
298.984	279.38
299.214	270.38
299.445	264.38
299.675	254.38
299.905	280.38
300.136	266.38
300.366	265.38
300.597	282.38
300.827	288.38
301.057	281.38
301.288	282.38
301.518	265.38
301.748	286.38
301.979	274.38
302.209	280.38
302.439	295.38
302.669	289.38
302.9	280.38
303.13	303.38
303.36	291.38
303.59	284.38
303.82	283.38
304.051	297.38
304.281	307.38
304.511	281.38
304.741	288.38
304.971	300.38
305.201	287.38
305.431	288.38
305.661	307.38
305.891	281.38
306.121	294.38
306.352	283.38
306.582	294.38
306.812	295.38
307.042	302.38
307.272	311.38
307.502	288.38
307.731	308.38
307.961	294.38
308.191	292.38
308.421	297.38
308.651	290.38
308.881	285.38
309.111	292.38
309.341	314.38
309.571	291.38
309.8	300.38
310.03	283.38
310.26	301.38
310.49	287.38
310.72	310.38
310.949	285.38
311.179	274.38
311.409	295.38
311.639	297.38
311.868	296.38
312.098	296.38
312.328	310.38
312.557	313.38
312.787	303.38
313.017	302.38
313.246	310.38
313.476	300.38
313.706	298.38
313.935	317.38
314.165	304.38
314.394	307.38
314.624	321.38
314.853	327.38
315.083	316.38
315.312	328.38
315.542	314.38
315.771	306.38
316.001	319.38
316.23	312.38
316.46	315.38
316.689	314.38
316.919	308.38
317.148	313.38
317.377	311.38
317.607	327.38
317.836	317.38
318.065	317.38
318.295	311.38
318.524	319.38
318.753	331.38
318.983	330.38
319.212	315.38
319.441	318.38
319.67	324.38
319.9	335.38
320.129	341.38
320.358	327.38
320.587	329.38
320.816	324.38
321.046	317.38
321.275	323.38
321.504	313.38
321.733	318.38
321.962	332.38
322.191	328.38
322.42	324.38
322.649	325.38
322.878	332.38
323.108	311.38
323.337	334.38
323.566	331.38
323.795	344.38
324.024	322.38
324.253	305.38
324.482	351.38
324.71	344.38
324.939	341.38
325.168	332.38
325.397	331.38
325.626	352.38
325.855	359.38
326.084	336.38
326.313	338.38
326.542	344.38
326.77	342.38
326.999	369.38
327.228	363.38
327.457	353.38
327.686	379.38
327.914	347.38
328.143	354.38
328.372	363.38
328.6	356.38
328.829	349.38
329.058	360.38
329.287	345.38
329.515	361.38
329.744	360.38
329.972	342.38
330.201	353.38
330.43	367.38
330.658	373.38
330.887	375.38
331.115	354.38
331.344	362.38
331.572	342.38
331.801	344.38
332.03	371.38
332.258	358.38
332.486	359.38
332.715	361.38
332.943	374.38
333.172	369.38
333.4	383.38
333.629	380.38
333.857	407.38
334.085	393.38
334.314	418.38
334.542	385.38
334.771	388.38
334.999	376.38
335.227	371.38
335.455	395.38
335.684	390.38
335.912	384.38
336.14	404.38
336.369	402.38
336.597	389.38
336.825	382.38
337.053	396.38
337.281	404.38
337.51	380.38
337.738	392.38
337.966	385.38
338.194	416.38
338.422	396.38
338.65	377.38
338.878	373.38
339.106	369.38
339.334	388.38
339.562	377.38
339.79	374.38
340.018	373.38
340.246	359.38
340.474	364.38
340.702	375.38
340.93	382.38
341.158	382.38
341.386	381.38
341.614	395.38
341.842	373.38
342.07	396.38
342.298	391.38
342.526	369.38
342.754	380.38
342.981	372.38
343.209	379.38
343.437	366.38
343.665	391.38
343.893	396.38
344.12	411.38
344.348	386.38
344.576	390.38
344.804	387.38
345.031	378.38
345.259	376.38
345.487	383.38
345.714	372.38
345.942	371.38
346.17	383.38
346.397	371.38
346.625	362.38
346.853	353.38
347.08	382.38
347.308	368.38
347.535	369.38
347.763	382.38
347.99	366.38
348.218	353.38
348.445	366.38
348.673	374.38
348.9	353.38
349.128	370.38
349.355	371.38
349.583	352.38
349.81	366.38
350.037	370.38
350.265	393.38
350.492	351.38
350.72	359.38
350.947	365.38
351.174	376.38
351.402	352.38
351.629	346.38
351.856	360.38
352.083	382.38
352.311	363.38
352.538	357.38
352.765	358.38
352.992	349.38
353.22	370.38
353.447	352.38
353.674	376.38
353.901	354.38
354.128	371.38
354.355	337.38
354.583	362.38
354.81	370.38
355.037	370.38
355.264	389.38
355.491	367.38
355.718	371.38
355.945	350.38
356.172	374.38
356.399	340.38
356.626	372.38
356.853	378.38
357.08	367.38
357.307	377.38
357.534	367.38
357.761	361.38
357.988	358.38
358.215	374.38
358.441	367.38
358.668	356.38
358.895	350.38
359.122	368.38
359.349	373.38
359.576	353.38
359.802	353.38
360.029	335.38
360.256	359.38
360.483	368.38
360.709	379.38
360.936	387.38
361.163	368.38
361.39	353.38
361.616	370.38
361.843	375.38
362.07	372.38
362.296	371.38
362.523	367.38
362.749	373.38
362.976	376.38
363.203	374.38
363.429	377.38
363.656	391.38
363.882	364.38
364.109	364.38
364.335	364.38
364.562	376.38
364.788	392.38
365.015	367.38
365.241	376.38
365.468	376.38
365.694	386.38
365.92	380.38
366.147	382.38
366.373	386.38
366.599	373.38
366.826	376.38
367.052	366.38
367.278	379.38
367.505	378.38
367.731	395.38
367.957	383.38
368.184	367.38
368.41	375.38
368.636	380.38
368.862	378.38
369.089	399.38
369.315	372.38
369.541	377.38
369.767	376.38
369.993	407.38
370.219	367.38
370.445	400.38
370.672	391.38
370.898	386.38
371.124	366.38
371.35	400.38
371.576	418.38
371.802	412.38
372.028	398.38
372.254	402.38
372.48	397.38
372.706	399.38
372.932	396.38
373.158	402.38
373.384	403.38
373.61	395.38
373.835	422.38
374.061	405.38
374.287	394.38
374.513	406.38
374.739	404.38
374.965	392.38
375.191	417.38
375.416	414.38
375.642	415.38
375.868	412.38
376.094	401.38
376.319	387.38
376.545	390.38
376.771	395.38
376.997	399.38
377.222	387.38
377.448	378.38
377.674	386.38
377.899	376.38
378.125	388.38
378.35	403.38
378.576	396.38
378.802	408.38
379.027	371.38
379.253	388.38
379.478	393.38
379.704	385.38
379.929	427.38
380.155	408.38
380.38	390.38
380.606	399.38
380.831	414.38
381.057	397.38
381.282	415.38
381.507	382.38
381.733	395.38
381.958	423.38
382.184	414.38
382.409	412.38
382.634	390.38
382.86	395.38
383.085	425.38
383.31	427.38
383.535	421.38
383.761	439.38
383.986	439.38
384.211	441.38
384.436	424.38
384.662	423.38
384.887	445.38
385.112	432.38
385.337	438.38
385.562	447.38
385.787	438.38
386.013	443.38
386.238	434.38
386.463	452.38
386.688	441.38
386.913	430.38
387.138	442.38
387.363	418.38
387.588	441.38
387.813	446.38
388.038	462.38
388.263	444.38
388.488	458.38
388.713	457.38
388.938	456.38
389.163	472.38
389.387	456.38
389.612	416.38
389.837	439.38
390.062	435.38
390.287	456.38
390.512	443.38
390.736	444.38
390.961	481.38
391.186	449.38
391.411	477.38
391.636	465.38
391.86	479.38
392.085	478.38
392.31	475.38
392.534	476.38
392.759	480.38
392.984	468.38
393.208	454.38
393.433	503.38
393.658	479.38
393.882	463.38
394.107	471.38
394.331	473.38
394.556	485.38
394.78	475.38
395.005	484.38
395.229	468.38
395.454	474.38
395.678	486.38
395.903	481.38
396.127	471.38
396.352	511.38
396.576	500.38
396.801	491.38
397.025	499.38
397.249	509.38
397.474	494.38
397.698	495.38
397.922	484.38
398.147	495.38
398.371	489.38
398.595	503.38
398.82	495.38
399.044	540.38
399.268	550.38
399.492	567.38
399.717	573.38
399.941	570.38
400.165	571.38
400.389	548.38
400.613	568.38
400.837	536.38
401.062	541.38
401.286	532.38
401.51	538.38
401.734	509.38
401.958	512.38
402.182	523.38
402.406	526.38
402.63	516.38
402.854	539.38
403.078	522.38
403.302	519.38
403.526	539.38
403.75	519.38
403.974	523.38
404.198	528.38
404.422	514.38
404.645	520.38
404.869	501.38
405.093	559.38
405.317	526.38
405.541	534.38
405.765	537.38
405.988	530.38
406.212	546.38
406.436	555.38
406.66	561.38
406.883	574.38
407.107	562.38
407.331	583.38
407.555	592.38
407.778	545.38
408.002	563.38
408.226	565.38
408.449	598.38
408.673	554.38
408.896	552.38
409.12	545.38
409.344	571.38
409.567	568.38
409.791	565.38
410.014	536.38
410.238	540.38
410.461	554.38
410.685	551.38
410.908	533.38
411.132	539.38
411.355	527.38
411.578	528.38
411.802	518.38
412.025	535.38
412.249	543.38
412.472	555.38
412.695	516.38
412.919	516.38
413.142	539.38
413.365	536.38
413.589	527.38
413.812	522.38
414.035	524.38
414.258	524.38
414.482	526.38
414.705	519.38
414.928	498.38
415.151	503.38
415.374	519.38
415.597	522.38
415.821	530.38
416.044	490.38
416.267	521.38
416.49	508.38
416.713	524.38
416.936	521.38
417.159	494.38
417.382	489.38
417.605	497.38
417.828	485.38
418.051	512.38
418.274	508.38
418.497	495.38
418.72	505.38
418.943	491.38
419.166	498.38
419.389	530.38
419.611	538.38
419.834	524.38
420.057	501.38
420.28	511.38
420.503	518.38
420.726	504.38
420.948	486.38
421.171	478.38
421.394	481.38
421.617	477.38
421.839	468.38
422.062	488.38
422.285	487.38
422.507	487.38
422.73	479.38
422.953	489.38
423.175	498.38
423.398	520.38
423.621	498.38
423.843	488.38
424.066	496.38
424.288	486.38
424.511	502.38
424.733	508.38
424.956	491.38
425.178	505.38
425.401	484.38
425.623	494.38
425.846	488.38
426.068	483.38
426.291	509.38
426.513	481.38
426.735	471.38
426.958	495.38
427.18	480.38
427.402	494.38
427.625	471.38
427.847	476.38
428.069	494.38
428.292	470.38
428.514	473.38
428.736	487.38
428.958	508.38
429.181	469.38
429.403	484.38
429.625	465.38
429.847	460.38
430.069	467.38
430.292	466.38
430.514	470.38
430.736	456.38
430.958	472.38
431.18	483.38
431.402	446.38
431.624	478.38
431.846	465.38
432.068	467.38
432.29	476.38
432.512	473.38
432.734	474.38
432.956	465.38
433.178	472.38
433.4	449.38
433.622	485.38
433.844	466.38
434.066	466.38
434.287	487.38
434.509	483.38
434.731	474.38
434.953	475.38
435.175	460.38
435.397	501.38
435.618	478.38
435.84	478.38
436.062	464.38
436.284	457.38
436.505	456.38
436.727	466.38
436.949	452.38
437.17	479.38
437.392	454.38
437.614	459.38
437.835	466.38
438.057	472.38
438.278	470.38
438.5	455.38
438.721	443.38
438.943	457.38
439.165	434.38
439.386	444.38
439.608	487.38
439.829	469.38
440.05	479.38
440.272	458.38
440.493	466.38
440.715	460.38
440.936	463.38
441.158	472.38
441.379	466.38
441.6	488.38
441.822	462.38
442.043	484.38
442.264	478.38
442.486	495.38
442.707	479.38
442.928	481.38
443.149	475.38
443.371	471.38
443.592	477.38
443.813	479.38
444.034	467.38
444.255	450.38
444.476	473.38
444.698	499.38
444.919	488.38
445.14	578.38
445.361	531.38
445.582	486.38
445.803	481.38
446.024	476.38
446.245	487.38
446.466	492.38
446.687	467.38
446.908	455.38
447.129	441.38
447.35	452.38
447.571	467.38
447.792	425.38
448.013	437.38
448.234	436.38
448.455	443.38
448.675	435.38
448.896	472.38
449.117	425.38
449.338	443.38
449.559	448.38
449.779	424.38
450	421.38
450.221	440.38
450.442	434.38
450.662	433.38
450.883	448.38
451.104	428.38
451.324	438.38
451.545	440.38
451.766	429.38
451.986	438.38
452.207	435.38
452.428	409.38
452.648	450.38
452.869	418.38
453.089	415.38
453.31	428.38
453.53	434.38
453.751	424.38
453.971	434.38
454.192	433.38
454.412	424.38
454.633	420.38
454.853	435.38
455.073	403.38
455.294	407.38
455.514	418.38
455.734	428.38
455.955	416.38
456.175	438.38
456.395	417.38
456.616	438.38
456.836	444.38
457.056	428.38
457.276	404.38
457.497	421.38
457.717	418.38
457.937	432.38
458.157	428.38
458.377	454.38
458.598	456.38
458.818	437.38
459.038	452.38
459.258	458.38
459.478	465.38
459.698	455.38
459.918	463.38
460.138	475.38
460.358	475.38
460.578	465.38
460.798	508.38
461.018	507.38
461.238	487.38
461.458	466.38
461.678	483.38
461.898	498.38
462.118	495.38
462.338	521.38
462.558	526.38
462.777	528.38
462.997	521.38
463.217	553.38
463.437	544.38
463.657	555.38
463.876	542.38
464.096	531.38
464.316	521.38
464.536	515.38
464.755	518.38
464.975	534.38
465.195	499.38
465.414	513.38
465.634	486.38
465.854	491.38
466.073	475.38
466.293	486.38
466.512	445.38
466.732	473.38
466.951	462.38
467.171	462.38
467.391	459.38
467.61	448.38
467.829	456.38
468.049	480.38
468.268	440.38
468.488	451.38
468.707	440.38
468.927	444.38
469.146	458.38
469.365	456.38
469.585	457.38
469.804	454.38
470.023	438.38
470.243	440.38
470.462	451.38
470.681	468.38
470.901	452.38
471.12	455.38
471.339	444.38
471.558	447.38
471.777	458.38
471.997	466.38
472.216	470.38
472.435	464.38
472.654	455.38
472.873	427.38
473.092	486.38
473.311	464.38
473.53	449.38
473.749	462.38
473.968	468.38
474.187	467.38
474.406	454.38
474.625	448.38
474.844	448.38
475.063	456.38
475.282	478.38
475.501	467.38
475.72	464.38
475.939	487.38
476.158	463.38
476.377	492.38
476.596	503.38
476.814	488.38
477.033	501.38
477.252	494.38
477.471	460.38
477.69	480.38
477.908	488.38
478.127	507.38
478.346	496.38
478.564	507.38
478.783	533.38
479.002	528.38
479.22	542.38
479.439	533.38
479.658	525.38
479.876	531.38
480.095	510.38
480.313	548.38
480.532	551.38
480.751	523.38
480.969	542.38
481.188	536.38
481.406	553.38
481.624	515.38
481.843	538.38
482.061	513.38
482.28	537.38
482.498	522.38
482.717	527.38
482.935	551.38
483.153	531.38
483.372	528.38
483.59	523.38
483.808	544.38
484.027	538.38
484.245	543.38
484.463	554.38
484.681	546.38
484.9	541.38
485.118	535.38
485.336	537.38
485.554	530.38
485.772	563.38
485.99	530.38
486.209	530.38
486.427	525.38
486.645	545.38
486.863	561.38
487.081	551.38
487.299	551.38
487.517	523.38
487.735	557.38
487.953	550.38
488.171	554.38
488.389	563.38
488.607	535.38
488.825	534.38
489.043	538.38
489.261	536.38
489.479	535.38
489.696	557.38
489.914	570.38
490.132	552.38
490.35	538.38
490.568	518.38
490.786	550.38
491.003	543.38
491.221	566.38
491.439	564.38
491.657	543.38
491.874	569.38
492.092	536.38
492.31	568.38
492.527	568.38
492.745	576.38
492.963	574.38
493.18	605.38
493.398	580.38
493.615	558.38
493.833	576.38
494.05	543.38
494.268	568.38
494.485	574.38
494.703	572.38
494.92	576.38
495.138	580.38
495.355	586.38
495.573	598.38
495.79	589.38
496.008	599.38
496.225	590.38
496.442	610.38
496.66	601.38
496.877	621.38
497.094	613.38
497.312	606.38
497.529	654.38
497.746	626.38
497.963	655.38
498.181	660.38
498.398	687.38
498.615	719.38
498.832	702.38
499.049	733.38
499.267	735.38
499.484	756.38
499.701	787.38
499.918	846.38
500.135	844.38
500.352	891.38
500.569	871.38
500.786	894.38
501.003	856.38
501.22	845.38
501.437	819.38
501.654	785.38
501.871	785.38
