Data from Fe(NO3)3@0.05M.TitratingCurve.Agarose3%dH2O.NegLispCup.LampEnergy10.LIBS07252019_HRD10591_16-47-16-334.txt Node
Date: Thu Jul 25 16:47:16 EDT 2019
User: cochatt
Spectrometer: HR+D1059
Trigger mode: 1
Integration Time (sec): 1.000000E-1
Scans to average: 1
Electric dark correction enabled: true
Nonlinearity correction enabled: false
Boxcar width: 0
XAxis mode: Wavelengths
Number of Pixels in Spectrum: 2048
>>>>>Begin Spectral Data<<<<<
223.165	-14.12
223.4	-14.12
223.635	-14.12
223.869	-21.12
224.104	-5.12
224.338	-27.12
224.573	-12.12
224.808	-16.12
225.042	-8.12
225.277	3.88
225.511	-11.12
225.746	1.88
225.98	17.88
226.215	8.88
226.449	3.88
226.683	25.88
226.918	35.88
227.152	16.88
227.387	28.88
227.621	38.88
227.856	46.88
228.09	53.88
228.324	48.88
228.559	54.88
228.793	58.88
229.027	83.88
229.262	91.88
229.496	82.88
229.73	90.88
229.964	107.88
230.199	113.88
230.433	111.88
230.667	98.88
230.901	118.88
231.136	118.88
231.37	110.88
231.604	118.88
231.838	118.88
232.072	121.88
232.306	117.88
232.541	123.88
232.775	121.88
233.009	117.88
233.243	121.88
233.477	128.88
233.711	131.88
233.945	118.88
234.179	111.88
234.413	121.88
234.647	131.88
234.881	136.88
235.115	133.88
235.349	130.88
235.583	133.88
235.817	115.88
236.051	134.88
236.285	133.88
236.519	133.88
236.753	132.88
236.987	121.88
237.221	124.88
237.455	122.88
237.689	133.88
237.922	134.88
238.156	130.88
238.39	131.88
238.624	142.88
238.858	130.88
239.091	138.88
239.325	139.88
239.559	133.88
239.793	144.88
240.027	146.88
240.26	150.88
240.494	135.88
240.728	151.88
240.961	136.88
241.195	158.88
241.429	146.88
241.662	145.88
241.896	145.88
242.13	143.88
242.363	143.88
242.597	149.88
242.83	156.88
243.064	143.88
243.298	142.88
243.531	156.88
243.765	157.88
243.998	163.88
244.232	156.88
244.465	151.88
244.699	146.88
244.932	156.88
245.166	168.88
245.399	170.88
245.633	166.88
245.866	159.88
246.099	153.88
246.333	160.88
246.566	173.88
246.8	177.88
247.033	153.88
247.266	158.88
247.5	154.88
247.733	169.88
247.966	167.88
248.2	171.88
248.433	175.88
248.666	177.88
248.899	190.88
249.133	173.88
249.366	179.88
249.599	191.88
249.832	171.88
250.066	179.88
250.299	183.88
250.532	169.88
250.765	177.88
250.998	193.88
251.231	176.88
251.465	195.88
251.698	176.88
251.931	190.88
252.164	180.88
252.397	172.88
252.63	203.88
252.863	196.88
253.096	207.88
253.329	206.88
253.562	203.88
253.795	209.88
254.028	205.88
254.261	214.88
254.494	223.88
254.727	205.88
254.96	195.88
255.193	204.88
255.426	191.88
255.659	212.88
255.892	214.88
256.124	189.88
256.357	218.88
256.59	219.88
256.823	197.88
257.056	206.88
257.289	208.88
257.521	217.88
257.754	211.88
257.987	230.88
258.22	207.88
258.452	211.88
258.685	227.88
258.918	218.88
259.151	225.88
259.383	227.88
259.616	230.88
259.849	223.88
260.081	252.88
260.314	261.88
260.547	217.88
260.779	233.88
261.012	237.88
261.244	241.88
261.477	235.88
261.71	255.88
261.942	236.88
262.175	217.88
262.407	237.88
262.64	247.88
262.872	245.88
263.105	258.88
263.337	251.88
263.57	265.88
263.802	235.88
264.035	239.88
264.267	227.88
264.499	218.88
264.732	253.88
264.964	241.88
265.197	233.88
265.429	221.88
265.661	235.88
265.894	254.88
266.126	246.88
266.358	255.88
266.591	241.88
266.823	264.88
267.055	260.88
267.287	255.88
267.52	254.88
267.752	248.88
267.984	262.88
268.216	245.88
268.448	266.88
268.681	250.88
268.913	267.88
269.145	252.88
269.377	239.88
269.609	260.88
269.841	263.88
270.073	263.88
270.306	270.88
270.538	272.88
270.77	277.88
271.002	271.88
271.234	251.88
271.466	271.88
271.698	274.88
271.93	259.88
272.162	269.88
272.394	271.88
272.626	263.88
272.858	277.88
273.09	289.88
273.322	273.88
273.553	265.88
273.785	280.88
274.017	292.88
274.249	301.88
274.481	303.88
274.713	310.88
274.945	329.88
275.176	329.88
275.408	309.88
275.64	322.88
275.872	301.88
276.104	281.88
276.335	303.88
276.567	266.88
276.799	309.88
277.031	288.88
277.262	285.88
277.494	305.88
277.726	275.88
277.957	289.88
278.189	302.88
278.421	302.88
278.652	304.88
278.884	306.88
279.115	314.88
279.347	283.88
279.579	283.88
279.81	304.88
280.042	290.88
280.273	299.88
280.505	296.88
280.736	328.88
280.968	310.88
281.199	306.88
281.431	317.88
281.662	302.88
281.894	321.88
282.125	323.88
282.356	308.88
282.588	321.88
282.819	319.88
283.051	325.88
283.282	313.88
283.513	319.88
283.745	328.88
283.976	301.88
284.207	320.88
284.439	329.88
284.67	342.88
284.901	325.88
285.132	318.88
285.364	327.88
285.595	337.88
285.826	331.88
286.057	325.88
286.288	328.88
286.52	327.88
286.751	338.88
286.982	343.88
287.213	349.88
287.444	338.88
287.675	340.88
287.906	344.88
288.138	341.88
288.369	336.88
288.6	356.88
288.831	338.88
289.062	346.88
289.293	330.88
289.524	331.88
289.755	325.88
289.986	328.88
290.217	343.88
290.448	349.88
290.679	346.88
290.91	327.88
291.141	350.88
291.371	351.88
291.602	352.88
291.833	351.88
292.064	349.88
292.295	352.88
292.526	345.88
292.757	374.88
292.987	335.88
293.218	346.88
293.449	376.88
293.68	342.88
293.91	331.88
294.141	367.88
294.372	349.88
294.603	354.88
294.833	358.88
295.064	368.88
295.295	355.88
295.525	356.88
295.756	352.88
295.987	359.88
296.217	381.88
296.448	369.88
296.679	362.88
296.909	355.88
297.14	372.88
297.37	343.88
297.601	373.88
297.831	363.88
298.062	388.88
298.292	363.88
298.523	373.88
298.753	361.88
298.984	368.88
299.214	351.88
299.445	370.88
299.675	387.88
299.905	378.88
300.136	367.88
300.366	369.88
300.597	375.88
300.827	386.88
301.057	406.88
301.288	391.88
301.518	395.88
301.748	403.88
301.979	425.88
302.209	426.88
302.439	396.88
302.669	379.88
302.9	378.88
303.13	395.88
303.36	390.88
303.59	388.88
303.82	396.88
304.051	417.88
304.281	413.88
304.511	398.88
304.741	393.88
304.971	389.88
305.201	412.88
305.431	423.88
305.661	404.88
305.891	417.88
306.121	399.88
306.352	392.88
306.582	401.88
306.812	397.88
307.042	399.88
307.272	414.88
307.502	394.88
307.731	400.88
307.961	391.88
308.191	410.88
308.421	388.88
308.651	393.88
308.881	406.88
309.111	378.88
309.341	382.88
309.571	396.88
309.8	387.88
310.03	405.88
310.26	387.88
310.49	405.88
310.72	409.88
310.949	394.88
311.179	403.88
311.409	409.88
311.639	397.88
311.868	413.88
312.098	414.88
312.328	418.88
312.557	413.88
312.787	406.88
313.017	404.88
313.246	431.88
313.476	403.88
313.706	413.88
313.935	408.88
314.165	424.88
314.394	413.88
314.624	426.88
314.853	403.88
315.083	441.88
315.312	437.88
315.542	439.88
315.771	426.88
316.001	431.88
316.23	436.88
316.46	405.88
316.689	414.88
316.919	433.88
317.148	420.88
317.377	415.88
317.607	438.88
317.836	423.88
318.065	416.88
318.295	431.88
318.524	401.88
318.753	427.88
318.983	424.88
319.212	438.88
319.441	419.88
319.67	401.88
319.9	443.88
320.129	435.88
320.358	447.88
320.587	429.88
320.816	421.88
321.046	417.88
321.275	431.88
321.504	418.88
321.733	409.88
321.962	420.88
322.191	441.88
322.42	429.88
322.649	438.88
322.878	456.88
323.108	447.88
323.337	455.88
323.566	449.88
323.795	445.88
324.024	459.88
324.253	453.88
324.482	450.88
324.71	459.88
324.939	440.88
325.168	434.88
325.397	445.88
325.626	468.88
325.855	456.88
326.084	468.88
326.313	462.88
326.542	460.88
326.77	469.88
326.999	471.88
327.228	479.88
327.457	481.88
327.686	470.88
327.914	479.88
328.143	462.88
328.372	470.88
328.6	481.88
328.829	465.88
329.058	470.88
329.287	473.88
329.515	458.88
329.744	447.88
329.972	483.88
330.201	475.88
330.43	468.88
330.658	454.88
330.887	476.88
331.115	490.88
331.344	478.88
331.572	479.88
331.801	495.88
332.03	490.88
332.258	509.88
332.486	520.88
332.715	511.88
332.943	562.88
333.172	545.88
333.4	573.88
333.629	579.88
333.857	557.88
334.085	606.88
334.314	586.88
334.542	587.88
334.771	571.88
334.999	563.88
335.227	571.88
335.455	571.88
335.684	561.88
335.912	550.88
336.14	570.88
336.369	539.88
336.597	548.88
336.825	534.88
337.053	553.88
337.281	544.88
337.51	526.88
337.738	521.88
337.966	546.88
338.194	494.88
338.422	519.88
338.65	504.88
338.878	514.88
339.106	515.88
339.334	532.88
339.562	503.88
339.79	489.88
340.018	496.88
340.246	500.88
340.474	514.88
340.702	484.88
340.93	501.88
341.158	486.88
341.386	482.88
341.614	499.88
341.842	488.88
342.07	523.88
342.298	482.88
342.526	482.88
342.754	489.88
342.981	502.88
343.209	506.88
343.437	524.88
343.665	519.88
343.893	551.88
344.12	572.88
344.348	555.88
344.576	537.88
344.804	533.88
345.031	531.88
345.259	496.88
345.487	497.88
345.714	511.88
345.942	501.88
346.17	477.88
346.397	496.88
346.625	483.88
346.853	487.88
347.08	488.88
347.308	482.88
347.535	470.88
347.763	498.88
347.99	492.88
348.218	489.88
348.445	517.88
348.673	469.88
348.9	472.88
349.128	494.88
349.355	475.88
349.583	451.88
349.81	479.88
350.037	487.88
350.265	463.88
350.492	511.88
350.72	482.88
350.947	477.88
351.174	480.88
351.402	471.88
351.629	467.88
351.856	475.88
352.083	473.88
352.311	483.88
352.538	457.88
352.765	464.88
352.992	460.88
353.22	466.88
353.447	467.88
353.674	448.88
353.901	454.88
354.128	455.88
354.355	459.88
354.583	476.88
354.81	484.88
355.037	481.88
355.264	461.88
355.491	469.88
355.718	477.88
355.945	481.88
356.172	490.88
356.399	474.88
356.626	483.88
356.853	469.88
357.08	490.88
357.307	479.88
357.534	485.88
357.761	471.88
357.988	486.88
358.215	487.88
358.441	504.88
358.668	474.88
358.895	486.88
359.122	469.88
359.349	468.88
359.576	475.88
359.802	467.88
360.029	473.88
360.256	494.88
360.483	476.88
360.709	464.88
360.936	470.88
361.163	485.88
361.39	466.88
361.616	469.88
361.843	472.88
362.07	481.88
362.296	473.88
362.523	490.88
362.749	473.88
362.976	479.88
363.203	495.88
363.429	491.88
363.656	488.88
363.882	477.88
364.109	477.88
364.335	490.88
364.562	497.88
364.788	481.88
365.015	498.88
365.241	474.88
365.468	469.88
365.694	469.88
365.92	476.88
366.147	521.88
366.373	467.88
366.599	491.88
366.826	485.88
367.052	486.88
367.278	482.88
367.505	490.88
367.731	441.88
367.957	486.88
368.184	496.88
368.41	487.88
368.636	507.88
368.862	500.88
369.089	500.88
369.315	479.88
369.541	497.88
369.767	497.88
369.993	489.88
370.219	481.88
370.445	500.88
370.672	519.88
370.898	515.88
371.124	525.88
371.35	541.88
371.576	519.88
371.802	515.88
372.028	523.88
372.254	536.88
372.48	547.88
372.706	559.88
372.932	543.88
373.158	546.88
373.384	547.88
373.61	562.88
373.835	571.88
374.061	553.88
374.287	535.88
374.513	561.88
374.739	548.88
374.965	565.88
375.191	597.88
375.416	567.88
375.642	557.88
375.868	567.88
376.094	557.88
376.319	553.88
376.545	530.88
376.771	551.88
376.997	527.88
377.222	495.88
377.448	522.88
377.674	539.88
377.899	506.88
378.125	544.88
378.35	536.88
378.576	531.88
378.802	547.88
379.027	534.88
379.253	519.88
379.478	514.88
379.704	534.88
379.929	525.88
380.155	525.88
380.38	536.88
380.606	536.88
380.831	535.88
381.057	538.88
381.282	550.88
381.507	536.88
381.733	567.88
381.958	536.88
382.184	557.88
382.409	576.88
382.634	559.88
382.86	604.88
383.085	586.88
383.31	585.88
383.535	618.88
383.761	581.88
383.986	600.88
384.211	590.88
384.436	588.88
384.662	586.88
384.887	612.88
385.112	624.88
385.337	619.88
385.562	613.88
385.787	636.88
386.013	632.88
386.238	617.88
386.463	649.88
386.688	627.88
386.913	619.88
387.138	633.88
387.363	637.88
387.588	637.88
387.813	635.88
388.038	633.88
388.263	619.88
388.488	637.88
388.713	631.88
388.938	628.88
389.163	633.88
389.387	617.88
389.612	616.88
389.837	632.88
390.062	618.88
390.287	628.88
390.512	639.88
390.736	631.88
390.961	641.88
391.186	647.88
391.411	673.88
391.636	647.88
391.86	680.88
392.085	711.88
392.31	693.88
392.534	682.88
392.759	685.88
392.984	671.88
393.208	694.88
393.433	650.88
393.658	671.88
393.882	663.88
394.107	677.88
394.331	666.88
394.556	668.88
394.78	675.88
395.005	681.88
395.229	672.88
395.454	700.88
395.678	680.88
395.903	704.88
396.127	699.88
396.352	682.88
396.576	702.88
396.801	695.88
397.025	688.88
397.249	710.88
397.474	719.88
397.698	693.88
397.922	727.88
398.147	728.88
398.371	737.88
398.595	762.88
398.82	782.88
399.044	833.88
399.268	859.88
399.492	930.88
399.717	981.88
399.941	1009.88
400.165	961.88
400.389	892.88
400.613	869.88
400.837	799.88
401.062	810.88
401.286	794.88
401.51	801.88
401.734	783.88
401.958	824.88
402.182	781.88
402.406	779.88
402.63	785.88
402.854	822.88
403.078	811.88
403.302	815.88
403.526	803.88
403.75	817.88
403.974	807.88
404.198	825.88
404.422	848.88
404.645	845.88
404.869	840.88
405.093	823.88
405.317	809.88
405.541	851.88
405.765	836.88
405.988	848.88
406.212	816.88
406.436	858.88
406.66	884.88
406.883	872.88
407.107	883.88
407.331	913.88
407.555	964.88
407.778	951.88
408.002	942.88
408.226	918.88
408.449	938.88
408.673	894.88
408.896	897.88
409.12	861.88
409.344	873.88
409.567	880.88
409.791	875.88
410.014	865.88
410.238	859.88
410.461	838.88
410.685	851.88
410.908	863.88
411.132	837.88
411.355	817.88
411.578	836.88
411.802	819.88
412.025	830.88
412.249	864.88
412.472	822.88
412.695	808.88
412.919	773.88
413.142	805.88
413.365	806.88
413.589	797.88
413.812	792.88
414.035	804.88
414.258	806.88
414.482	799.88
414.705	814.88
414.928	811.88
415.151	796.88
415.374	808.88
415.597	804.88
415.821	800.88
416.044	786.88
416.267	774.88
416.49	751.88
416.713	785.88
416.936	802.88
417.159	781.88
417.382	761.88
417.605	752.88
417.828	769.88
418.051	754.88
418.274	778.88
418.497	770.88
418.72	783.88
418.943	780.88
419.166	863.88
419.389	862.88
419.611	867.88
419.834	832.88
420.057	796.88
420.28	789.88
420.503	776.88
420.726	753.88
420.948	754.88
421.171	780.88
421.394	750.88
421.617	759.88
421.839	786.88
422.062	773.88
422.285	767.88
422.507	768.88
422.73	778.88
422.953	793.88
423.175	794.88
423.398	775.88
423.621	776.88
423.843	801.88
424.066	799.88
424.288	799.88
424.511	758.88
424.733	777.88
424.956	777.88
425.178	752.88
425.401	738.88
425.623	773.88
425.846	775.88
426.068	746.88
426.291	765.88
426.513	743.88
426.735	755.88
426.958	780.88
427.18	746.88
427.402	744.88
427.625	737.88
427.847	718.88
428.069	728.88
428.292	737.88
428.514	720.88
428.736	704.88
428.958	757.88
429.181	714.88
429.403	672.88
429.625	696.88
429.847	709.88
430.069	693.88
430.292	705.88
430.514	682.88
430.736	702.88
430.958	719.88
431.18	722.88
431.402	698.88
431.624	685.88
431.846	709.88
432.068	717.88
432.29	726.88
432.512	701.88
432.734	724.88
432.956	738.88
433.178	730.88
433.4	755.88
433.622	750.88
433.844	739.88
434.066	742.88
434.287	739.88
434.509	761.88
434.731	741.88
434.953	768.88
435.175	793.88
435.397	770.88
435.618	766.88
435.84	760.88
436.062	712.88
436.284	726.88
436.505	725.88
436.727	723.88
436.949	732.88
437.17	729.88
437.392	711.88
437.614	713.88
437.835	717.88
438.057	707.88
438.278	700.88
438.5	704.88
438.721	713.88
438.943	683.88
439.165	682.88
439.386	696.88
439.608	706.88
439.829	737.88
440.05	739.88
440.272	736.88
440.493	735.88
440.715	736.88
440.936	741.88
441.158	737.88
441.379	756.88
441.6	777.88
441.822	792.88
442.043	778.88
442.264	765.88
442.486	746.88
442.707	769.88
442.928	785.88
443.149	759.88
443.371	775.88
443.592	784.88
443.813	787.88
444.034	816.88
444.255	793.88
444.476	816.88
444.698	831.88
444.919	864.88
445.14	921.88
445.361	851.88
445.582	808.88
445.803	788.88
446.024	765.88
446.245	777.88
446.466	749.88
446.687	749.88
446.908	746.88
447.129	734.88
447.35	702.88
447.571	733.88
447.792	681.88
448.013	702.88
448.234	709.88
448.455	705.88
448.675	694.88
448.896	672.88
449.117	671.88
449.338	663.88
449.559	671.88
449.779	692.88
450	659.88
450.221	669.88
450.442	685.88
450.662	681.88
450.883	683.88
451.104	697.88
451.324	685.88
451.545	693.88
451.766	691.88
451.986	657.88
452.207	671.88
452.428	678.88
452.648	679.88
452.869	630.88
453.089	627.88
453.31	634.88
453.53	643.88
453.751	634.88
453.971	626.88
454.192	635.88
454.412	633.88
454.633	624.88
454.853	612.88
455.073	633.88
455.294	621.88
455.514	637.88
455.734	632.88
455.955	633.88
456.175	632.88
456.395	662.88
456.616	637.88
456.836	633.88
457.056	643.88
457.276	632.88
457.497	647.88
457.717	631.88
457.937	674.88
458.157	647.88
458.377	639.88
458.598	665.88
458.818	667.88
459.038	682.88
459.258	667.88
459.478	711.88
459.698	717.88
459.918	768.88
460.138	748.88
460.358	778.88
460.578	817.88
460.798	822.88
461.018	819.88
461.238	832.88
461.458	821.88
461.678	797.88
461.898	823.88
462.118	836.88
462.338	866.88
462.558	886.88
462.777	898.88
462.997	923.88
463.217	973.88
463.437	991.88
463.657	931.88
463.876	929.88
464.096	944.88
464.316	919.88
464.536	907.88
464.755	899.88
464.975	851.88
465.195	846.88
465.414	799.88
465.634	781.88
465.854	770.88
466.073	758.88
466.293	755.88
466.512	723.88
466.732	710.88
466.951	714.88
467.171	697.88
467.391	697.88
467.61	694.88
467.829	704.88
468.049	719.88
468.268	689.88
468.488	688.88
468.707	649.88
468.927	730.88
469.146	708.88
469.365	706.88
469.585	695.88
469.804	711.88
470.023	736.88
470.243	709.88
470.462	740.88
470.681	741.88
470.901	736.88
471.12	726.88
471.339	716.88
471.558	705.88
471.777	702.88
471.997	688.88
472.216	700.88
472.435	677.88
472.654	657.88
472.873	679.88
473.092	675.88
473.311	673.88
473.53	660.88
473.749	662.88
473.968	688.88
474.187	651.88
474.406	685.88
474.625	688.88
474.844	683.88
475.063	664.88
475.282	691.88
475.501	692.88
475.72	686.88
475.939	717.88
476.158	710.88
476.377	702.88
476.596	720.88
476.814	735.88
477.033	712.88
477.252	734.88
477.471	729.88
477.69	767.88
477.908	752.88
478.127	793.88
478.346	773.88
478.564	774.88
478.783	803.88
479.002	830.88
479.22	817.88
479.439	852.88
479.658	840.88
479.876	801.88
480.095	839.88
480.313	866.88
480.532	825.88
480.751	842.88
480.969	831.88
481.188	840.88
481.406	823.88
481.624	801.88
481.843	773.88
482.061	779.88
482.28	790.88
482.498	801.88
482.717	769.88
482.935	779.88
483.153	772.88
483.372	771.88
483.59	789.88
483.808	811.88
484.027	783.88
484.245	791.88
484.463	803.88
484.681	787.88
484.9	804.88
485.118	781.88
485.336	808.88
485.554	819.88
485.772	798.88
485.99	817.88
486.209	805.88
486.427	801.88
486.645	813.88
486.863	838.88
487.081	795.88
487.299	801.88
487.517	816.88
487.735	805.88
487.953	816.88
488.171	823.88
488.389	827.88
488.607	810.88
488.825	794.88
489.043	802.88
489.261	795.88
489.479	817.88
489.696	830.88
489.914	811.88
490.132	804.88
490.35	813.88
490.568	832.88
490.786	836.88
491.003	848.88
491.221	831.88
491.439	803.88
491.657	820.88
491.874	856.88
492.092	840.88
492.31	867.88
492.527	841.88
492.745	836.88
492.963	851.88
493.18	843.88
493.398	836.88
493.615	839.88
493.833	846.88
494.05	834.88
494.268	883.88
494.485	850.88
494.703	868.88
494.92	866.88
495.138	866.88
495.355	861.88
495.573	850.88
495.79	879.88
496.008	903.88
496.225	911.88
496.442	935.88
496.66	918.88
496.877	899.88
497.094	909.88
497.312	936.88
497.529	931.88
497.746	970.88
497.963	1003.88
498.181	1002.88
498.398	1037.88
498.615	1152.88
498.832	1164.88
499.049	1217.88
499.267	1275.88
499.484	1371.88
499.701	1472.88
499.918	1567.88
500.135	1679.88
500.352	1827.88
500.569	1871.88
500.786	1834.88
501.003	1758.88
501.22	1687.88
501.437	1550.88
