Data from Fe(NO3)3@0.0125M.TitratingCurve.Agarose3%dH2O.NegLispCup.LampEnergy10.LIBS07252019_HRD10591_17-01-03-337.txt Node
Date: Thu Jul 25 17:01:03 EDT 2019
User: cochatt
Spectrometer: HR+D1059
Trigger mode: 1
Integration Time (sec): 1.000000E-1
Scans to average: 1
Electric dark correction enabled: true
Nonlinearity correction enabled: false
Boxcar width: 0
XAxis mode: Wavelengths
Number of Pixels in Spectrum: 2048
>>>>>Begin Spectral Data<<<<<
223.165	-13.88
223.4	-13.88
223.635	-13.88
223.869	-17.88
224.104	-23.88
224.338	-17.88
224.573	-23.88
224.808	-18.88
225.042	6.12
225.277	7.12
225.511	12.12
225.746	-5.88
225.98	6.12
226.215	0.12
226.449	17.12
226.683	14.12
226.918	31.12
227.152	28.12
227.387	40.12
227.621	36.12
227.856	38.12
228.09	43.12
228.324	43.12
228.559	44.12
228.793	77.12
229.027	81.12
229.262	65.12
229.496	92.12
229.73	95.12
229.964	90.12
230.199	83.12
230.433	91.12
230.667	99.12
230.901	102.12
231.136	110.12
231.37	104.12
231.604	99.12
231.838	105.12
232.072	89.12
232.306	95.12
232.541	112.12
232.775	97.12
233.009	101.12
233.243	103.12
233.477	100.12
233.711	123.12
233.945	97.12
234.179	110.12
234.413	126.12
234.647	114.12
234.881	99.12
235.115	117.12
235.349	108.12
235.583	106.12
235.817	126.12
236.051	105.12
236.285	106.12
236.519	116.12
236.753	124.12
236.987	127.12
237.221	110.12
237.455	110.12
237.689	113.12
237.922	111.12
238.156	103.12
238.39	136.12
238.624	129.12
238.858	131.12
239.091	119.12
239.325	112.12
239.559	115.12
239.793	135.12
240.027	124.12
240.26	131.12
240.494	115.12
240.728	136.12
240.961	134.12
241.195	135.12
241.429	126.12
241.662	128.12
241.896	122.12
242.13	108.12
242.363	128.12
242.597	112.12
242.83	138.12
243.064	115.12
243.298	126.12
243.531	119.12
243.765	120.12
243.998	138.12
244.232	139.12
244.465	150.12
244.699	121.12
244.932	136.12
245.166	128.12
245.399	133.12
245.633	141.12
245.866	146.12
246.099	130.12
246.333	127.12
246.566	139.12
246.8	127.12
247.033	135.12
247.266	121.12
247.5	136.12
247.733	129.12
247.966	146.12
248.2	139.12
248.433	148.12
248.666	160.12
248.899	154.12
249.133	158.12
249.366	156.12
249.599	148.12
249.832	162.12
250.066	157.12
250.299	144.12
250.532	136.12
250.765	157.12
250.998	140.12
251.231	149.12
251.465	177.12
251.698	135.12
251.931	155.12
252.164	167.12
252.397	166.12
252.63	162.12
252.863	152.12
253.096	161.12
253.329	168.12
253.562	160.12
253.795	144.12
254.028	154.12
254.261	153.12
254.494	154.12
254.727	168.12
254.96	177.12
255.193	166.12
255.426	173.12
255.659	158.12
255.892	163.12
256.124	152.12
256.357	169.12
256.59	167.12
256.823	179.12
257.056	184.12
257.289	178.12
257.521	160.12
257.754	172.12
257.987	176.12
258.22	168.12
258.452	180.12
258.685	180.12
258.918	182.12
259.151	165.12
259.383	176.12
259.616	194.12
259.849	188.12
260.081	193.12
260.314	205.12
260.547	196.12
260.779	180.12
261.012	186.12
261.244	196.12
261.477	196.12
261.71	193.12
261.942	197.12
262.175	197.12
262.407	203.12
262.64	198.12
262.872	204.12
263.105	199.12
263.337	192.12
263.57	194.12
263.802	188.12
264.035	194.12
264.267	181.12
264.499	193.12
264.732	198.12
264.964	194.12
265.197	190.12
265.429	190.12
265.661	196.12
265.894	214.12
266.126	189.12
266.358	178.12
266.591	192.12
266.823	186.12
267.055	185.12
267.287	194.12
267.52	187.12
267.752	200.12
267.984	194.12
268.216	195.12
268.448	208.12
268.681	198.12
268.913	206.12
269.145	212.12
269.377	191.12
269.609	204.12
269.841	195.12
270.073	197.12
270.306	204.12
270.538	206.12
270.77	223.12
271.002	210.12
271.234	215.12
271.466	190.12
271.698	199.12
271.93	208.12
272.162	225.12
272.394	222.12
272.626	210.12
272.858	212.12
273.09	228.12
273.322	230.12
273.553	217.12
273.785	229.12
274.017	242.12
274.249	238.12
274.481	245.12
274.713	259.12
274.945	251.12
275.176	263.12
275.408	243.12
275.64	239.12
275.872	243.12
276.104	243.12
276.335	221.12
276.567	218.12
276.799	235.12
277.031	225.12
277.262	236.12
277.494	225.12
277.726	240.12
277.957	228.12
278.189	250.12
278.421	218.12
278.652	224.12
278.884	239.12
279.115	241.12
279.347	226.12
279.579	252.12
279.81	246.12
280.042	251.12
280.273	246.12
280.505	246.12
280.736	250.12
280.968	239.12
281.199	235.12
281.431	258.12
281.662	246.12
281.894	266.12
282.125	244.12
282.356	266.12
282.588	252.12
282.819	244.12
283.051	257.12
283.282	244.12
283.513	262.12
283.745	243.12
283.976	256.12
284.207	263.12
284.439	269.12
284.67	268.12
284.901	263.12
285.132	255.12
285.364	257.12
285.595	257.12
285.826	256.12
286.057	267.12
286.288	247.12
286.52	264.12
286.751	277.12
286.982	269.12
287.213	250.12
287.444	268.12
287.675	273.12
287.906	261.12
288.138	280.12
288.369	240.12
288.6	251.12
288.831	264.12
289.062	289.12
289.293	272.12
289.524	278.12
289.755	271.12
289.986	273.12
290.217	279.12
290.448	282.12
290.679	273.12
290.91	259.12
291.141	290.12
291.371	287.12
291.602	281.12
291.833	278.12
292.064	280.12
292.295	269.12
292.526	270.12
292.757	286.12
292.987	260.12
293.218	268.12
293.449	312.12
293.68	280.12
293.91	287.12
294.141	298.12
294.372	286.12
294.603	278.12
294.833	280.12
295.064	287.12
295.295	276.12
295.525	270.12
295.756	280.12
295.987	279.12
296.217	288.12
296.448	298.12
296.679	295.12
296.909	298.12
297.14	287.12
297.37	286.12
297.601	290.12
297.831	284.12
298.062	306.12
298.292	299.12
298.523	312.12
298.753	298.12
298.984	297.12
299.214	310.12
299.445	290.12
299.675	300.12
299.905	310.12
300.136	290.12
300.366	302.12
300.597	308.12
300.827	308.12
301.057	312.12
301.288	316.12
301.518	322.12
301.748	310.12
301.979	327.12
302.209	336.12
302.439	323.12
302.669	315.12
302.9	309.12
303.13	284.12
303.36	298.12
303.59	315.12
303.82	322.12
304.051	310.12
304.281	325.12
304.511	323.12
304.741	320.12
304.971	327.12
305.201	322.12
305.431	312.12
305.661	310.12
305.891	342.12
306.121	343.12
306.352	323.12
306.582	332.12
306.812	332.12
307.042	316.12
307.272	340.12
307.502	320.12
307.731	337.12
307.961	312.12
308.191	319.12
308.421	322.12
308.651	320.12
308.881	318.12
309.111	312.12
309.341	346.12
309.571	335.12
309.8	327.12
310.03	324.12
310.26	335.12
310.49	337.12
310.72	302.12
310.949	329.12
311.179	334.12
311.409	325.12
311.639	316.12
311.868	334.12
312.098	338.12
312.328	346.12
312.557	328.12
312.787	328.12
313.017	338.12
313.246	354.12
313.476	336.12
313.706	332.12
313.935	356.12
314.165	353.12
314.394	348.12
314.624	348.12
314.853	336.12
315.083	346.12
315.312	331.12
315.542	355.12
315.771	354.12
316.001	347.12
316.23	337.12
316.46	348.12
316.689	370.12
316.919	355.12
317.148	350.12
317.377	328.12
317.607	346.12
317.836	359.12
318.065	359.12
318.295	363.12
318.524	375.12
318.753	356.12
318.983	348.12
319.212	343.12
319.441	329.12
319.67	347.12
319.9	339.12
320.129	354.12
320.358	354.12
320.587	374.12
320.816	362.12
321.046	359.12
321.275	352.12
321.504	369.12
321.733	371.12
321.962	347.12
322.191	367.12
322.42	377.12
322.649	341.12
322.878	375.12
323.108	375.12
323.337	376.12
323.566	373.12
323.795	375.12
324.024	370.12
324.253	388.12
324.482	384.12
324.71	376.12
324.939	357.12
325.168	372.12
325.397	402.12
325.626	373.12
325.855	387.12
326.084	402.12
326.313	368.12
326.542	368.12
326.77	392.12
326.999	392.12
327.228	382.12
327.457	396.12
327.686	388.12
327.914	380.12
328.143	401.12
328.372	403.12
328.6	387.12
328.829	392.12
329.058	392.12
329.287	379.12
329.515	386.12
329.744	412.12
329.972	402.12
330.201	375.12
330.43	403.12
330.658	396.12
330.887	402.12
331.115	412.12
331.344	401.12
331.572	408.12
331.801	422.12
332.03	417.12
332.258	397.12
332.486	404.12
332.715	411.12
332.943	394.12
333.172	410.12
333.4	434.12
333.629	419.12
333.857	455.12
334.085	426.12
334.314	458.12
334.542	437.12
334.771	462.12
334.999	447.12
335.227	443.12
335.455	473.12
335.684	453.12
335.912	453.12
336.14	457.12
336.369	452.12
336.597	465.12
336.825	422.12
337.053	450.12
337.281	435.12
337.51	419.12
337.738	427.12
337.966	434.12
338.194	440.12
338.422	427.12
338.65	402.12
338.878	408.12
339.106	416.12
339.334	435.12
339.562	418.12
339.79	422.12
340.018	419.12
340.246	427.12
340.474	409.12
340.702	423.12
340.93	406.12
341.158	399.12
341.386	414.12
341.614	417.12
341.842	406.12
342.07	407.12
342.298	403.12
342.526	409.12
342.754	424.12
342.981	419.12
343.209	412.12
343.437	435.12
343.665	431.12
343.893	451.12
344.12	454.12
344.348	444.12
344.576	450.12
344.804	448.12
345.031	422.12
345.259	417.12
345.487	422.12
345.714	403.12
345.942	426.12
346.17	416.12
346.397	400.12
346.625	418.12
346.853	418.12
347.08	395.12
347.308	417.12
347.535	402.12
347.763	401.12
347.99	409.12
348.218	406.12
348.445	412.12
348.673	377.12
348.9	422.12
349.128	397.12
349.355	397.12
349.583	415.12
349.81	433.12
350.037	418.12
350.265	398.12
350.492	396.12
350.72	389.12
350.947	412.12
351.174	404.12
351.402	403.12
351.629	388.12
351.856	382.12
352.083	396.12
352.311	405.12
352.538	412.12
352.765	422.12
352.992	404.12
353.22	413.12
353.447	393.12
353.674	403.12
353.901	392.12
354.128	409.12
354.355	410.12
354.583	393.12
354.81	402.12
355.037	399.12
355.264	404.12
355.491	378.12
355.718	395.12
355.945	405.12
356.172	406.12
356.399	382.12
356.626	400.12
356.853	419.12
357.08	397.12
357.307	418.12
357.534	403.12
357.761	397.12
357.988	407.12
358.215	402.12
358.441	419.12
358.668	413.12
358.895	388.12
359.122	396.12
359.349	410.12
359.576	402.12
359.802	426.12
360.029	399.12
360.256	394.12
360.483	410.12
360.709	407.12
360.936	402.12
361.163	400.12
361.39	402.12
361.616	418.12
361.843	395.12
362.07	420.12
362.296	410.12
362.523	405.12
362.749	406.12
362.976	388.12
363.203	414.12
363.429	389.12
363.656	408.12
363.882	418.12
364.109	411.12
364.335	415.12
364.562	405.12
364.788	415.12
365.015	409.12
365.241	410.12
365.468	427.12
365.694	397.12
365.92	409.12
366.147	427.12
366.373	404.12
366.599	387.12
366.826	405.12
367.052	388.12
367.278	416.12
367.505	407.12
367.731	416.12
367.957	420.12
368.184	422.12
368.41	428.12
368.636	428.12
368.862	416.12
369.089	412.12
369.315	420.12
369.541	420.12
369.767	445.12
369.993	415.12
370.219	414.12
370.445	433.12
370.672	431.12
370.898	425.12
371.124	424.12
371.35	425.12
371.576	426.12
371.802	422.12
372.028	440.12
372.254	446.12
372.48	450.12
372.706	451.12
372.932	450.12
373.158	434.12
373.384	452.12
373.61	473.12
373.835	471.12
374.061	436.12
374.287	473.12
374.513	466.12
374.739	459.12
374.965	459.12
375.191	463.12
375.416	454.12
375.642	457.12
375.868	455.12
376.094	444.12
376.319	453.12
376.545	469.12
376.771	432.12
376.997	421.12
377.222	424.12
377.448	419.12
377.674	449.12
377.899	435.12
378.125	453.12
378.35	446.12
378.576	437.12
378.802	434.12
379.027	449.12
379.253	438.12
379.478	448.12
379.704	450.12
379.929	448.12
380.155	439.12
380.38	452.12
380.606	434.12
380.831	441.12
381.057	421.12
381.282	459.12
381.507	447.12
381.733	449.12
381.958	451.12
382.184	456.12
382.409	441.12
382.634	475.12
382.86	466.12
383.085	460.12
383.31	457.12
383.535	459.12
383.761	452.12
383.986	456.12
384.211	458.12
384.436	466.12
384.662	482.12
384.887	484.12
385.112	476.12
385.337	479.12
385.562	487.12
385.787	485.12
386.013	503.12
386.238	500.12
386.463	486.12
386.688	490.12
386.913	488.12
387.138	497.12
387.363	506.12
387.588	481.12
387.813	477.12
388.038	483.12
388.263	470.12
388.488	469.12
388.713	509.12
388.938	486.12
389.163	492.12
389.387	509.12
389.612	489.12
389.837	482.12
390.062	523.12
390.287	515.12
390.512	514.12
390.736	529.12
390.961	512.12
391.186	519.12
391.411	517.12
391.636	536.12
391.86	515.12
392.085	524.12
392.31	528.12
392.534	510.12
392.759	521.12
392.984	526.12
393.208	502.12
393.433	558.12
393.658	569.12
393.882	503.12
394.107	519.12
394.331	511.12
394.556	508.12
394.78	525.12
395.005	545.12
395.229	524.12
395.454	536.12
395.678	535.12
395.903	558.12
396.127	512.12
396.352	534.12
396.576	533.12
396.801	542.12
397.025	534.12
397.249	549.12
397.474	535.12
397.698	583.12
397.922	572.12
398.147	544.12
398.371	566.12
398.595	573.12
398.82	585.12
399.044	610.12
399.268	634.12
399.492	649.12
399.717	663.12
399.941	679.12
400.165	657.12
400.389	630.12
400.613	611.12
400.837	596.12
401.062	615.12
401.286	605.12
401.51	571.12
401.734	563.12
401.958	577.12
402.182	578.12
402.406	580.12
402.63	595.12
402.854	599.12
403.078	599.12
403.302	611.12
403.526	609.12
403.75	610.12
403.974	600.12
404.198	597.12
404.422	582.12
404.645	600.12
404.869	606.12
405.093	603.12
405.317	585.12
405.541	601.12
405.765	596.12
405.988	647.12
406.212	628.12
406.436	618.12
406.66	633.12
406.883	619.12
407.107	639.12
407.331	650.12
407.555	691.12
407.778	706.12
408.002	651.12
408.226	678.12
408.449	666.12
408.673	658.12
408.896	639.12
409.12	614.12
409.344	634.12
409.567	628.12
409.791	600.12
410.014	634.12
410.238	627.12
410.461	631.12
410.685	631.12
410.908	615.12
411.132	622.12
411.355	611.12
411.578	619.12
411.802	613.12
412.025	591.12
412.249	614.12
412.472	633.12
412.695	593.12
412.919	594.12
413.142	601.12
413.365	599.12
413.589	590.12
413.812	612.12
414.035	589.12
414.258	584.12
414.482	596.12
414.705	568.12
414.928	576.12
415.151	594.12
415.374	587.12
415.597	564.12
415.821	563.12
416.044	594.12
416.267	560.12
416.49	601.12
416.713	600.12
416.936	577.12
417.159	571.12
417.382	553.12
417.605	585.12
417.828	579.12
418.051	565.12
418.274	580.12
418.497	545.12
418.72	566.12
418.943	544.12
419.166	590.12
419.389	598.12
419.611	591.12
419.834	585.12
420.057	585.12
420.28	584.12
420.503	566.12
420.726	553.12
420.948	554.12
421.171	579.12
421.394	558.12
421.617	545.12
421.839	555.12
422.062	567.12
422.285	536.12
422.507	568.12
422.73	566.12
422.953	548.12
423.175	535.12
423.398	552.12
423.621	548.12
423.843	551.12
424.066	569.12
424.288	554.12
424.511	532.12
424.733	552.12
424.956	538.12
425.178	565.12
425.401	554.12
425.623	551.12
425.846	560.12
426.068	540.12
426.291	565.12
426.513	553.12
426.735	574.12
426.958	568.12
427.18	547.12
427.402	545.12
427.625	538.12
427.847	532.12
428.069	511.12
428.292	522.12
428.514	542.12
428.736	529.12
428.958	531.12
429.181	522.12
429.403	529.12
429.625	531.12
429.847	531.12
430.069	544.12
430.292	522.12
430.514	523.12
430.736	530.12
430.958	548.12
431.18	533.12
431.402	529.12
431.624	530.12
431.846	538.12
432.068	540.12
432.29	553.12
432.512	526.12
432.734	528.12
432.956	543.12
433.178	529.12
433.4	534.12
433.622	539.12
433.844	559.12
434.066	556.12
434.287	538.12
434.509	537.12
434.731	556.12
434.953	576.12
435.175	562.12
435.397	560.12
435.618	558.12
435.84	553.12
436.062	537.12
436.284	543.12
436.505	512.12
436.727	523.12
436.949	532.12
437.17	528.12
437.392	535.12
437.614	545.12
437.835	511.12
438.057	538.12
438.278	528.12
438.5	516.12
438.721	525.12
438.943	514.12
439.165	530.12
439.386	518.12
439.608	542.12
439.829	526.12
440.05	515.12
440.272	533.12
440.493	527.12
440.715	531.12
440.936	531.12
441.158	536.12
441.379	536.12
441.6	522.12
441.822	576.12
442.043	550.12
442.264	558.12
442.486	538.12
442.707	539.12
442.928	506.12
443.149	558.12
443.371	554.12
443.592	552.12
443.813	524.12
444.034	530.12
444.255	539.12
444.476	573.12
444.698	550.12
444.919	571.12
445.14	648.12
445.361	577.12
445.582	564.12
445.803	533.12
446.024	530.12
446.245	522.12
446.466	520.12
446.687	500.12
446.908	524.12
447.129	514.12
447.35	519.12
447.571	513.12
447.792	513.12
448.013	508.12
448.234	499.12
448.455	512.12
448.675	481.12
448.896	494.12
449.117	490.12
449.338	487.12
449.559	485.12
449.779	512.12
450	491.12
450.221	493.12
450.442	489.12
450.662	462.12
450.883	485.12
451.104	501.12
451.324	474.12
451.545	464.12
451.766	495.12
451.986	478.12
452.207	484.12
452.428	471.12
452.648	475.12
452.869	459.12
453.089	466.12
453.31	470.12
453.53	458.12
453.751	476.12
453.971	479.12
454.192	477.12
454.412	437.12
454.633	462.12
454.853	470.12
455.073	486.12
455.294	470.12
455.514	482.12
455.734	480.12
455.955	445.12
456.175	466.12
456.395	479.12
456.616	468.12
456.836	457.12
457.056	461.12
457.276	481.12
457.497	460.12
457.717	466.12
457.937	479.12
458.157	488.12
458.377	498.12
458.598	471.12
458.818	514.12
459.038	531.12
459.258	526.12
459.478	538.12
459.698	523.12
459.918	529.12
460.138	519.12
460.358	536.12
460.578	547.12
460.798	556.12
461.018	547.12
461.238	556.12
461.458	564.12
461.678	563.12
461.898	563.12
462.118	552.12
462.338	609.12
462.558	627.12
462.777	613.12
462.997	624.12
463.217	622.12
463.437	645.12
463.657	639.12
463.876	599.12
464.096	578.12
464.316	626.12
464.536	608.12
464.755	606.12
464.975	596.12
465.195	547.12
465.414	552.12
465.634	564.12
465.854	554.12
466.073	553.12
466.293	522.12
466.512	530.12
466.732	540.12
466.951	529.12
467.171	532.12
467.391	524.12
467.61	518.12
467.829	506.12
468.049	512.12
468.268	499.12
468.488	514.12
468.707	507.12
468.927	540.12
469.146	517.12
469.365	521.12
469.585	503.12
469.804	522.12
470.023	542.12
470.243	528.12
470.462	525.12
470.681	506.12
470.901	532.12
471.12	510.12
471.339	508.12
471.558	527.12
471.777	500.12
471.997	544.12
472.216	524.12
472.435	512.12
472.654	519.12
472.873	499.12
473.092	507.12
473.311	514.12
473.53	516.12
473.749	513.12
473.968	520.12
474.187	512.12
474.406	502.12
474.625	515.12
474.844	538.12
475.063	536.12
475.282	528.12
475.501	525.12
475.72	509.12
475.939	543.12
476.158	544.12
476.377	525.12
476.596	555.12
476.814	555.12
477.033	539.12
477.252	578.12
477.471	540.12
477.69	568.12
477.908	564.12
478.127	569.12
478.346	600.12
478.564	584.12
478.783	583.12
479.002	587.12
479.22	591.12
479.439	598.12
479.658	606.12
479.876	613.12
480.095	624.12
480.313	617.12
480.532	643.12
480.751	622.12
480.969	615.12
481.188	634.12
481.406	627.12
481.624	626.12
481.843	616.12
482.061	598.12
482.28	604.12
482.498	649.12
482.717	607.12
482.935	611.12
483.153	620.12
483.372	611.12
483.59	631.12
483.808	619.12
484.027	619.12
484.245	633.12
484.463	612.12
484.681	658.12
484.9	669.12
485.118	655.12
485.336	637.12
485.554	627.12
485.772	651.12
485.99	655.12
486.209	644.12
486.427	635.12
486.645	651.12
486.863	652.12
487.081	630.12
487.299	654.12
487.517	638.12
487.735	633.12
487.953	642.12
488.171	653.12
488.389	641.12
488.607	626.12
488.825	634.12
489.043	632.12
489.261	637.12
489.479	618.12
489.696	617.12
489.914	630.12
490.132	640.12
490.35	641.12
490.568	633.12
490.786	641.12
491.003	634.12
491.221	627.12
491.439	640.12
491.657	614.12
491.874	640.12
492.092	663.12
492.31	659.12
492.527	661.12
492.745	672.12
492.963	654.12
493.18	646.12
493.398	658.12
493.615	639.12
493.833	661.12
494.05	660.12
494.268	651.12
494.485	663.12
494.703	651.12
494.92	655.12
495.138	656.12
495.355	676.12
495.573	658.12
495.79	699.12
496.008	687.12
496.225	690.12
496.442	676.12
496.66	665.12
496.877	697.12
497.094	718.12
497.312	691.12
497.529	720.12
497.746	746.12
497.963	750.12
498.181	773.12
498.398	774.12
498.615	802.12
498.832	831.12
499.049	869.12
499.267	908.12
499.484	915.12
499.701	955.12
499.918	989.12
500.135	1006.12
500.352	1067.12
500.569	1092.12
500.786	1058.12
501.003	1026.12
501.22	1023.12
501.437	991.12
501.654	935.12
