Data from Fe(NO3)3@0.0125M.TitratingCurve.Agarose3%dH2O.NegLispCup.LampEnergy10.LIBS07252019_HRD10591_17-01-32-342.txt Node
Date: Thu Jul 25 17:01:32 EDT 2019
User: cochatt
Spectrometer: HR+D1059
Trigger mode: 1
Integration Time (sec): 1.000000E-1
Scans to average: 1
Electric dark correction enabled: true
Nonlinearity correction enabled: false
Boxcar width: 0
XAxis mode: Wavelengths
Number of Pixels in Spectrum: 2048
>>>>>Begin Spectral Data<<<<<
223.165	-10.38
223.4	-10.38
223.635	-10.38
223.869	-7.38
224.104	-21.38
224.338	-18.38
224.573	-15.38
224.808	-20.38
225.042	-12.38
225.277	-12.38
225.511	8.62
225.746	10.62
225.98	7.62
226.215	5.62
226.449	2.62
226.683	21.62
226.918	20.62
227.152	40.62
227.387	32.62
227.621	32.62
227.856	44.62
228.09	50.62
228.324	55.62
228.559	70.62
228.793	58.62
229.027	86.62
229.262	77.62
229.496	80.62
229.73	66.62
229.964	85.62
230.199	86.62
230.433	94.62
230.667	93.62
230.901	79.62
231.136	102.62
231.37	97.62
231.604	99.62
231.838	80.62
232.072	110.62
232.306	98.62
232.541	97.62
232.775	112.62
233.009	108.62
233.243	114.62
233.477	103.62
233.711	107.62
233.945	106.62
234.179	98.62
234.413	116.62
234.647	108.62
234.881	103.62
235.115	120.62
235.349	103.62
235.583	100.62
235.817	95.62
236.051	101.62
236.285	119.62
236.519	97.62
236.753	118.62
236.987	114.62
237.221	99.62
237.455	98.62
237.689	120.62
237.922	112.62
238.156	105.62
238.39	94.62
238.624	101.62
238.858	100.62
239.091	107.62
239.325	117.62
239.559	117.62
239.793	121.62
240.027	116.62
240.26	116.62
240.494	105.62
240.728	108.62
240.961	114.62
241.195	128.62
241.429	108.62
241.662	110.62
241.896	112.62
242.13	98.62
242.363	118.62
242.597	110.62
242.83	122.62
243.064	114.62
243.298	105.62
243.531	124.62
243.765	125.62
243.998	110.62
244.232	114.62
244.465	128.62
244.699	115.62
244.932	120.62
245.166	126.62
245.399	108.62
245.633	110.62
245.866	121.62
246.099	126.62
246.333	119.62
246.566	132.62
246.8	120.62
247.033	139.62
247.266	115.62
247.5	109.62
247.733	121.62
247.966	118.62
248.2	140.62
248.433	135.62
248.666	147.62
248.899	113.62
249.133	139.62
249.366	136.62
249.599	129.62
249.832	127.62
250.066	144.62
250.299	126.62
250.532	139.62
250.765	136.62
250.998	143.62
251.231	134.62
251.465	130.62
251.698	132.62
251.931	138.62
252.164	155.62
252.397	134.62
252.63	129.62
252.863	146.62
253.096	135.62
253.329	154.62
253.562	128.62
253.795	148.62
254.028	155.62
254.261	141.62
254.494	151.62
254.727	152.62
254.96	154.62
255.193	146.62
255.426	169.62
255.659	144.62
255.892	140.62
256.124	148.62
256.357	159.62
256.59	159.62
256.823	151.62
257.056	139.62
257.289	152.62
257.521	151.62
257.754	155.62
257.987	163.62
258.22	154.62
258.452	158.62
258.685	152.62
258.918	160.62
259.151	178.62
259.383	163.62
259.616	164.62
259.849	168.62
260.081	183.62
260.314	176.62
260.547	171.62
260.779	164.62
261.012	170.62
261.244	174.62
261.477	163.62
261.71	165.62
261.942	162.62
262.175	168.62
262.407	153.62
262.64	171.62
262.872	161.62
263.105	174.62
263.337	167.62
263.57	182.62
263.802	169.62
264.035	155.62
264.267	163.62
264.499	155.62
264.732	165.62
264.964	183.62
265.197	158.62
265.429	170.62
265.661	172.62
265.894	154.62
266.126	165.62
266.358	190.62
266.591	178.62
266.823	187.62
267.055	180.62
267.287	182.62
267.52	181.62
267.752	190.62
267.984	200.62
268.216	190.62
268.448	187.62
268.681	166.62
268.913	202.62
269.145	175.62
269.377	176.62
269.609	175.62
269.841	178.62
270.073	194.62
270.306	190.62
270.538	186.62
270.77	169.62
271.002	192.62
271.234	181.62
271.466	179.62
271.698	195.62
271.93	199.62
272.162	193.62
272.394	189.62
272.626	195.62
272.858	180.62
273.09	195.62
273.322	191.62
273.553	184.62
273.785	213.62
274.017	199.62
274.249	206.62
274.481	206.62
274.713	196.62
274.945	212.62
275.176	203.62
275.408	205.62
275.64	199.62
275.872	206.62
276.104	186.62
276.335	203.62
276.567	186.62
276.799	204.62
277.031	208.62
277.262	212.62
277.494	199.62
277.726	203.62
277.957	213.62
278.189	216.62
278.421	215.62
278.652	217.62
278.884	224.62
279.115	204.62
279.347	207.62
279.579	215.62
279.81	226.62
280.042	203.62
280.273	204.62
280.505	216.62
280.736	224.62
280.968	215.62
281.199	215.62
281.431	227.62
281.662	214.62
281.894	218.62
282.125	223.62
282.356	242.62
282.588	231.62
282.819	235.62
283.051	231.62
283.282	219.62
283.513	219.62
283.745	224.62
283.976	235.62
284.207	224.62
284.439	230.62
284.67	231.62
284.901	226.62
285.132	215.62
285.364	221.62
285.595	239.62
285.826	225.62
286.057	229.62
286.288	233.62
286.52	248.62
286.751	219.62
286.982	227.62
287.213	225.62
287.444	229.62
287.675	250.62
287.906	247.62
288.138	244.62
288.369	220.62
288.6	256.62
288.831	231.62
289.062	228.62
289.293	251.62
289.524	238.62
289.755	257.62
289.986	238.62
290.217	231.62
290.448	240.62
290.679	236.62
290.91	260.62
291.141	239.62
291.371	239.62
291.602	248.62
291.833	238.62
292.064	236.62
292.295	236.62
292.526	231.62
292.757	250.62
292.987	256.62
293.218	259.62
293.449	242.62
293.68	262.62
293.91	251.62
294.141	245.62
294.372	247.62
294.603	250.62
294.833	255.62
295.064	244.62
295.295	252.62
295.525	256.62
295.756	278.62
295.987	249.62
296.217	252.62
296.448	251.62
296.679	267.62
296.909	257.62
297.14	258.62
297.37	264.62
297.601	259.62
297.831	265.62
298.062	261.62
298.292	276.62
298.523	278.62
298.753	269.62
298.984	268.62
299.214	265.62
299.445	289.62
299.675	265.62
299.905	276.62
300.136	258.62
300.366	274.62
300.597	262.62
300.827	292.62
301.057	276.62
301.288	259.62
301.518	303.62
301.748	283.62
301.979	278.62
302.209	290.62
302.439	275.62
302.669	288.62
302.9	280.62
303.13	277.62
303.36	299.62
303.59	274.62
303.82	268.62
304.051	282.62
304.281	268.62
304.511	287.62
304.741	289.62
304.971	282.62
305.201	290.62
305.431	268.62
305.661	295.62
305.891	286.62
306.121	276.62
306.352	278.62
306.582	288.62
306.812	291.62
307.042	283.62
307.272	279.62
307.502	288.62
307.731	302.62
307.961	288.62
308.191	289.62
308.421	271.62
308.651	299.62
308.881	309.62
309.111	295.62
309.341	286.62
309.571	318.62
309.8	297.62
310.03	274.62
310.26	291.62
310.49	269.62
310.72	282.62
310.949	278.62
311.179	307.62
311.409	302.62
311.639	288.62
311.868	308.62
312.098	298.62
312.328	294.62
312.557	299.62
312.787	305.62
313.017	298.62
313.246	297.62
313.476	318.62
313.706	312.62
313.935	308.62
314.165	326.62
314.394	318.62
314.624	322.62
314.853	307.62
315.083	320.62
315.312	324.62
315.542	317.62
315.771	317.62
316.001	294.62
316.23	299.62
316.46	307.62
316.689	313.62
316.919	311.62
317.148	313.62
317.377	299.62
317.607	324.62
317.836	323.62
318.065	327.62
318.295	326.62
318.524	322.62
318.753	332.62
318.983	322.62
319.212	313.62
319.441	308.62
319.67	329.62
319.9	327.62
320.129	320.62
320.358	322.62
320.587	316.62
320.816	326.62
321.046	332.62
321.275	327.62
321.504	320.62
321.733	331.62
321.962	320.62
322.191	318.62
322.42	323.62
322.649	324.62
322.878	317.62
323.108	322.62
323.337	307.62
323.566	334.62
323.795	325.62
324.024	332.62
324.253	307.62
324.482	326.62
324.71	324.62
324.939	330.62
325.168	332.62
325.397	344.62
325.626	349.62
325.855	331.62
326.084	346.62
326.313	353.62
326.542	348.62
326.77	356.62
326.999	324.62
327.228	345.62
327.457	329.62
327.686	355.62
327.914	343.62
328.143	350.62
328.372	323.62
328.6	343.62
328.829	334.62
329.058	332.62
329.287	344.62
329.515	367.62
329.744	358.62
329.972	354.62
330.201	341.62
330.43	330.62
330.658	345.62
330.887	366.62
331.115	360.62
331.344	358.62
331.572	380.62
331.801	363.62
332.03	357.62
332.258	396.62
332.486	376.62
332.715	404.62
332.943	389.62
333.172	378.62
333.4	407.62
333.629	404.62
333.857	389.62
334.085	404.62
334.314	387.62
334.542	399.62
334.771	390.62
334.999	382.62
335.227	410.62
335.455	372.62
335.684	399.62
335.912	412.62
336.14	411.62
336.369	402.62
336.597	395.62
336.825	401.62
337.053	413.62
337.281	392.62
337.51	409.62
337.738	398.62
337.966	383.62
338.194	400.62
338.422	386.62
338.65	362.62
338.878	390.62
339.106	366.62
339.334	374.62
339.562	368.62
339.79	377.62
340.018	377.62
340.246	371.62
340.474	374.62
340.702	380.62
340.93	362.62
341.158	378.62
341.386	384.62
341.614	366.62
341.842	356.62
342.07	370.62
342.298	376.62
342.526	374.62
342.754	377.62
342.981	354.62
343.209	384.62
343.437	395.62
343.665	404.62
343.893	400.62
344.12	391.62
344.348	396.62
344.576	390.62
344.804	396.62
345.031	379.62
345.259	366.62
345.487	368.62
345.714	371.62
345.942	369.62
346.17	366.62
346.397	378.62
346.625	373.62
346.853	370.62
347.08	360.62
347.308	355.62
347.535	358.62
347.763	374.62
347.99	374.62
348.218	356.62
348.445	351.62
348.673	360.62
348.9	366.62
349.128	370.62
349.355	362.62
349.583	366.62
349.81	386.62
350.037	351.62
350.265	371.62
350.492	363.62
350.72	370.62
350.947	331.62
351.174	348.62
351.402	342.62
351.629	338.62
351.856	355.62
352.083	369.62
352.311	352.62
352.538	331.62
352.765	361.62
352.992	340.62
353.22	345.62
353.447	363.62
353.674	367.62
353.901	384.62
354.128	370.62
354.355	357.62
354.583	354.62
354.81	350.62
355.037	348.62
355.264	358.62
355.491	351.62
355.718	362.62
355.945	364.62
356.172	368.62
356.399	355.62
356.626	366.62
356.853	376.62
357.08	351.62
357.307	377.62
357.534	358.62
357.761	361.62
357.988	381.62
358.215	372.62
358.441	367.62
358.668	364.62
358.895	372.62
359.122	346.62
359.349	372.62
359.576	365.62
359.802	360.62
360.029	373.62
360.256	345.62
360.483	353.62
360.709	359.62
360.936	363.62
361.163	366.62
361.39	354.62
361.616	371.62
361.843	368.62
362.07	357.62
362.296	370.62
362.523	350.62
362.749	370.62
362.976	367.62
363.203	371.62
363.429	353.62
363.656	362.62
363.882	371.62
364.109	371.62
364.335	369.62
364.562	376.62
364.788	397.62
365.015	374.62
365.241	362.62
365.468	376.62
365.694	363.62
365.92	374.62
366.147	362.62
366.373	366.62
366.599	378.62
366.826	361.62
367.052	388.62
367.278	392.62
367.505	385.62
367.731	375.62
367.957	378.62
368.184	380.62
368.41	366.62
368.636	380.62
368.862	378.62
369.089	382.62
369.315	371.62
369.541	369.62
369.767	392.62
369.993	372.62
370.219	364.62
370.445	378.62
370.672	382.62
370.898	392.62
371.124	407.62
371.35	394.62
371.576	393.62
371.802	390.62
372.028	401.62
372.254	408.62
372.48	394.62
372.706	394.62
372.932	378.62
373.158	412.62
373.384	398.62
373.61	405.62
373.835	408.62
374.061	408.62
374.287	385.62
374.513	404.62
374.739	408.62
374.965	419.62
375.191	414.62
375.416	410.62
375.642	418.62
375.868	407.62
376.094	403.62
376.319	396.62
376.545	392.62
376.771	386.62
376.997	392.62
377.222	409.62
377.448	392.62
377.674	413.62
377.899	407.62
378.125	407.62
378.35	387.62
378.576	386.62
378.802	382.62
379.027	406.62
379.253	404.62
379.478	425.62
379.704	389.62
379.929	395.62
380.155	403.62
380.38	382.62
380.606	399.62
380.831	397.62
381.057	389.62
381.282	406.62
381.507	407.62
381.733	412.62
381.958	396.62
382.184	425.62
382.409	423.62
382.634	407.62
382.86	411.62
383.085	409.62
383.31	403.62
383.535	407.62
383.761	425.62
383.986	447.62
384.211	428.62
384.436	419.62
384.662	426.62
384.887	441.62
385.112	427.62
385.337	420.62
385.562	434.62
385.787	416.62
386.013	442.62
386.238	448.62
386.463	446.62
386.688	438.62
386.913	442.62
387.138	453.62
387.363	451.62
387.588	431.62
387.813	454.62
388.038	434.62
388.263	475.62
388.488	454.62
388.713	454.62
388.938	444.62
389.163	433.62
389.387	449.62
389.612	464.62
389.837	457.62
390.062	447.62
390.287	456.62
390.512	449.62
390.736	444.62
390.961	448.62
391.186	467.62
391.411	471.62
391.636	472.62
391.86	502.62
392.085	473.62
392.31	485.62
392.534	475.62
392.759	481.62
392.984	479.62
393.208	481.62
393.433	510.62
393.658	500.62
393.882	495.62
394.107	459.62
394.331	487.62
394.556	493.62
394.78	482.62
395.005	480.62
395.229	466.62
395.454	492.62
395.678	500.62
395.903	506.62
396.127	490.62
396.352	483.62
396.576	497.62
396.801	492.62
397.025	518.62
397.249	520.62
397.474	499.62
397.698	489.62
397.922	523.62
398.147	526.62
398.371	538.62
398.595	538.62
398.82	527.62
399.044	567.62
399.268	580.62
399.492	606.62
399.717	630.62
399.941	650.62
400.165	618.62
400.389	614.62
400.613	591.62
400.837	555.62
401.062	552.62
401.286	553.62
401.51	563.62
401.734	544.62
401.958	545.62
402.182	563.62
402.406	550.62
402.63	558.62
402.854	560.62
403.078	545.62
403.302	538.62
403.526	531.62
403.75	559.62
403.974	548.62
404.198	556.62
404.422	548.62
404.645	555.62
404.869	535.62
405.093	552.62
405.317	561.62
405.541	570.62
405.765	549.62
405.988	564.62
406.212	575.62
406.436	581.62
406.66	592.62
406.883	596.62
407.107	609.62
407.331	592.62
407.555	601.62
407.778	633.62
408.002	626.62
408.226	630.62
408.449	611.62
408.673	596.62
408.896	581.62
409.12	572.62
409.344	609.62
409.567	569.62
409.791	607.62
410.014	594.62
410.238	581.62
410.461	553.62
410.685	577.62
410.908	563.62
411.132	561.62
411.355	556.62
411.578	555.62
411.802	572.62
412.025	577.62
412.249	558.62
412.472	547.62
412.695	545.62
412.919	555.62
413.142	532.62
413.365	549.62
413.589	560.62
413.812	543.62
414.035	563.62
414.258	550.62
414.482	523.62
414.705	549.62
414.928	552.62
415.151	516.62
415.374	551.62
415.597	546.62
415.821	536.62
416.044	530.62
416.267	518.62
416.49	513.62
416.713	535.62
416.936	512.62
417.159	542.62
417.382	516.62
417.605	520.62
417.828	540.62
418.051	521.62
418.274	513.62
418.497	508.62
418.72	510.62
418.943	530.62
419.166	551.62
419.389	565.62
419.611	551.62
419.834	542.62
420.057	534.62
420.28	515.62
420.503	491.62
420.726	519.62
420.948	502.62
421.171	515.62
421.394	500.62
421.617	500.62
421.839	515.62
422.062	508.62
422.285	506.62
422.507	519.62
422.73	540.62
422.953	488.62
423.175	522.62
423.398	524.62
423.621	508.62
423.843	495.62
424.066	520.62
424.288	512.62
424.511	511.62
424.733	519.62
424.956	520.62
425.178	506.62
425.401	534.62
425.623	510.62
425.846	491.62
426.068	497.62
426.291	507.62
426.513	483.62
426.735	512.62
426.958	488.62
427.18	515.62
427.402	488.62
427.625	506.62
427.847	495.62
428.069	492.62
428.292	500.62
428.514	502.62
428.736	490.62
428.958	515.62
429.181	470.62
429.403	483.62
429.625	478.62
429.847	471.62
430.069	475.62
430.292	499.62
430.514	483.62
430.736	482.62
430.958	499.62
431.18	472.62
431.402	488.62
431.624	498.62
431.846	479.62
432.068	514.62
432.29	484.62
432.512	496.62
432.734	478.62
432.956	475.62
433.178	501.62
433.4	524.62
433.622	508.62
433.844	515.62
434.066	490.62
434.287	509.62
434.509	500.62
434.731	512.62
434.953	518.62
435.175	497.62
435.397	512.62
435.618	506.62
435.84	510.62
436.062	494.62
436.284	519.62
436.505	498.62
436.727	516.62
436.949	485.62
437.17	479.62
437.392	471.62
437.614	474.62
437.835	460.62
438.057	469.62
438.278	465.62
438.5	484.62
438.721	499.62
438.943	470.62
439.165	471.62
439.386	463.62
439.608	490.62
439.829	479.62
440.05	481.62
440.272	496.62
440.493	487.62
440.715	474.62
440.936	504.62
441.158	504.62
441.379	493.62
441.6	486.62
441.822	512.62
442.043	500.62
442.264	524.62
442.486	491.62
442.707	483.62
442.928	508.62
443.149	512.62
443.371	494.62
443.592	503.62
443.813	488.62
444.034	510.62
444.255	485.62
444.476	529.62
444.698	554.62
444.919	534.62
445.14	631.62
445.361	544.62
445.582	503.62
445.803	506.62
446.024	506.62
446.245	518.62
446.466	487.62
446.687	480.62
446.908	498.62
447.129	490.62
447.35	480.62
447.571	464.62
447.792	451.62
448.013	451.62
448.234	448.62
448.455	465.62
448.675	457.62
448.896	462.62
449.117	448.62
449.338	463.62
449.559	450.62
449.779	439.62
450	459.62
450.221	457.62
450.442	454.62
450.662	468.62
450.883	456.62
451.104	447.62
451.324	458.62
451.545	445.62
451.766	447.62
451.986	445.62
452.207	427.62
452.428	447.62
452.648	453.62
452.869	443.62
453.089	437.62
453.31	426.62
453.53	432.62
453.751	440.62
453.971	447.62
454.192	447.62
454.412	426.62
454.633	448.62
454.853	446.62
455.073	421.62
455.294	419.62
455.514	439.62
455.734	432.62
455.955	422.62
456.175	442.62
456.395	422.62
456.616	425.62
456.836	439.62
457.056	432.62
457.276	424.62
457.497	438.62
457.717	438.62
457.937	454.62
458.157	467.62
458.377	446.62
458.598	475.62
458.818	468.62
459.038	474.62
459.258	487.62
459.478	485.62
459.698	486.62
459.918	497.62
460.138	502.62
460.358	510.62
460.578	520.62
460.798	527.62
461.018	528.62
461.238	544.62
461.458	532.62
461.678	536.62
461.898	560.62
462.118	558.62
462.338	556.62
462.558	585.62
462.777	561.62
462.997	559.62
463.217	605.62
463.437	607.62
463.657	566.62
463.876	570.62
464.096	586.62
464.316	557.62
464.536	579.62
464.755	578.62
464.975	581.62
465.195	531.62
465.414	531.62
465.634	522.62
465.854	515.62
466.073	502.62
466.293	490.62
466.512	477.62
466.732	465.62
466.951	499.62
467.171	488.62
467.391	462.62
467.61	482.62
467.829	475.62
468.049	459.62
468.268	469.62
468.488	483.62
468.707	480.62
468.927	459.62
469.146	483.62
469.365	481.62
469.585	467.62
469.804	475.62
470.023	467.62
470.243	483.62
470.462	482.62
470.681	492.62
470.901	485.62
471.12	484.62
471.339	472.62
471.558	464.62
471.777	452.62
471.997	468.62
472.216	479.62
472.435	465.62
472.654	486.62
472.873	477.62
473.092	470.62
473.311	457.62
473.53	457.62
473.749	481.62
473.968	470.62
474.187	448.62
474.406	455.62
474.625	465.62
474.844	464.62
475.063	472.62
475.282	473.62
475.501	467.62
475.72	476.62
475.939	491.62
476.158	488.62
476.377	483.62
476.596	494.62
476.814	499.62
477.033	494.62
477.252	479.62
477.471	529.62
477.69	530.62
477.908	521.62
478.127	530.62
478.346	542.62
478.564	547.62
478.783	553.62
479.002	555.62
479.22	530.62
479.439	564.62
479.658	548.62
479.876	552.62
480.095	576.62
480.313	571.62
480.532	563.62
480.751	576.62
480.969	567.62
481.188	553.62
481.406	574.62
481.624	556.62
481.843	554.62
482.061	553.62
482.28	542.62
482.498	571.62
482.717	552.62
482.935	566.62
483.153	562.62
483.372	537.62
483.59	536.62
483.808	570.62
484.027	574.62
484.245	575.62
484.463	557.62
484.681	559.62
484.9	554.62
485.118	568.62
485.336	560.62
485.554	575.62
485.772	601.62
485.99	564.62
486.209	582.62
486.427	576.62
486.645	577.62
486.863	588.62
487.081	583.62
487.299	584.62
487.517	555.62
487.735	571.62
487.953	570.62
488.171	587.62
488.389	586.62
488.607	560.62
488.825	572.62
489.043	580.62
489.261	582.62
489.479	584.62
489.696	561.62
489.914	563.62
490.132	568.62
490.35	582.62
490.568	563.62
490.786	574.62
491.003	555.62
491.221	577.62
491.439	591.62
491.657	588.62
491.874	585.62
492.092	601.62
492.31	593.62
492.527	583.62
492.745	597.62
492.963	601.62
493.18	595.62
493.398	595.62
493.615	607.62
493.833	606.62
494.05	590.62
494.268	611.62
494.485	601.62
494.703	613.62
494.92	607.62
495.138	580.62
495.355	598.62
495.573	630.62
495.79	626.62
496.008	598.62
496.225	642.62
496.442	610.62
496.66	631.62
496.877	652.62
497.094	654.62
497.312	649.62
497.529	668.62
497.746	703.62
497.963	715.62
498.181	703.62
498.398	723.62
498.615	771.62
498.832	816.62
499.049	800.62
499.267	838.62
499.484	892.62
499.701	912.62
499.918	942.62
500.135	1010.62
500.352	1047.62
500.569	1042.62
500.786	1042.62
501.003	987.62
501.22	955.62
501.437	917.62
501.654	896.62
501.871	838.62
