Data from Fe(NO3)3@0.1M.TitratingCurve.Agarose3%dH2O.NegLispCup.LampEnergy10.LIBS07252019_HRD10591_16-39-54-332.txt Node
Date: Thu Jul 25 16:39:54 EDT 2019
User: cochatt
Spectrometer: HR+D1059
Trigger mode: 1
Integration Time (sec): 1.000000E-1
Scans to average: 1
Electric dark correction enabled: true
Nonlinearity correction enabled: false
Boxcar width: 0
XAxis mode: Wavelengths
Number of Pixels in Spectrum: 2048
>>>>>Begin Spectral Data<<<<<
223.165	-18.38
223.4	-18.38
223.635	-18.38
223.869	-24.38
224.104	-20.38
224.338	-16.38
224.573	-24.38
224.808	-5.38
225.042	-11.38
225.277	3.62
225.511	7.62
225.746	-13.38
225.98	11.62
226.215	18.62
226.449	20.62
226.683	12.62
226.918	31.62
227.152	27.62
227.387	27.62
227.621	37.62
227.856	43.62
228.09	49.62
228.324	55.62
228.559	64.62
228.793	53.62
229.027	83.62
229.262	86.62
229.496	95.62
229.73	96.62
229.964	93.62
230.199	101.62
230.433	101.62
230.667	93.62
230.901	120.62
231.136	121.62
231.37	125.62
231.604	128.62
231.838	115.62
232.072	113.62
232.306	123.62
232.541	113.62
232.775	113.62
233.009	113.62
233.243	114.62
233.477	101.62
233.711	135.62
233.945	114.62
234.179	123.62
234.413	122.62
234.647	132.62
234.881	114.62
235.115	103.62
235.349	113.62
235.583	128.62
235.817	119.62
236.051	121.62
236.285	124.62
236.519	122.62
236.753	130.62
236.987	127.62
237.221	108.62
237.455	114.62
237.689	111.62
237.922	117.62
238.156	119.62
238.39	124.62
238.624	128.62
238.858	120.62
239.091	128.62
239.325	131.62
239.559	125.62
239.793	123.62
240.027	124.62
240.26	130.62
240.494	130.62
240.728	138.62
240.961	115.62
241.195	135.62
241.429	132.62
241.662	129.62
241.896	131.62
242.13	142.62
242.363	127.62
242.597	144.62
242.83	144.62
243.064	153.62
243.298	169.62
243.531	139.62
243.765	141.62
243.998	133.62
244.232	132.62
244.465	137.62
244.699	144.62
244.932	163.62
245.166	145.62
245.399	148.62
245.633	142.62
245.866	148.62
246.099	139.62
246.333	163.62
246.566	151.62
246.8	141.62
247.033	149.62
247.266	153.62
247.5	161.62
247.733	170.62
247.966	157.62
248.2	167.62
248.433	167.62
248.666	151.62
248.899	173.62
249.133	168.62
249.366	179.62
249.599	156.62
249.832	151.62
250.066	159.62
250.299	171.62
250.532	172.62
250.765	168.62
250.998	175.62
251.231	170.62
251.465	170.62
251.698	174.62
251.931	181.62
252.164	169.62
252.397	167.62
252.63	181.62
252.863	185.62
253.096	163.62
253.329	183.62
253.562	181.62
253.795	180.62
254.028	186.62
254.261	181.62
254.494	193.62
254.727	182.62
254.96	186.62
255.193	163.62
255.426	179.62
255.659	169.62
255.892	184.62
256.124	193.62
256.357	186.62
256.59	203.62
256.823	195.62
257.056	175.62
257.289	179.62
257.521	193.62
257.754	184.62
257.987	199.62
258.22	178.62
258.452	195.62
258.685	180.62
258.918	189.62
259.151	204.62
259.383	200.62
259.616	206.62
259.849	200.62
260.081	221.62
260.314	210.62
260.547	197.62
260.779	198.62
261.012	192.62
261.244	195.62
261.477	206.62
261.71	202.62
261.942	203.62
262.175	218.62
262.407	211.62
262.64	199.62
262.872	199.62
263.105	211.62
263.337	225.62
263.57	216.62
263.802	219.62
264.035	216.62
264.267	209.62
264.499	230.62
264.732	212.62
264.964	214.62
265.197	224.62
265.429	217.62
265.661	215.62
265.894	217.62
266.126	212.62
266.358	199.62
266.591	223.62
266.823	219.62
267.055	225.62
267.287	234.62
267.52	220.62
267.752	222.62
267.984	201.62
268.216	220.62
268.448	220.62
268.681	237.62
268.913	217.62
269.145	229.62
269.377	217.62
269.609	223.62
269.841	232.62
270.073	213.62
270.306	242.62
270.538	230.62
270.77	247.62
271.002	223.62
271.234	235.62
271.466	245.62
271.698	238.62
271.93	236.62
272.162	258.62
272.394	243.62
272.626	246.62
272.858	256.62
273.09	242.62
273.322	263.62
273.553	234.62
273.785	240.62
274.017	238.62
274.249	274.62
274.481	269.62
274.713	249.62
274.945	263.62
275.176	252.62
275.408	260.62
275.64	284.62
275.872	283.62
276.104	258.62
276.335	264.62
276.567	265.62
276.799	249.62
277.031	256.62
277.262	236.62
277.494	260.62
277.726	256.62
277.957	253.62
278.189	269.62
278.421	268.62
278.652	278.62
278.884	262.62
279.115	272.62
279.347	279.62
279.579	272.62
279.81	262.62
280.042	269.62
280.273	291.62
280.505	269.62
280.736	262.62
280.968	298.62
281.199	265.62
281.431	276.62
281.662	281.62
281.894	295.62
282.125	294.62
282.356	299.62
282.588	292.62
282.819	283.62
283.051	291.62
283.282	281.62
283.513	291.62
283.745	275.62
283.976	292.62
284.207	307.62
284.439	285.62
284.67	285.62
284.901	298.62
285.132	283.62
285.364	304.62
285.595	305.62
285.826	297.62
286.057	300.62
286.288	301.62
286.52	301.62
286.751	287.62
286.982	306.62
287.213	292.62
287.444	281.62
287.675	326.62
287.906	275.62
288.138	314.62
288.369	330.62
288.6	305.62
288.831	302.62
289.062	313.62
289.293	290.62
289.524	321.62
289.755	313.62
289.986	300.62
290.217	311.62
290.448	282.62
290.679	315.62
290.91	312.62
291.141	305.62
291.371	324.62
291.602	324.62
291.833	321.62
292.064	306.62
292.295	307.62
292.526	300.62
292.757	297.62
292.987	312.62
293.218	303.62
293.449	330.62
293.68	320.62
293.91	297.62
294.141	315.62
294.372	308.62
294.603	324.62
294.833	330.62
295.064	300.62
295.295	324.62
295.525	319.62
295.756	314.62
295.987	329.62
296.217	318.62
296.448	335.62
296.679	330.62
296.909	320.62
297.14	307.62
297.37	341.62
297.601	339.62
297.831	343.62
298.062	338.62
298.292	323.62
298.523	339.62
298.753	363.62
298.984	343.62
299.214	340.62
299.445	345.62
299.675	332.62
299.905	344.62
300.136	335.62
300.366	335.62
300.597	342.62
300.827	340.62
301.057	343.62
301.288	346.62
301.518	352.62
301.748	375.62
301.979	339.62
302.209	345.62
302.439	342.62
302.669	347.62
302.9	364.62
303.13	336.62
303.36	357.62
303.59	343.62
303.82	363.62
304.051	370.62
304.281	371.62
304.511	365.62
304.741	366.62
304.971	340.62
305.201	366.62
305.431	354.62
305.661	358.62
305.891	349.62
306.121	356.62
306.352	355.62
306.582	353.62
306.812	347.62
307.042	349.62
307.272	362.62
307.502	350.62
307.731	348.62
307.961	361.62
308.191	355.62
308.421	366.62
308.651	355.62
308.881	348.62
309.111	350.62
309.341	342.62
309.571	352.62
309.8	340.62
310.03	374.62
310.26	355.62
310.49	347.62
310.72	360.62
310.949	355.62
311.179	367.62
311.409	353.62
311.639	360.62
311.868	355.62
312.098	369.62
312.328	366.62
312.557	367.62
312.787	382.62
313.017	364.62
313.246	361.62
313.476	369.62
313.706	361.62
313.935	379.62
314.165	377.62
314.394	370.62
314.624	370.62
314.853	378.62
315.083	372.62
315.312	382.62
315.542	369.62
315.771	377.62
316.001	374.62
316.23	364.62
316.46	374.62
316.689	369.62
316.919	364.62
317.148	379.62
317.377	381.62
317.607	378.62
317.836	381.62
318.065	361.62
318.295	397.62
318.524	395.62
318.753	373.62
318.983	373.62
319.212	370.62
319.441	363.62
319.67	374.62
319.9	357.62
320.129	377.62
320.358	390.62
320.587	365.62
320.816	375.62
321.046	367.62
321.275	388.62
321.504	373.62
321.733	398.62
321.962	377.62
322.191	388.62
322.42	370.62
322.649	381.62
322.878	395.62
323.108	405.62
323.337	386.62
323.566	396.62
323.795	400.62
324.024	405.62
324.253	386.62
324.482	377.62
324.71	409.62
324.939	387.62
325.168	387.62
325.397	386.62
325.626	413.62
325.855	421.62
326.084	412.62
326.313	422.62
326.542	404.62
326.77	433.62
326.999	421.62
327.228	405.62
327.457	403.62
327.686	424.62
327.914	421.62
328.143	410.62
328.372	437.62
328.6	402.62
328.829	419.62
329.058	399.62
329.287	428.62
329.515	393.62
329.744	407.62
329.972	410.62
330.201	415.62
330.43	427.62
330.658	428.62
330.887	413.62
331.115	414.62
331.344	426.62
331.572	438.62
331.801	428.62
332.03	467.62
332.258	436.62
332.486	456.62
332.715	460.62
332.943	487.62
333.172	489.62
333.4	469.62
333.629	531.62
333.857	495.62
334.085	523.62
334.314	510.62
334.542	518.62
334.771	502.62
334.999	500.62
335.227	506.62
335.455	488.62
335.684	499.62
335.912	502.62
336.14	489.62
336.369	475.62
336.597	492.62
336.825	480.62
337.053	500.62
337.281	465.62
337.51	466.62
337.738	494.62
337.966	479.62
338.194	490.62
338.422	465.62
338.65	442.62
338.878	440.62
339.106	444.62
339.334	444.62
339.562	463.62
339.79	437.62
340.018	449.62
340.246	432.62
340.474	443.62
340.702	426.62
340.93	435.62
341.158	411.62
341.386	431.62
341.614	437.62
341.842	446.62
342.07	425.62
342.298	425.62
342.526	417.62
342.754	451.62
342.981	438.62
343.209	445.62
343.437	447.62
343.665	476.62
343.893	510.62
344.12	494.62
344.348	487.62
344.576	486.62
344.804	466.62
345.031	459.62
345.259	444.62
345.487	430.62
345.714	449.62
345.942	447.62
346.17	432.62
346.397	431.62
346.625	435.62
346.853	428.62
347.08	427.62
347.308	426.62
347.535	440.62
347.763	423.62
347.99	413.62
348.218	423.62
348.445	418.62
348.673	422.62
348.9	444.62
349.128	439.62
349.355	414.62
349.583	409.62
349.81	422.62
350.037	412.62
350.265	438.62
350.492	419.62
350.72	409.62
350.947	416.62
351.174	422.62
351.402	417.62
351.629	405.62
351.856	412.62
352.083	418.62
352.311	414.62
352.538	414.62
352.765	397.62
352.992	403.62
353.22	417.62
353.447	422.62
353.674	406.62
353.901	411.62
354.128	410.62
354.355	412.62
354.583	418.62
354.81	408.62
355.037	398.62
355.264	395.62
355.491	428.62
355.718	421.62
355.945	419.62
356.172	405.62
356.399	425.62
356.626	424.62
356.853	415.62
357.08	415.62
357.307	426.62
357.534	434.62
357.761	428.62
357.988	416.62
358.215	406.62
358.441	438.62
358.668	424.62
358.895	422.62
359.122	395.62
359.349	421.62
359.576	408.62
359.802	423.62
360.029	426.62
360.256	422.62
360.483	417.62
360.709	424.62
360.936	443.62
361.163	439.62
361.39	417.62
361.616	429.62
361.843	412.62
362.07	427.62
362.296	412.62
362.523	418.62
362.749	434.62
362.976	427.62
363.203	422.62
363.429	415.62
363.656	426.62
363.882	418.62
364.109	422.62
364.335	425.62
364.562	420.62
364.788	404.62
365.015	429.62
365.241	413.62
365.468	419.62
365.694	398.62
365.92	408.62
366.147	410.62
366.373	413.62
366.599	442.62
366.826	413.62
367.052	425.62
367.278	417.62
367.505	429.62
367.731	452.62
367.957	430.62
368.184	422.62
368.41	427.62
368.636	430.62
368.862	439.62
369.089	445.62
369.315	444.62
369.541	431.62
369.767	457.62
369.993	447.62
370.219	440.62
370.445	436.62
370.672	437.62
370.898	453.62
371.124	451.62
371.35	475.62
371.576	462.62
371.802	451.62
372.028	457.62
372.254	457.62
372.48	454.62
372.706	486.62
372.932	458.62
373.158	468.62
373.384	460.62
373.61	455.62
373.835	461.62
374.061	472.62
374.287	456.62
374.513	455.62
374.739	491.62
374.965	509.62
375.191	490.62
375.416	515.62
375.642	508.62
375.868	506.62
376.094	463.62
376.319	461.62
376.545	472.62
376.771	483.62
376.997	458.62
377.222	466.62
377.448	447.62
377.674	469.62
377.899	459.62
378.125	441.62
378.35	467.62
378.576	455.62
378.802	449.62
379.027	457.62
379.253	477.62
379.478	450.62
379.704	443.62
379.929	466.62
380.155	453.62
380.38	447.62
380.606	445.62
380.831	449.62
381.057	470.62
381.282	479.62
381.507	462.62
381.733	483.62
381.958	483.62
382.184	484.62
382.409	491.62
382.634	485.62
382.86	483.62
383.085	497.62
383.31	474.62
383.535	478.62
383.761	508.62
383.986	506.62
384.211	490.62
384.436	495.62
384.662	531.62
384.887	554.62
385.112	546.62
385.337	534.62
385.562	548.62
385.787	535.62
386.013	534.62
386.238	553.62
386.463	542.62
386.688	551.62
386.913	527.62
387.138	527.62
387.363	524.62
387.588	550.62
387.813	548.62
388.038	543.62
388.263	550.62
388.488	551.62
388.713	555.62
388.938	549.62
389.163	561.62
389.387	541.62
389.612	552.62
389.837	550.62
390.062	530.62
390.287	534.62
390.512	541.62
390.736	554.62
390.961	561.62
391.186	586.62
391.411	565.62
391.636	582.62
391.86	591.62
392.085	613.62
392.31	597.62
392.534	613.62
392.759	618.62
392.984	571.62
393.208	550.62
393.433	583.62
393.658	588.62
393.882	609.62
394.107	566.62
394.331	588.62
394.556	580.62
394.78	586.62
395.005	575.62
395.229	601.62
395.454	557.62
395.678	593.62
395.903	605.62
396.127	609.62
396.352	581.62
396.576	588.62
396.801	600.62
397.025	574.62
397.249	611.62
397.474	613.62
397.698	603.62
397.922	605.62
398.147	610.62
398.371	612.62
398.595	648.62
398.82	665.62
399.044	703.62
399.268	733.62
399.492	836.62
399.717	885.62
399.941	909.62
400.165	822.62
400.389	793.62
400.613	746.62
400.837	732.62
401.062	691.62
401.286	677.62
401.51	675.62
401.734	643.62
401.958	680.62
402.182	678.62
402.406	687.62
402.63	697.62
402.854	727.62
403.078	712.62
403.302	686.62
403.526	735.62
403.75	727.62
403.974	703.62
404.198	726.62
404.422	745.62
404.645	699.62
404.869	713.62
405.093	723.62
405.317	728.62
405.541	712.62
405.765	680.62
405.988	725.62
406.212	730.62
406.436	735.62
406.66	749.62
406.883	737.62
407.107	743.62
407.331	809.62
407.555	802.62
407.778	823.62
408.002	838.62
408.226	777.62
408.449	769.62
408.673	774.62
408.896	746.62
409.12	755.62
409.344	779.62
409.567	743.62
409.791	761.62
410.014	757.62
410.238	730.62
410.461	714.62
410.685	746.62
410.908	744.62
411.132	731.62
411.355	718.62
411.578	703.62
411.802	709.62
412.025	719.62
412.249	712.62
412.472	709.62
412.695	722.62
412.919	670.62
413.142	679.62
413.365	697.62
413.589	705.62
413.812	681.62
414.035	697.62
414.258	685.62
414.482	680.62
414.705	694.62
414.928	691.62
415.151	706.62
415.374	691.62
415.597	723.62
415.821	669.62
416.044	655.62
416.267	665.62
416.49	660.62
416.713	671.62
416.936	683.62
417.159	672.62
417.382	667.62
417.605	663.62
417.828	652.62
418.051	670.62
418.274	667.62
418.497	629.62
418.72	662.62
418.943	682.62
419.166	719.62
419.389	745.62
419.611	750.62
419.834	716.62
420.057	705.62
420.28	682.62
420.503	642.62
420.726	679.62
420.948	689.62
421.171	673.62
421.394	671.62
421.617	675.62
421.839	664.62
422.062	691.62
422.285	665.62
422.507	676.62
422.73	633.62
422.953	673.62
423.175	692.62
423.398	689.62
423.621	687.62
423.843	689.62
424.066	682.62
424.288	688.62
424.511	682.62
424.733	655.62
424.956	657.62
425.178	661.62
425.401	677.62
425.623	663.62
425.846	658.62
426.068	623.62
426.291	618.62
426.513	632.62
426.735	636.62
426.958	657.62
427.18	636.62
427.402	635.62
427.625	622.62
427.847	631.62
428.069	607.62
428.292	634.62
428.514	605.62
428.736	614.62
428.958	602.62
429.181	606.62
429.403	606.62
429.625	616.62
429.847	595.62
430.069	615.62
430.292	615.62
430.514	595.62
430.736	611.62
430.958	603.62
431.18	592.62
431.402	611.62
431.624	587.62
431.846	614.62
432.068	606.62
432.29	619.62
432.512	628.62
432.734	631.62
432.956	620.62
433.178	618.62
433.4	605.62
433.622	606.62
433.844	635.62
434.066	638.62
434.287	627.62
434.509	653.62
434.731	672.62
434.953	663.62
435.175	649.62
435.397	641.62
435.618	640.62
435.84	617.62
436.062	633.62
436.284	642.62
436.505	617.62
436.727	607.62
436.949	631.62
437.17	629.62
437.392	602.62
437.614	618.62
437.835	609.62
438.057	595.62
438.278	591.62
438.5	596.62
438.721	617.62
438.943	601.62
439.165	590.62
439.386	607.62
439.608	596.62
439.829	614.62
440.05	624.62
440.272	633.62
440.493	633.62
440.715	622.62
440.936	635.62
441.158	655.62
441.379	657.62
441.6	671.62
441.822	689.62
442.043	676.62
442.264	680.62
442.486	665.62
442.707	671.62
442.928	682.62
443.149	640.62
443.371	649.62
443.592	654.62
443.813	673.62
444.034	668.62
444.255	695.62
444.476	702.62
444.698	715.62
444.919	735.62
445.14	835.62
445.361	749.62
445.582	691.62
445.803	674.62
446.024	657.62
446.245	651.62
446.466	646.62
446.687	635.62
446.908	637.62
447.129	655.62
447.35	609.62
447.571	627.62
447.792	603.62
448.013	609.62
448.234	586.62
448.455	591.62
448.675	577.62
448.896	582.62
449.117	585.62
449.338	568.62
449.559	567.62
449.779	573.62
450	555.62
450.221	580.62
450.442	579.62
450.662	591.62
450.883	580.62
451.104	591.62
451.324	578.62
451.545	561.62
451.766	561.62
451.986	574.62
452.207	564.62
452.428	574.62
452.648	557.62
452.869	558.62
453.089	568.62
453.31	565.62
453.53	548.62
453.751	554.62
453.971	551.62
454.192	557.62
454.412	540.62
454.633	525.62
454.853	547.62
455.073	531.62
455.294	550.62
455.514	549.62
455.734	559.62
455.955	541.62
456.175	525.62
456.395	523.62
456.616	545.62
456.836	554.62
457.056	526.62
457.276	539.62
457.497	536.62
457.717	534.62
457.937	534.62
458.157	556.62
458.377	566.62
458.598	574.62
458.818	566.62
459.038	582.62
459.258	606.62
459.478	616.62
459.698	629.62
459.918	648.62
460.138	635.62
460.358	651.62
460.578	660.62
460.798	675.62
461.018	673.62
461.238	670.62
461.458	682.62
461.678	682.62
461.898	722.62
462.118	693.62
462.338	729.62
462.558	749.62
462.777	747.62
462.997	846.62
463.217	853.62
463.437	850.62
463.657	825.62
463.876	787.62
464.096	811.62
464.316	782.62
464.536	778.62
464.755	754.62
464.975	735.62
465.195	708.62
465.414	698.62
465.634	667.62
465.854	632.62
466.073	631.62
466.293	615.62
466.512	609.62
466.732	596.62
466.951	612.62
467.171	580.62
467.391	616.62
467.61	599.62
467.829	574.62
468.049	583.62
468.268	579.62
468.488	589.62
468.707	569.62
468.927	568.62
469.146	588.62
469.365	594.62
469.585	587.62
469.804	613.62
470.023	597.62
470.243	584.62
470.462	590.62
470.681	610.62
470.901	609.62
471.12	609.62
471.339	587.62
471.558	592.62
471.777	555.62
471.997	571.62
472.216	563.62
472.435	577.62
472.654	565.62
472.873	555.62
473.092	572.62
473.311	565.62
473.53	566.62
473.749	556.62
473.968	567.62
474.187	557.62
474.406	571.62
474.625	579.62
474.844	564.62
475.063	555.62
475.282	571.62
475.501	567.62
475.72	585.62
475.939	589.62
476.158	567.62
476.377	540.62
476.596	577.62
476.814	589.62
477.033	577.62
477.252	614.62
477.471	611.62
477.69	610.62
477.908	637.62
478.127	649.62
478.346	632.62
478.564	658.62
478.783	670.62
479.002	666.62
479.22	666.62
479.439	678.62
479.658	662.62
479.876	695.62
480.095	685.62
480.313	691.62
480.532	685.62
480.751	697.62
480.969	685.62
481.188	656.62
481.406	655.62
481.624	661.62
481.843	630.62
482.061	631.62
482.28	630.62
482.498	617.62
482.717	625.62
482.935	657.62
483.153	620.62
483.372	639.62
483.59	625.62
483.808	633.62
484.027	634.62
484.245	654.62
484.463	653.62
484.681	641.62
484.9	643.62
485.118	662.62
485.336	662.62
485.554	659.62
485.772	665.62
485.99	672.62
486.209	667.62
486.427	638.62
486.645	646.62
486.863	676.62
487.081	666.62
487.299	667.62
487.517	652.62
487.735	673.62
487.953	656.62
488.171	642.62
488.389	673.62
488.607	654.62
488.825	661.62
489.043	643.62
489.261	630.62
489.479	651.62
489.696	652.62
489.914	673.62
490.132	653.62
490.35	668.62
490.568	651.62
490.786	662.62
491.003	677.62
491.221	670.62
491.439	681.62
491.657	652.62
491.874	685.62
492.092	655.62
492.31	715.62
492.527	658.62
492.745	669.62
492.963	689.62
493.18	679.62
493.398	701.62
493.615	691.62
493.833	699.62
494.05	678.62
494.268	702.62
494.485	706.62
494.703	707.62
494.92	712.62
495.138	689.62
495.355	682.62
495.573	691.62
495.79	697.62
496.008	716.62
496.225	707.62
496.442	730.62
496.66	717.62
496.877	735.62
497.094	772.62
497.312	767.62
497.529	792.62
497.746	809.62
497.963	811.62
498.181	834.62
498.398	846.62
498.615	904.62
498.832	938.62
499.049	1045.62
499.267	1102.62
499.484	1147.62
499.701	1247.62
499.918	1332.62
500.135	1454.62
500.352	1576.62
500.569	1605.62
500.786	1594.62
501.003	1535.62
501.22	1409.62
501.437	1279.62
