Data from Fe(NO3)3@0.1M.TitratingCurve.Agarose3%dH2O.NegLispCup.LampEnergy10.LIBS07252019_HRD10591_16-41-18-337.txt Node
Date: Thu Jul 25 16:41:18 EDT 2019
User: cochatt
Spectrometer: HR+D1059
Trigger mode: 1
Integration Time (sec): 1.000000E-1
Scans to average: 1
Electric dark correction enabled: true
Nonlinearity correction enabled: false
Boxcar width: 0
XAxis mode: Wavelengths
Number of Pixels in Spectrum: 2048
>>>>>Begin Spectral Data<<<<<
223.165	-22.75
223.4	-22.75
223.635	-22.75
223.869	-12.75
224.104	-9.75
224.338	-18.75
224.573	-19.75
224.808	-16.75
225.042	7.25
225.277	-0.75
225.511	-2.75
225.746	5.25
225.98	3.25
226.215	4.25
226.449	7.25
226.683	25.25
226.918	17.25
227.152	34.25
227.387	30.25
227.621	48.25
227.856	41.25
228.09	38.25
228.324	57.25
228.559	60.25
228.793	64.25
229.027	77.25
229.262	77.25
229.496	80.25
229.73	81.25
229.964	71.25
230.199	91.25
230.433	84.25
230.667	91.25
230.901	88.25
231.136	106.25
231.37	97.25
231.604	102.25
231.838	98.25
232.072	100.25
232.306	85.25
232.541	93.25
232.775	100.25
233.009	96.25
233.243	83.25
233.477	99.25
233.711	91.25
233.945	99.25
234.179	107.25
234.413	105.25
234.647	96.25
234.881	90.25
235.115	84.25
235.349	99.25
235.583	91.25
235.817	105.25
236.051	95.25
236.285	87.25
236.519	86.25
236.753	91.25
236.987	95.25
237.221	108.25
237.455	100.25
237.689	75.25
237.922	99.25
238.156	98.25
238.39	103.25
238.624	94.25
238.858	88.25
239.091	85.25
239.325	83.25
239.559	85.25
239.793	102.25
240.027	93.25
240.26	93.25
240.494	93.25
240.728	77.25
240.961	116.25
241.195	107.25
241.429	91.25
241.662	95.25
241.896	103.25
242.13	106.25
242.363	93.25
242.597	92.25
242.83	114.25
243.064	86.25
243.298	106.25
243.531	98.25
243.765	104.25
243.998	108.25
244.232	101.25
244.465	123.25
244.699	116.25
244.932	97.25
245.166	99.25
245.399	95.25
245.633	88.25
245.866	114.25
246.099	94.25
246.333	115.25
246.566	96.25
246.8	109.25
247.033	102.25
247.266	104.25
247.5	100.25
247.733	103.25
247.966	105.25
248.2	111.25
248.433	105.25
248.666	114.25
248.899	116.25
249.133	106.25
249.366	120.25
249.599	109.25
249.832	109.25
250.066	107.25
250.299	111.25
250.532	101.25
250.765	109.25
250.998	110.25
251.231	126.25
251.465	116.25
251.698	104.25
251.931	118.25
252.164	124.25
252.397	121.25
252.63	108.25
252.863	113.25
253.096	129.25
253.329	127.25
253.562	116.25
253.795	114.25
254.028	132.25
254.261	109.25
254.494	115.25
254.727	126.25
254.96	113.25
255.193	126.25
255.426	107.25
255.659	93.25
255.892	132.25
256.124	104.25
256.357	124.25
256.59	127.25
256.823	123.25
257.056	122.25
257.289	123.25
257.521	125.25
257.754	133.25
257.987	115.25
258.22	135.25
258.452	117.25
258.685	130.25
258.918	113.25
259.151	132.25
259.383	134.25
259.616	120.25
259.849	140.25
260.081	121.25
260.314	125.25
260.547	129.25
260.779	106.25
261.012	128.25
261.244	144.25
261.477	126.25
261.71	130.25
261.942	131.25
262.175	131.25
262.407	128.25
262.64	135.25
262.872	125.25
263.105	138.25
263.337	121.25
263.57	135.25
263.802	134.25
264.035	125.25
264.267	130.25
264.499	125.25
264.732	139.25
264.964	141.25
265.197	130.25
265.429	120.25
265.661	126.25
265.894	138.25
266.126	127.25
266.358	122.25
266.591	117.25
266.823	119.25
267.055	125.25
267.287	138.25
267.52	133.25
267.752	139.25
267.984	124.25
268.216	130.25
268.448	144.25
268.681	135.25
268.913	125.25
269.145	132.25
269.377	142.25
269.609	133.25
269.841	141.25
270.073	137.25
270.306	106.25
270.538	143.25
270.77	123.25
271.002	130.25
271.234	119.25
271.466	132.25
271.698	130.25
271.93	150.25
272.162	131.25
272.394	150.25
272.626	140.25
272.858	136.25
273.09	144.25
273.322	141.25
273.553	132.25
273.785	148.25
274.017	136.25
274.249	134.25
274.481	148.25
274.713	145.25
274.945	138.25
275.176	138.25
275.408	147.25
275.64	145.25
275.872	132.25
276.104	149.25
276.335	155.25
276.567	155.25
276.799	151.25
277.031	160.25
277.262	158.25
277.494	145.25
277.726	156.25
277.957	136.25
278.189	150.25
278.421	158.25
278.652	142.25
278.884	141.25
279.115	149.25
279.347	156.25
279.579	154.25
279.81	156.25
280.042	147.25
280.273	155.25
280.505	150.25
280.736	143.25
280.968	148.25
281.199	157.25
281.431	164.25
281.662	148.25
281.894	158.25
282.125	145.25
282.356	162.25
282.588	150.25
282.819	150.25
283.051	145.25
283.282	156.25
283.513	157.25
283.745	175.25
283.976	152.25
284.207	147.25
284.439	161.25
284.67	166.25
284.901	153.25
285.132	152.25
285.364	161.25
285.595	163.25
285.826	166.25
286.057	171.25
286.288	161.25
286.52	158.25
286.751	168.25
286.982	167.25
287.213	153.25
287.444	164.25
287.675	167.25
287.906	162.25
288.138	166.25
288.369	187.25
288.6	172.25
288.831	163.25
289.062	164.25
289.293	166.25
289.524	158.25
289.755	166.25
289.986	168.25
290.217	178.25
290.448	181.25
290.679	182.25
290.91	167.25
291.141	172.25
291.371	170.25
291.602	175.25
291.833	163.25
292.064	172.25
292.295	165.25
292.526	163.25
292.757	159.25
292.987	153.25
293.218	168.25
293.449	162.25
293.68	165.25
293.91	179.25
294.141	170.25
294.372	178.25
294.603	172.25
294.833	171.25
295.064	171.25
295.295	191.25
295.525	171.25
295.756	171.25
295.987	169.25
296.217	175.25
296.448	162.25
296.679	165.25
296.909	157.25
297.14	198.25
297.37	178.25
297.601	182.25
297.831	180.25
298.062	183.25
298.292	195.25
298.523	174.25
298.753	174.25
298.984	147.25
299.214	182.25
299.445	165.25
299.675	188.25
299.905	173.25
300.136	174.25
300.366	190.25
300.597	180.25
300.827	189.25
301.057	189.25
301.288	206.25
301.518	182.25
301.748	177.25
301.979	186.25
302.209	207.25
302.439	197.25
302.669	181.25
302.9	178.25
303.13	199.25
303.36	198.25
303.59	178.25
303.82	192.25
304.051	186.25
304.281	189.25
304.511	208.25
304.741	193.25
304.971	170.25
305.201	183.25
305.431	188.25
305.661	194.25
305.891	182.25
306.121	195.25
306.352	186.25
306.582	168.25
306.812	187.25
307.042	173.25
307.272	178.25
307.502	186.25
307.731	191.25
307.961	205.25
308.191	181.25
308.421	200.25
308.651	200.25
308.881	191.25
309.111	190.25
309.341	172.25
309.571	186.25
309.8	189.25
310.03	187.25
310.26	204.25
310.49	194.25
310.72	203.25
310.949	186.25
311.179	203.25
311.409	198.25
311.639	190.25
311.868	208.25
312.098	197.25
312.328	197.25
312.557	202.25
312.787	197.25
313.017	212.25
313.246	203.25
313.476	206.25
313.706	208.25
313.935	212.25
314.165	204.25
314.394	204.25
314.624	211.25
314.853	213.25
315.083	216.25
315.312	193.25
315.542	200.25
315.771	211.25
316.001	207.25
316.23	199.25
316.46	188.25
316.689	205.25
316.919	184.25
317.148	187.25
317.377	205.25
317.607	174.25
317.836	194.25
318.065	202.25
318.295	217.25
318.524	200.25
318.753	198.25
318.983	207.25
319.212	200.25
319.441	195.25
319.67	199.25
319.9	187.25
320.129	209.25
320.358	206.25
320.587	192.25
320.816	210.25
321.046	215.25
321.275	203.25
321.504	204.25
321.733	202.25
321.962	213.25
322.191	202.25
322.42	214.25
322.649	219.25
322.878	230.25
323.108	200.25
323.337	176.25
323.566	215.25
323.795	208.25
324.024	215.25
324.253	208.25
324.482	214.25
324.71	200.25
324.939	206.25
325.168	204.25
325.397	200.25
325.626	221.25
325.855	210.25
326.084	212.25
326.313	219.25
326.542	211.25
326.77	208.25
326.999	222.25
327.228	218.25
327.457	217.25
327.686	214.25
327.914	233.25
328.143	218.25
328.372	222.25
328.6	228.25
328.829	226.25
329.058	206.25
329.287	235.25
329.515	221.25
329.744	222.25
329.972	211.25
330.201	230.25
330.43	216.25
330.658	222.25
330.887	228.25
331.115	214.25
331.344	232.25
331.572	235.25
331.801	222.25
332.03	227.25
332.258	232.25
332.486	260.25
332.715	240.25
332.943	262.25
333.172	272.25
333.4	274.25
333.629	255.25
333.857	275.25
334.085	270.25
334.314	252.25
334.542	262.25
334.771	278.25
334.999	259.25
335.227	255.25
335.455	252.25
335.684	269.25
335.912	256.25
336.14	244.25
336.369	255.25
336.597	262.25
336.825	247.25
337.053	262.25
337.281	236.25
337.51	244.25
337.738	249.25
337.966	235.25
338.194	233.25
338.422	231.25
338.65	239.25
338.878	222.25
339.106	229.25
339.334	242.25
339.562	219.25
339.79	217.25
340.018	224.25
340.246	231.25
340.474	226.25
340.702	249.25
340.93	244.25
341.158	238.25
341.386	218.25
341.614	224.25
341.842	228.25
342.07	235.25
342.298	229.25
342.526	228.25
342.754	219.25
342.981	242.25
343.209	242.25
343.437	252.25
343.665	263.25
343.893	258.25
344.12	245.25
344.348	248.25
344.576	243.25
344.804	226.25
345.031	231.25
345.259	248.25
345.487	223.25
345.714	241.25
345.942	232.25
346.17	246.25
346.397	214.25
346.625	220.25
346.853	218.25
347.08	230.25
347.308	230.25
347.535	220.25
347.763	216.25
347.99	232.25
348.218	226.25
348.445	218.25
348.673	223.25
348.9	225.25
349.128	219.25
349.355	218.25
349.583	218.25
349.81	234.25
350.037	215.25
350.265	215.25
350.492	216.25
350.72	234.25
350.947	241.25
351.174	218.25
351.402	212.25
351.629	212.25
351.856	222.25
352.083	224.25
352.311	223.25
352.538	226.25
352.765	222.25
352.992	212.25
353.22	218.25
353.447	223.25
353.674	221.25
353.901	213.25
354.128	206.25
354.355	229.25
354.583	205.25
354.81	212.25
355.037	202.25
355.264	209.25
355.491	235.25
355.718	215.25
355.945	219.25
356.172	211.25
356.399	230.25
356.626	218.25
356.853	228.25
357.08	221.25
357.307	230.25
357.534	220.25
357.761	215.25
357.988	212.25
358.215	221.25
358.441	224.25
358.668	226.25
358.895	231.25
359.122	234.25
359.349	218.25
359.576	216.25
359.802	215.25
360.029	233.25
360.256	226.25
360.483	229.25
360.709	228.25
360.936	206.25
361.163	224.25
361.39	224.25
361.616	221.25
361.843	224.25
362.07	214.25
362.296	215.25
362.523	229.25
362.749	219.25
362.976	234.25
363.203	238.25
363.429	207.25
363.656	222.25
363.882	221.25
364.109	203.25
364.335	211.25
364.562	222.25
364.788	211.25
365.015	227.25
365.241	236.25
365.468	229.25
365.694	220.25
365.92	259.25
366.147	229.25
366.373	221.25
366.599	220.25
366.826	223.25
367.052	207.25
367.278	246.25
367.505	218.25
367.731	229.25
367.957	222.25
368.184	224.25
368.41	217.25
368.636	224.25
368.862	235.25
369.089	230.25
369.315	232.25
369.541	230.25
369.767	228.25
369.993	238.25
370.219	245.25
370.445	225.25
370.672	232.25
370.898	231.25
371.124	226.25
371.35	246.25
371.576	225.25
371.802	246.25
372.028	242.25
372.254	244.25
372.48	253.25
372.706	262.25
372.932	245.25
373.158	239.25
373.384	242.25
373.61	244.25
373.835	253.25
374.061	254.25
374.287	237.25
374.513	247.25
374.739	258.25
374.965	258.25
375.191	263.25
375.416	255.25
375.642	262.25
375.868	238.25
376.094	233.25
376.319	247.25
376.545	244.25
376.771	260.25
376.997	228.25
377.222	247.25
377.448	256.25
377.674	247.25
377.899	239.25
378.125	234.25
378.35	247.25
378.576	240.25
378.802	242.25
379.027	244.25
379.253	235.25
379.478	263.25
379.704	247.25
379.929	242.25
380.155	249.25
380.38	237.25
380.606	261.25
380.831	235.25
381.057	245.25
381.282	246.25
381.507	267.25
381.733	258.25
381.958	252.25
382.184	243.25
382.409	243.25
382.634	246.25
382.86	235.25
383.085	256.25
383.31	254.25
383.535	258.25
383.761	257.25
383.986	271.25
384.211	291.25
384.436	256.25
384.662	274.25
384.887	287.25
385.112	270.25
385.337	256.25
385.562	286.25
385.787	291.25
386.013	284.25
386.238	273.25
386.463	278.25
386.688	271.25
386.913	276.25
387.138	276.25
387.363	289.25
387.588	271.25
387.813	277.25
388.038	269.25
388.263	270.25
388.488	286.25
388.713	279.25
388.938	272.25
389.163	249.25
389.387	266.25
389.612	266.25
389.837	279.25
390.062	277.25
390.287	286.25
390.512	271.25
390.736	288.25
390.961	274.25
391.186	288.25
391.411	283.25
391.636	295.25
391.86	304.25
392.085	307.25
392.31	296.25
392.534	292.25
392.759	288.25
392.984	298.25
393.208	306.25
393.433	291.25
393.658	304.25
393.882	310.25
394.107	310.25
394.331	303.25
394.556	295.25
394.78	293.25
395.005	310.25
395.229	328.25
395.454	317.25
395.678	306.25
395.903	307.25
396.127	298.25
396.352	300.25
396.576	291.25
396.801	303.25
397.025	316.25
397.249	299.25
397.474	310.25
397.698	306.25
397.922	320.25
398.147	308.25
398.371	315.25
398.595	330.25
398.82	352.25
399.044	365.25
399.268	372.25
399.492	425.25
399.717	451.25
399.941	441.25
400.165	404.25
400.389	386.25
400.613	353.25
400.837	337.25
401.062	358.25
401.286	339.25
401.51	327.25
401.734	334.25
401.958	360.25
402.182	350.25
402.406	348.25
402.63	342.25
402.854	340.25
403.078	352.25
403.302	359.25
403.526	343.25
403.75	367.25
403.974	367.25
404.198	382.25
404.422	364.25
404.645	367.25
404.869	366.25
405.093	367.25
405.317	358.25
405.541	354.25
405.765	363.25
405.988	382.25
406.212	363.25
406.436	378.25
406.66	375.25
406.883	396.25
407.107	394.25
407.331	397.25
407.555	411.25
407.778	401.25
408.002	389.25
408.226	391.25
408.449	388.25
408.673	370.25
408.896	379.25
409.12	365.25
409.344	398.25
409.567	382.25
409.791	380.25
410.014	400.25
410.238	382.25
410.461	384.25
410.685	360.25
410.908	354.25
411.132	357.25
411.355	332.25
411.578	351.25
411.802	354.25
412.025	359.25
412.249	351.25
412.472	362.25
412.695	363.25
412.919	351.25
413.142	340.25
413.365	351.25
413.589	351.25
413.812	333.25
414.035	336.25
414.258	344.25
414.482	355.25
414.705	338.25
414.928	348.25
415.151	336.25
415.374	340.25
415.597	368.25
415.821	346.25
416.044	354.25
416.267	344.25
416.49	340.25
416.713	350.25
416.936	366.25
417.159	347.25
417.382	344.25
417.605	334.25
417.828	318.25
418.051	337.25
418.274	343.25
418.497	327.25
418.72	348.25
418.943	359.25
419.166	354.25
419.389	363.25
419.611	362.25
419.834	362.25
420.057	356.25
420.28	331.25
420.503	342.25
420.726	326.25
420.948	332.25
421.171	336.25
421.394	342.25
421.617	354.25
421.839	348.25
422.062	351.25
422.285	375.25
422.507	372.25
422.73	355.25
422.953	362.25
423.175	360.25
423.398	356.25
423.621	356.25
423.843	365.25
424.066	365.25
424.288	359.25
424.511	346.25
424.733	337.25
424.956	363.25
425.178	341.25
425.401	336.25
425.623	338.25
425.846	317.25
426.068	327.25
426.291	325.25
426.513	337.25
426.735	345.25
426.958	344.25
427.18	312.25
427.402	315.25
427.625	327.25
427.847	333.25
428.069	327.25
428.292	327.25
428.514	332.25
428.736	318.25
428.958	326.25
429.181	298.25
429.403	314.25
429.625	310.25
429.847	306.25
430.069	310.25
430.292	313.25
430.514	302.25
430.736	298.25
430.958	308.25
431.18	307.25
431.402	312.25
431.624	319.25
431.846	303.25
432.068	311.25
432.29	324.25
432.512	311.25
432.734	310.25
432.956	326.25
433.178	314.25
433.4	332.25
433.622	321.25
433.844	335.25
434.066	329.25
434.287	315.25
434.509	318.25
434.731	332.25
434.953	347.25
435.175	356.25
435.397	360.25
435.618	343.25
435.84	330.25
436.062	317.25
436.284	345.25
436.505	329.25
436.727	327.25
436.949	330.25
437.17	329.25
437.392	315.25
437.614	306.25
437.835	323.25
438.057	303.25
438.278	308.25
438.5	322.25
438.721	312.25
438.943	321.25
439.165	329.25
439.386	326.25
439.608	316.25
439.829	328.25
440.05	343.25
440.272	344.25
440.493	340.25
440.715	326.25
440.936	324.25
441.158	353.25
441.379	353.25
441.6	350.25
441.822	354.25
442.043	373.25
442.264	365.25
442.486	345.25
442.707	381.25
442.928	350.25
443.149	358.25
443.371	349.25
443.592	342.25
443.813	373.25
444.034	376.25
444.255	378.25
444.476	390.25
444.698	390.25
444.919	402.25
445.14	488.25
445.361	426.25
445.582	370.25
445.803	354.25
446.024	357.25
446.245	378.25
446.466	339.25
446.687	335.25
446.908	349.25
447.129	330.25
447.35	328.25
447.571	338.25
447.792	332.25
448.013	320.25
448.234	330.25
448.455	312.25
448.675	308.25
448.896	321.25
449.117	306.25
449.338	299.25
449.559	312.25
449.779	298.25
450	313.25
450.221	298.25
450.442	316.25
450.662	326.25
450.883	317.25
451.104	327.25
451.324	323.25
451.545	301.25
451.766	302.25
451.986	294.25
452.207	306.25
452.428	287.25
452.648	302.25
452.869	299.25
453.089	301.25
453.31	300.25
453.53	293.25
453.751	296.25
453.971	284.25
454.192	296.25
454.412	259.25
454.633	291.25
454.853	290.25
455.073	288.25
455.294	287.25
455.514	297.25
455.734	286.25
455.955	285.25
456.175	279.25
456.395	306.25
456.616	292.25
456.836	289.25
457.056	288.25
457.276	290.25
457.497	292.25
457.717	271.25
457.937	288.25
458.157	280.25
458.377	305.25
458.598	287.25
458.818	290.25
459.038	314.25
459.258	315.25
459.478	313.25
459.698	325.25
459.918	318.25
460.138	322.25
460.358	359.25
460.578	370.25
460.798	370.25
461.018	362.25
461.238	368.25
461.458	360.25
461.678	357.25
461.898	375.25
462.118	366.25
462.338	386.25
462.558	396.25
462.777	414.25
462.997	437.25
463.217	471.25
463.437	459.25
463.657	431.25
463.876	404.25
464.096	408.25
464.316	418.25
464.536	404.25
464.755	393.25
464.975	387.25
465.195	372.25
465.414	333.25
465.634	338.25
465.854	323.25
466.073	326.25
466.293	330.25
466.512	324.25
466.732	330.25
466.951	334.25
467.171	329.25
467.391	315.25
467.61	327.25
467.829	306.25
468.049	319.25
468.268	284.25
468.488	288.25
468.707	304.25
468.927	300.25
469.146	301.25
469.365	299.25
469.585	301.25
469.804	311.25
470.023	307.25
470.243	326.25
470.462	316.25
470.681	332.25
470.901	331.25
471.12	324.25
471.339	317.25
471.558	301.25
471.777	316.25
471.997	300.25
472.216	310.25
472.435	316.25
472.654	300.25
472.873	308.25
473.092	305.25
473.311	279.25
473.53	283.25
473.749	288.25
473.968	322.25
474.187	270.25
474.406	287.25
474.625	312.25
474.844	285.25
475.063	299.25
475.282	300.25
475.501	295.25
475.72	280.25
475.939	302.25
476.158	285.25
476.377	301.25
476.596	316.25
476.814	317.25
477.033	314.25
477.252	313.25
477.471	301.25
477.69	342.25
477.908	322.25
478.127	356.25
478.346	375.25
478.564	340.25
478.783	327.25
479.002	345.25
479.22	341.25
479.439	358.25
479.658	351.25
479.876	347.25
480.095	338.25
480.313	371.25
480.532	376.25
480.751	369.25
480.969	346.25
481.188	316.25
481.406	340.25
481.624	317.25
481.843	308.25
482.061	310.25
482.28	326.25
482.498	314.25
482.717	340.25
482.935	330.25
483.153	315.25
483.372	313.25
483.59	333.25
483.808	314.25
484.027	335.25
484.245	325.25
484.463	327.25
484.681	352.25
484.9	340.25
485.118	340.25
485.336	325.25
485.554	334.25
485.772	322.25
485.99	331.25
486.209	318.25
486.427	336.25
486.645	326.25
486.863	335.25
487.081	329.25
487.299	333.25
487.517	332.25
487.735	338.25
487.953	358.25
488.171	351.25
488.389	344.25
488.607	324.25
488.825	329.25
489.043	331.25
489.261	321.25
489.479	336.25
489.696	340.25
489.914	333.25
490.132	333.25
490.35	339.25
490.568	348.25
490.786	331.25
491.003	346.25
491.221	341.25
491.439	342.25
491.657	346.25
491.874	367.25
492.092	352.25
492.31	369.25
492.527	354.25
492.745	352.25
492.963	357.25
493.18	348.25
493.398	345.25
493.615	351.25
493.833	358.25
494.05	374.25
494.268	357.25
494.485	363.25
494.703	368.25
494.92	373.25
495.138	358.25
495.355	367.25
495.573	334.25
495.79	353.25
496.008	375.25
496.225	357.25
496.442	357.25
496.66	377.25
496.877	366.25
497.094	384.25
497.312	397.25
497.529	380.25
497.746	399.25
497.963	389.25
498.181	406.25
498.398	422.25
498.615	450.25
498.832	485.25
499.049	519.25
499.267	516.25
499.484	595.25
499.701	627.25
499.918	699.25
500.135	756.25
500.352	845.25
500.569	866.25
500.786	847.25
501.003	762.25
501.22	685.25
501.437	642.25
501.654	578.25
501.871	537.25
502.088	502.25
502.305	477.25
