Data from Fe(NO3)3@0.025M.TitratingCurve.Agarose3%dH2O.NegLispCup.LampEnergy10.LIBS07252019_HRD10591_16-55-12-335.txt Node
Date: Thu Jul 25 16:55:12 EDT 2019
User: cochatt
Spectrometer: HR+D1059
Trigger mode: 1
Integration Time (sec): 1.000000E-1
Scans to average: 1
Electric dark correction enabled: true
Nonlinearity correction enabled: false
Boxcar width: 0
XAxis mode: Wavelengths
Number of Pixels in Spectrum: 2048
>>>>>Begin Spectral Data<<<<<
223.165	-27.75
223.4	-27.75
223.635	-27.75
223.869	-9.75
224.104	-6.75
224.338	-22.75
224.573	-8.75
224.808	-21.75
225.042	3.25
225.277	1.25
225.511	4.25
225.746	-3.75
225.98	6.25
226.215	21.25
226.449	15.25
226.683	14.25
226.918	20.25
227.152	15.25
227.387	38.25
227.621	41.25
227.856	53.25
228.09	35.25
228.324	53.25
228.559	48.25
228.793	59.25
229.027	57.25
229.262	68.25
229.496	80.25
229.73	79.25
229.964	91.25
230.199	89.25
230.433	77.25
230.667	79.25
230.901	87.25
231.136	76.25
231.37	86.25
231.604	73.25
231.838	94.25
232.072	100.25
232.306	91.25
232.541	95.25
232.775	97.25
233.009	99.25
233.243	98.25
233.477	91.25
233.711	100.25
233.945	94.25
234.179	95.25
234.413	107.25
234.647	93.25
234.881	96.25
235.115	85.25
235.349	94.25
235.583	95.25
235.817	86.25
236.051	83.25
236.285	93.25
236.519	97.25
236.753	104.25
236.987	100.25
237.221	92.25
237.455	98.25
237.689	91.25
237.922	108.25
238.156	101.25
238.39	102.25
238.624	99.25
238.858	91.25
239.091	99.25
239.325	95.25
239.559	85.25
239.793	96.25
240.027	109.25
240.26	101.25
240.494	91.25
240.728	106.25
240.961	99.25
241.195	88.25
241.429	97.25
241.662	102.25
241.896	124.25
242.13	97.25
242.363	99.25
242.597	93.25
242.83	106.25
243.064	99.25
243.298	109.25
243.531	105.25
243.765	87.25
243.998	114.25
244.232	106.25
244.465	108.25
244.699	88.25
244.932	108.25
245.166	122.25
245.399	118.25
245.633	113.25
245.866	107.25
246.099	93.25
246.333	107.25
246.566	98.25
246.8	106.25
247.033	109.25
247.266	103.25
247.5	116.25
247.733	122.25
247.966	113.25
248.2	109.25
248.433	109.25
248.666	116.25
248.899	102.25
249.133	115.25
249.366	121.25
249.599	99.25
249.832	105.25
250.066	124.25
250.299	105.25
250.532	107.25
250.765	111.25
250.998	103.25
251.231	111.25
251.465	115.25
251.698	117.25
251.931	109.25
252.164	110.25
252.397	121.25
252.63	106.25
252.863	119.25
253.096	133.25
253.329	116.25
253.562	121.25
253.795	127.25
254.028	121.25
254.261	111.25
254.494	124.25
254.727	124.25
254.96	122.25
255.193	103.25
255.426	121.25
255.659	114.25
255.892	117.25
256.124	122.25
256.357	123.25
256.59	134.25
256.823	131.25
257.056	125.25
257.289	143.25
257.521	118.25
257.754	120.25
257.987	126.25
258.22	127.25
258.452	131.25
258.685	129.25
258.918	123.25
259.151	116.25
259.383	117.25
259.616	126.25
259.849	128.25
260.081	126.25
260.314	133.25
260.547	127.25
260.779	138.25
261.012	133.25
261.244	137.25
261.477	135.25
261.71	126.25
261.942	141.25
262.175	125.25
262.407	134.25
262.64	124.25
262.872	125.25
263.105	138.25
263.337	135.25
263.57	133.25
263.802	127.25
264.035	139.25
264.267	139.25
264.499	139.25
264.732	150.25
264.964	145.25
265.197	137.25
265.429	137.25
265.661	143.25
265.894	133.25
266.126	153.25
266.358	133.25
266.591	131.25
266.823	142.25
267.055	134.25
267.287	150.25
267.52	145.25
267.752	137.25
267.984	140.25
268.216	149.25
268.448	143.25
268.681	149.25
268.913	142.25
269.145	139.25
269.377	134.25
269.609	141.25
269.841	138.25
270.073	137.25
270.306	148.25
270.538	127.25
270.77	141.25
271.002	161.25
271.234	152.25
271.466	164.25
271.698	154.25
271.93	153.25
272.162	152.25
272.394	152.25
272.626	154.25
272.858	139.25
273.09	178.25
273.322	152.25
273.553	148.25
273.785	155.25
274.017	160.25
274.249	155.25
274.481	150.25
274.713	150.25
274.945	166.25
275.176	139.25
275.408	149.25
275.64	164.25
275.872	158.25
276.104	144.25
276.335	159.25
276.567	147.25
276.799	157.25
277.031	154.25
277.262	158.25
277.494	163.25
277.726	167.25
277.957	154.25
278.189	161.25
278.421	162.25
278.652	179.25
278.884	161.25
279.115	161.25
279.347	169.25
279.579	179.25
279.81	161.25
280.042	157.25
280.273	153.25
280.505	153.25
280.736	159.25
280.968	157.25
281.199	165.25
281.431	171.25
281.662	173.25
281.894	180.25
282.125	157.25
282.356	178.25
282.588	170.25
282.819	191.25
283.051	168.25
283.282	173.25
283.513	173.25
283.745	183.25
283.976	167.25
284.207	183.25
284.439	181.25
284.67	183.25
284.901	194.25
285.132	183.25
285.364	177.25
285.595	165.25
285.826	186.25
286.057	194.25
286.288	175.25
286.52	179.25
286.751	179.25
286.982	164.25
287.213	185.25
287.444	179.25
287.675	173.25
287.906	180.25
288.138	177.25
288.369	181.25
288.6	185.25
288.831	173.25
289.062	180.25
289.293	197.25
289.524	188.25
289.755	177.25
289.986	181.25
290.217	183.25
290.448	191.25
290.679	188.25
290.91	178.25
291.141	175.25
291.371	187.25
291.602	190.25
291.833	189.25
292.064	187.25
292.295	198.25
292.526	189.25
292.757	193.25
292.987	197.25
293.218	192.25
293.449	182.25
293.68	194.25
293.91	194.25
294.141	190.25
294.372	186.25
294.603	192.25
294.833	193.25
295.064	187.25
295.295	202.25
295.525	190.25
295.756	210.25
295.987	193.25
296.217	204.25
296.448	212.25
296.679	175.25
296.909	186.25
297.14	193.25
297.37	201.25
297.601	193.25
297.831	200.25
298.062	193.25
298.292	198.25
298.523	205.25
298.753	198.25
298.984	207.25
299.214	209.25
299.445	200.25
299.675	205.25
299.905	205.25
300.136	193.25
300.366	186.25
300.597	206.25
300.827	211.25
301.057	193.25
301.288	224.25
301.518	215.25
301.748	212.25
301.979	214.25
302.209	212.25
302.439	220.25
302.669	205.25
302.9	208.25
303.13	207.25
303.36	218.25
303.59	214.25
303.82	205.25
304.051	217.25
304.281	207.25
304.511	227.25
304.741	211.25
304.971	218.25
305.201	221.25
305.431	214.25
305.661	214.25
305.891	220.25
306.121	210.25
306.352	193.25
306.582	215.25
306.812	215.25
307.042	211.25
307.272	213.25
307.502	214.25
307.731	207.25
307.961	220.25
308.191	193.25
308.421	206.25
308.651	226.25
308.881	227.25
309.111	221.25
309.341	213.25
309.571	221.25
309.8	236.25
310.03	230.25
310.26	215.25
310.49	221.25
310.72	205.25
310.949	227.25
311.179	236.25
311.409	222.25
311.639	215.25
311.868	231.25
312.098	210.25
312.328	222.25
312.557	225.25
312.787	219.25
313.017	231.25
313.246	229.25
313.476	223.25
313.706	241.25
313.935	227.25
314.165	247.25
314.394	217.25
314.624	224.25
314.853	233.25
315.083	227.25
315.312	230.25
315.542	228.25
315.771	237.25
316.001	231.25
316.23	245.25
316.46	230.25
316.689	227.25
316.919	221.25
317.148	236.25
317.377	230.25
317.607	221.25
317.836	231.25
318.065	221.25
318.295	214.25
318.524	236.25
318.753	243.25
318.983	205.25
319.212	231.25
319.441	231.25
319.67	226.25
319.9	238.25
320.129	234.25
320.358	241.25
320.587	228.25
320.816	241.25
321.046	234.25
321.275	235.25
321.504	241.25
321.733	245.25
321.962	237.25
322.191	230.25
322.42	241.25
322.649	234.25
322.878	253.25
323.108	234.25
323.337	260.25
323.566	242.25
323.795	236.25
324.024	253.25
324.253	242.25
324.482	241.25
324.71	262.25
324.939	248.25
325.168	234.25
325.397	248.25
325.626	233.25
325.855	242.25
326.084	259.25
326.313	249.25
326.542	257.25
326.77	257.25
326.999	246.25
327.228	241.25
327.457	242.25
327.686	249.25
327.914	259.25
328.143	270.25
328.372	250.25
328.6	246.25
328.829	254.25
329.058	251.25
329.287	261.25
329.515	263.25
329.744	253.25
329.972	263.25
330.201	250.25
330.43	267.25
330.658	269.25
330.887	275.25
331.115	267.25
331.344	257.25
331.572	278.25
331.801	281.25
332.03	270.25
332.258	286.25
332.486	275.25
332.715	277.25
332.943	302.25
333.172	294.25
333.4	303.25
333.629	317.25
333.857	314.25
334.085	277.25
334.314	307.25
334.542	298.25
334.771	307.25
334.999	291.25
335.227	299.25
335.455	309.25
335.684	300.25
335.912	293.25
336.14	293.25
336.369	291.25
336.597	301.25
336.825	298.25
337.053	277.25
337.281	286.25
337.51	275.25
337.738	282.25
337.966	289.25
338.194	281.25
338.422	263.25
338.65	272.25
338.878	283.25
339.106	281.25
339.334	274.25
339.562	269.25
339.79	270.25
340.018	274.25
340.246	266.25
340.474	280.25
340.702	289.25
340.93	262.25
341.158	288.25
341.386	269.25
341.614	242.25
341.842	273.25
342.07	261.25
342.298	239.25
342.526	280.25
342.754	287.25
342.981	289.25
343.209	286.25
343.437	288.25
343.665	296.25
343.893	314.25
344.12	308.25
344.348	318.25
344.576	309.25
344.804	288.25
345.031	277.25
345.259	263.25
345.487	283.25
345.714	276.25
345.942	275.25
346.17	266.25
346.397	255.25
346.625	267.25
346.853	277.25
347.08	268.25
347.308	258.25
347.535	270.25
347.763	268.25
347.99	282.25
348.218	261.25
348.445	264.25
348.673	257.25
348.9	267.25
349.128	247.25
349.355	281.25
349.583	269.25
349.81	265.25
350.037	249.25
350.265	268.25
350.492	261.25
350.72	262.25
350.947	261.25
351.174	277.25
351.402	245.25
351.629	268.25
351.856	261.25
352.083	270.25
352.311	257.25
352.538	259.25
352.765	253.25
352.992	259.25
353.22	250.25
353.447	247.25
353.674	273.25
353.901	257.25
354.128	267.25
354.355	271.25
354.583	273.25
354.81	269.25
355.037	244.25
355.264	281.25
355.491	265.25
355.718	277.25
355.945	251.25
356.172	258.25
356.399	256.25
356.626	262.25
356.853	261.25
357.08	251.25
357.307	255.25
357.534	271.25
357.761	271.25
357.988	266.25
358.215	258.25
358.441	269.25
358.668	277.25
358.895	279.25
359.122	266.25
359.349	266.25
359.576	273.25
359.802	263.25
360.029	267.25
360.256	258.25
360.483	257.25
360.709	281.25
360.936	269.25
361.163	265.25
361.39	253.25
361.616	266.25
361.843	262.25
362.07	270.25
362.296	252.25
362.523	279.25
362.749	269.25
362.976	269.25
363.203	276.25
363.429	263.25
363.656	258.25
363.882	262.25
364.109	267.25
364.335	269.25
364.562	270.25
364.788	276.25
365.015	274.25
365.241	279.25
365.468	290.25
365.694	265.25
365.92	271.25
366.147	267.25
366.373	269.25
366.599	265.25
366.826	267.25
367.052	254.25
367.278	269.25
367.505	302.25
367.731	275.25
367.957	274.25
368.184	279.25
368.41	277.25
368.636	260.25
368.862	271.25
369.089	268.25
369.315	263.25
369.541	270.25
369.767	272.25
369.993	290.25
370.219	277.25
370.445	275.25
370.672	278.25
370.898	278.25
371.124	282.25
371.35	277.25
371.576	275.25
371.802	268.25
372.028	279.25
372.254	293.25
372.48	297.25
372.706	284.25
372.932	290.25
373.158	284.25
373.384	310.25
373.61	286.25
373.835	281.25
374.061	281.25
374.287	298.25
374.513	312.25
374.739	293.25
374.965	322.25
375.191	313.25
375.416	320.25
375.642	311.25
375.868	314.25
376.094	301.25
376.319	301.25
376.545	313.25
376.771	289.25
376.997	290.25
377.222	295.25
377.448	302.25
377.674	298.25
377.899	271.25
378.125	276.25
378.35	277.25
378.576	283.25
378.802	282.25
379.027	293.25
379.253	293.25
379.478	294.25
379.704	288.25
379.929	298.25
380.155	281.25
380.38	292.25
380.606	269.25
380.831	287.25
381.057	316.25
381.282	289.25
381.507	298.25
381.733	308.25
381.958	291.25
382.184	303.25
382.409	301.25
382.634	275.25
382.86	321.25
383.085	303.25
383.31	299.25
383.535	319.25
383.761	319.25
383.986	308.25
384.211	319.25
384.436	328.25
384.662	334.25
384.887	331.25
385.112	327.25
385.337	330.25
385.562	338.25
385.787	323.25
386.013	355.25
386.238	329.25
386.463	327.25
386.688	329.25
386.913	339.25
387.138	341.25
387.363	330.25
387.588	331.25
387.813	330.25
388.038	343.25
388.263	342.25
388.488	325.25
388.713	327.25
388.938	325.25
389.163	329.25
389.387	324.25
389.612	329.25
389.837	345.25
390.062	313.25
390.287	325.25
390.512	339.25
390.736	321.25
390.961	343.25
391.186	332.25
391.411	363.25
391.636	361.25
391.86	373.25
392.085	375.25
392.31	365.25
392.534	367.25
392.759	350.25
392.984	365.25
393.208	352.25
393.433	361.25
393.658	337.25
393.882	341.25
394.107	342.25
394.331	331.25
394.556	364.25
394.78	366.25
395.005	364.25
395.229	357.25
395.454	339.25
395.678	369.25
395.903	378.25
396.127	365.25
396.352	363.25
396.576	358.25
396.801	357.25
397.025	353.25
397.249	376.25
397.474	357.25
397.698	359.25
397.922	366.25
398.147	387.25
398.371	394.25
398.595	395.25
398.82	405.25
399.044	422.25
399.268	470.25
399.492	507.25
399.717	515.25
399.941	528.25
400.165	505.25
400.389	474.25
400.613	430.25
400.837	419.25
401.062	407.25
401.286	395.25
401.51	392.25
401.734	383.25
401.958	398.25
402.182	419.25
402.406	397.25
402.63	403.25
402.854	409.25
403.078	420.25
403.302	422.25
403.526	427.25
403.75	445.25
403.974	445.25
404.198	409.25
404.422	420.25
404.645	422.25
404.869	404.25
405.093	439.25
405.317	422.25
405.541	427.25
405.765	413.25
405.988	411.25
406.212	428.25
406.436	417.25
406.66	448.25
406.883	437.25
407.107	437.25
407.331	463.25
407.555	470.25
407.778	472.25
408.002	467.25
408.226	459.25
408.449	446.25
408.673	443.25
408.896	434.25
409.12	441.25
409.344	438.25
409.567	434.25
409.791	420.25
410.014	441.25
410.238	433.25
410.461	439.25
410.685	412.25
410.908	401.25
411.132	416.25
411.355	423.25
411.578	413.25
411.802	405.25
412.025	431.25
412.249	415.25
412.472	424.25
412.695	404.25
412.919	407.25
413.142	397.25
413.365	401.25
413.589	399.25
413.812	391.25
414.035	409.25
414.258	407.25
414.482	403.25
414.705	394.25
414.928	409.25
415.151	394.25
415.374	403.25
415.597	373.25
415.821	399.25
416.044	412.25
416.267	384.25
416.49	377.25
416.713	375.25
416.936	380.25
417.159	389.25
417.382	393.25
417.605	375.25
417.828	385.25
418.051	424.25
418.274	384.25
418.497	405.25
418.72	393.25
418.943	390.25
419.166	406.25
419.389	403.25
419.611	402.25
419.834	408.25
420.057	403.25
420.28	388.25
420.503	392.25
420.726	397.25
420.948	370.25
421.171	381.25
421.394	388.25
421.617	385.25
421.839	409.25
422.062	387.25
422.285	396.25
422.507	390.25
422.73	387.25
422.953	398.25
423.175	384.25
423.398	406.25
423.621	382.25
423.843	399.25
424.066	406.25
424.288	391.25
424.511	390.25
424.733	393.25
424.956	391.25
425.178	399.25
425.401	382.25
425.623	387.25
425.846	375.25
426.068	361.25
426.291	367.25
426.513	358.25
426.735	379.25
426.958	358.25
427.18	367.25
427.402	352.25
427.625	377.25
427.847	375.25
428.069	369.25
428.292	355.25
428.514	351.25
428.736	372.25
428.958	369.25
429.181	360.25
429.403	357.25
429.625	342.25
429.847	355.25
430.069	348.25
430.292	352.25
430.514	317.25
430.736	351.25
430.958	346.25
431.18	374.25
431.402	346.25
431.624	339.25
431.846	383.25
432.068	353.25
432.29	327.25
432.512	344.25
432.734	347.25
432.956	349.25
433.178	367.25
433.4	381.25
433.622	372.25
433.844	357.25
434.066	367.25
434.287	368.25
434.509	371.25
434.731	384.25
434.953	381.25
435.175	387.25
435.397	390.25
435.618	373.25
435.84	392.25
436.062	369.25
436.284	362.25
436.505	351.25
436.727	382.25
436.949	347.25
437.17	355.25
437.392	366.25
437.614	330.25
437.835	342.25
438.057	347.25
438.278	351.25
438.5	354.25
438.721	339.25
438.943	340.25
439.165	348.25
439.386	349.25
439.608	371.25
439.829	335.25
440.05	352.25
440.272	365.25
440.493	369.25
440.715	343.25
440.936	373.25
441.158	366.25
441.379	357.25
441.6	364.25
441.822	395.25
442.043	383.25
442.264	372.25
442.486	381.25
442.707	384.25
442.928	383.25
443.149	397.25
443.371	371.25
443.592	390.25
443.813	391.25
444.034	388.25
444.255	389.25
444.476	412.25
444.698	420.25
444.919	419.25
445.14	492.25
445.361	428.25
445.582	398.25
445.803	385.25
446.024	373.25
446.245	383.25
446.466	364.25
446.687	361.25
446.908	358.25
447.129	344.25
447.35	350.25
447.571	349.25
447.792	357.25
448.013	344.25
448.234	351.25
448.455	326.25
448.675	328.25
448.896	327.25
449.117	334.25
449.338	341.25
449.559	332.25
449.779	316.25
450	321.25
450.221	350.25
450.442	326.25
450.662	338.25
450.883	334.25
451.104	334.25
451.324	329.25
451.545	327.25
451.766	330.25
451.986	327.25
452.207	349.25
452.428	322.25
452.648	325.25
452.869	319.25
453.089	315.25
453.31	321.25
453.53	326.25
453.751	338.25
453.971	312.25
454.192	314.25
454.412	325.25
454.633	328.25
454.853	320.25
455.073	321.25
455.294	327.25
455.514	297.25
455.734	323.25
455.955	310.25
456.175	306.25
456.395	319.25
456.616	323.25
456.836	318.25
457.056	317.25
457.276	316.25
457.497	338.25
457.717	306.25
457.937	317.25
458.157	327.25
458.377	339.25
458.598	330.25
458.818	324.25
459.038	355.25
459.258	347.25
459.478	361.25
459.698	377.25
459.918	385.25
460.138	395.25
460.358	404.25
460.578	393.25
460.798	402.25
461.018	422.25
461.238	411.25
461.458	406.25
461.678	399.25
461.898	412.25
462.118	428.25
462.338	433.25
462.558	453.25
462.777	446.25
462.997	482.25
463.217	484.25
463.437	465.25
463.657	478.25
463.876	476.25
464.096	442.25
464.316	463.25
464.536	438.25
464.755	460.25
464.975	428.25
465.195	420.25
465.414	385.25
465.634	377.25
465.854	360.25
466.073	377.25
466.293	373.25
466.512	354.25
466.732	343.25
466.951	355.25
467.171	366.25
467.391	351.25
467.61	345.25
467.829	346.25
468.049	341.25
468.268	332.25
468.488	335.25
468.707	356.25
468.927	341.25
469.146	341.25
469.365	340.25
469.585	361.25
469.804	374.25
470.023	359.25
470.243	343.25
470.462	373.25
470.681	370.25
470.901	381.25
471.12	376.25
471.339	337.25
471.558	355.25
471.777	331.25
471.997	346.25
472.216	346.25
472.435	340.25
472.654	341.25
472.873	350.25
473.092	351.25
473.311	333.25
473.53	338.25
473.749	333.25
473.968	337.25
474.187	333.25
474.406	351.25
474.625	336.25
474.844	341.25
475.063	337.25
475.282	326.25
475.501	351.25
475.72	343.25
475.939	340.25
476.158	342.25
476.377	364.25
476.596	346.25
476.814	365.25
477.033	372.25
477.252	350.25
477.471	371.25
477.69	389.25
477.908	379.25
478.127	394.25
478.346	394.25
478.564	380.25
478.783	381.25
479.002	395.25
479.22	399.25
479.439	395.25
479.658	379.25
479.876	385.25
480.095	385.25
480.313	422.25
480.532	441.25
480.751	417.25
480.969	424.25
481.188	413.25
481.406	390.25
481.624	399.25
481.843	388.25
482.061	386.25
482.28	383.25
482.498	377.25
482.717	401.25
482.935	381.25
483.153	404.25
483.372	373.25
483.59	385.25
483.808	393.25
484.027	388.25
484.245	384.25
484.463	392.25
484.681	392.25
484.9	394.25
485.118	383.25
485.336	383.25
485.554	396.25
485.772	379.25
485.99	395.25
486.209	389.25
486.427	406.25
486.645	390.25
486.863	373.25
487.081	387.25
487.299	391.25
487.517	377.25
487.735	387.25
487.953	382.25
488.171	402.25
488.389	395.25
488.607	390.25
488.825	389.25
489.043	385.25
489.261	398.25
489.479	401.25
489.696	382.25
489.914	395.25
490.132	400.25
490.35	393.25
490.568	420.25
490.786	439.25
491.003	397.25
491.221	395.25
491.439	418.25
491.657	404.25
491.874	412.25
492.092	405.25
492.31	390.25
492.527	413.25
492.745	415.25
492.963	420.25
493.18	411.25
493.398	421.25
493.615	376.25
493.833	417.25
494.05	419.25
494.268	414.25
494.485	418.25
494.703	409.25
494.92	417.25
495.138	418.25
495.355	413.25
495.573	438.25
495.79	427.25
496.008	445.25
496.225	445.25
496.442	442.25
496.66	448.25
496.877	449.25
497.094	450.25
497.312	449.25
497.529	453.25
497.746	476.25
497.963	515.25
498.181	517.25
498.398	535.25
498.615	556.25
498.832	577.25
499.049	607.25
499.267	653.25
499.484	700.25
499.701	757.25
499.918	811.25
500.135	867.25
500.352	899.25
500.569	906.25
500.786	936.25
501.003	878.25
501.22	824.25
501.437	751.25
501.654	695.25
501.871	657.25
502.088	630.25
502.305	589.25
