Data from Fe(NO3)3@0.1M.TitratingCurve.Agarose3%dH2O.NegLispCup.LampEnergy10.LIBS07252019_HRD10591_16-38-18-332.txt Node
Date: Thu Jul 25 16:38:18 EDT 2019
User: cochatt
Spectrometer: HR+D1059
Trigger mode: 1
Integration Time (sec): 1.000000E-1
Scans to average: 1
Electric dark correction enabled: true
Nonlinearity correction enabled: false
Boxcar width: 0
XAxis mode: Wavelengths
Number of Pixels in Spectrum: 2048
>>>>>Begin Spectral Data<<<<<
223.165	-23.38
223.4	-23.38
223.635	-23.38
223.869	-13.38
224.104	-21.38
224.338	-7.38
224.573	-11.38
224.808	-10.38
225.042	1.62
225.277	-21.38
225.511	-6.38
225.746	10.62
225.98	15.62
226.215	9.62
226.449	15.62
226.683	14.62
226.918	16.62
227.152	30.62
227.387	31.62
227.621	32.62
227.856	30.62
228.09	31.62
228.324	45.62
228.559	59.62
228.793	69.62
229.027	69.62
229.262	79.62
229.496	86.62
229.73	94.62
229.964	87.62
230.199	77.62
230.433	90.62
230.667	93.62
230.901	88.62
231.136	90.62
231.37	115.62
231.604	78.62
231.838	87.62
232.072	96.62
232.306	88.62
232.541	96.62
232.775	89.62
233.009	79.62
233.243	98.62
233.477	92.62
233.711	101.62
233.945	104.62
234.179	104.62
234.413	97.62
234.647	91.62
234.881	101.62
235.115	95.62
235.349	79.62
235.583	99.62
235.817	99.62
236.051	103.62
236.285	98.62
236.519	101.62
236.753	96.62
236.987	84.62
237.221	89.62
237.455	104.62
237.689	105.62
237.922	91.62
238.156	98.62
238.39	92.62
238.624	87.62
238.858	105.62
239.091	110.62
239.325	95.62
239.559	91.62
239.793	113.62
240.027	106.62
240.26	96.62
240.494	101.62
240.728	101.62
240.961	83.62
241.195	92.62
241.429	90.62
241.662	106.62
241.896	106.62
242.13	98.62
242.363	108.62
242.597	104.62
242.83	100.62
243.064	104.62
243.298	105.62
243.531	114.62
243.765	111.62
243.998	116.62
244.232	112.62
244.465	113.62
244.699	106.62
244.932	105.62
245.166	106.62
245.399	115.62
245.633	119.62
245.866	117.62
246.099	103.62
246.333	108.62
246.566	108.62
246.8	103.62
247.033	108.62
247.266	110.62
247.5	126.62
247.733	115.62
247.966	114.62
248.2	111.62
248.433	106.62
248.666	121.62
248.899	121.62
249.133	95.62
249.366	123.62
249.599	113.62
249.832	114.62
250.066	117.62
250.299	122.62
250.532	122.62
250.765	115.62
250.998	116.62
251.231	123.62
251.465	108.62
251.698	124.62
251.931	127.62
252.164	129.62
252.397	114.62
252.63	126.62
252.863	135.62
253.096	116.62
253.329	124.62
253.562	126.62
253.795	127.62
254.028	124.62
254.261	118.62
254.494	131.62
254.727	135.62
254.96	125.62
255.193	128.62
255.426	139.62
255.659	125.62
255.892	135.62
256.124	124.62
256.357	130.62
256.59	133.62
256.823	133.62
257.056	148.62
257.289	143.62
257.521	127.62
257.754	123.62
257.987	119.62
258.22	150.62
258.452	139.62
258.685	158.62
258.918	131.62
259.151	139.62
259.383	141.62
259.616	126.62
259.849	143.62
260.081	156.62
260.314	152.62
260.547	141.62
260.779	129.62
261.012	130.62
261.244	133.62
261.477	135.62
261.71	136.62
261.942	141.62
262.175	129.62
262.407	139.62
262.64	146.62
262.872	139.62
263.105	157.62
263.337	154.62
263.57	161.62
263.802	135.62
264.035	132.62
264.267	145.62
264.499	139.62
264.732	158.62
264.964	156.62
265.197	146.62
265.429	137.62
265.661	145.62
265.894	161.62
266.126	153.62
266.358	155.62
266.591	153.62
266.823	135.62
267.055	126.62
267.287	131.62
267.52	165.62
267.752	151.62
267.984	147.62
268.216	164.62
268.448	138.62
268.681	157.62
268.913	143.62
269.145	157.62
269.377	148.62
269.609	141.62
269.841	151.62
270.073	162.62
270.306	147.62
270.538	157.62
270.77	131.62
271.002	174.62
271.234	153.62
271.466	166.62
271.698	165.62
271.93	138.62
272.162	164.62
272.394	158.62
272.626	155.62
272.858	156.62
273.09	164.62
273.322	153.62
273.553	147.62
273.785	152.62
274.017	147.62
274.249	162.62
274.481	154.62
274.713	167.62
274.945	163.62
275.176	162.62
275.408	163.62
275.64	159.62
275.872	155.62
276.104	180.62
276.335	157.62
276.567	158.62
276.799	151.62
277.031	165.62
277.262	151.62
277.494	148.62
277.726	181.62
277.957	168.62
278.189	161.62
278.421	164.62
278.652	179.62
278.884	163.62
279.115	178.62
279.347	163.62
279.579	165.62
279.81	167.62
280.042	173.62
280.273	183.62
280.505	168.62
280.736	171.62
280.968	184.62
281.199	189.62
281.431	174.62
281.662	187.62
281.894	179.62
282.125	170.62
282.356	185.62
282.588	170.62
282.819	169.62
283.051	180.62
283.282	166.62
283.513	186.62
283.745	169.62
283.976	168.62
284.207	161.62
284.439	165.62
284.67	179.62
284.901	181.62
285.132	181.62
285.364	174.62
285.595	202.62
285.826	173.62
286.057	188.62
286.288	189.62
286.52	181.62
286.751	199.62
286.982	188.62
287.213	180.62
287.444	188.62
287.675	189.62
287.906	199.62
288.138	182.62
288.369	186.62
288.6	179.62
288.831	204.62
289.062	199.62
289.293	190.62
289.524	181.62
289.755	181.62
289.986	193.62
290.217	191.62
290.448	185.62
290.679	195.62
290.91	188.62
291.141	189.62
291.371	207.62
291.602	181.62
291.833	185.62
292.064	201.62
292.295	193.62
292.526	210.62
292.757	179.62
292.987	181.62
293.218	170.62
293.449	189.62
293.68	217.62
293.91	173.62
294.141	185.62
294.372	204.62
294.603	197.62
294.833	182.62
295.064	190.62
295.295	181.62
295.525	202.62
295.756	194.62
295.987	194.62
296.217	205.62
296.448	190.62
296.679	199.62
296.909	194.62
297.14	186.62
297.37	210.62
297.601	202.62
297.831	218.62
298.062	205.62
298.292	209.62
298.523	216.62
298.753	196.62
298.984	200.62
299.214	198.62
299.445	189.62
299.675	185.62
299.905	199.62
300.136	199.62
300.366	199.62
300.597	203.62
300.827	214.62
301.057	207.62
301.288	197.62
301.518	193.62
301.748	209.62
301.979	193.62
302.209	196.62
302.439	213.62
302.669	208.62
302.9	185.62
303.13	197.62
303.36	220.62
303.59	209.62
303.82	204.62
304.051	211.62
304.281	206.62
304.511	204.62
304.741	218.62
304.971	204.62
305.201	199.62
305.431	209.62
305.661	213.62
305.891	205.62
306.121	205.62
306.352	208.62
306.582	208.62
306.812	214.62
307.042	212.62
307.272	213.62
307.502	202.62
307.731	206.62
307.961	212.62
308.191	206.62
308.421	206.62
308.651	203.62
308.881	218.62
309.111	204.62
309.341	196.62
309.571	212.62
309.8	198.62
310.03	207.62
310.26	202.62
310.49	199.62
310.72	221.62
310.949	197.62
311.179	215.62
311.409	210.62
311.639	221.62
311.868	204.62
312.098	226.62
312.328	213.62
312.557	223.62
312.787	222.62
313.017	232.62
313.246	237.62
313.476	230.62
313.706	221.62
313.935	217.62
314.165	219.62
314.394	206.62
314.624	214.62
314.853	201.62
315.083	207.62
315.312	214.62
315.542	189.62
315.771	219.62
316.001	199.62
316.23	228.62
316.46	199.62
316.689	217.62
316.919	205.62
317.148	220.62
317.377	223.62
317.607	213.62
317.836	222.62
318.065	206.62
318.295	232.62
318.524	200.62
318.753	213.62
318.983	198.62
319.212	216.62
319.441	210.62
319.67	221.62
319.9	220.62
320.129	198.62
320.358	231.62
320.587	217.62
320.816	227.62
321.046	223.62
321.275	224.62
321.504	219.62
321.733	193.62
321.962	212.62
322.191	217.62
322.42	231.62
322.649	221.62
322.878	229.62
323.108	213.62
323.337	208.62
323.566	220.62
323.795	234.62
324.024	217.62
324.253	230.62
324.482	218.62
324.71	236.62
324.939	219.62
325.168	217.62
325.397	221.62
325.626	266.62
325.855	236.62
326.084	233.62
326.313	237.62
326.542	223.62
326.77	245.62
326.999	232.62
327.228	243.62
327.457	228.62
327.686	239.62
327.914	233.62
328.143	217.62
328.372	235.62
328.6	230.62
328.829	221.62
329.058	219.62
329.287	238.62
329.515	216.62
329.744	245.62
329.972	242.62
330.201	258.62
330.43	252.62
330.658	232.62
330.887	245.62
331.115	245.62
331.344	232.62
331.572	243.62
331.801	253.62
332.03	255.62
332.258	261.62
332.486	255.62
332.715	265.62
332.943	268.62
333.172	290.62
333.4	270.62
333.629	282.62
333.857	302.62
334.085	280.62
334.314	277.62
334.542	267.62
334.771	275.62
334.999	279.62
335.227	288.62
335.455	265.62
335.684	263.62
335.912	289.62
336.14	277.62
336.369	265.62
336.597	266.62
336.825	268.62
337.053	265.62
337.281	262.62
337.51	259.62
337.738	257.62
337.966	263.62
338.194	268.62
338.422	257.62
338.65	241.62
338.878	250.62
339.106	261.62
339.334	259.62
339.562	236.62
339.79	261.62
340.018	256.62
340.246	249.62
340.474	231.62
340.702	249.62
340.93	265.62
341.158	246.62
341.386	258.62
341.614	251.62
341.842	244.62
342.07	266.62
342.298	241.62
342.526	260.62
342.754	257.62
342.981	242.62
343.209	248.62
343.437	248.62
343.665	262.62
343.893	277.62
344.12	277.62
344.348	287.62
344.576	273.62
344.804	263.62
345.031	239.62
345.259	253.62
345.487	249.62
345.714	247.62
345.942	222.62
346.17	229.62
346.397	228.62
346.625	224.62
346.853	233.62
347.08	239.62
347.308	227.62
347.535	217.62
347.763	235.62
347.99	226.62
348.218	259.62
348.445	242.62
348.673	232.62
348.9	227.62
349.128	233.62
349.355	249.62
349.583	227.62
349.81	246.62
350.037	246.62
350.265	222.62
350.492	239.62
350.72	218.62
350.947	225.62
351.174	230.62
351.402	212.62
351.629	218.62
351.856	235.62
352.083	242.62
352.311	242.62
352.538	228.62
352.765	232.62
352.992	222.62
353.22	234.62
353.447	235.62
353.674	225.62
353.901	231.62
354.128	248.62
354.355	219.62
354.583	230.62
354.81	215.62
355.037	240.62
355.264	224.62
355.491	226.62
355.718	231.62
355.945	221.62
356.172	240.62
356.399	225.62
356.626	223.62
356.853	249.62
357.08	229.62
357.307	235.62
357.534	230.62
357.761	239.62
357.988	227.62
358.215	241.62
358.441	229.62
358.668	227.62
358.895	223.62
359.122	239.62
359.349	219.62
359.576	234.62
359.802	236.62
360.029	244.62
360.256	246.62
360.483	266.62
360.709	226.62
360.936	238.62
361.163	242.62
361.39	226.62
361.616	226.62
361.843	228.62
362.07	242.62
362.296	234.62
362.523	245.62
362.749	222.62
362.976	244.62
363.203	236.62
363.429	212.62
363.656	234.62
363.882	231.62
364.109	215.62
364.335	243.62
364.562	248.62
364.788	229.62
365.015	233.62
365.241	214.62
365.468	227.62
365.694	217.62
365.92	242.62
366.147	223.62
366.373	215.62
366.599	239.62
366.826	234.62
367.052	241.62
367.278	236.62
367.505	233.62
367.731	257.62
367.957	242.62
368.184	234.62
368.41	249.62
368.636	226.62
368.862	235.62
369.089	267.62
369.315	234.62
369.541	259.62
369.767	243.62
369.993	238.62
370.219	236.62
370.445	240.62
370.672	250.62
370.898	246.62
371.124	251.62
371.35	252.62
371.576	258.62
371.802	243.62
372.028	251.62
372.254	259.62
372.48	250.62
372.706	257.62
372.932	255.62
373.158	265.62
373.384	248.62
373.61	235.62
373.835	269.62
374.061	249.62
374.287	255.62
374.513	278.62
374.739	289.62
374.965	277.62
375.191	263.62
375.416	288.62
375.642	291.62
375.868	277.62
376.094	268.62
376.319	267.62
376.545	266.62
376.771	260.62
376.997	257.62
377.222	274.62
377.448	265.62
377.674	255.62
377.899	252.62
378.125	264.62
378.35	264.62
378.576	250.62
378.802	271.62
379.027	257.62
379.253	257.62
379.478	251.62
379.704	273.62
379.929	261.62
380.155	270.62
380.38	246.62
380.606	254.62
380.831	254.62
381.057	266.62
381.282	253.62
381.507	257.62
381.733	263.62
381.958	260.62
382.184	276.62
382.409	278.62
382.634	276.62
382.86	287.62
383.085	281.62
383.31	255.62
383.535	315.62
383.761	278.62
383.986	285.62
384.211	286.62
384.436	286.62
384.662	309.62
384.887	310.62
385.112	309.62
385.337	318.62
385.562	299.62
385.787	325.62
386.013	319.62
386.238	306.62
386.463	289.62
386.688	305.62
386.913	307.62
387.138	295.62
387.363	297.62
387.588	295.62
387.813	321.62
388.038	308.62
388.263	321.62
388.488	311.62
388.713	285.62
388.938	317.62
389.163	304.62
389.387	294.62
389.612	290.62
389.837	279.62
390.062	326.62
390.287	309.62
390.512	307.62
390.736	321.62
390.961	296.62
391.186	315.62
391.411	325.62
391.636	338.62
391.86	289.62
392.085	336.62
392.31	330.62
392.534	335.62
392.759	308.62
392.984	330.62
393.208	322.62
393.433	324.62
393.658	341.62
393.882	330.62
394.107	333.62
394.331	321.62
394.556	342.62
394.78	334.62
395.005	308.62
395.229	317.62
395.454	319.62
395.678	334.62
395.903	313.62
396.127	342.62
396.352	339.62
396.576	335.62
396.801	319.62
397.025	325.62
397.249	350.62
397.474	347.62
397.698	337.62
397.922	362.62
398.147	346.62
398.371	337.62
398.595	383.62
398.82	383.62
399.044	383.62
399.268	455.62
399.492	499.62
399.717	527.62
399.941	499.62
400.165	485.62
400.389	431.62
400.613	425.62
400.837	382.62
401.062	374.62
401.286	402.62
401.51	378.62
401.734	361.62
401.958	378.62
402.182	396.62
402.406	385.62
402.63	404.62
402.854	407.62
403.078	399.62
403.302	413.62
403.526	413.62
403.75	403.62
403.974	414.62
404.198	435.62
404.422	433.62
404.645	424.62
404.869	389.62
405.093	409.62
405.317	419.62
405.541	414.62
405.765	421.62
405.988	385.62
406.212	404.62
406.436	405.62
406.66	423.62
406.883	420.62
407.107	443.62
407.331	454.62
407.555	469.62
407.778	469.62
408.002	463.62
408.226	451.62
408.449	435.62
408.673	430.62
408.896	437.62
409.12	442.62
409.344	426.62
409.567	419.62
409.791	441.62
410.014	412.62
410.238	421.62
410.461	414.62
410.685	420.62
410.908	405.62
411.132	398.62
411.355	410.62
411.578	411.62
411.802	398.62
412.025	424.62
412.249	406.62
412.472	399.62
412.695	395.62
412.919	370.62
413.142	359.62
413.365	384.62
413.589	374.62
413.812	374.62
414.035	392.62
414.258	378.62
414.482	397.62
414.705	388.62
414.928	414.62
415.151	382.62
415.374	407.62
415.597	387.62
415.821	391.62
416.044	393.62
416.267	373.62
416.49	383.62
416.713	394.62
416.936	377.62
417.159	369.62
417.382	355.62
417.605	375.62
417.828	373.62
418.051	380.62
418.274	381.62
418.497	387.62
418.72	390.62
418.943	401.62
419.166	415.62
419.389	443.62
419.611	414.62
419.834	406.62
420.057	418.62
420.28	407.62
420.503	397.62
420.726	381.62
420.948	358.62
421.171	389.62
421.394	381.62
421.617	370.62
421.839	395.62
422.062	372.62
422.285	363.62
422.507	407.62
422.73	414.62
422.953	385.62
423.175	409.62
423.398	403.62
423.621	395.62
423.843	399.62
424.066	418.62
424.288	408.62
424.511	399.62
424.733	381.62
424.956	384.62
425.178	395.62
425.401	385.62
425.623	367.62
425.846	342.62
426.068	379.62
426.291	373.62
426.513	364.62
426.735	363.62
426.958	351.62
427.18	346.62
427.402	375.62
427.625	358.62
427.847	347.62
428.069	348.62
428.292	361.62
428.514	346.62
428.736	358.62
428.958	347.62
429.181	341.62
429.403	350.62
429.625	331.62
429.847	351.62
430.069	342.62
430.292	355.62
430.514	353.62
430.736	344.62
430.958	343.62
431.18	346.62
431.402	342.62
431.624	350.62
431.846	338.62
432.068	363.62
432.29	351.62
432.512	346.62
432.734	346.62
432.956	346.62
433.178	351.62
433.4	338.62
433.622	358.62
433.844	365.62
434.066	372.62
434.287	351.62
434.509	348.62
434.731	387.62
434.953	377.62
435.175	390.62
435.397	385.62
435.618	369.62
435.84	344.62
436.062	350.62
436.284	347.62
436.505	363.62
436.727	352.62
436.949	337.62
437.17	338.62
437.392	342.62
437.614	352.62
437.835	328.62
438.057	343.62
438.278	336.62
438.5	338.62
438.721	343.62
438.943	343.62
439.165	352.62
439.386	348.62
439.608	341.62
439.829	361.62
440.05	366.62
440.272	353.62
440.493	357.62
440.715	354.62
440.936	373.62
441.158	364.62
441.379	373.62
441.6	387.62
441.822	394.62
442.043	411.62
442.264	385.62
442.486	395.62
442.707	390.62
442.928	373.62
443.149	374.62
443.371	381.62
443.592	387.62
443.813	387.62
444.034	388.62
444.255	385.62
444.476	387.62
444.698	406.62
444.919	434.62
445.14	552.62
445.361	469.62
445.582	387.62
445.803	390.62
446.024	352.62
446.245	380.62
446.466	372.62
446.687	366.62
446.908	347.62
447.129	356.62
447.35	349.62
447.571	338.62
447.792	344.62
448.013	331.62
448.234	351.62
448.455	333.62
448.675	329.62
448.896	339.62
449.117	332.62
449.338	319.62
449.559	330.62
449.779	321.62
450	306.62
450.221	323.62
450.442	353.62
450.662	342.62
450.883	335.62
451.104	350.62
451.324	339.62
451.545	338.62
451.766	315.62
451.986	327.62
452.207	311.62
452.428	321.62
452.648	299.62
452.869	318.62
453.089	314.62
453.31	307.62
453.53	309.62
453.751	323.62
453.971	318.62
454.192	302.62
454.412	316.62
454.633	294.62
454.853	309.62
455.073	311.62
455.294	299.62
455.514	301.62
455.734	303.62
455.955	307.62
456.175	310.62
456.395	310.62
456.616	294.62
456.836	324.62
457.056	305.62
457.276	306.62
457.497	291.62
457.717	323.62
457.937	316.62
458.157	307.62
458.377	306.62
458.598	322.62
458.818	319.62
459.038	310.62
459.258	327.62
459.478	342.62
459.698	362.62
459.918	360.62
460.138	365.62
460.358	391.62
460.578	399.62
460.798	406.62
461.018	398.62
461.238	397.62
461.458	398.62
461.678	385.62
461.898	414.62
462.118	428.62
462.338	412.62
462.558	451.62
462.777	439.62
462.997	479.62
463.217	499.62
463.437	504.62
463.657	476.62
463.876	467.62
464.096	429.62
464.316	443.62
464.536	452.62
464.755	459.62
464.975	432.62
465.195	419.62
465.414	378.62
465.634	373.62
465.854	395.62
466.073	356.62
466.293	356.62
466.512	356.62
466.732	352.62
466.951	342.62
467.171	378.62
467.391	359.62
467.61	353.62
467.829	338.62
468.049	337.62
468.268	316.62
468.488	313.62
468.707	326.62
468.927	329.62
469.146	354.62
469.365	340.62
469.585	346.62
469.804	337.62
470.023	334.62
470.243	335.62
470.462	343.62
470.681	354.62
470.901	353.62
471.12	333.62
471.339	349.62
471.558	335.62
471.777	336.62
471.997	325.62
472.216	325.62
472.435	317.62
472.654	333.62
472.873	342.62
473.092	328.62
473.311	311.62
473.53	332.62
473.749	335.62
473.968	336.62
474.187	329.62
474.406	325.62
474.625	342.62
474.844	315.62
475.063	329.62
475.282	330.62
475.501	329.62
475.72	323.62
475.939	351.62
476.158	325.62
476.377	332.62
476.596	326.62
476.814	347.62
477.033	362.62
477.252	364.62
477.471	348.62
477.69	350.62
477.908	353.62
478.127	373.62
478.346	388.62
478.564	381.62
478.783	371.62
479.002	394.62
479.22	389.62
479.439	396.62
479.658	388.62
479.876	386.62
480.095	366.62
480.313	400.62
480.532	409.62
480.751	403.62
480.969	390.62
481.188	364.62
481.406	390.62
481.624	354.62
481.843	360.62
482.061	366.62
482.28	361.62
482.498	362.62
482.717	353.62
482.935	364.62
483.153	365.62
483.372	381.62
483.59	354.62
483.808	359.62
484.027	376.62
484.245	375.62
484.463	374.62
484.681	367.62
484.9	367.62
485.118	388.62
485.336	373.62
485.554	380.62
485.772	367.62
485.99	347.62
486.209	348.62
486.427	378.62
486.645	368.62
486.863	384.62
487.081	376.62
487.299	387.62
487.517	387.62
487.735	365.62
487.953	391.62
488.171	385.62
488.389	376.62
488.607	345.62
488.825	360.62
489.043	398.62
489.261	383.62
489.479	378.62
489.696	387.62
489.914	382.62
490.132	386.62
490.35	381.62
490.568	383.62
490.786	374.62
491.003	393.62
491.221	372.62
491.439	380.62
491.657	381.62
491.874	387.62
492.092	381.62
492.31	389.62
492.527	394.62
492.745	381.62
492.963	397.62
493.18	397.62
493.398	369.62
493.615	400.62
493.833	377.62
494.05	392.62
494.268	403.62
494.485	399.62
494.703	396.62
494.92	381.62
495.138	390.62
495.355	403.62
495.573	389.62
495.79	409.62
496.008	407.62
496.225	400.62
496.442	419.62
496.66	413.62
496.877	422.62
497.094	436.62
497.312	426.62
497.529	435.62
497.746	455.62
497.963	431.62
498.181	450.62
498.398	473.62
498.615	493.62
498.832	535.62
499.049	547.62
499.267	600.62
499.484	685.62
499.701	693.62
499.918	782.62
500.135	869.62
500.352	967.62
500.569	985.62
500.786	1000.62
501.003	917.62
501.22	837.62
501.437	777.62
501.654	665.62
501.871	638.62
502.088	590.62
