Data from Fe(NO3)3@0.05M.TitratingCurve.Agarose3%dH2O.NegLispCup.LampEnergy10.LIBS07252019_HRD10591_16-45-53-334.txt Node
Date: Thu Jul 25 16:45:53 EDT 2019
User: cochatt
Spectrometer: HR+D1059
Trigger mode: 1
Integration Time (sec): 1.000000E-1
Scans to average: 1
Electric dark correction enabled: true
Nonlinearity correction enabled: false
Boxcar width: 0
XAxis mode: Wavelengths
Number of Pixels in Spectrum: 2048
>>>>>Begin Spectral Data<<<<<
223.165	-13.56
223.4	-13.56
223.635	-13.56
223.869	-17.56
224.104	-25.56
224.338	-5.56
224.573	-13.56
224.808	-9.56
225.042	-8.56
225.277	-7.56
225.511	-4.56
225.746	2.44
225.98	13.44
226.215	1.44
226.449	15.44
226.683	18.44
226.918	22.44
227.152	32.44
227.387	28.44
227.621	46.44
227.856	26.44
228.09	38.44
228.324	38.44
228.559	59.44
228.793	66.44
229.027	88.44
229.262	101.44
229.496	101.44
229.73	107.44
229.964	119.44
230.199	114.44
230.433	130.44
230.667	124.44
230.901	127.44
231.136	115.44
231.37	121.44
231.604	138.44
231.838	126.44
232.072	135.44
232.306	143.44
232.541	131.44
232.775	146.44
233.009	144.44
233.243	152.44
233.477	150.44
233.711	147.44
233.945	130.44
234.179	147.44
234.413	140.44
234.647	148.44
234.881	157.44
235.115	151.44
235.349	123.44
235.583	165.44
235.817	151.44
236.051	156.44
236.285	129.44
236.519	148.44
236.753	151.44
236.987	151.44
237.221	163.44
237.455	163.44
237.689	167.44
237.922	164.44
238.156	156.44
238.39	185.44
238.624	191.44
238.858	177.44
239.091	167.44
239.325	148.44
239.559	168.44
239.793	180.44
240.027	202.44
240.26	196.44
240.494	170.44
240.728	182.44
240.961	183.44
241.195	195.44
241.429	177.44
241.662	197.44
241.896	171.44
242.13	170.44
242.363	186.44
242.597	164.44
242.83	199.44
243.064	164.44
243.298	184.44
243.531	187.44
243.765	176.44
243.998	203.44
244.232	199.44
244.465	195.44
244.699	196.44
244.932	190.44
245.166	216.44
245.399	194.44
245.633	196.44
245.866	196.44
246.099	213.44
246.333	214.44
246.566	218.44
246.8	208.44
247.033	209.44
247.266	213.44
247.5	222.44
247.733	204.44
247.966	210.44
248.2	226.44
248.433	220.44
248.666	230.44
248.899	212.44
249.133	220.44
249.366	244.44
249.599	240.44
249.832	226.44
250.066	234.44
250.299	227.44
250.532	226.44
250.765	240.44
250.998	225.44
251.231	214.44
251.465	238.44
251.698	231.44
251.931	247.44
252.164	233.44
252.397	242.44
252.63	261.44
252.863	251.44
253.096	276.44
253.329	247.44
253.562	264.44
253.795	271.44
254.028	294.44
254.261	282.44
254.494	292.44
254.727	260.44
254.96	252.44
255.193	266.44
255.426	267.44
255.659	274.44
255.892	267.44
256.124	273.44
256.357	269.44
256.59	274.44
256.823	272.44
257.056	262.44
257.289	274.44
257.521	260.44
257.754	271.44
257.987	294.44
258.22	298.44
258.452	283.44
258.685	266.44
258.918	288.44
259.151	282.44
259.383	290.44
259.616	303.44
259.849	324.44
260.081	330.44
260.314	367.44
260.547	308.44
260.779	302.44
261.012	314.44
261.244	319.44
261.477	331.44
261.71	325.44
261.942	297.44
262.175	298.44
262.407	312.44
262.64	310.44
262.872	319.44
263.105	325.44
263.337	351.44
263.57	341.44
263.802	315.44
264.035	296.44
264.267	295.44
264.499	319.44
264.732	328.44
264.964	310.44
265.197	328.44
265.429	311.44
265.661	294.44
265.894	324.44
266.126	309.44
266.358	321.44
266.591	326.44
266.823	342.44
267.055	323.44
267.287	320.44
267.52	314.44
267.752	326.44
267.984	324.44
268.216	314.44
268.448	327.44
268.681	340.44
268.913	332.44
269.145	341.44
269.377	325.44
269.609	336.44
269.841	329.44
270.073	345.44
270.306	329.44
270.538	329.44
270.77	332.44
271.002	333.44
271.234	334.44
271.466	355.44
271.698	352.44
271.93	324.44
272.162	359.44
272.394	371.44
272.626	385.44
272.858	361.44
273.09	366.44
273.322	358.44
273.553	388.44
273.785	376.44
274.017	397.44
274.249	419.44
274.481	435.44
274.713	437.44
274.945	460.44
275.176	459.44
275.408	453.44
275.64	418.44
275.872	412.44
276.104	402.44
276.335	391.44
276.567	380.44
276.799	392.44
277.031	404.44
277.262	395.44
277.494	398.44
277.726	388.44
277.957	390.44
278.189	402.44
278.421	357.44
278.652	376.44
278.884	395.44
279.115	384.44
279.347	406.44
279.579	401.44
279.81	397.44
280.042	379.44
280.273	391.44
280.505	403.44
280.736	400.44
280.968	405.44
281.199	396.44
281.431	391.44
281.662	398.44
281.894	385.44
282.125	394.44
282.356	402.44
282.588	426.44
282.819	405.44
283.051	414.44
283.282	398.44
283.513	404.44
283.745	435.44
283.976	416.44
284.207	421.44
284.439	408.44
284.67	414.44
284.901	418.44
285.132	407.44
285.364	416.44
285.595	417.44
285.826	403.44
286.057	411.44
286.288	411.44
286.52	419.44
286.751	428.44
286.982	453.44
287.213	437.44
287.444	451.44
287.675	447.44
287.906	441.44
288.138	425.44
288.369	425.44
288.6	454.44
288.831	439.44
289.062	466.44
289.293	419.44
289.524	418.44
289.755	425.44
289.986	437.44
290.217	440.44
290.448	440.44
290.679	432.44
290.91	443.44
291.141	458.44
291.371	456.44
291.602	437.44
291.833	434.44
292.064	465.44
292.295	424.44
292.526	450.44
292.757	423.44
292.987	461.44
293.218	451.44
293.449	452.44
293.68	450.44
293.91	451.44
294.141	461.44
294.372	458.44
294.603	458.44
294.833	448.44
295.064	475.44
295.295	454.44
295.525	452.44
295.756	464.44
295.987	467.44
296.217	464.44
296.448	478.44
296.679	470.44
296.909	464.44
297.14	466.44
297.37	478.44
297.601	484.44
297.831	473.44
298.062	474.44
298.292	479.44
298.523	484.44
298.753	489.44
298.984	479.44
299.214	500.44
299.445	503.44
299.675	480.44
299.905	473.44
300.136	474.44
300.366	490.44
300.597	498.44
300.827	487.44
301.057	507.44
301.288	481.44
301.518	506.44
301.748	510.44
301.979	521.44
302.209	516.44
302.439	522.44
302.669	495.44
302.9	503.44
303.13	520.44
303.36	500.44
303.59	508.44
303.82	510.44
304.051	510.44
304.281	499.44
304.511	496.44
304.741	489.44
304.971	495.44
305.201	516.44
305.431	524.44
305.661	523.44
305.891	498.44
306.121	518.44
306.352	527.44
306.582	506.44
306.812	510.44
307.042	508.44
307.272	509.44
307.502	512.44
307.731	520.44
307.961	488.44
308.191	524.44
308.421	534.44
308.651	520.44
308.881	534.44
309.111	512.44
309.341	529.44
309.571	533.44
309.8	528.44
310.03	516.44
310.26	518.44
310.49	511.44
310.72	517.44
310.949	496.44
311.179	520.44
311.409	511.44
311.639	530.44
311.868	528.44
312.098	522.44
312.328	536.44
312.557	551.44
312.787	540.44
313.017	528.44
313.246	536.44
313.476	540.44
313.706	566.44
313.935	564.44
314.165	552.44
314.394	519.44
314.624	560.44
314.853	544.44
315.083	543.44
315.312	539.44
315.542	570.44
315.771	559.44
316.001	553.44
316.23	549.44
316.46	561.44
316.689	554.44
316.919	563.44
317.148	555.44
317.377	552.44
317.607	578.44
317.836	564.44
318.065	549.44
318.295	555.44
318.524	547.44
318.753	562.44
318.983	547.44
319.212	564.44
319.441	567.44
319.67	552.44
319.9	570.44
320.129	566.44
320.358	552.44
320.587	566.44
320.816	555.44
321.046	563.44
321.275	571.44
321.504	558.44
321.733	579.44
321.962	569.44
322.191	576.44
322.42	593.44
322.649	598.44
322.878	582.44
323.108	581.44
323.337	596.44
323.566	574.44
323.795	565.44
324.024	574.44
324.253	595.44
324.482	586.44
324.71	576.44
324.939	596.44
325.168	589.44
325.397	582.44
325.626	592.44
325.855	595.44
326.084	605.44
326.313	588.44
326.542	584.44
326.77	605.44
326.999	579.44
327.228	590.44
327.457	617.44
327.686	619.44
327.914	619.44
328.143	599.44
328.372	585.44
328.6	595.44
328.829	615.44
329.058	598.44
329.287	619.44
329.515	649.44
329.744	623.44
329.972	645.44
330.201	620.44
330.43	611.44
330.658	624.44
330.887	616.44
331.115	632.44
331.344	629.44
331.572	649.44
331.801	640.44
332.03	630.44
332.258	649.44
332.486	665.44
332.715	659.44
332.943	660.44
333.172	656.44
333.4	676.44
333.629	689.44
333.857	709.44
334.085	689.44
334.314	693.44
334.542	706.44
334.771	708.44
334.999	716.44
335.227	718.44
335.455	722.44
335.684	712.44
335.912	723.44
336.14	703.44
336.369	728.44
336.597	704.44
336.825	705.44
337.053	730.44
337.281	697.44
337.51	691.44
337.738	693.44
337.966	667.44
338.194	699.44
338.422	666.44
338.65	690.44
338.878	666.44
339.106	676.44
339.334	668.44
339.562	651.44
339.79	641.44
340.018	671.44
340.246	659.44
340.474	668.44
340.702	639.44
340.93	654.44
341.158	654.44
341.386	642.44
341.614	653.44
341.842	649.44
342.07	648.44
342.298	668.44
342.526	641.44
342.754	650.44
342.981	667.44
343.209	642.44
343.437	709.44
343.665	686.44
343.893	683.44
344.12	711.44
344.348	724.44
344.576	708.44
344.804	707.44
345.031	680.44
345.259	661.44
345.487	656.44
345.714	692.44
345.942	662.44
346.17	636.44
346.397	646.44
346.625	636.44
346.853	632.44
347.08	631.44
347.308	639.44
347.535	651.44
347.763	644.44
347.99	638.44
348.218	633.44
348.445	633.44
348.673	601.44
348.9	618.44
349.128	624.44
349.355	629.44
349.583	630.44
349.81	609.44
350.037	640.44
350.265	598.44
350.492	628.44
350.72	611.44
350.947	612.44
351.174	611.44
351.402	624.44
351.629	616.44
351.856	607.44
352.083	601.44
352.311	614.44
352.538	609.44
352.765	615.44
352.992	614.44
353.22	618.44
353.447	618.44
353.674	601.44
353.901	611.44
354.128	606.44
354.355	617.44
354.583	632.44
354.81	612.44
355.037	598.44
355.264	642.44
355.491	611.44
355.718	647.44
355.945	626.44
356.172	632.44
356.399	602.44
356.626	608.44
356.853	626.44
357.08	638.44
357.307	644.44
357.534	627.44
357.761	644.44
357.988	618.44
358.215	642.44
358.441	667.44
358.668	648.44
358.895	642.44
359.122	617.44
359.349	617.44
359.576	615.44
359.802	591.44
360.029	615.44
360.256	619.44
360.483	587.44
360.709	644.44
360.936	634.44
361.163	628.44
361.39	627.44
361.616	588.44
361.843	628.44
362.07	638.44
362.296	627.44
362.523	612.44
362.749	640.44
362.976	627.44
363.203	615.44
363.429	628.44
363.656	622.44
363.882	633.44
364.109	636.44
364.335	636.44
364.562	619.44
364.788	628.44
365.015	640.44
365.241	644.44
365.468	651.44
365.694	626.44
365.92	628.44
366.147	623.44
366.373	633.44
366.599	617.44
366.826	632.44
367.052	636.44
367.278	668.44
367.505	648.44
367.731	652.44
367.957	644.44
368.184	652.44
368.41	671.44
368.636	663.44
368.862	676.44
369.089	630.44
369.315	675.44
369.541	672.44
369.767	675.44
369.993	668.44
370.219	661.44
370.445	695.44
370.672	690.44
370.898	687.44
371.124	676.44
371.35	699.44
371.576	668.44
371.802	689.44
372.028	700.44
372.254	715.44
372.48	711.44
372.706	728.44
372.932	731.44
373.158	681.44
373.384	735.44
373.61	747.44
373.835	740.44
374.061	737.44
374.287	722.44
374.513	738.44
374.739	753.44
374.965	755.44
375.191	756.44
375.416	754.44
375.642	715.44
375.868	737.44
376.094	736.44
376.319	721.44
376.545	708.44
376.771	747.44
376.997	706.44
377.222	680.44
377.448	701.44
377.674	695.44
377.899	690.44
378.125	688.44
378.35	688.44
378.576	705.44
378.802	703.44
379.027	705.44
379.253	718.44
379.478	722.44
379.704	704.44
379.929	719.44
380.155	698.44
380.38	706.44
380.606	706.44
380.831	707.44
381.057	693.44
381.282	723.44
381.507	715.44
381.733	717.44
381.958	731.44
382.184	744.44
382.409	769.44
382.634	728.44
382.86	755.44
383.085	729.44
383.31	760.44
383.535	774.44
383.761	725.44
383.986	771.44
384.211	776.44
384.436	766.44
384.662	767.44
384.887	785.44
385.112	792.44
385.337	778.44
385.562	809.44
385.787	819.44
386.013	822.44
386.238	842.44
386.463	794.44
386.688	820.44
386.913	793.44
387.138	797.44
387.363	811.44
387.588	848.44
387.813	847.44
388.038	830.44
388.263	818.44
388.488	823.44
388.713	827.44
388.938	865.44
389.163	836.44
389.387	810.44
389.612	815.44
389.837	835.44
390.062	844.44
390.287	850.44
390.512	828.44
390.736	855.44
390.961	835.44
391.186	884.44
391.411	868.44
391.636	872.44
391.86	928.44
392.085	871.44
392.31	891.44
392.534	888.44
392.759	910.44
392.984	873.44
393.208	870.44
393.433	878.44
393.658	886.44
393.882	827.44
394.107	858.44
394.331	884.44
394.556	874.44
394.78	856.44
395.005	872.44
395.229	904.44
395.454	879.44
395.678	906.44
395.903	892.44
396.127	890.44
396.352	882.44
396.576	909.44
396.801	898.44
397.025	914.44
397.249	938.44
397.474	918.44
397.698	942.44
397.922	935.44
398.147	930.44
398.371	964.44
398.595	978.44
398.82	994.44
399.044	1016.44
399.268	1069.44
399.492	1097.44
399.717	1118.44
399.941	1145.44
400.165	1168.44
400.389	1122.44
400.613	1123.44
400.837	1091.44
401.062	1061.44
401.286	1030.44
401.51	1008.44
401.734	1007.44
401.958	1054.44
402.182	1028.44
402.406	1018.44
402.63	1014.44
402.854	1004.44
403.078	1010.44
403.302	997.44
403.526	1014.44
403.75	1011.44
403.974	1032.44
404.198	1000.44
404.422	1035.44
404.645	1063.44
404.869	1032.44
405.093	1061.44
405.317	1022.44
405.541	1028.44
405.765	1058.44
405.988	1045.44
406.212	1066.44
406.436	1066.44
406.66	1094.44
406.883	1083.44
407.107	1120.44
407.331	1178.44
407.555	1202.44
407.778	1188.44
408.002	1143.44
408.226	1151.44
408.449	1177.44
408.673	1142.44
408.896	1137.44
409.12	1122.44
409.344	1131.44
409.567	1095.44
409.791	1126.44
410.014	1078.44
410.238	1104.44
410.461	1095.44
410.685	1093.44
410.908	1054.44
411.132	1093.44
411.355	1056.44
411.578	1094.44
411.802	1065.44
412.025	1078.44
412.249	1080.44
412.472	1070.44
412.695	1043.44
412.919	1064.44
413.142	1069.44
413.365	1042.44
413.589	1050.44
413.812	1026.44
414.035	1018.44
414.258	995.44
414.482	1024.44
414.705	1048.44
414.928	1021.44
415.151	1001.44
415.374	1034.44
415.597	1038.44
415.821	1043.44
416.044	1001.44
416.267	999.44
416.49	1016.44
416.713	1047.44
416.936	980.44
417.159	994.44
417.382	964.44
417.605	988.44
417.828	1013.44
418.051	1005.44
418.274	978.44
418.497	965.44
418.72	990.44
418.943	983.44
419.166	1015.44
419.389	1137.44
419.611	1136.44
419.834	1092.44
420.057	1038.44
420.28	1002.44
420.503	988.44
420.726	945.44
420.948	967.44
421.171	977.44
421.394	976.44
421.617	1001.44
421.839	988.44
422.062	1003.44
422.285	962.44
422.507	1006.44
422.73	982.44
422.953	979.44
423.175	968.44
423.398	981.44
423.621	995.44
423.843	999.44
424.066	987.44
424.288	985.44
424.511	988.44
424.733	959.44
424.956	975.44
425.178	994.44
425.401	1001.44
425.623	962.44
425.846	964.44
426.068	975.44
426.291	983.44
426.513	962.44
426.735	976.44
426.958	962.44
427.18	968.44
427.402	972.44
427.625	987.44
427.847	951.44
428.069	962.44
428.292	957.44
428.514	937.44
428.736	927.44
428.958	944.44
429.181	957.44
429.403	923.44
429.625	922.44
429.847	944.44
430.069	912.44
430.292	914.44
430.514	927.44
430.736	942.44
430.958	972.44
431.18	962.44
431.402	969.44
431.624	947.44
431.846	938.44
432.068	948.44
432.29	961.44
432.512	938.44
432.734	982.44
432.956	982.44
433.178	955.44
433.4	959.44
433.622	988.44
433.844	991.44
434.066	937.44
434.287	944.44
434.509	970.44
434.731	968.44
434.953	1007.44
435.175	970.44
435.397	998.44
435.618	972.44
435.84	970.44
436.062	939.44
436.284	933.44
436.505	957.44
436.727	953.44
436.949	943.44
437.17	927.44
437.392	926.44
437.614	916.44
437.835	943.44
438.057	908.44
438.278	920.44
438.5	930.44
438.721	950.44
438.943	930.44
439.165	889.44
439.386	924.44
439.608	954.44
439.829	929.44
440.05	944.44
440.272	932.44
440.493	954.44
440.715	978.44
440.936	957.44
441.158	953.44
441.379	983.44
441.6	978.44
441.822	975.44
442.043	1013.44
442.264	965.44
442.486	966.44
442.707	1003.44
442.928	962.44
443.149	974.44
443.371	984.44
443.592	983.44
443.813	990.44
444.034	999.44
444.255	1038.44
444.476	1006.44
444.698	1047.44
444.919	1027.44
445.14	1138.44
445.361	1089.44
445.582	1005.44
445.803	982.44
446.024	969.44
446.245	992.44
446.466	994.44
446.687	965.44
446.908	958.44
447.129	958.44
447.35	931.44
447.571	921.44
447.792	934.44
448.013	901.44
448.234	887.44
448.455	908.44
448.675	888.44
448.896	884.44
449.117	885.44
449.338	907.44
449.559	842.44
449.779	865.44
450	871.44
450.221	871.44
450.442	873.44
450.662	858.44
450.883	856.44
451.104	888.44
451.324	828.44
451.545	874.44
451.766	869.44
451.986	843.44
452.207	839.44
452.428	862.44
452.648	855.44
452.869	868.44
453.089	841.44
453.31	866.44
453.53	848.44
453.751	843.44
453.971	828.44
454.192	824.44
454.412	821.44
454.633	837.44
454.853	819.44
455.073	804.44
455.294	848.44
455.514	828.44
455.734	861.44
455.955	848.44
456.175	803.44
456.395	800.44
456.616	837.44
456.836	823.44
457.056	824.44
457.276	842.44
457.497	848.44
457.717	855.44
457.937	859.44
458.157	844.44
458.377	839.44
458.598	868.44
458.818	892.44
459.038	888.44
459.258	886.44
459.478	935.44
459.698	933.44
459.918	943.44
460.138	958.44
460.358	977.44
460.578	980.44
460.798	992.44
461.018	1033.44
461.238	1022.44
461.458	1038.44
461.678	1012.44
461.898	1061.44
462.118	1027.44
462.338	1080.44
462.558	1091.44
462.777	1123.44
462.997	1127.44
463.217	1125.44
463.437	1169.44
463.657	1146.44
463.876	1135.44
464.096	1150.44
464.316	1103.44
464.536	1094.44
464.755	1098.44
464.975	1050.44
465.195	1035.44
465.414	1037.44
465.634	1001.44
465.854	957.44
466.073	960.44
466.293	942.44
466.512	955.44
466.732	944.44
466.951	931.44
467.171	894.44
467.391	898.44
467.61	907.44
467.829	914.44
468.049	933.44
468.268	888.44
468.488	894.44
468.707	897.44
468.927	910.44
469.146	935.44
469.365	914.44
469.585	893.44
469.804	914.44
470.023	907.44
470.243	886.44
470.462	938.44
470.681	949.44
470.901	928.44
471.12	938.44
471.339	926.44
471.558	878.44
471.777	927.44
471.997	901.44
472.216	907.44
472.435	931.44
472.654	918.44
472.873	898.44
473.092	884.44
473.311	894.44
473.53	933.44
473.749	902.44
473.968	911.44
474.187	910.44
474.406	903.44
474.625	904.44
474.844	901.44
475.063	893.44
475.282	897.44
475.501	920.44
475.72	918.44
475.939	957.44
476.158	946.44
476.377	943.44
476.596	952.44
476.814	1012.44
477.033	991.44
477.252	974.44
477.471	983.44
477.69	997.44
477.908	987.44
478.127	999.44
478.346	1031.44
478.564	1011.44
478.783	1037.44
479.002	1023.44
479.22	1060.44
479.439	1085.44
479.658	1078.44
479.876	1065.44
480.095	1087.44
480.313	1080.44
480.532	1091.44
480.751	1076.44
480.969	1078.44
481.188	1094.44
481.406	1083.44
481.624	1082.44
481.843	1068.44
482.061	1064.44
482.28	1078.44
482.498	1058.44
482.717	1081.44
482.935	1059.44
483.153	1040.44
483.372	1055.44
483.59	1082.44
483.808	1069.44
484.027	1081.44
484.245	1051.44
484.463	1034.44
484.681	1086.44
484.9	1080.44
485.118	1060.44
485.336	1066.44
485.554	1093.44
485.772	1071.44
485.99	1101.44
486.209	1108.44
486.427	1061.44
486.645	1088.44
486.863	1058.44
487.081	1121.44
487.299	1105.44
487.517	1111.44
487.735	1098.44
487.953	1081.44
488.171	1125.44
488.389	1052.44
488.607	1075.44
488.825	1082.44
489.043	1060.44
489.261	1090.44
489.479	1089.44
489.696	1112.44
489.914	1082.44
490.132	1104.44
490.35	1083.44
490.568	1088.44
490.786	1100.44
491.003	1100.44
491.221	1120.44
491.439	1126.44
491.657	1093.44
491.874	1130.44
492.092	1118.44
492.31	1142.44
492.527	1118.44
492.745	1125.44
492.963	1145.44
493.18	1134.44
493.398	1150.44
493.615	1145.44
493.833	1118.44
494.05	1140.44
494.268	1125.44
494.485	1118.44
494.703	1151.44
494.92	1151.44
495.138	1171.44
495.355	1160.44
495.573	1118.44
495.79	1167.44
496.008	1177.44
496.225	1170.44
496.442	1172.44
496.66	1201.44
496.877	1234.44
497.094	1244.44
497.312	1246.44
497.529	1267.44
497.746	1267.44
497.963	1290.44
498.181	1347.44
498.398	1399.44
498.615	1409.44
