Data from Fe(NO3)3@0.1M.TitratingCurve.Agarose3%dH2O.NegLispCup.LampEnergy10.LIBS07252019_HRD10591_16-37-20-331.txt Node
Date: Thu Jul 25 16:37:20 EDT 2019
User: cochatt
Spectrometer: HR+D1059
Trigger mode: 1
Integration Time (sec): 1.000000E-1
Scans to average: 1
Electric dark correction enabled: true
Nonlinearity correction enabled: false
Boxcar width: 0
XAxis mode: Wavelengths
Number of Pixels in Spectrum: 2048
>>>>>Begin Spectral Data<<<<<
223.165	-13.88
223.4	-13.88
223.635	-13.88
223.869	-11.88
224.104	-20.88
224.338	-21.88
224.573	0.12
224.808	-14.88
225.042	-20.88
225.277	6.12
225.511	12.12
225.746	7.12
225.98	11.12
226.215	11.12
226.449	8.12
226.683	8.12
226.918	8.12
227.152	32.12
227.387	27.12
227.621	34.12
227.856	46.12
228.09	36.12
228.324	51.12
228.559	54.12
228.793	59.12
229.027	75.12
229.262	73.12
229.496	80.12
229.73	63.12
229.964	83.12
230.199	92.12
230.433	99.12
230.667	93.12
230.901	92.12
231.136	95.12
231.37	104.12
231.604	103.12
231.838	112.12
232.072	89.12
232.306	91.12
232.541	105.12
232.775	96.12
233.009	95.12
233.243	88.12
233.477	95.12
233.711	93.12
233.945	105.12
234.179	94.12
234.413	97.12
234.647	106.12
234.881	100.12
235.115	100.12
235.349	102.12
235.583	83.12
235.817	94.12
236.051	114.12
236.285	107.12
236.519	99.12
236.753	101.12
236.987	91.12
237.221	97.12
237.455	107.12
237.689	114.12
237.922	100.12
238.156	94.12
238.39	96.12
238.624	111.12
238.858	101.12
239.091	99.12
239.325	111.12
239.559	91.12
239.793	101.12
240.027	120.12
240.26	120.12
240.494	111.12
240.728	112.12
240.961	111.12
241.195	98.12
241.429	110.12
241.662	116.12
241.896	99.12
242.13	96.12
242.363	107.12
242.597	108.12
242.83	110.12
243.064	95.12
243.298	99.12
243.531	101.12
243.765	120.12
243.998	103.12
244.232	114.12
244.465	119.12
244.699	123.12
244.932	116.12
245.166	123.12
245.399	117.12
245.633	118.12
245.866	119.12
246.099	122.12
246.333	117.12
246.566	115.12
246.8	106.12
247.033	109.12
247.266	118.12
247.5	117.12
247.733	122.12
247.966	120.12
248.2	115.12
248.433	115.12
248.666	126.12
248.899	125.12
249.133	118.12
249.366	127.12
249.599	123.12
249.832	114.12
250.066	121.12
250.299	133.12
250.532	125.12
250.765	134.12
250.998	136.12
251.231	111.12
251.465	125.12
251.698	143.12
251.931	123.12
252.164	125.12
252.397	120.12
252.63	119.12
252.863	133.12
253.096	148.12
253.329	138.12
253.562	135.12
253.795	144.12
254.028	138.12
254.261	137.12
254.494	136.12
254.727	142.12
254.96	147.12
255.193	119.12
255.426	135.12
255.659	131.12
255.892	147.12
256.124	144.12
256.357	154.12
256.59	152.12
256.823	142.12
257.056	143.12
257.289	136.12
257.521	140.12
257.754	132.12
257.987	130.12
258.22	165.12
258.452	146.12
258.685	147.12
258.918	134.12
259.151	130.12
259.383	146.12
259.616	151.12
259.849	146.12
260.081	171.12
260.314	150.12
260.547	144.12
260.779	146.12
261.012	150.12
261.244	156.12
261.477	154.12
261.71	146.12
261.942	146.12
262.175	152.12
262.407	144.12
262.64	152.12
262.872	147.12
263.105	144.12
263.337	167.12
263.57	162.12
263.802	139.12
264.035	155.12
264.267	160.12
264.499	165.12
264.732	162.12
264.964	145.12
265.197	159.12
265.429	165.12
265.661	147.12
265.894	147.12
266.126	168.12
266.358	153.12
266.591	158.12
266.823	153.12
267.055	146.12
267.287	150.12
267.52	166.12
267.752	147.12
267.984	160.12
268.216	176.12
268.448	169.12
268.681	165.12
268.913	151.12
269.145	167.12
269.377	141.12
269.609	158.12
269.841	164.12
270.073	154.12
270.306	160.12
270.538	168.12
270.77	163.12
271.002	174.12
271.234	160.12
271.466	169.12
271.698	174.12
271.93	166.12
272.162	166.12
272.394	170.12
272.626	182.12
272.858	172.12
273.09	177.12
273.322	174.12
273.553	185.12
273.785	179.12
274.017	182.12
274.249	176.12
274.481	201.12
274.713	183.12
274.945	194.12
275.176	199.12
275.408	190.12
275.64	185.12
275.872	180.12
276.104	179.12
276.335	167.12
276.567	159.12
276.799	189.12
277.031	185.12
277.262	192.12
277.494	182.12
277.726	182.12
277.957	187.12
278.189	194.12
278.421	180.12
278.652	172.12
278.884	193.12
279.115	189.12
279.347	186.12
279.579	190.12
279.81	174.12
280.042	188.12
280.273	192.12
280.505	188.12
280.736	190.12
280.968	199.12
281.199	188.12
281.431	190.12
281.662	186.12
281.894	192.12
282.125	183.12
282.356	199.12
282.588	186.12
282.819	213.12
283.051	204.12
283.282	198.12
283.513	193.12
283.745	183.12
283.976	194.12
284.207	192.12
284.439	210.12
284.67	208.12
284.901	199.12
285.132	201.12
285.364	207.12
285.595	206.12
285.826	203.12
286.057	206.12
286.288	191.12
286.52	193.12
286.751	204.12
286.982	199.12
287.213	200.12
287.444	215.12
287.675	218.12
287.906	201.12
288.138	208.12
288.369	199.12
288.6	196.12
288.831	200.12
289.062	217.12
289.293	217.12
289.524	222.12
289.755	212.12
289.986	195.12
290.217	211.12
290.448	212.12
290.679	219.12
290.91	210.12
291.141	200.12
291.371	204.12
291.602	214.12
291.833	212.12
292.064	214.12
292.295	200.12
292.526	224.12
292.757	213.12
292.987	207.12
293.218	205.12
293.449	197.12
293.68	218.12
293.91	211.12
294.141	210.12
294.372	216.12
294.603	213.12
294.833	236.12
295.064	216.12
295.295	228.12
295.525	211.12
295.756	209.12
295.987	228.12
296.217	211.12
296.448	223.12
296.679	192.12
296.909	218.12
297.14	215.12
297.37	223.12
297.601	225.12
297.831	207.12
298.062	229.12
298.292	241.12
298.523	233.12
298.753	215.12
298.984	210.12
299.214	226.12
299.445	222.12
299.675	230.12
299.905	211.12
300.136	241.12
300.366	228.12
300.597	230.12
300.827	227.12
301.057	254.12
301.288	225.12
301.518	225.12
301.748	244.12
301.979	234.12
302.209	250.12
302.439	239.12
302.669	228.12
302.9	220.12
303.13	235.12
303.36	238.12
303.59	252.12
303.82	242.12
304.051	219.12
304.281	239.12
304.511	235.12
304.741	234.12
304.971	235.12
305.201	220.12
305.431	224.12
305.661	236.12
305.891	228.12
306.121	239.12
306.352	232.12
306.582	218.12
306.812	225.12
307.042	236.12
307.272	243.12
307.502	233.12
307.731	228.12
307.961	223.12
308.191	242.12
308.421	224.12
308.651	227.12
308.881	228.12
309.111	225.12
309.341	231.12
309.571	233.12
309.8	244.12
310.03	222.12
310.26	226.12
310.49	230.12
310.72	232.12
310.949	234.12
311.179	226.12
311.409	232.12
311.639	246.12
311.868	244.12
312.098	257.12
312.328	238.12
312.557	235.12
312.787	244.12
313.017	244.12
313.246	264.12
313.476	241.12
313.706	258.12
313.935	247.12
314.165	247.12
314.394	234.12
314.624	249.12
314.853	255.12
315.083	233.12
315.312	244.12
315.542	232.12
315.771	229.12
316.001	256.12
316.23	250.12
316.46	253.12
316.689	230.12
316.919	248.12
317.148	238.12
317.377	244.12
317.607	248.12
317.836	243.12
318.065	238.12
318.295	241.12
318.524	231.12
318.753	243.12
318.983	236.12
319.212	226.12
319.441	241.12
319.67	256.12
319.9	232.12
320.129	235.12
320.358	241.12
320.587	248.12
320.816	254.12
321.046	241.12
321.275	227.12
321.504	246.12
321.733	252.12
321.962	257.12
322.191	254.12
322.42	251.12
322.649	250.12
322.878	229.12
323.108	241.12
323.337	248.12
323.566	246.12
323.795	261.12
324.024	248.12
324.253	248.12
324.482	258.12
324.71	258.12
324.939	262.12
325.168	256.12
325.397	243.12
325.626	252.12
325.855	267.12
326.084	270.12
326.313	243.12
326.542	256.12
326.77	275.12
326.999	256.12
327.228	256.12
327.457	264.12
327.686	253.12
327.914	269.12
328.143	261.12
328.372	267.12
328.6	267.12
328.829	265.12
329.058	260.12
329.287	257.12
329.515	290.12
329.744	255.12
329.972	278.12
330.201	258.12
330.43	265.12
330.658	285.12
330.887	274.12
331.115	260.12
331.344	278.12
331.572	265.12
331.801	280.12
332.03	280.12
332.258	287.12
332.486	276.12
332.715	307.12
332.943	322.12
333.172	320.12
333.4	334.12
333.629	335.12
333.857	338.12
334.085	350.12
334.314	324.12
334.542	319.12
334.771	318.12
334.999	312.12
335.227	312.12
335.455	338.12
335.684	303.12
335.912	310.12
336.14	312.12
336.369	305.12
336.597	290.12
336.825	290.12
337.053	297.12
337.281	291.12
337.51	287.12
337.738	305.12
337.966	291.12
338.194	275.12
338.422	282.12
338.65	271.12
338.878	284.12
339.106	267.12
339.334	286.12
339.562	276.12
339.79	301.12
340.018	281.12
340.246	267.12
340.474	280.12
340.702	279.12
340.93	289.12
341.158	271.12
341.386	284.12
341.614	274.12
341.842	281.12
342.07	281.12
342.298	266.12
342.526	277.12
342.754	266.12
342.981	294.12
343.209	282.12
343.437	286.12
343.665	307.12
343.893	312.12
344.12	338.12
344.348	317.12
344.576	310.12
344.804	275.12
345.031	270.12
345.259	292.12
345.487	293.12
345.714	287.12
345.942	268.12
346.17	282.12
346.397	265.12
346.625	256.12
346.853	269.12
347.08	265.12
347.308	258.12
347.535	281.12
347.763	256.12
347.99	275.12
348.218	271.12
348.445	277.12
348.673	267.12
348.9	290.12
349.128	280.12
349.355	280.12
349.583	274.12
349.81	263.12
350.037	258.12
350.265	262.12
350.492	249.12
350.72	279.12
350.947	233.12
351.174	259.12
351.402	252.12
351.629	265.12
351.856	259.12
352.083	278.12
352.311	262.12
352.538	263.12
352.765	248.12
352.992	259.12
353.22	260.12
353.447	260.12
353.674	272.12
353.901	258.12
354.128	268.12
354.355	246.12
354.583	272.12
354.81	263.12
355.037	265.12
355.264	262.12
355.491	277.12
355.718	268.12
355.945	277.12
356.172	260.12
356.399	257.12
356.626	251.12
356.853	259.12
357.08	273.12
357.307	263.12
357.534	266.12
357.761	267.12
357.988	280.12
358.215	283.12
358.441	265.12
358.668	248.12
358.895	264.12
359.122	260.12
359.349	260.12
359.576	255.12
359.802	270.12
360.029	262.12
360.256	277.12
360.483	262.12
360.709	250.12
360.936	252.12
361.163	261.12
361.39	282.12
361.616	262.12
361.843	274.12
362.07	261.12
362.296	257.12
362.523	259.12
362.749	256.12
362.976	272.12
363.203	282.12
363.429	267.12
363.656	266.12
363.882	265.12
364.109	254.12
364.335	268.12
364.562	261.12
364.788	276.12
365.015	265.12
365.241	270.12
365.468	267.12
365.694	264.12
365.92	259.12
366.147	267.12
366.373	260.12
366.599	265.12
366.826	254.12
367.052	261.12
367.278	267.12
367.505	265.12
367.731	266.12
367.957	266.12
368.184	277.12
368.41	276.12
368.636	266.12
368.862	268.12
369.089	277.12
369.315	277.12
369.541	284.12
369.767	271.12
369.993	267.12
370.219	262.12
370.445	282.12
370.672	290.12
370.898	292.12
371.124	275.12
371.35	286.12
371.576	308.12
371.802	273.12
372.028	286.12
372.254	292.12
372.48	303.12
372.706	298.12
372.932	294.12
373.158	297.12
373.384	316.12
373.61	299.12
373.835	312.12
374.061	307.12
374.287	276.12
374.513	302.12
374.739	297.12
374.965	330.12
375.191	326.12
375.416	334.12
375.642	336.12
375.868	311.12
376.094	294.12
376.319	294.12
376.545	298.12
376.771	311.12
376.997	302.12
377.222	303.12
377.448	308.12
377.674	303.12
377.899	308.12
378.125	312.12
378.35	294.12
378.576	294.12
378.802	294.12
379.027	276.12
379.253	275.12
379.478	278.12
379.704	299.12
379.929	308.12
380.155	295.12
380.38	312.12
380.606	317.12
380.831	310.12
381.057	315.12
381.282	295.12
381.507	294.12
381.733	320.12
381.958	304.12
382.184	298.12
382.409	320.12
382.634	302.12
382.86	303.12
383.085	331.12
383.31	320.12
383.535	331.12
383.761	328.12
383.986	335.12
384.211	356.12
384.436	334.12
384.662	360.12
384.887	349.12
385.112	347.12
385.337	369.12
385.562	371.12
385.787	351.12
386.013	372.12
386.238	370.12
386.463	370.12
386.688	373.12
386.913	355.12
387.138	356.12
387.363	358.12
387.588	355.12
387.813	362.12
388.038	355.12
388.263	352.12
388.488	353.12
388.713	351.12
388.938	357.12
389.163	345.12
389.387	366.12
389.612	342.12
389.837	348.12
390.062	359.12
390.287	350.12
390.512	368.12
390.736	382.12
390.961	364.12
391.186	348.12
391.411	380.12
391.636	393.12
391.86	401.12
392.085	409.12
392.31	403.12
392.534	378.12
392.759	382.12
392.984	384.12
393.208	402.12
393.433	385.12
393.658	402.12
393.882	381.12
394.107	402.12
394.331	388.12
394.556	363.12
394.78	376.12
395.005	389.12
395.229	393.12
395.454	400.12
395.678	406.12
395.903	411.12
396.127	409.12
396.352	383.12
396.576	396.12
396.801	408.12
397.025	386.12
397.249	414.12
397.474	394.12
397.698	412.12
397.922	422.12
398.147	400.12
398.371	422.12
398.595	435.12
398.82	455.12
399.044	460.12
399.268	510.12
399.492	581.12
399.717	647.12
399.941	644.12
400.165	585.12
400.389	518.12
400.613	522.12
400.837	474.12
401.062	438.12
401.286	462.12
401.51	452.12
401.734	452.12
401.958	466.12
402.182	455.12
402.406	456.12
402.63	482.12
402.854	481.12
403.078	464.12
403.302	482.12
403.526	499.12
403.75	501.12
403.974	514.12
404.198	512.12
404.422	501.12
404.645	495.12
404.869	490.12
405.093	505.12
405.317	500.12
405.541	468.12
405.765	489.12
405.988	473.12
406.212	488.12
406.436	476.12
406.66	493.12
406.883	518.12
407.107	540.12
407.331	550.12
407.555	574.12
407.778	562.12
408.002	577.12
408.226	528.12
408.449	530.12
408.673	540.12
408.896	523.12
409.12	516.12
409.344	514.12
409.567	514.12
409.791	516.12
410.014	485.12
410.238	511.12
410.461	496.12
410.685	478.12
410.908	466.12
411.132	481.12
411.355	493.12
411.578	490.12
411.802	451.12
412.025	475.12
412.249	482.12
412.472	468.12
412.695	466.12
412.919	481.12
413.142	456.12
413.365	469.12
413.589	461.12
413.812	450.12
414.035	461.12
414.258	456.12
414.482	475.12
414.705	476.12
414.928	464.12
415.151	455.12
415.374	460.12
415.597	452.12
415.821	459.12
416.044	457.12
416.267	432.12
416.49	474.12
416.713	473.12
416.936	455.12
417.159	452.12
417.382	452.12
417.605	435.12
417.828	455.12
418.051	468.12
418.274	463.12
418.497	453.12
418.72	445.12
418.943	452.12
419.166	494.12
419.389	518.12
419.611	479.12
419.834	490.12
420.057	472.12
420.28	442.12
420.503	433.12
420.726	453.12
420.948	450.12
421.171	450.12
421.394	464.12
421.617	434.12
421.839	456.12
422.062	454.12
422.285	464.12
422.507	458.12
422.73	473.12
422.953	457.12
423.175	468.12
423.398	447.12
423.621	458.12
423.843	470.12
424.066	476.12
424.288	487.12
424.511	466.12
424.733	474.12
424.956	455.12
425.178	447.12
425.401	454.12
425.623	439.12
425.846	440.12
426.068	445.12
426.291	462.12
426.513	459.12
426.735	448.12
426.958	444.12
427.18	404.12
427.402	422.12
427.625	422.12
427.847	419.12
428.069	406.12
428.292	413.12
428.514	411.12
428.736	404.12
428.958	421.12
429.181	391.12
429.403	421.12
429.625	410.12
429.847	426.12
430.069	416.12
430.292	403.12
430.514	403.12
430.736	407.12
430.958	403.12
431.18	425.12
431.402	428.12
431.624	399.12
431.846	425.12
432.068	408.12
432.29	408.12
432.512	404.12
432.734	427.12
432.956	408.12
433.178	419.12
433.4	417.12
433.622	431.12
433.844	447.12
434.066	431.12
434.287	417.12
434.509	425.12
434.731	451.12
434.953	462.12
435.175	446.12
435.397	427.12
435.618	429.12
435.84	425.12
436.062	419.12
436.284	423.12
436.505	423.12
436.727	428.12
436.949	421.12
437.17	415.12
437.392	418.12
437.614	410.12
437.835	397.12
438.057	402.12
438.278	367.12
438.5	390.12
438.721	405.12
438.943	395.12
439.165	406.12
439.386	416.12
439.608	394.12
439.829	430.12
440.05	403.12
440.272	407.12
440.493	432.12
440.715	422.12
440.936	426.12
441.158	424.12
441.379	442.12
441.6	442.12
441.822	444.12
442.043	472.12
442.264	453.12
442.486	440.12
442.707	443.12
442.928	450.12
443.149	454.12
443.371	448.12
443.592	439.12
443.813	464.12
444.034	458.12
444.255	475.12
444.476	484.12
444.698	507.12
444.919	522.12
445.14	623.12
445.361	530.12
445.582	478.12
445.803	438.12
446.024	444.12
446.245	435.12
446.466	434.12
446.687	430.12
446.908	441.12
447.129	420.12
447.35	397.12
447.571	403.12
447.792	394.12
448.013	402.12
448.234	416.12
448.455	396.12
448.675	378.12
448.896	396.12
449.117	385.12
449.338	392.12
449.559	380.12
449.779	377.12
450	396.12
450.221	396.12
450.442	390.12
450.662	373.12
450.883	383.12
451.104	384.12
451.324	387.12
451.545	400.12
451.766	390.12
451.986	384.12
452.207	382.12
452.428	371.12
452.648	369.12
452.869	384.12
453.089	372.12
453.31	378.12
453.53	372.12
453.751	376.12
453.971	375.12
454.192	361.12
454.412	375.12
454.633	390.12
454.853	382.12
455.073	382.12
455.294	366.12
455.514	356.12
455.734	359.12
455.955	356.12
456.175	356.12
456.395	354.12
456.616	337.12
456.836	362.12
457.056	344.12
457.276	345.12
457.497	348.12
457.717	359.12
457.937	361.12
458.157	375.12
458.377	368.12
458.598	354.12
458.818	382.12
459.038	382.12
459.258	403.12
459.478	424.12
459.698	436.12
459.918	425.12
460.138	454.12
460.358	459.12
460.578	473.12
460.798	471.12
461.018	473.12
461.238	481.12
461.458	489.12
461.678	463.12
461.898	482.12
462.118	482.12
462.338	502.12
462.558	520.12
462.777	535.12
462.997	594.12
463.217	596.12
463.437	612.12
463.657	565.12
463.876	542.12
464.096	542.12
464.316	531.12
464.536	542.12
464.755	540.12
464.975	484.12
465.195	477.12
465.414	471.12
465.634	455.12
465.854	440.12
466.073	436.12
466.293	412.12
466.512	416.12
466.732	416.12
466.951	402.12
467.171	423.12
467.391	422.12
467.61	418.12
467.829	417.12
468.049	398.12
468.268	404.12
468.488	395.12
468.707	394.12
468.927	393.12
469.146	402.12
469.365	407.12
469.585	408.12
469.804	434.12
470.023	408.12
470.243	381.12
470.462	403.12
470.681	411.12
470.901	394.12
471.12	417.12
471.339	414.12
471.558	398.12
471.777	391.12
471.997	395.12
472.216	390.12
472.435	389.12
472.654	388.12
472.873	378.12
473.092	376.12
473.311	376.12
473.53	378.12
473.749	374.12
473.968	376.12
474.187	370.12
474.406	372.12
474.625	396.12
474.844	387.12
475.063	391.12
475.282	382.12
475.501	399.12
475.72	415.12
475.939	395.12
476.158	410.12
476.377	410.12
476.596	410.12
476.814	404.12
477.033	411.12
477.252	423.12
477.471	417.12
477.69	427.12
477.908	425.12
478.127	463.12
478.346	442.12
478.564	450.12
478.783	458.12
479.002	451.12
479.22	466.12
479.439	461.12
479.658	467.12
479.876	434.12
480.095	484.12
480.313	495.12
480.532	489.12
480.751	475.12
480.969	475.12
481.188	471.12
481.406	447.12
481.624	466.12
481.843	425.12
482.061	420.12
482.28	442.12
482.498	438.12
482.717	447.12
482.935	430.12
483.153	425.12
483.372	434.12
483.59	421.12
483.808	434.12
484.027	436.12
484.245	460.12
484.463	443.12
484.681	453.12
484.9	460.12
485.118	439.12
485.336	434.12
485.554	445.12
485.772	440.12
485.99	438.12
486.209	451.12
486.427	448.12
486.645	448.12
486.863	457.12
487.081	426.12
487.299	434.12
487.517	453.12
487.735	454.12
487.953	444.12
488.171	464.12
488.389	460.12
488.607	456.12
488.825	457.12
489.043	431.12
489.261	455.12
489.479	433.12
489.696	464.12
489.914	458.12
490.132	463.12
490.35	456.12
490.568	449.12
490.786	441.12
491.003	455.12
491.221	464.12
491.439	470.12
491.657	468.12
491.874	459.12
492.092	476.12
492.31	471.12
492.527	484.12
492.745	481.12
492.963	474.12
493.18	487.12
493.398	490.12
493.615	493.12
493.833	486.12
494.05	474.12
494.268	490.12
494.485	486.12
494.703	461.12
494.92	469.12
495.138	454.12
495.355	460.12
495.573	482.12
495.79	497.12
496.008	496.12
496.225	497.12
496.442	483.12
496.66	491.12
496.877	525.12
497.094	514.12
497.312	526.12
497.529	528.12
497.746	549.12
497.963	553.12
498.181	570.12
498.398	615.12
498.615	634.12
498.832	656.12
499.049	690.12
499.267	707.12
499.484	787.12
499.701	882.12
499.918	946.12
500.135	1069.12
500.352	1185.12
500.569	1238.12
500.786	1223.12
501.003	1131.12
501.22	1047.12
501.437	930.12
501.654	834.12
501.871	798.12
502.088	745.12
