Data from Fe(NO3)3@0.0125M.TitratingCurve.Agarose3%dH2O.NegLispCup.LampEnergy10.LIBS07252019_HRD10591_16-59-47-336.txt Node
Date: Thu Jul 25 16:59:47 EDT 2019
User: cochatt
Spectrometer: HR+D1059
Trigger mode: 1
Integration Time (sec): 1.000000E-1
Scans to average: 1
Electric dark correction enabled: true
Nonlinearity correction enabled: false
Boxcar width: 0
XAxis mode: Wavelengths
Number of Pixels in Spectrum: 2048
>>>>>Begin Spectral Data<<<<<
223.165	-17.06
223.4	-17.06
223.635	-17.06
223.869	-4.06
224.104	-18.06
224.338	-17.06
224.573	-16.06
224.808	-28.06
225.042	-18.06
225.277	0.94
225.511	-9.06
225.746	0.94
225.98	10.94
226.215	18.94
226.449	30.94
226.683	24.94
226.918	18.94
227.152	20.94
227.387	32.94
227.621	46.94
227.856	42.94
228.09	28.94
228.324	49.94
228.559	39.94
228.793	62.94
229.027	84.94
229.262	81.94
229.496	79.94
229.73	58.94
229.964	82.94
230.199	88.94
230.433	76.94
230.667	77.94
230.901	86.94
231.136	70.94
231.37	93.94
231.604	81.94
231.838	84.94
232.072	95.94
232.306	91.94
232.541	103.94
232.775	92.94
233.009	90.94
233.243	95.94
233.477	93.94
233.711	101.94
233.945	97.94
234.179	95.94
234.413	80.94
234.647	90.94
234.881	93.94
235.115	111.94
235.349	96.94
235.583	89.94
235.817	93.94
236.051	102.94
236.285	90.94
236.519	92.94
236.753	102.94
236.987	98.94
237.221	91.94
237.455	94.94
237.689	111.94
237.922	89.94
238.156	92.94
238.39	89.94
238.624	102.94
238.858	97.94
239.091	89.94
239.325	96.94
239.559	87.94
239.793	89.94
240.027	109.94
240.26	90.94
240.494	99.94
240.728	103.94
240.961	103.94
241.195	82.94
241.429	107.94
241.662	109.94
241.896	92.94
242.13	101.94
242.363	95.94
242.597	83.94
242.83	101.94
243.064	109.94
243.298	99.94
243.531	100.94
243.765	101.94
243.998	108.94
244.232	104.94
244.465	102.94
244.699	93.94
244.932	90.94
245.166	102.94
245.399	96.94
245.633	114.94
245.866	100.94
246.099	92.94
246.333	95.94
246.566	103.94
246.8	105.94
247.033	120.94
247.266	93.94
247.5	104.94
247.733	113.94
247.966	111.94
248.2	119.94
248.433	100.94
248.666	105.94
248.899	126.94
249.133	114.94
249.366	117.94
249.599	111.94
249.832	111.94
250.066	104.94
250.299	121.94
250.532	121.94
250.765	97.94
250.998	110.94
251.231	120.94
251.465	109.94
251.698	113.94
251.931	114.94
252.164	120.94
252.397	117.94
252.63	124.94
252.863	126.94
253.096	116.94
253.329	101.94
253.562	123.94
253.795	130.94
254.028	138.94
254.261	117.94
254.494	123.94
254.727	131.94
254.96	128.94
255.193	120.94
255.426	113.94
255.659	122.94
255.892	115.94
256.124	128.94
256.357	120.94
256.59	117.94
256.823	118.94
257.056	121.94
257.289	121.94
257.521	131.94
257.754	118.94
257.987	120.94
258.22	97.94
258.452	121.94
258.685	114.94
258.918	135.94
259.151	138.94
259.383	124.94
259.616	123.94
259.849	128.94
260.081	149.94
260.314	141.94
260.547	130.94
260.779	133.94
261.012	141.94
261.244	143.94
261.477	139.94
261.71	149.94
261.942	130.94
262.175	155.94
262.407	138.94
262.64	140.94
262.872	131.94
263.105	123.94
263.337	138.94
263.57	133.94
263.802	126.94
264.035	128.94
264.267	123.94
264.499	129.94
264.732	149.94
264.964	138.94
265.197	127.94
265.429	110.94
265.661	154.94
265.894	139.94
266.126	138.94
266.358	136.94
266.591	146.94
266.823	137.94
267.055	135.94
267.287	137.94
267.52	120.94
267.752	137.94
267.984	144.94
268.216	147.94
268.448	147.94
268.681	135.94
268.913	143.94
269.145	149.94
269.377	138.94
269.609	144.94
269.841	147.94
270.073	162.94
270.306	148.94
270.538	129.94
270.77	161.94
271.002	149.94
271.234	155.94
271.466	156.94
271.698	164.94
271.93	153.94
272.162	139.94
272.394	133.94
272.626	153.94
272.858	147.94
273.09	164.94
273.322	163.94
273.553	169.94
273.785	174.94
274.017	163.94
274.249	182.94
274.481	159.94
274.713	163.94
274.945	192.94
275.176	180.94
275.408	191.94
275.64	170.94
275.872	165.94
276.104	175.94
276.335	163.94
276.567	157.94
276.799	185.94
277.031	169.94
277.262	167.94
277.494	155.94
277.726	180.94
277.957	200.94
278.189	159.94
278.421	171.94
278.652	158.94
278.884	177.94
279.115	183.94
279.347	174.94
279.579	188.94
279.81	196.94
280.042	170.94
280.273	191.94
280.505	178.94
280.736	191.94
280.968	193.94
281.199	180.94
281.431	181.94
281.662	191.94
281.894	197.94
282.125	185.94
282.356	186.94
282.588	184.94
282.819	190.94
283.051	177.94
283.282	204.94
283.513	194.94
283.745	207.94
283.976	180.94
284.207	184.94
284.439	200.94
284.67	214.94
284.901	203.94
285.132	185.94
285.364	193.94
285.595	194.94
285.826	202.94
286.057	208.94
286.288	213.94
286.52	202.94
286.751	218.94
286.982	206.94
287.213	213.94
287.444	203.94
287.675	221.94
287.906	201.94
288.138	221.94
288.369	205.94
288.6	234.94
288.831	224.94
289.062	201.94
289.293	228.94
289.524	205.94
289.755	210.94
289.986	216.94
290.217	218.94
290.448	229.94
290.679	236.94
290.91	231.94
291.141	202.94
291.371	229.94
291.602	240.94
291.833	229.94
292.064	228.94
292.295	243.94
292.526	222.94
292.757	232.94
292.987	229.94
293.218	220.94
293.449	221.94
293.68	240.94
293.91	233.94
294.141	238.94
294.372	239.94
294.603	249.94
294.833	227.94
295.064	237.94
295.295	247.94
295.525	226.94
295.756	244.94
295.987	253.94
296.217	239.94
296.448	245.94
296.679	255.94
296.909	232.94
297.14	257.94
297.37	247.94
297.601	264.94
297.831	234.94
298.062	243.94
298.292	234.94
298.523	275.94
298.753	253.94
298.984	247.94
299.214	269.94
299.445	265.94
299.675	264.94
299.905	273.94
300.136	269.94
300.366	264.94
300.597	282.94
300.827	260.94
301.057	241.94
301.288	268.94
301.518	277.94
301.748	274.94
301.979	264.94
302.209	271.94
302.439	287.94
302.669	280.94
302.9	257.94
303.13	289.94
303.36	275.94
303.59	279.94
303.82	277.94
304.051	284.94
304.281	282.94
304.511	287.94
304.741	291.94
304.971	273.94
305.201	281.94
305.431	294.94
305.661	301.94
305.891	305.94
306.121	296.94
306.352	301.94
306.582	284.94
306.812	295.94
307.042	312.94
307.272	305.94
307.502	296.94
307.731	279.94
307.961	283.94
308.191	324.94
308.421	292.94
308.651	290.94
308.881	296.94
309.111	297.94
309.341	308.94
309.571	305.94
309.8	304.94
310.03	320.94
310.26	289.94
310.49	299.94
310.72	310.94
310.949	295.94
311.179	325.94
311.409	291.94
311.639	311.94
311.868	331.94
312.098	320.94
312.328	329.94
312.557	306.94
312.787	314.94
313.017	306.94
313.246	332.94
313.476	312.94
313.706	335.94
313.935	333.94
314.165	345.94
314.394	331.94
314.624	330.94
314.853	342.94
315.083	346.94
315.312	338.94
315.542	347.94
315.771	340.94
316.001	344.94
316.23	336.94
316.46	341.94
316.689	341.94
316.919	362.94
317.148	361.94
317.377	334.94
317.607	352.94
317.836	370.94
318.065	337.94
318.295	356.94
318.524	371.94
318.753	343.94
318.983	360.94
319.212	351.94
319.441	347.94
319.67	358.94
319.9	376.94
320.129	351.94
320.358	359.94
320.587	384.94
320.816	371.94
321.046	366.94
321.275	365.94
321.504	363.94
321.733	345.94
321.962	360.94
322.191	353.94
322.42	381.94
322.649	374.94
322.878	371.94
323.108	385.94
323.337	368.94
323.566	385.94
323.795	386.94
324.024	365.94
324.253	371.94
324.482	387.94
324.71	387.94
324.939	368.94
325.168	387.94
325.397	374.94
325.626	399.94
325.855	388.94
326.084	401.94
326.313	400.94
326.542	389.94
326.77	399.94
326.999	387.94
327.228	401.94
327.457	382.94
327.686	401.94
327.914	406.94
328.143	387.94
328.372	391.94
328.6	394.94
328.829	373.94
329.058	391.94
329.287	385.94
329.515	401.94
329.744	386.94
329.972	386.94
330.201	385.94
330.43	389.94
330.658	386.94
330.887	416.94
331.115	414.94
331.344	404.94
331.572	400.94
331.801	402.94
332.03	408.94
332.258	421.94
332.486	403.94
332.715	410.94
332.943	414.94
333.172	434.94
333.4	414.94
333.629	433.94
333.857	415.94
334.085	425.94
334.314	430.94
334.542	424.94
334.771	426.94
334.999	431.94
335.227	426.94
335.455	420.94
335.684	414.94
335.912	423.94
336.14	425.94
336.369	455.94
336.597	430.94
336.825	415.94
337.053	435.94
337.281	415.94
337.51	458.94
337.738	409.94
337.966	415.94
338.194	426.94
338.422	422.94
338.65	435.94
338.878	423.94
339.106	425.94
339.334	434.94
339.562	416.94
339.79	439.94
340.018	427.94
340.246	410.94
340.474	424.94
340.702	428.94
340.93	429.94
341.158	421.94
341.386	416.94
341.614	418.94
341.842	424.94
342.07	436.94
342.298	405.94
342.526	427.94
342.754	397.94
342.981	422.94
343.209	423.94
343.437	430.94
343.665	425.94
343.893	437.94
344.12	453.94
344.348	454.94
344.576	446.94
344.804	418.94
345.031	430.94
345.259	434.94
345.487	431.94
345.714	434.94
345.942	431.94
346.17	433.94
346.397	421.94
346.625	404.94
346.853	427.94
347.08	426.94
347.308	420.94
347.535	401.94
347.763	423.94
347.99	425.94
348.218	426.94
348.445	418.94
348.673	425.94
348.9	443.94
349.128	425.94
349.355	410.94
349.583	433.94
349.81	441.94
350.037	426.94
350.265	427.94
350.492	426.94
350.72	435.94
350.947	436.94
351.174	437.94
351.402	455.94
351.629	398.94
351.856	423.94
352.083	429.94
352.311	422.94
352.538	422.94
352.765	433.94
352.992	441.94
353.22	434.94
353.447	422.94
353.674	443.94
353.901	428.94
354.128	463.94
354.355	438.94
354.583	440.94
354.81	424.94
355.037	440.94
355.264	423.94
355.491	444.94
355.718	445.94
355.945	443.94
356.172	438.94
356.399	423.94
356.626	443.94
356.853	439.94
357.08	426.94
357.307	441.94
357.534	434.94
357.761	422.94
357.988	467.94
358.215	430.94
358.441	459.94
358.668	441.94
358.895	450.94
359.122	421.94
359.349	446.94
359.576	431.94
359.802	442.94
360.029	450.94
360.256	417.94
360.483	432.94
360.709	433.94
360.936	443.94
361.163	445.94
361.39	446.94
361.616	454.94
361.843	444.94
362.07	454.94
362.296	437.94
362.523	451.94
362.749	457.94
362.976	424.94
363.203	456.94
363.429	449.94
363.656	442.94
363.882	451.94
364.109	475.94
364.335	450.94
364.562	450.94
364.788	456.94
365.015	474.94
365.241	472.94
365.468	469.94
365.694	462.94
365.92	466.94
366.147	466.94
366.373	456.94
366.599	467.94
366.826	454.94
367.052	485.94
367.278	474.94
367.505	462.94
367.731	459.94
367.957	466.94
368.184	453.94
368.41	467.94
368.636	472.94
368.862	472.94
369.089	472.94
369.315	474.94
369.541	457.94
369.767	459.94
369.993	473.94
370.219	503.94
370.445	493.94
370.672	457.94
370.898	486.94
371.124	483.94
371.35	489.94
371.576	481.94
371.802	495.94
372.028	493.94
372.254	491.94
372.48	472.94
372.706	493.94
372.932	486.94
373.158	499.94
373.384	485.94
373.61	484.94
373.835	504.94
374.061	470.94
374.287	477.94
374.513	478.94
374.739	494.94
374.965	482.94
375.191	489.94
375.416	494.94
375.642	478.94
375.868	497.94
376.094	505.94
376.319	487.94
376.545	480.94
376.771	495.94
376.997	490.94
377.222	488.94
377.448	496.94
377.674	486.94
377.899	509.94
378.125	462.94
378.35	495.94
378.576	495.94
378.802	482.94
379.027	490.94
379.253	482.94
379.478	496.94
379.704	499.94
379.929	483.94
380.155	495.94
380.38	487.94
380.606	500.94
380.831	483.94
381.057	474.94
381.282	477.94
381.507	488.94
381.733	492.94
381.958	493.94
382.184	511.94
382.409	506.94
382.634	518.94
382.86	496.94
383.085	490.94
383.31	496.94
383.535	534.94
383.761	486.94
383.986	512.94
384.211	515.94
384.436	533.94
384.662	505.94
384.887	511.94
385.112	504.94
385.337	517.94
385.562	533.94
385.787	512.94
386.013	527.94
386.238	538.94
386.463	529.94
386.688	532.94
386.913	514.94
387.138	527.94
387.363	515.94
387.588	526.94
387.813	535.94
388.038	528.94
388.263	521.94
388.488	541.94
388.713	539.94
388.938	532.94
389.163	522.94
389.387	527.94
389.612	553.94
389.837	558.94
390.062	534.94
390.287	523.94
390.512	540.94
390.736	543.94
390.961	526.94
391.186	542.94
391.411	528.94
391.636	535.94
391.86	549.94
392.085	540.94
392.31	535.94
392.534	543.94
392.759	559.94
392.984	527.94
393.208	561.94
393.433	546.94
393.658	545.94
393.882	554.94
394.107	553.94
394.331	526.94
394.556	543.94
394.78	536.94
395.005	539.94
395.229	543.94
395.454	527.94
395.678	563.94
395.903	540.94
396.127	547.94
396.352	554.94
396.576	534.94
396.801	543.94
397.025	555.94
397.249	550.94
397.474	575.94
397.698	547.94
397.922	573.94
398.147	569.94
398.371	542.94
398.595	569.94
398.82	564.94
399.044	567.94
399.268	583.94
399.492	591.94
399.717	594.94
399.941	590.94
400.165	587.94
400.389	565.94
400.613	578.94
400.837	598.94
401.062	574.94
401.286	574.94
401.51	584.94
401.734	598.94
401.958	569.94
402.182	581.94
402.406	561.94
402.63	568.94
402.854	563.94
403.078	583.94
403.302	584.94
403.526	574.94
403.75	599.94
403.974	571.94
404.198	599.94
404.422	605.94
404.645	596.94
404.869	599.94
405.093	602.94
405.317	603.94
405.541	576.94
405.765	578.94
405.988	586.94
406.212	611.94
406.436	582.94
406.66	625.94
406.883	600.94
407.107	595.94
407.331	637.94
407.555	606.94
407.778	632.94
408.002	612.94
408.226	622.94
408.449	619.94
408.673	631.94
408.896	605.94
409.12	615.94
409.344	603.94
409.567	596.94
409.791	608.94
410.014	601.94
410.238	598.94
410.461	617.94
410.685	597.94
410.908	590.94
411.132	607.94
411.355	594.94
411.578	613.94
411.802	617.94
412.025	593.94
412.249	585.94
412.472	609.94
412.695	591.94
412.919	617.94
413.142	576.94
413.365	603.94
413.589	603.94
413.812	605.94
414.035	601.94
414.258	605.94
414.482	600.94
414.705	582.94
414.928	575.94
415.151	588.94
415.374	597.94
415.597	591.94
415.821	570.94
416.044	560.94
416.267	598.94
416.49	560.94
416.713	597.94
416.936	576.94
417.159	570.94
417.382	564.94
417.605	560.94
417.828	593.94
418.051	555.94
418.274	567.94
418.497	543.94
418.72	530.94
418.943	573.94
419.166	574.94
419.389	603.94
419.611	584.94
419.834	584.94
420.057	603.94
420.28	596.94
420.503	573.94
420.726	573.94
420.948	575.94
421.171	552.94
421.394	561.94
421.617	557.94
421.839	586.94
422.062	555.94
422.285	570.94
422.507	571.94
422.73	549.94
422.953	568.94
423.175	545.94
423.398	545.94
423.621	556.94
423.843	559.94
424.066	560.94
424.288	547.94
424.511	554.94
424.733	572.94
424.956	609.94
425.178	561.94
425.401	562.94
425.623	561.94
425.846	574.94
426.068	569.94
426.291	571.94
426.513	533.94
426.735	585.94
426.958	573.94
427.18	570.94
427.402	571.94
427.625	573.94
427.847	569.94
428.069	553.94
428.292	585.94
428.514	578.94
428.736	581.94
428.958	575.94
429.181	570.94
429.403	557.94
429.625	559.94
429.847	549.94
430.069	563.94
430.292	568.94
430.514	553.94
430.736	562.94
430.958	591.94
431.18	568.94
431.402	567.94
431.624	558.94
431.846	548.94
432.068	555.94
432.29	574.94
432.512	569.94
432.734	568.94
432.956	569.94
433.178	579.94
433.4	565.94
433.622	586.94
433.844	574.94
434.066	589.94
434.287	569.94
434.509	586.94
434.731	597.94
434.953	558.94
435.175	590.94
435.397	600.94
435.618	557.94
435.84	580.94
436.062	554.94
436.284	578.94
436.505	566.94
436.727	577.94
436.949	561.94
437.17	571.94
437.392	581.94
437.614	587.94
437.835	573.94
438.057	549.94
438.278	566.94
438.5	561.94
438.721	566.94
438.943	576.94
439.165	548.94
439.386	558.94
439.608	567.94
439.829	587.94
440.05	575.94
440.272	563.94
440.493	570.94
440.715	558.94
440.936	552.94
441.158	560.94
441.379	550.94
441.6	567.94
441.822	564.94
442.043	580.94
442.264	575.94
442.486	553.94
442.707	569.94
442.928	581.94
443.149	566.94
443.371	554.94
443.592	574.94
443.813	582.94
444.034	551.94
444.255	570.94
444.476	563.94
444.698	561.94
444.919	585.94
445.14	654.94
445.361	603.94
445.582	581.94
445.803	571.94
446.024	541.94
446.245	560.94
446.466	560.94
446.687	554.94
446.908	581.94
447.129	558.94
447.35	541.94
447.571	547.94
447.792	526.94
448.013	535.94
448.234	559.94
448.455	546.94
448.675	535.94
448.896	541.94
449.117	548.94
449.338	538.94
449.559	547.94
449.779	567.94
450	558.94
450.221	552.94
450.442	519.94
450.662	521.94
450.883	529.94
451.104	543.94
451.324	514.94
451.545	545.94
451.766	549.94
451.986	535.94
452.207	541.94
452.428	527.94
452.648	543.94
452.869	547.94
453.089	501.94
453.31	529.94
453.53	536.94
453.751	544.94
453.971	543.94
454.192	505.94
454.412	548.94
454.633	555.94
454.853	527.94
455.073	541.94
455.294	513.94
455.514	509.94
455.734	526.94
455.955	523.94
456.175	530.94
456.395	534.94
456.616	528.94
456.836	533.94
457.056	531.94
457.276	524.94
457.497	540.94
457.717	531.94
457.937	530.94
458.157	537.94
458.377	537.94
458.598	539.94
458.818	543.94
459.038	550.94
459.258	535.94
459.478	545.94
459.698	577.94
459.918	570.94
460.138	559.94
460.358	567.94
460.578	555.94
460.798	542.94
461.018	565.94
461.238	573.94
461.458	579.94
461.678	587.94
461.898	574.94
462.118	554.94
462.338	583.94
462.558	609.94
462.777	609.94
462.997	604.94
463.217	597.94
463.437	633.94
463.657	605.94
463.876	593.94
464.096	585.94
464.316	589.94
464.536	599.94
464.755	615.94
464.975	612.94
465.195	581.94
465.414	607.94
465.634	568.94
465.854	578.94
466.073	608.94
466.293	569.94
466.512	539.94
466.732	566.94
466.951	574.94
467.171	561.94
467.391	577.94
467.61	561.94
467.829	593.94
468.049	560.94
468.268	562.94
468.488	573.94
468.707	535.94
468.927	563.94
469.146	576.94
469.365	586.94
469.585	574.94
469.804	569.94
470.023	585.94
470.243	591.94
470.462	579.94
470.681	600.94
470.901	616.94
471.12	595.94
471.339	578.94
471.558	585.94
471.777	587.94
471.997	592.94
472.216	608.94
472.435	576.94
472.654	606.94
472.873	598.94
473.092	609.94
473.311	597.94
473.53	600.94
473.749	626.94
473.968	621.94
474.187	615.94
474.406	595.94
474.625	593.94
474.844	623.94
475.063	611.94
475.282	614.94
475.501	633.94
475.72	643.94
475.939	633.94
476.158	666.94
476.377	649.94
476.596	640.94
476.814	652.94
477.033	641.94
477.252	660.94
477.471	662.94
477.69	657.94
477.908	669.94
478.127	662.94
478.346	673.94
478.564	673.94
478.783	678.94
479.002	688.94
479.22	682.94
479.439	707.94
479.658	699.94
479.876	697.94
480.095	667.94
480.313	704.94
480.532	702.94
480.751	713.94
480.969	694.94
481.188	676.94
481.406	709.94
481.624	713.94
481.843	717.94
482.061	713.94
482.28	683.94
482.498	702.94
482.717	714.94
482.935	742.94
483.153	714.94
483.372	719.94
483.59	725.94
483.808	691.94
484.027	735.94
484.245	768.94
484.463	720.94
484.681	738.94
484.9	729.94
485.118	749.94
485.336	745.94
485.554	731.94
485.772	752.94
485.99	753.94
486.209	738.94
486.427	742.94
486.645	753.94
486.863	743.94
487.081	749.94
487.299	763.94
487.517	790.94
487.735	755.94
487.953	777.94
488.171	771.94
488.389	783.94
488.607	754.94
488.825	728.94
489.043	757.94
489.261	775.94
489.479	759.94
489.696	776.94
489.914	763.94
490.132	765.94
490.35	753.94
490.568	775.94
490.786	781.94
491.003	765.94
491.221	756.94
491.439	770.94
491.657	789.94
491.874	777.94
492.092	805.94
492.31	775.94
492.527	778.94
492.745	768.94
492.963	786.94
493.18	771.94
493.398	789.94
493.615	783.94
493.833	760.94
494.05	774.94
494.268	781.94
494.485	794.94
494.703	799.94
494.92	799.94
495.138	798.94
495.355	804.94
495.573	789.94
495.79	826.94
496.008	819.94
496.225	806.94
496.442	779.94
496.66	813.94
496.877	819.94
497.094	821.94
497.312	804.94
497.529	811.94
497.746	828.94
497.963	845.94
498.181	840.94
498.398	818.94
498.615	858.94
498.832	862.94
499.049	877.94
499.267	857.94
499.484	856.94
499.701	897.94
499.918	907.94
500.135	927.94
500.352	961.94
500.569	943.94
500.786	950.94
501.003	931.94
501.22	955.94
501.437	903.94
501.654	868.94
501.871	877.94
502.088	858.94
502.305	855.94
