Data from Fe(NO3)3@0.05M.TitratingCurve.Agarose3%dH2O.NegLispCup.LampEnergy10.LIBS07252019_HRD10591_16-47-10-334.txt Node
Date: Thu Jul 25 16:47:10 EDT 2019
User: cochatt
Spectrometer: HR+D1059
Trigger mode: 1
Integration Time (sec): 1.000000E-1
Scans to average: 1
Electric dark correction enabled: true
Nonlinearity correction enabled: false
Boxcar width: 0
XAxis mode: Wavelengths
Number of Pixels in Spectrum: 2048
>>>>>Begin Spectral Data<<<<<
223.165	-24.19
223.4	-24.19
223.635	-24.19
223.869	-15.19
224.104	-20.19
224.338	-12.19
224.573	-3.19
224.808	-20.19
225.042	-19.19
225.277	-18.19
225.511	4.81
225.746	10.81
225.98	3.81
226.215	15.81
226.449	11.81
226.683	16.81
226.918	27.81
227.152	40.81
227.387	28.81
227.621	35.81
227.856	46.81
228.09	52.81
228.324	45.81
228.559	49.81
228.793	74.81
229.027	87.81
229.262	81.81
229.496	72.81
229.73	92.81
229.964	101.81
230.199	96.81
230.433	105.81
230.667	102.81
230.901	117.81
231.136	103.81
231.37	114.81
231.604	109.81
231.838	115.81
232.072	108.81
232.306	118.81
232.541	123.81
232.775	107.81
233.009	105.81
233.243	118.81
233.477	119.81
233.711	122.81
233.945	119.81
234.179	111.81
234.413	115.81
234.647	124.81
234.881	124.81
235.115	126.81
235.349	126.81
235.583	120.81
235.817	122.81
236.051	123.81
236.285	104.81
236.519	122.81
236.753	138.81
236.987	133.81
237.221	125.81
237.455	115.81
237.689	119.81
237.922	126.81
238.156	124.81
238.39	120.81
238.624	147.81
238.858	126.81
239.091	116.81
239.325	127.81
239.559	130.81
239.793	128.81
240.027	125.81
240.26	145.81
240.494	138.81
240.728	132.81
240.961	133.81
241.195	135.81
241.429	142.81
241.662	137.81
241.896	137.81
242.13	140.81
242.363	135.81
242.597	134.81
242.83	154.81
243.064	156.81
243.298	139.81
243.531	147.81
243.765	155.81
243.998	147.81
244.232	141.81
244.465	143.81
244.699	139.81
244.932	142.81
245.166	143.81
245.399	152.81
245.633	142.81
245.866	150.81
246.099	146.81
246.333	163.81
246.566	137.81
246.8	140.81
247.033	156.81
247.266	150.81
247.5	150.81
247.733	140.81
247.966	154.81
248.2	152.81
248.433	163.81
248.666	161.81
248.899	164.81
249.133	145.81
249.366	169.81
249.599	168.81
249.832	163.81
250.066	160.81
250.299	166.81
250.532	167.81
250.765	176.81
250.998	164.81
251.231	169.81
251.465	176.81
251.698	173.81
251.931	159.81
252.164	184.81
252.397	184.81
252.63	183.81
252.863	202.81
253.096	203.81
253.329	176.81
253.562	190.81
253.795	173.81
254.028	175.81
254.261	182.81
254.494	182.81
254.727	205.81
254.96	203.81
255.193	203.81
255.426	184.81
255.659	169.81
255.892	184.81
256.124	182.81
256.357	197.81
256.59	180.81
256.823	177.81
257.056	205.81
257.289	193.81
257.521	200.81
257.754	183.81
257.987	185.81
258.22	187.81
258.452	200.81
258.685	202.81
258.918	198.81
259.151	210.81
259.383	201.81
259.616	188.81
259.849	213.81
260.081	221.81
260.314	234.81
260.547	207.81
260.779	214.81
261.012	205.81
261.244	192.81
261.477	210.81
261.71	217.81
261.942	215.81
262.175	210.81
262.407	215.81
262.64	205.81
262.872	222.81
263.105	221.81
263.337	217.81
263.57	230.81
263.802	203.81
264.035	208.81
264.267	207.81
264.499	214.81
264.732	206.81
264.964	207.81
265.197	220.81
265.429	226.81
265.661	212.81
265.894	226.81
266.126	209.81
266.358	214.81
266.591	227.81
266.823	219.81
267.055	222.81
267.287	226.81
267.52	207.81
267.752	216.81
267.984	203.81
268.216	230.81
268.448	221.81
268.681	237.81
268.913	229.81
269.145	233.81
269.377	221.81
269.609	243.81
269.841	207.81
270.073	227.81
270.306	232.81
270.538	235.81
270.77	241.81
271.002	222.81
271.234	238.81
271.466	246.81
271.698	244.81
271.93	243.81
272.162	239.81
272.394	227.81
272.626	242.81
272.858	250.81
273.09	251.81
273.322	244.81
273.553	238.81
273.785	242.81
274.017	240.81
274.249	268.81
274.481	262.81
274.713	270.81
274.945	281.81
275.176	273.81
275.408	272.81
275.64	259.81
275.872	255.81
276.104	246.81
276.335	254.81
276.567	244.81
276.799	269.81
277.031	265.81
277.262	267.81
277.494	272.81
277.726	252.81
277.957	255.81
278.189	253.81
278.421	244.81
278.652	277.81
278.884	269.81
279.115	258.81
279.347	272.81
279.579	266.81
279.81	275.81
280.042	260.81
280.273	254.81
280.505	261.81
280.736	268.81
280.968	282.81
281.199	260.81
281.431	286.81
281.662	270.81
281.894	264.81
282.125	287.81
282.356	279.81
282.588	274.81
282.819	279.81
283.051	279.81
283.282	290.81
283.513	291.81
283.745	270.81
283.976	269.81
284.207	294.81
284.439	285.81
284.67	286.81
284.901	276.81
285.132	289.81
285.364	297.81
285.595	286.81
285.826	297.81
286.057	290.81
286.288	298.81
286.52	284.81
286.751	310.81
286.982	282.81
287.213	293.81
287.444	310.81
287.675	287.81
287.906	309.81
288.138	296.81
288.369	294.81
288.6	291.81
288.831	311.81
289.062	314.81
289.293	307.81
289.524	290.81
289.755	299.81
289.986	303.81
290.217	293.81
290.448	317.81
290.679	309.81
290.91	304.81
291.141	298.81
291.371	316.81
291.602	301.81
291.833	301.81
292.064	281.81
292.295	294.81
292.526	292.81
292.757	307.81
292.987	323.81
293.218	312.81
293.449	320.81
293.68	311.81
293.91	330.81
294.141	301.81
294.372	310.81
294.603	312.81
294.833	300.81
295.064	314.81
295.295	327.81
295.525	306.81
295.756	323.81
295.987	306.81
296.217	334.81
296.448	324.81
296.679	298.81
296.909	315.81
297.14	323.81
297.37	306.81
297.601	325.81
297.831	315.81
298.062	324.81
298.292	315.81
298.523	313.81
298.753	334.81
298.984	324.81
299.214	319.81
299.445	338.81
299.675	326.81
299.905	335.81
300.136	305.81
300.366	313.81
300.597	334.81
300.827	335.81
301.057	350.81
301.288	340.81
301.518	348.81
301.748	352.81
301.979	347.81
302.209	364.81
302.439	343.81
302.669	345.81
302.9	346.81
303.13	322.81
303.36	325.81
303.59	342.81
303.82	351.81
304.051	342.81
304.281	350.81
304.511	338.81
304.741	359.81
304.971	348.81
305.201	343.81
305.431	326.81
305.661	336.81
305.891	346.81
306.121	312.81
306.352	324.81
306.582	353.81
306.812	344.81
307.042	360.81
307.272	331.81
307.502	344.81
307.731	362.81
307.961	350.81
308.191	357.81
308.421	329.81
308.651	336.81
308.881	333.81
309.111	349.81
309.341	360.81
309.571	353.81
309.8	337.81
310.03	358.81
310.26	361.81
310.49	349.81
310.72	348.81
310.949	347.81
311.179	340.81
311.409	343.81
311.639	372.81
311.868	365.81
312.098	358.81
312.328	344.81
312.557	362.81
312.787	357.81
313.017	377.81
313.246	359.81
313.476	344.81
313.706	355.81
313.935	367.81
314.165	354.81
314.394	367.81
314.624	391.81
314.853	371.81
315.083	370.81
315.312	381.81
315.542	378.81
315.771	359.81
316.001	370.81
316.23	366.81
316.46	378.81
316.689	366.81
316.919	328.81
317.148	373.81
317.377	382.81
317.607	364.81
317.836	382.81
318.065	337.81
318.295	374.81
318.524	374.81
318.753	358.81
318.983	386.81
319.212	373.81
319.441	367.81
319.67	386.81
319.9	380.81
320.129	358.81
320.358	382.81
320.587	375.81
320.816	377.81
321.046	364.81
321.275	398.81
321.504	398.81
321.733	372.81
321.962	379.81
322.191	391.81
322.42	379.81
322.649	377.81
322.878	364.81
323.108	370.81
323.337	360.81
323.566	370.81
323.795	376.81
324.024	383.81
324.253	393.81
324.482	383.81
324.71	378.81
324.939	390.81
325.168	370.81
325.397	389.81
325.626	386.81
325.855	390.81
326.084	393.81
326.313	414.81
326.542	396.81
326.77	397.81
326.999	397.81
327.228	397.81
327.457	391.81
327.686	394.81
327.914	398.81
328.143	393.81
328.372	396.81
328.6	404.81
328.829	403.81
329.058	418.81
329.287	396.81
329.515	432.81
329.744	405.81
329.972	408.81
330.201	401.81
330.43	396.81
330.658	394.81
330.887	412.81
331.115	414.81
331.344	407.81
331.572	421.81
331.801	452.81
332.03	431.81
332.258	425.81
332.486	421.81
332.715	458.81
332.943	463.81
333.172	465.81
333.4	463.81
333.629	488.81
333.857	500.81
334.085	508.81
334.314	519.81
334.542	478.81
334.771	482.81
334.999	489.81
335.227	480.81
335.455	477.81
335.684	492.81
335.912	480.81
336.14	467.81
336.369	470.81
336.597	484.81
336.825	480.81
337.053	484.81
337.281	469.81
337.51	460.81
337.738	472.81
337.966	448.81
338.194	454.81
338.422	436.81
338.65	466.81
338.878	453.81
339.106	409.81
339.334	427.81
339.562	442.81
339.79	423.81
340.018	430.81
340.246	437.81
340.474	446.81
340.702	409.81
340.93	441.81
341.158	426.81
341.386	430.81
341.614	431.81
341.842	429.81
342.07	422.81
342.298	420.81
342.526	426.81
342.754	424.81
342.981	426.81
343.209	436.81
343.437	443.81
343.665	455.81
343.893	485.81
344.12	491.81
344.348	475.81
344.576	463.81
344.804	452.81
345.031	447.81
345.259	432.81
345.487	427.81
345.714	408.81
345.942	417.81
346.17	430.81
346.397	404.81
346.625	404.81
346.853	417.81
347.08	392.81
347.308	406.81
347.535	424.81
347.763	404.81
347.99	396.81
348.218	426.81
348.445	407.81
348.673	396.81
348.9	401.81
349.128	408.81
349.355	411.81
349.583	412.81
349.81	409.81
350.037	397.81
350.265	411.81
350.492	390.81
350.72	406.81
350.947	395.81
351.174	386.81
351.402	401.81
351.629	412.81
351.856	388.81
352.083	400.81
352.311	408.81
352.538	400.81
352.765	384.81
352.992	407.81
353.22	378.81
353.447	382.81
353.674	402.81
353.901	388.81
354.128	404.81
354.355	412.81
354.583	394.81
354.81	415.81
355.037	400.81
355.264	411.81
355.491	382.81
355.718	406.81
355.945	401.81
356.172	395.81
356.399	390.81
356.626	395.81
356.853	398.81
357.08	406.81
357.307	393.81
357.534	384.81
357.761	412.81
357.988	401.81
358.215	430.81
358.441	389.81
358.668	416.81
358.895	431.81
359.122	389.81
359.349	386.81
359.576	385.81
359.802	406.81
360.029	386.81
360.256	400.81
360.483	401.81
360.709	434.81
360.936	417.81
361.163	401.81
361.39	412.81
361.616	418.81
361.843	437.81
362.07	408.81
362.296	386.81
362.523	408.81
362.749	412.81
362.976	396.81
363.203	412.81
363.429	431.81
363.656	418.81
363.882	389.81
364.109	404.81
364.335	420.81
364.562	398.81
364.788	390.81
365.015	429.81
365.241	401.81
365.468	412.81
365.694	435.81
365.92	407.81
366.147	406.81
366.373	394.81
366.599	429.81
366.826	400.81
367.052	405.81
367.278	416.81
367.505	396.81
367.731	405.81
367.957	418.81
368.184	425.81
368.41	420.81
368.636	419.81
368.862	428.81
369.089	423.81
369.315	408.81
369.541	403.81
369.767	405.81
369.993	429.81
370.219	437.81
370.445	427.81
370.672	424.81
370.898	436.81
371.124	451.81
371.35	444.81
371.576	449.81
371.802	430.81
372.028	446.81
372.254	471.81
372.48	462.81
372.706	457.81
372.932	468.81
373.158	452.81
373.384	470.81
373.61	468.81
373.835	461.81
374.061	463.81
374.287	470.81
374.513	463.81
374.739	462.81
374.965	476.81
375.191	493.81
375.416	469.81
375.642	464.81
375.868	480.81
376.094	462.81
376.319	457.81
376.545	444.81
376.771	451.81
376.997	462.81
377.222	449.81
377.448	453.81
377.674	458.81
377.899	456.81
378.125	444.81
378.35	453.81
378.576	443.81
378.802	462.81
379.027	451.81
379.253	466.81
379.478	441.81
379.704	439.81
379.929	471.81
380.155	456.81
380.38	440.81
380.606	456.81
380.831	452.81
381.057	451.81
381.282	466.81
381.507	454.81
381.733	456.81
381.958	452.81
382.184	482.81
382.409	473.81
382.634	493.81
382.86	471.81
383.085	474.81
383.31	485.81
383.535	492.81
383.761	480.81
383.986	490.81
384.211	499.81
384.436	505.81
384.662	508.81
384.887	513.81
385.112	539.81
385.337	514.81
385.562	519.81
385.787	517.81
386.013	540.81
386.238	539.81
386.463	527.81
386.688	535.81
386.913	524.81
387.138	541.81
387.363	550.81
387.588	523.81
387.813	550.81
388.038	525.81
388.263	536.81
388.488	556.81
388.713	541.81
388.938	548.81
389.163	528.81
389.387	548.81
389.612	519.81
389.837	525.81
390.062	528.81
390.287	541.81
390.512	529.81
390.736	547.81
390.961	546.81
391.186	536.81
391.411	564.81
391.636	562.81
391.86	570.81
392.085	580.81
392.31	621.81
392.534	589.81
392.759	597.81
392.984	582.81
393.208	586.81
393.433	583.81
393.658	561.81
393.882	587.81
394.107	559.81
394.331	554.81
394.556	592.81
394.78	574.81
395.005	557.81
395.229	587.81
395.454	597.81
395.678	591.81
395.903	607.81
396.127	595.81
396.352	560.81
396.576	565.81
396.801	579.81
397.025	612.81
397.249	615.81
397.474	613.81
397.698	586.81
397.922	592.81
398.147	612.81
398.371	636.81
398.595	632.81
398.82	638.81
399.044	685.81
399.268	731.81
399.492	818.81
399.717	858.81
399.941	839.81
400.165	780.81
400.389	791.81
400.613	729.81
400.837	694.81
401.062	680.81
401.286	664.81
401.51	665.81
401.734	668.81
401.958	662.81
402.182	655.81
402.406	692.81
402.63	678.81
402.854	684.81
403.078	692.81
403.302	682.81
403.526	704.81
403.75	699.81
403.974	702.81
404.198	704.81
404.422	690.81
404.645	703.81
404.869	700.81
405.093	725.81
405.317	698.81
405.541	706.81
405.765	692.81
405.988	703.81
406.212	736.81
406.436	715.81
406.66	733.81
406.883	732.81
407.107	775.81
407.331	815.81
407.555	789.81
407.778	781.81
408.002	798.81
408.226	778.81
408.449	780.81
408.673	732.81
408.896	737.81
409.12	724.81
409.344	717.81
409.567	730.81
409.791	726.81
410.014	720.81
410.238	734.81
410.461	720.81
410.685	712.81
410.908	695.81
411.132	675.81
411.355	698.81
411.578	706.81
411.802	701.81
412.025	709.81
412.249	704.81
412.472	685.81
412.695	702.81
412.919	688.81
413.142	686.81
413.365	668.81
413.589	684.81
413.812	678.81
414.035	678.81
414.258	679.81
414.482	678.81
414.705	668.81
414.928	692.81
415.151	663.81
415.374	694.81
415.597	670.81
415.821	649.81
416.044	640.81
416.267	656.81
416.49	621.81
416.713	636.81
416.936	655.81
417.159	655.81
417.382	670.81
417.605	650.81
417.828	668.81
418.051	661.81
418.274	694.81
418.497	667.81
418.72	667.81
418.943	675.81
419.166	704.81
419.389	724.81
419.611	731.81
419.834	716.81
420.057	696.81
420.28	666.81
420.503	658.81
420.726	656.81
420.948	666.81
421.171	662.81
421.394	662.81
421.617	652.81
421.839	646.81
422.062	678.81
422.285	638.81
422.507	646.81
422.73	667.81
422.953	673.81
423.175	666.81
423.398	672.81
423.621	648.81
423.843	650.81
424.066	685.81
424.288	675.81
424.511	688.81
424.733	639.81
424.956	664.81
425.178	661.81
425.401	630.81
425.623	639.81
425.846	635.81
426.068	638.81
426.291	614.81
426.513	631.81
426.735	623.81
426.958	610.81
427.18	628.81
427.402	588.81
427.625	619.81
427.847	615.81
428.069	631.81
428.292	623.81
428.514	606.81
428.736	620.81
428.958	611.81
429.181	587.81
429.403	605.81
429.625	607.81
429.847	586.81
430.069	591.81
430.292	587.81
430.514	592.81
430.736	626.81
430.958	606.81
431.18	591.81
431.402	591.81
431.624	593.81
431.846	585.81
432.068	601.81
432.29	598.81
432.512	615.81
432.734	597.81
432.956	612.81
433.178	634.81
433.4	598.81
433.622	599.81
433.844	624.81
434.066	619.81
434.287	601.81
434.509	616.81
434.731	641.81
434.953	626.81
435.175	671.81
435.397	672.81
435.618	612.81
435.84	628.81
436.062	627.81
436.284	618.81
436.505	598.81
436.727	613.81
436.949	587.81
437.17	617.81
437.392	609.81
437.614	608.81
437.835	591.81
438.057	585.81
438.278	591.81
438.5	589.81
438.721	603.81
438.943	595.81
439.165	605.81
439.386	596.81
439.608	620.81
439.829	610.81
440.05	588.81
440.272	609.81
440.493	617.81
440.715	636.81
440.936	634.81
441.158	630.81
441.379	617.81
441.6	638.81
441.822	635.81
442.043	662.81
442.264	651.81
442.486	656.81
442.707	622.81
442.928	653.81
443.149	651.81
443.371	650.81
443.592	665.81
443.813	680.81
444.034	648.81
444.255	671.81
444.476	706.81
444.698	739.81
444.919	716.81
445.14	788.81
445.361	738.81
445.582	682.81
445.803	663.81
446.024	651.81
446.245	656.81
446.466	639.81
446.687	608.81
446.908	633.81
447.129	612.81
447.35	591.81
447.571	623.81
447.792	593.81
448.013	588.81
448.234	562.81
448.455	589.81
448.675	546.81
448.896	571.81
449.117	570.81
449.338	573.81
449.559	568.81
449.779	582.81
450	566.81
450.221	619.81
450.442	597.81
450.662	586.81
450.883	566.81
451.104	556.81
451.324	563.81
451.545	567.81
451.766	578.81
451.986	552.81
452.207	560.81
452.428	560.81
452.648	558.81
452.869	532.81
453.089	546.81
453.31	543.81
453.53	536.81
453.751	556.81
453.971	536.81
454.192	521.81
454.412	523.81
454.633	552.81
454.853	520.81
455.073	516.81
455.294	542.81
455.514	544.81
455.734	571.81
455.955	545.81
456.175	528.81
456.395	511.81
456.616	541.81
456.836	522.81
457.056	520.81
457.276	543.81
457.497	559.81
457.717	535.81
457.937	523.81
458.157	564.81
458.377	548.81
458.598	551.81
458.818	558.81
459.038	575.81
459.258	584.81
459.478	623.81
459.698	598.81
459.918	640.81
460.138	629.81
460.358	646.81
460.578	674.81
460.798	679.81
461.018	674.81
461.238	706.81
461.458	688.81
461.678	688.81
461.898	711.81
462.118	735.81
462.338	723.81
462.558	761.81
462.777	777.81
462.997	799.81
463.217	815.81
463.437	823.81
463.657	796.81
463.876	818.81
464.096	756.81
464.316	767.81
464.536	754.81
464.755	718.81
464.975	736.81
465.195	698.81
465.414	682.81
465.634	628.81
465.854	649.81
466.073	612.81
466.293	631.81
466.512	610.81
466.732	602.81
466.951	602.81
467.171	606.81
467.391	615.81
467.61	598.81
467.829	611.81
468.049	591.81
468.268	569.81
468.488	556.81
468.707	574.81
468.927	594.81
469.146	574.81
469.365	589.81
469.585	570.81
469.804	579.81
470.023	601.81
470.243	587.81
470.462	599.81
470.681	609.81
470.901	602.81
471.12	604.81
471.339	605.81
471.558	582.81
471.777	583.81
471.997	591.81
472.216	582.81
472.435	591.81
472.654	563.81
472.873	550.81
473.092	537.81
473.311	578.81
473.53	572.81
473.749	556.81
473.968	566.81
474.187	566.81
474.406	541.81
474.625	582.81
474.844	578.81
475.063	574.81
475.282	578.81
475.501	575.81
475.72	578.81
475.939	573.81
476.158	584.81
476.377	598.81
476.596	597.81
476.814	607.81
477.033	602.81
477.252	592.81
477.471	597.81
477.69	608.81
477.908	615.81
478.127	648.81
478.346	655.81
478.564	648.81
478.783	663.81
479.002	682.81
479.22	696.81
479.439	694.81
479.658	653.81
479.876	686.81
480.095	669.81
480.313	680.81
480.532	696.81
480.751	694.81
480.969	696.81
481.188	663.81
481.406	665.81
481.624	656.81
481.843	658.81
482.061	641.81
482.28	622.81
482.498	656.81
482.717	611.81
482.935	646.81
483.153	629.81
483.372	650.81
483.59	636.81
483.808	623.81
484.027	612.81
484.245	639.81
484.463	666.81
484.681	657.81
484.9	616.81
485.118	659.81
485.336	650.81
485.554	638.81
485.772	669.81
485.99	674.81
486.209	662.81
486.427	676.81
486.645	663.81
486.863	650.81
487.081	658.81
487.299	651.81
487.517	652.81
487.735	665.81
487.953	677.81
488.171	685.81
488.389	680.81
488.607	644.81
488.825	639.81
489.043	661.81
489.261	644.81
489.479	688.81
489.696	647.81
489.914	651.81
490.132	665.81
490.35	656.81
490.568	663.81
490.786	692.81
491.003	670.81
491.221	684.81
491.439	662.81
491.657	674.81
491.874	684.81
492.092	714.81
492.31	702.81
492.527	718.81
492.745	685.81
492.963	685.81
493.18	692.81
493.398	702.81
493.615	698.81
493.833	713.81
494.05	724.81
494.268	724.81
494.485	685.81
494.703	692.81
494.92	702.81
495.138	696.81
495.355	731.81
495.573	726.81
495.79	710.81
496.008	716.81
496.225	738.81
496.442	745.81
496.66	743.81
496.877	775.81
497.094	779.81
497.312	802.81
497.529	794.81
497.746	815.81
497.963	846.81
498.181	839.81
498.398	888.81
498.615	909.81
498.832	959.81
499.049	1023.81
499.267	1079.81
499.484	1113.81
499.701	1257.81
499.918	1327.81
500.135	1422.81
500.352	1540.81
500.569	1575.81
500.786	1558.81
501.003	1510.81
501.22	1401.81
501.437	1286.81
