Data from Fe(NO3)3@0.0125M.TitratingCurve.Agarose3%dH2O.NegLispCup.LampEnergy10.LIBS07252019_HRD10591_16-59-44-337.txt Node
Date: Thu Jul 25 16:59:44 EDT 2019
User: cochatt
Spectrometer: HR+D1059
Trigger mode: 1
Integration Time (sec): 1.000000E-1
Scans to average: 1
Electric dark correction enabled: true
Nonlinearity correction enabled: false
Boxcar width: 0
XAxis mode: Wavelengths
Number of Pixels in Spectrum: 2048
>>>>>Begin Spectral Data<<<<<
223.165	-12
223.4	-12
223.635	-12
223.869	-22
224.104	-12
224.338	-11
224.573	-18
224.808	-14
225.042	-7
225.277	-2
225.511	-1
225.746	-14
225.98	14
226.215	1
226.449	5
226.683	36
226.918	27
227.152	30
227.387	36
227.621	38
227.856	55
228.09	62
228.324	50
228.559	57
228.793	61
229.027	76
229.262	68
229.496	68
229.73	94
229.964	70
230.199	90
230.433	82
230.667	86
230.901	73
231.136	85
231.37	88
231.604	96
231.838	85
232.072	89
232.306	76
232.541	93
232.775	94
233.009	103
233.243	96
233.477	78
233.711	88
233.945	86
234.179	88
234.413	89
234.647	106
234.881	101
235.115	83
235.349	87
235.583	91
235.817	106
236.051	91
236.285	97
236.519	102
236.753	102
236.987	93
237.221	95
237.455	88
237.689	93
237.922	95
238.156	102
238.39	100
238.624	84
238.858	101
239.091	92
239.325	94
239.559	96
239.793	103
240.027	89
240.26	77
240.494	81
240.728	93
240.961	105
241.195	101
241.429	90
241.662	97
241.896	100
242.13	88
242.363	99
242.597	103
242.83	101
243.064	97
243.298	99
243.531	96
243.765	97
243.998	91
244.232	105
244.465	106
244.699	88
244.932	109
245.166	111
245.399	86
245.633	95
245.866	101
246.099	117
246.333	105
246.566	97
246.8	105
247.033	114
247.266	103
247.5	105
247.733	106
247.966	106
248.2	104
248.433	102
248.666	110
248.899	120
249.133	105
249.366	103
249.599	114
249.832	103
250.066	103
250.299	113
250.532	102
250.765	107
250.998	115
251.231	109
251.465	119
251.698	104
251.931	114
252.164	98
252.397	115
252.63	125
252.863	126
253.096	115
253.329	101
253.562	103
253.795	111
254.028	111
254.261	122
254.494	108
254.727	120
254.96	109
255.193	117
255.426	122
255.659	132
255.892	126
256.124	126
256.357	120
256.59	115
256.823	122
257.056	123
257.289	127
257.521	132
257.754	119
257.987	117
258.22	136
258.452	127
258.685	134
258.918	126
259.151	124
259.383	134
259.616	148
259.849	130
260.081	136
260.314	126
260.547	122
260.779	146
261.012	140
261.244	129
261.477	147
261.71	133
261.942	116
262.175	118
262.407	143
262.64	134
262.872	115
263.105	131
263.337	135
263.57	131
263.802	133
264.035	143
264.267	147
264.499	123
264.732	120
264.964	121
265.197	120
265.429	142
265.661	142
265.894	155
266.126	126
266.358	139
266.591	139
266.823	141
267.055	139
267.287	139
267.52	130
267.752	140
267.984	147
268.216	149
268.448	155
268.681	138
268.913	138
269.145	149
269.377	129
269.609	143
269.841	142
270.073	154
270.306	137
270.538	139
270.77	150
271.002	163
271.234	158
271.466	147
271.698	132
271.93	163
272.162	157
272.394	157
272.626	162
272.858	168
273.09	155
273.322	151
273.553	165
273.785	169
274.017	169
274.249	173
274.481	172
274.713	180
274.945	179
275.176	181
275.408	178
275.64	197
275.872	181
276.104	181
276.335	178
276.567	163
276.799	175
277.031	165
277.262	176
277.494	172
277.726	194
277.957	158
278.189	179
278.421	181
278.652	186
278.884	179
279.115	177
279.347	175
279.579	193
279.81	175
280.042	184
280.273	177
280.505	196
280.736	179
280.968	177
281.199	187
281.431	205
281.662	190
281.894	199
282.125	205
282.356	210
282.588	192
282.819	193
283.051	202
283.282	204
283.513	180
283.745	203
283.976	185
284.207	202
284.439	211
284.67	212
284.901	227
285.132	210
285.364	203
285.595	225
285.826	215
286.057	222
286.288	207
286.52	200
286.751	217
286.982	218
287.213	219
287.444	227
287.675	227
287.906	226
288.138	215
288.369	216
288.6	226
288.831	233
289.062	217
289.293	235
289.524	245
289.755	220
289.986	227
290.217	239
290.448	229
290.679	234
290.91	228
291.141	234
291.371	249
291.602	270
291.833	245
292.064	228
292.295	232
292.526	236
292.757	237
292.987	246
293.218	252
293.449	254
293.68	242
293.91	238
294.141	256
294.372	255
294.603	247
294.833	248
295.064	247
295.295	245
295.525	253
295.756	262
295.987	248
296.217	251
296.448	269
296.679	243
296.909	266
297.14	264
297.37	258
297.601	275
297.831	261
298.062	275
298.292	264
298.523	275
298.753	269
298.984	262
299.214	274
299.445	262
299.675	269
299.905	268
300.136	289
300.366	287
300.597	289
300.827	287
301.057	305
301.288	285
301.518	279
301.748	274
301.979	293
302.209	289
302.439	283
302.669	305
302.9	296
303.13	306
303.36	272
303.59	306
303.82	302
304.051	303
304.281	299
304.511	291
304.741	315
304.971	319
305.201	315
305.431	326
305.661	316
305.891	320
306.121	312
306.352	325
306.582	295
306.812	291
307.042	308
307.272	317
307.502	306
307.731	300
307.961	311
308.191	315
308.421	319
308.651	318
308.881	328
309.111	332
309.341	307
309.571	310
309.8	322
310.03	315
310.26	338
310.49	314
310.72	326
310.949	333
311.179	332
311.409	339
311.639	325
311.868	343
312.098	332
312.328	320
312.557	341
312.787	342
313.017	334
313.246	338
313.476	348
313.706	346
313.935	348
314.165	357
314.394	353
314.624	359
314.853	353
315.083	355
315.312	377
315.542	355
315.771	349
316.001	361
316.23	378
316.46	378
316.689	364
316.919	363
317.148	355
317.377	356
317.607	370
317.836	375
318.065	374
318.295	395
318.524	364
318.753	391
318.983	376
319.212	361
319.441	380
319.67	391
319.9	382
320.129	374
320.358	393
320.587	376
320.816	376
321.046	381
321.275	399
321.504	384
321.733	393
321.962	380
322.191	383
322.42	395
322.649	384
322.878	400
323.108	390
323.337	421
323.566	377
323.795	421
324.024	415
324.253	411
324.482	396
324.71	397
324.939	407
325.168	408
325.397	417
325.626	422
325.855	403
326.084	409
326.313	402
326.542	410
326.77	414
326.999	412
327.228	411
327.457	412
327.686	420
327.914	414
328.143	417
328.372	407
328.6	417
328.829	417
329.058	420
329.287	428
329.515	423
329.744	423
329.972	431
330.201	433
330.43	434
330.658	437
330.887	434
331.115	431
331.344	433
331.572	413
331.801	426
332.03	425
332.258	433
332.486	425
332.715	433
332.943	441
333.172	443
333.4	433
333.629	433
333.857	457
334.085	445
334.314	427
334.542	458
334.771	420
334.999	425
335.227	439
335.455	468
335.684	456
335.912	455
336.14	445
336.369	449
336.597	450
336.825	441
337.053	449
337.281	458
337.51	427
337.738	443
337.966	458
338.194	440
338.422	471
338.65	435
338.878	452
339.106	436
339.334	429
339.562	430
339.79	472
340.018	474
340.246	478
340.474	455
340.702	431
340.93	445
341.158	449
341.386	427
341.614	460
341.842	447
342.07	446
342.298	458
342.526	467
342.754	469
342.981	441
343.209	469
343.437	473
343.665	461
343.893	474
344.12	481
344.348	463
344.576	467
344.804	481
345.031	472
345.259	471
345.487	453
345.714	457
345.942	462
346.17	448
346.397	433
346.625	453
346.853	466
347.08	458
347.308	456
347.535	451
347.763	464
347.99	448
348.218	476
348.445	447
348.673	473
348.9	473
349.128	463
349.355	469
349.583	450
349.81	446
350.037	456
350.265	458
350.492	471
350.72	478
350.947	471
351.174	452
351.402	463
351.629	438
351.856	475
352.083	467
352.311	446
352.538	458
352.765	457
352.992	476
353.22	471
353.447	471
353.674	470
353.901	465
354.128	469
354.355	459
354.583	464
354.81	461
355.037	454
355.264	480
355.491	435
355.718	475
355.945	491
356.172	470
356.399	478
356.626	459
356.853	481
357.08	483
357.307	465
357.534	449
357.761	469
357.988	479
358.215	474
358.441	461
358.668	443
358.895	486
359.122	468
359.349	470
359.576	491
359.802	474
360.029	462
360.256	466
360.483	483
360.709	451
360.936	505
361.163	487
361.39	495
361.616	485
361.843	469
362.07	494
362.296	463
362.523	484
362.749	484
362.976	485
363.203	494
363.429	484
363.656	464
363.882	503
364.109	497
364.335	482
364.562	484
364.788	507
365.015	489
365.241	508
365.468	503
365.694	492
365.92	466
366.147	475
366.373	497
366.599	489
366.826	505
367.052	485
367.278	508
367.505	477
367.731	485
367.957	507
368.184	517
368.41	500
368.636	525
368.862	508
369.089	511
369.315	514
369.541	490
369.767	517
369.993	491
370.219	485
370.445	515
370.672	528
370.898	519
371.124	506
371.35	535
371.576	500
371.802	506
372.028	520
372.254	506
372.48	511
372.706	516
372.932	525
373.158	526
373.384	517
373.61	517
373.835	511
374.061	519
374.287	527
374.513	512
374.739	533
374.965	512
375.191	519
375.416	518
375.642	508
375.868	533
376.094	510
376.319	506
376.545	512
376.771	528
376.997	502
377.222	523
377.448	510
377.674	514
377.899	515
378.125	511
378.35	522
378.576	519
378.802	500
379.027	511
379.253	513
379.478	517
379.704	523
379.929	527
380.155	538
380.38	525
380.606	535
380.831	538
381.057	548
381.282	502
381.507	516
381.733	523
381.958	533
382.184	524
382.409	541
382.634	557
382.86	538
383.085	506
383.31	526
383.535	539
383.761	553
383.986	546
384.211	549
384.436	534
384.662	558
384.887	552
385.112	559
385.337	536
385.562	553
385.787	539
386.013	555
386.238	562
386.463	553
386.688	556
386.913	540
387.138	572
387.363	555
387.588	539
387.813	550
388.038	569
388.263	566
388.488	549
388.713	547
388.938	573
389.163	548
389.387	542
389.612	551
389.837	550
390.062	550
390.287	569
390.512	555
390.736	563
390.961	574
391.186	542
391.411	574
391.636	587
391.86	572
392.085	563
392.31	563
392.534	587
392.759	582
392.984	588
393.208	558
393.433	557
393.658	573
393.882	559
394.107	570
394.331	573
394.556	574
394.78	574
395.005	578
395.229	583
395.454	585
395.678	586
395.903	582
396.127	579
396.352	610
396.576	578
396.801	559
397.025	568
397.249	577
397.474	577
397.698	591
397.922	581
398.147	588
398.371	618
398.595	598
398.82	608
399.044	616
399.268	599
399.492	604
399.717	605
399.941	623
400.165	622
400.389	636
400.613	603
400.837	612
401.062	619
401.286	613
401.51	614
401.734	632
401.958	611
402.182	613
402.406	623
402.63	594
402.854	615
403.078	598
403.302	607
403.526	598
403.75	619
403.974	615
404.198	629
404.422	627
404.645	623
404.869	613
405.093	587
405.317	606
405.541	605
405.765	624
405.988	627
406.212	605
406.436	634
406.66	625
406.883	613
407.107	629
407.331	637
407.555	654
407.778	638
408.002	663
408.226	621
408.449	645
408.673	641
408.896	651
409.12	633
409.344	635
409.567	612
409.791	614
410.014	619
410.238	627
410.461	649
410.685	615
410.908	629
411.132	631
411.355	612
411.578	625
411.802	625
412.025	612
412.249	619
412.472	598
412.695	634
412.919	611
413.142	629
413.365	615
413.589	631
413.812	618
414.035	636
414.258	610
414.482	626
414.705	621
414.928	631
415.151	601
415.374	613
415.597	602
415.821	589
416.044	603
416.267	589
416.49	602
416.713	613
416.936	613
417.159	575
417.382	579
417.605	610
417.828	594
418.051	593
418.274	589
418.497	590
418.72	587
418.943	570
419.166	585
419.389	647
419.611	637
419.834	629
420.057	622
420.28	605
420.503	571
420.726	578
420.948	572
421.171	583
421.394	588
421.617	600
421.839	600
422.062	598
422.285	566
422.507	576
422.73	592
422.953	607
423.175	593
423.398	587
423.621	585
423.843	593
424.066	591
424.288	589
424.511	581
424.733	603
424.956	573
425.178	604
425.401	588
425.623	590
425.846	573
426.068	592
426.291	605
426.513	607
426.735	588
426.958	624
427.18	576
427.402	606
427.625	595
427.847	573
428.069	579
428.292	589
428.514	586
428.736	610
428.958	598
429.181	587
429.403	599
429.625	583
429.847	590
430.069	601
430.292	585
430.514	609
430.736	595
430.958	609
431.18	587
431.402	599
431.624	590
431.846	564
432.068	572
432.29	600
432.512	597
432.734	594
432.956	567
433.178	606
433.4	582
433.622	613
433.844	606
434.066	597
434.287	589
434.509	603
434.731	589
434.953	612
435.175	577
435.397	600
435.618	575
435.84	589
436.062	592
436.284	579
436.505	586
436.727	583
436.949	581
437.17	586
437.392	578
437.614	612
437.835	586
438.057	577
438.278	577
438.5	570
438.721	581
438.943	605
439.165	574
439.386	595
439.608	621
439.829	573
440.05	619
440.272	596
440.493	595
440.715	586
440.936	605
441.158	584
441.379	584
441.6	593
441.822	594
442.043	605
442.264	600
442.486	571
442.707	598
442.928	570
443.149	599
443.371	606
443.592	588
443.813	602
444.034	602
444.255	590
444.476	595
444.698	589
444.919	585
445.14	647
445.361	618
445.582	606
445.803	586
446.024	600
446.245	593
446.466	595
446.687	588
446.908	587
447.129	580
447.35	580
447.571	579
447.792	552
448.013	569
448.234	565
448.455	559
448.675	591
448.896	566
449.117	565
449.338	557
449.559	574
449.779	567
450	552
450.221	582
450.442	569
450.662	540
450.883	563
451.104	549
451.324	549
451.545	563
451.766	558
451.986	564
452.207	579
452.428	539
452.648	548
452.869	540
453.089	544
453.31	563
453.53	546
453.751	551
453.971	581
454.192	557
454.412	538
454.633	553
454.853	548
455.073	545
455.294	544
455.514	565
455.734	553
455.955	564
456.175	552
456.395	551
456.616	566
456.836	561
457.056	574
457.276	539
457.497	556
457.717	534
457.937	586
458.157	547
458.377	542
458.598	581
458.818	563
459.038	582
459.258	543
459.478	578
459.698	563
459.918	591
460.138	565
460.358	585
460.578	587
460.798	600
461.018	591
461.238	582
461.458	617
461.678	577
461.898	615
462.118	601
462.338	590
462.558	598
462.777	579
462.997	609
463.217	609
463.437	617
463.657	601
463.876	616
464.096	623
464.316	596
464.536	609
464.755	607
464.975	624
465.195	609
465.414	595
465.634	623
465.854	593
466.073	603
466.293	581
466.512	587
466.732	603
466.951	605
467.171	599
467.391	602
467.61	603
467.829	597
468.049	598
468.268	591
468.488	608
468.707	596
468.927	611
469.146	605
469.365	589
469.585	594
469.804	605
470.023	589
470.243	601
470.462	616
470.681	616
470.901	613
471.12	625
471.339	606
471.558	616
471.777	621
471.997	630
472.216	611
472.435	619
472.654	597
472.873	627
473.092	626
473.311	638
473.53	619
473.749	616
473.968	644
474.187	645
474.406	631
474.625	636
474.844	623
475.063	629
475.282	630
475.501	639
475.72	664
475.939	649
476.158	656
476.377	654
476.596	678
476.814	668
477.033	691
477.252	677
477.471	657
477.69	662
477.908	715
478.127	703
478.346	686
478.564	703
478.783	689
479.002	713
479.22	691
479.439	710
479.658	708
479.876	749
480.095	741
480.313	740
480.532	717
480.751	740
480.969	738
481.188	725
481.406	743
481.624	752
481.843	737
482.061	789
482.28	745
482.498	740
482.717	748
482.935	781
483.153	737
483.372	750
483.59	794
483.808	771
484.027	779
484.245	759
484.463	746
484.681	777
484.9	754
485.118	762
485.336	785
485.554	794
485.772	760
485.99	786
486.209	756
486.427	777
486.645	771
486.863	773
487.081	789
487.299	792
487.517	827
487.735	774
487.953	806
488.171	783
488.389	807
488.607	798
488.825	794
489.043	772
489.261	785
489.479	807
489.696	826
489.914	785
490.132	792
490.35	819
490.568	787
490.786	808
491.003	799
491.221	805
491.439	829
491.657	797
491.874	817
492.092	804
492.31	823
492.527	817
492.745	826
492.963	832
493.18	811
493.398	835
493.615	828
493.833	828
494.05	809
494.268	810
494.485	825
494.703	827
494.92	819
495.138	802
495.355	836
495.573	837
495.79	874
496.008	860
496.225	838
496.442	840
496.66	865
496.877	853
497.094	851
497.312	839
497.529	838
497.746	847
497.963	845
498.181	871
498.398	866
498.615	891
498.832	885
499.049	869
499.267	886
499.484	881
499.701	884
499.918	901
500.135	931
500.352	909
500.569	945
500.786	925
501.003	927
501.22	911
501.437	870
501.654	897
501.871	907
502.088	876
502.305	877
502.522	865
502.739	865
502.956	887
503.172	835
503.389	850
503.606	835
503.823	838
504.04	825
504.256	810
504.473	855
504.69	823
504.907	822
505.123	817
505.34	819
505.557	822
505.773	807
505.99	830
506.207	813
506.423	781
506.64	818
506.856	775
507.073	766
507.289	757
507.506	748
507.722	764
507.939	774
508.155	764
508.372	734
508.588	743
508.805	758
509.021	740
509.238	730
509.454	764
509.67	731
509.887	738
510.103	729
510.319	715
510.536	722
510.752	716
510.968	742
511.184	738
511.401	718
511.617	718
511.833	716
512.049	722
512.265	727
512.481	697
512.698	702
512.914	743
513.13	712
513.346	682
513.562	714
513.778	724
513.994	716
514.21	733
514.426	718
514.642	729
514.858	696
515.074	738
515.29	755
515.506	725
515.721	704
515.937	701
516.153	722
516.369	721
516.585	731
516.801	722
517.016	721
517.232	746
517.448	728
517.664	722
517.879	726
518.095	732
518.311	708
518.527	702
518.742	750
518.958	710
519.173	728
519.389	697
519.605	737
519.82	731
520.036	741
520.251	703
520.467	713
520.682	743
520.898	715
521.113	722
521.329	712
521.544	716
521.76	695
521.975	687
522.19	702
522.406	667
522.621	695
522.836	689
523.052	707
523.267	705
523.482	706
523.698	689
523.913	694
524.128	716
524.343	663
524.559	679
524.774	693
524.989	663
525.204	681
525.419	678
525.634	677
525.849	689
526.064	688
526.28	693
526.495	672
526.71	687
526.925	692
527.14	677
527.355	667
527.57	681
527.785	682
527.999	689
528.214	688
528.429	651
528.644	693
528.859	693
529.074	682
529.289	663
529.503	649
529.718	658
529.933	693
530.148	695
530.363	685
530.577	665
530.792	679
531.007	656
531.221	697
531.436	663
531.651	691
531.865	670
532.08	667
532.295	679
532.509	673
532.724	663
532.938	682
533.153	647
533.367	673
533.582	658
533.796	652
534.011	669
534.225	647
534.44	650
534.654	673
534.868	645
535.083	659
535.297	652
535.511	653
535.726	643
535.94	656
536.154	649
536.369	653
536.583	640
536.797	620
537.011	620
537.225	636
537.44	631
537.654	634
537.868	620
538.082	617
538.296	628
538.51	641
538.724	635
538.938	629
539.153	638
539.367	625
539.581	647
539.795	621
540.009	620
540.222	632
540.436	606
540.65	629
540.864	614
541.078	631
541.292	594
541.506	617
541.72	632
541.934	629
542.147	639
542.361	645
542.575	628
542.789	620
543.002	630
543.216	630
543.43	600
543.644	603
543.857	613
544.071	611
544.285	633
544.498	613
544.712	594
544.925	628
545.139	599
545.352	604
545.566	617
545.779	606
545.993	617
546.206	617
546.42	621
546.633	616
546.847	609
547.06	607
547.274	619
547.487	607
547.7	607
547.914	606
548.127	598
548.34	626
548.554	618
548.767	613
548.98	629
549.193	605
549.407	584
549.62	604
549.833	599
550.046	613
550.259	597
550.473	597
550.686	604
550.899	590
551.112	600
551.325	596
551.538	611
551.751	597
551.964	600
552.177	595
552.39	581
552.603	611
552.816	606
553.029	570
553.242	587
553.455	564
553.667	595
553.88	571
554.093	588
554.306	589
554.519	575
554.732	582
554.944	540
555.157	573
555.37	567
555.583	582
555.795	583
556.008	559
556.221	566
556.433	571
556.646	560
556.859	557
557.071	556
557.284	558
557.496	573
557.709	547
557.921	551
558.134	560
558.346	546
558.559	558
558.771	552
558.984	535
559.196	541
559.409	524
559.621	527
559.833	572
560.046	536
560.258	541
560.47	553
560.683	546
560.895	555
561.107	535
561.32	533
561.532	545
561.744	517
561.956	545
562.168	533
562.381	550
562.593	516
562.805	538
563.017	526
563.229	515
563.441	515
563.653	542
563.865	513
564.077	523
