Data from Fe(NO3)3@0.025M.TitratingCurve.Agarose3%dH2O.NegLispCup.LampEnergy10.LIBS07252019_HRD10591_16-56-43-336.txt Node
Date: Thu Jul 25 16:56:43 EDT 2019
User: cochatt
Spectrometer: HR+D1059
Trigger mode: 1
Integration Time (sec): 1.000000E-1
Scans to average: 1
Electric dark correction enabled: true
Nonlinearity correction enabled: false
Boxcar width: 0
XAxis mode: Wavelengths
Number of Pixels in Spectrum: 2048
>>>>>Begin Spectral Data<<<<<
223.165	-23.56
223.4	-23.56
223.635	-23.56
223.869	-11.56
224.104	-25.56
224.338	-20.56
224.573	-21.56
224.808	-17.56
225.042	2.44
225.277	2.44
225.511	-4.56
225.746	2.44
225.98	9.44
226.215	6.44
226.449	24.44
226.683	21.44
226.918	29.44
227.152	26.44
227.387	42.44
227.621	38.44
227.856	50.44
228.09	49.44
228.324	55.44
228.559	48.44
228.793	70.44
229.027	64.44
229.262	60.44
229.496	74.44
229.73	71.44
229.964	76.44
230.199	89.44
230.433	76.44
230.667	81.44
230.901	85.44
231.136	81.44
231.37	95.44
231.604	73.44
231.838	95.44
232.072	88.44
232.306	101.44
232.541	84.44
232.775	85.44
233.009	61.44
233.243	97.44
233.477	82.44
233.711	77.44
233.945	94.44
234.179	94.44
234.413	86.44
234.647	89.44
234.881	85.44
235.115	79.44
235.349	74.44
235.583	86.44
235.817	77.44
236.051	91.44
236.285	85.44
236.519	88.44
236.753	78.44
236.987	88.44
237.221	75.44
237.455	86.44
237.689	81.44
237.922	87.44
238.156	95.44
238.39	92.44
238.624	78.44
238.858	80.44
239.091	71.44
239.325	86.44
239.559	92.44
239.793	90.44
240.027	91.44
240.26	85.44
240.494	93.44
240.728	98.44
240.961	74.44
241.195	86.44
241.429	77.44
241.662	85.44
241.896	82.44
242.13	82.44
242.363	82.44
242.597	68.44
242.83	103.44
243.064	100.44
243.298	91.44
243.531	87.44
243.765	84.44
243.998	90.44
244.232	99.44
244.465	75.44
244.699	95.44
244.932	82.44
245.166	116.44
245.399	97.44
245.633	79.44
245.866	93.44
246.099	88.44
246.333	84.44
246.566	94.44
246.8	77.44
247.033	76.44
247.266	83.44
247.5	92.44
247.733	83.44
247.966	86.44
248.2	86.44
248.433	82.44
248.666	83.44
248.899	87.44
249.133	87.44
249.366	72.44
249.599	91.44
249.832	98.44
250.066	79.44
250.299	94.44
250.532	80.44
250.765	107.44
250.998	93.44
251.231	81.44
251.465	92.44
251.698	85.44
251.931	82.44
252.164	82.44
252.397	88.44
252.63	78.44
252.863	87.44
253.096	88.44
253.329	91.44
253.562	99.44
253.795	107.44
254.028	89.44
254.261	95.44
254.494	87.44
254.727	90.44
254.96	86.44
255.193	81.44
255.426	95.44
255.659	87.44
255.892	87.44
256.124	95.44
256.357	99.44
256.59	92.44
256.823	92.44
257.056	91.44
257.289	83.44
257.521	87.44
257.754	90.44
257.987	92.44
258.22	99.44
258.452	95.44
258.685	103.44
258.918	103.44
259.151	77.44
259.383	93.44
259.616	84.44
259.849	78.44
260.081	91.44
260.314	96.44
260.547	96.44
260.779	89.44
261.012	96.44
261.244	97.44
261.477	107.44
261.71	100.44
261.942	85.44
262.175	88.44
262.407	95.44
262.64	99.44
262.872	88.44
263.105	93.44
263.337	99.44
263.57	102.44
263.802	85.44
264.035	78.44
264.267	90.44
264.499	101.44
264.732	105.44
264.964	94.44
265.197	89.44
265.429	90.44
265.661	91.44
265.894	83.44
266.126	93.44
266.358	97.44
266.591	94.44
266.823	105.44
267.055	95.44
267.287	90.44
267.52	104.44
267.752	88.44
267.984	90.44
268.216	95.44
268.448	95.44
268.681	96.44
268.913	75.44
269.145	97.44
269.377	108.44
269.609	98.44
269.841	100.44
270.073	96.44
270.306	86.44
270.538	96.44
270.77	102.44
271.002	104.44
271.234	115.44
271.466	112.44
271.698	101.44
271.93	102.44
272.162	93.44
272.394	99.44
272.626	102.44
272.858	92.44
273.09	105.44
273.322	109.44
273.553	106.44
273.785	93.44
274.017	98.44
274.249	94.44
274.481	107.44
274.713	109.44
274.945	100.44
275.176	96.44
275.408	98.44
275.64	112.44
275.872	121.44
276.104	114.44
276.335	97.44
276.567	86.44
276.799	98.44
277.031	109.44
277.262	92.44
277.494	92.44
277.726	108.44
277.957	101.44
278.189	97.44
278.421	105.44
278.652	99.44
278.884	115.44
279.115	95.44
279.347	88.44
279.579	94.44
279.81	102.44
280.042	99.44
280.273	103.44
280.505	99.44
280.736	91.44
280.968	104.44
281.199	109.44
281.431	119.44
281.662	90.44
281.894	95.44
282.125	108.44
282.356	106.44
282.588	102.44
282.819	104.44
283.051	96.44
283.282	107.44
283.513	110.44
283.745	119.44
283.976	96.44
284.207	121.44
284.439	109.44
284.67	125.44
284.901	121.44
285.132	115.44
285.364	107.44
285.595	104.44
285.826	111.44
286.057	95.44
286.288	110.44
286.52	103.44
286.751	106.44
286.982	107.44
287.213	107.44
287.444	103.44
287.675	117.44
287.906	110.44
288.138	115.44
288.369	97.44
288.6	104.44
288.831	106.44
289.062	114.44
289.293	110.44
289.524	117.44
289.755	101.44
289.986	120.44
290.217	120.44
290.448	119.44
290.679	110.44
290.91	112.44
291.141	122.44
291.371	114.44
291.602	123.44
291.833	111.44
292.064	124.44
292.295	98.44
292.526	107.44
292.757	122.44
292.987	116.44
293.218	92.44
293.449	99.44
293.68	114.44
293.91	108.44
294.141	108.44
294.372	105.44
294.603	96.44
294.833	106.44
295.064	114.44
295.295	114.44
295.525	133.44
295.756	121.44
295.987	107.44
296.217	109.44
296.448	96.44
296.679	106.44
296.909	112.44
297.14	125.44
297.37	120.44
297.601	106.44
297.831	110.44
298.062	115.44
298.292	119.44
298.523	108.44
298.753	109.44
298.984	128.44
299.214	110.44
299.445	108.44
299.675	114.44
299.905	114.44
300.136	118.44
300.366	115.44
300.597	108.44
300.827	115.44
301.057	112.44
301.288	114.44
301.518	126.44
301.748	120.44
301.979	123.44
302.209	114.44
302.439	103.44
302.669	114.44
302.9	115.44
303.13	119.44
303.36	119.44
303.59	123.44
303.82	116.44
304.051	126.44
304.281	132.44
304.511	126.44
304.741	118.44
304.971	108.44
305.201	111.44
305.431	119.44
305.661	118.44
305.891	124.44
306.121	127.44
306.352	123.44
306.582	121.44
306.812	123.44
307.042	126.44
307.272	117.44
307.502	111.44
307.731	126.44
307.961	124.44
308.191	123.44
308.421	121.44
308.651	122.44
308.881	107.44
309.111	128.44
309.341	108.44
309.571	128.44
309.8	103.44
310.03	115.44
310.26	128.44
310.49	103.44
310.72	114.44
310.949	116.44
311.179	122.44
311.409	110.44
311.639	125.44
311.868	116.44
312.098	122.44
312.328	122.44
312.557	117.44
312.787	115.44
313.017	99.44
313.246	115.44
313.476	122.44
313.706	125.44
313.935	114.44
314.165	122.44
314.394	120.44
314.624	108.44
314.853	113.44
315.083	117.44
315.312	125.44
315.542	107.44
315.771	126.44
316.001	118.44
316.23	127.44
316.46	118.44
316.689	107.44
316.919	122.44
317.148	120.44
317.377	112.44
317.607	116.44
317.836	132.44
318.065	116.44
318.295	111.44
318.524	106.44
318.753	114.44
318.983	130.44
319.212	112.44
319.441	122.44
319.67	126.44
319.9	126.44
320.129	124.44
320.358	127.44
320.587	110.44
320.816	119.44
321.046	119.44
321.275	133.44
321.504	118.44
321.733	112.44
321.962	122.44
322.191	127.44
322.42	120.44
322.649	127.44
322.878	131.44
323.108	123.44
323.337	139.44
323.566	127.44
323.795	130.44
324.024	123.44
324.253	121.44
324.482	121.44
324.71	110.44
324.939	124.44
325.168	132.44
325.397	132.44
325.626	120.44
325.855	120.44
326.084	131.44
326.313	139.44
326.542	130.44
326.77	116.44
326.999	126.44
327.228	125.44
327.457	121.44
327.686	123.44
327.914	134.44
328.143	138.44
328.372	142.44
328.6	134.44
328.829	134.44
329.058	127.44
329.287	137.44
329.515	122.44
329.744	116.44
329.972	131.44
330.201	129.44
330.43	134.44
330.658	123.44
330.887	132.44
331.115	118.44
331.344	124.44
331.572	136.44
331.801	120.44
332.03	138.44
332.258	130.44
332.486	132.44
332.715	131.44
332.943	130.44
333.172	142.44
333.4	150.44
333.629	143.44
333.857	122.44
334.085	148.44
334.314	138.44
334.542	138.44
334.771	139.44
334.999	134.44
335.227	120.44
335.455	146.44
335.684	132.44
335.912	144.44
336.14	150.44
336.369	148.44
336.597	142.44
336.825	129.44
337.053	124.44
337.281	141.44
337.51	140.44
337.738	134.44
337.966	139.44
338.194	133.44
338.422	143.44
338.65	154.44
338.878	128.44
339.106	126.44
339.334	122.44
339.562	121.44
339.79	131.44
340.018	136.44
340.246	141.44
340.474	132.44
340.702	112.44
340.93	129.44
341.158	134.44
341.386	128.44
341.614	135.44
341.842	129.44
342.07	128.44
342.298	124.44
342.526	134.44
342.754	120.44
342.981	144.44
343.209	141.44
343.437	142.44
343.665	137.44
343.893	135.44
344.12	133.44
344.348	141.44
344.576	136.44
344.804	127.44
345.031	140.44
345.259	132.44
345.487	141.44
345.714	124.44
345.942	132.44
346.17	131.44
346.397	124.44
346.625	132.44
346.853	123.44
347.08	126.44
347.308	129.44
347.535	133.44
347.763	128.44
347.99	137.44
348.218	124.44
348.445	135.44
348.673	140.44
348.9	122.44
349.128	127.44
349.355	137.44
349.583	138.44
349.81	139.44
350.037	132.44
350.265	122.44
350.492	132.44
350.72	124.44
350.947	127.44
351.174	140.44
351.402	125.44
351.629	126.44
351.856	112.44
352.083	138.44
352.311	126.44
352.538	128.44
352.765	122.44
352.992	132.44
353.22	139.44
353.447	125.44
353.674	121.44
353.901	138.44
354.128	141.44
354.355	122.44
354.583	130.44
354.81	125.44
355.037	126.44
355.264	143.44
355.491	119.44
355.718	134.44
355.945	131.44
356.172	147.44
356.399	122.44
356.626	128.44
356.853	114.44
357.08	126.44
357.307	116.44
357.534	128.44
357.761	130.44
357.988	110.44
358.215	121.44
358.441	111.44
358.668	147.44
358.895	132.44
359.122	122.44
359.349	134.44
359.576	129.44
359.802	122.44
360.029	126.44
360.256	133.44
360.483	135.44
360.709	128.44
360.936	125.44
361.163	131.44
361.39	130.44
361.616	133.44
361.843	128.44
362.07	135.44
362.296	122.44
362.523	136.44
362.749	124.44
362.976	124.44
363.203	129.44
363.429	123.44
363.656	123.44
363.882	130.44
364.109	119.44
364.335	137.44
364.562	131.44
364.788	129.44
365.015	120.44
365.241	139.44
365.468	140.44
365.694	133.44
365.92	114.44
366.147	124.44
366.373	132.44
366.599	126.44
366.826	123.44
367.052	125.44
367.278	124.44
367.505	128.44
367.731	126.44
367.957	126.44
368.184	124.44
368.41	134.44
368.636	138.44
368.862	143.44
369.089	143.44
369.315	132.44
369.541	142.44
369.767	129.44
369.993	132.44
370.219	134.44
370.445	136.44
370.672	138.44
370.898	138.44
371.124	138.44
371.35	119.44
371.576	140.44
371.802	138.44
372.028	132.44
372.254	132.44
372.48	141.44
372.706	129.44
372.932	124.44
373.158	126.44
373.384	136.44
373.61	130.44
373.835	132.44
374.061	128.44
374.287	138.44
374.513	127.44
374.739	154.44
374.965	123.44
375.191	130.44
375.416	157.44
375.642	127.44
375.868	122.44
376.094	140.44
376.319	131.44
376.545	130.44
376.771	126.44
376.997	127.44
377.222	115.44
377.448	149.44
377.674	130.44
377.899	131.44
378.125	139.44
378.35	133.44
378.576	139.44
378.802	142.44
379.027	122.44
379.253	141.44
379.478	132.44
379.704	125.44
379.929	137.44
380.155	131.44
380.38	125.44
380.606	140.44
380.831	141.44
381.057	129.44
381.282	126.44
381.507	137.44
381.733	146.44
381.958	140.44
382.184	147.44
382.409	140.44
382.634	125.44
382.86	144.44
383.085	140.44
383.31	130.44
383.535	135.44
383.761	126.44
383.986	126.44
384.211	132.44
384.436	138.44
384.662	140.44
384.887	134.44
385.112	139.44
385.337	131.44
385.562	139.44
385.787	151.44
386.013	145.44
386.238	138.44
386.463	148.44
386.688	152.44
386.913	141.44
387.138	136.44
387.363	134.44
387.588	149.44
387.813	135.44
388.038	154.44
388.263	148.44
388.488	146.44
388.713	134.44
388.938	129.44
389.163	134.44
389.387	148.44
389.612	140.44
389.837	149.44
390.062	140.44
390.287	145.44
390.512	154.44
390.736	142.44
390.961	133.44
391.186	160.44
391.411	138.44
391.636	145.44
391.86	148.44
392.085	153.44
392.31	151.44
392.534	162.44
392.759	151.44
392.984	141.44
393.208	142.44
393.433	152.44
393.658	149.44
393.882	144.44
394.107	141.44
394.331	126.44
394.556	145.44
394.78	146.44
395.005	142.44
395.229	155.44
395.454	158.44
395.678	146.44
395.903	134.44
396.127	145.44
396.352	149.44
396.576	159.44
396.801	153.44
397.025	134.44
397.249	158.44
397.474	153.44
397.698	151.44
397.922	144.44
398.147	145.44
398.371	145.44
398.595	150.44
398.82	165.44
399.044	168.44
399.268	154.44
399.492	170.44
399.717	171.44
399.941	185.44
400.165	190.44
400.389	182.44
400.613	162.44
400.837	159.44
401.062	153.44
401.286	183.44
401.51	167.44
401.734	163.44
401.958	148.44
402.182	155.44
402.406	139.44
402.63	150.44
402.854	156.44
403.078	153.44
403.302	173.44
403.526	152.44
403.75	158.44
403.974	157.44
404.198	161.44
404.422	181.44
404.645	170.44
404.869	168.44
405.093	136.44
405.317	136.44
405.541	142.44
405.765	157.44
405.988	161.44
406.212	176.44
406.436	156.44
406.66	157.44
406.883	175.44
407.107	168.44
407.331	178.44
407.555	166.44
407.778	180.44
408.002	179.44
408.226	163.44
408.449	167.44
408.673	155.44
408.896	188.44
409.12	157.44
409.344	164.44
409.567	152.44
409.791	174.44
410.014	168.44
410.238	174.44
410.461	167.44
410.685	168.44
410.908	166.44
411.132	166.44
411.355	157.44
411.578	157.44
411.802	142.44
412.025	167.44
412.249	148.44
412.472	149.44
412.695	167.44
412.919	155.44
413.142	135.44
413.365	158.44
413.589	146.44
413.812	150.44
414.035	150.44
414.258	161.44
414.482	164.44
414.705	164.44
414.928	182.44
415.151	136.44
415.374	170.44
415.597	158.44
415.821	155.44
416.044	148.44
416.267	150.44
416.49	163.44
416.713	142.44
416.936	139.44
417.159	162.44
417.382	145.44
417.605	154.44
417.828	164.44
418.051	164.44
418.274	169.44
418.497	144.44
418.72	164.44
418.943	155.44
419.166	167.44
419.389	167.44
419.611	176.44
419.834	160.44
420.057	144.44
420.28	159.44
420.503	163.44
420.726	159.44
420.948	140.44
421.171	155.44
421.394	155.44
421.617	165.44
421.839	159.44
422.062	154.44
422.285	159.44
422.507	163.44
422.73	144.44
422.953	165.44
423.175	144.44
423.398	170.44
423.621	139.44
423.843	154.44
424.066	137.44
424.288	173.44
424.511	150.44
424.733	163.44
424.956	149.44
425.178	149.44
425.401	151.44
425.623	146.44
425.846	152.44
426.068	171.44
426.291	147.44
426.513	154.44
426.735	152.44
426.958	144.44
427.18	164.44
427.402	150.44
427.625	156.44
427.847	143.44
428.069	150.44
428.292	150.44
428.514	148.44
428.736	147.44
428.958	155.44
429.181	133.44
429.403	154.44
429.625	155.44
429.847	142.44
430.069	142.44
430.292	168.44
430.514	150.44
430.736	124.44
430.958	142.44
431.18	165.44
431.402	155.44
431.624	149.44
431.846	137.44
432.068	155.44
432.29	154.44
432.512	154.44
432.734	142.44
432.956	142.44
433.178	152.44
433.4	142.44
433.622	149.44
433.844	158.44
434.066	157.44
434.287	150.44
434.509	142.44
434.731	154.44
434.953	153.44
435.175	150.44
435.397	158.44
435.618	155.44
435.84	149.44
436.062	169.44
436.284	129.44
436.505	148.44
436.727	139.44
436.949	147.44
437.17	151.44
437.392	143.44
437.614	152.44
437.835	143.44
438.057	135.44
438.278	135.44
438.5	158.44
438.721	139.44
438.943	141.44
439.165	148.44
439.386	165.44
439.608	163.44
439.829	159.44
440.05	152.44
440.272	140.44
440.493	145.44
440.715	146.44
440.936	151.44
441.158	146.44
441.379	154.44
441.6	156.44
441.822	154.44
442.043	155.44
442.264	156.44
442.486	144.44
442.707	161.44
442.928	144.44
443.149	156.44
443.371	176.44
443.592	153.44
443.813	155.44
444.034	159.44
444.255	156.44
444.476	147.44
444.698	147.44
444.919	167.44
445.14	234.44
445.361	196.44
445.582	154.44
445.803	162.44
446.024	151.44
446.245	142.44
446.466	153.44
446.687	142.44
446.908	143.44
447.129	160.44
447.35	151.44
447.571	141.44
447.792	150.44
448.013	137.44
448.234	148.44
448.455	142.44
448.675	147.44
448.896	150.44
449.117	150.44
449.338	140.44
449.559	138.44
449.779	138.44
450	135.44
450.221	133.44
450.442	130.44
450.662	144.44
450.883	136.44
451.104	158.44
451.324	155.44
451.545	129.44
451.766	133.44
451.986	137.44
452.207	144.44
452.428	139.44
452.648	143.44
452.869	136.44
453.089	143.44
453.31	140.44
453.53	146.44
453.751	129.44
453.971	145.44
454.192	143.44
454.412	132.44
454.633	120.44
454.853	133.44
455.073	132.44
455.294	137.44
455.514	134.44
455.734	134.44
455.955	123.44
456.175	122.44
456.395	123.44
456.616	135.44
456.836	132.44
457.056	148.44
457.276	128.44
457.497	129.44
457.717	128.44
457.937	150.44
458.157	130.44
458.377	144.44
458.598	143.44
458.818	141.44
459.038	150.44
459.258	162.44
459.478	137.44
459.698	148.44
459.918	150.44
460.138	151.44
460.358	152.44
460.578	155.44
460.798	163.44
461.018	165.44
461.238	164.44
461.458	166.44
461.678	171.44
461.898	159.44
462.118	162.44
462.338	167.44
462.558	161.44
462.777	165.44
462.997	174.44
463.217	170.44
463.437	170.44
463.657	164.44
463.876	173.44
464.096	182.44
464.316	149.44
464.536	170.44
464.755	164.44
464.975	152.44
465.195	139.44
465.414	156.44
465.634	148.44
465.854	151.44
466.073	155.44
466.293	144.44
466.512	139.44
466.732	143.44
466.951	159.44
467.171	155.44
467.391	159.44
467.61	178.44
467.829	132.44
468.049	140.44
468.268	137.44
468.488	143.44
468.707	142.44
468.927	149.44
469.146	146.44
469.365	144.44
469.585	146.44
469.804	130.44
470.023	147.44
470.243	142.44
470.462	142.44
470.681	144.44
470.901	150.44
471.12	138.44
471.339	148.44
471.558	133.44
471.777	156.44
471.997	140.44
472.216	144.44
472.435	133.44
472.654	141.44
472.873	142.44
473.092	140.44
473.311	141.44
473.53	153.44
473.749	154.44
473.968	147.44
474.187	140.44
474.406	138.44
474.625	150.44
474.844	138.44
475.063	146.44
475.282	141.44
475.501	130.44
475.72	145.44
475.939	140.44
476.158	142.44
476.377	141.44
476.596	142.44
476.814	144.44
477.033	167.44
477.252	132.44
477.471	144.44
477.69	148.44
477.908	142.44
478.127	140.44
478.346	150.44
478.564	180.44
478.783	142.44
479.002	152.44
479.22	172.44
479.439	151.44
479.658	171.44
479.876	152.44
480.095	157.44
480.313	158.44
480.532	167.44
480.751	164.44
480.969	164.44
481.188	165.44
481.406	159.44
481.624	154.44
481.843	159.44
482.061	157.44
482.28	163.44
482.498	151.44
482.717	157.44
482.935	153.44
483.153	141.44
483.372	155.44
483.59	163.44
483.808	162.44
484.027	151.44
484.245	166.44
484.463	166.44
484.681	160.44
484.9	154.44
485.118	158.44
485.336	159.44
485.554	173.44
485.772	167.44
485.99	158.44
486.209	152.44
486.427	161.44
486.645	155.44
486.863	165.44
487.081	146.44
487.299	159.44
487.517	164.44
487.735	166.44
487.953	159.44
488.171	173.44
488.389	168.44
488.607	166.44
488.825	147.44
489.043	156.44
489.261	167.44
489.479	158.44
489.696	162.44
489.914	158.44
490.132	170.44
490.35	163.44
490.568	147.44
490.786	167.44
491.003	158.44
491.221	160.44
491.439	147.44
491.657	161.44
491.874	175.44
492.092	160.44
492.31	176.44
492.527	146.44
492.745	156.44
492.963	162.44
493.18	159.44
493.398	160.44
493.615	152.44
493.833	160.44
494.05	173.44
494.268	174.44
494.485	170.44
494.703	160.44
494.92	171.44
495.138	163.44
495.355	153.44
495.573	156.44
495.79	185.44
496.008	159.44
496.225	173.44
496.442	178.44
496.66	184.44
496.877	168.44
497.094	151.44
497.312	178.44
497.529	181.44
497.746	180.44
497.963	178.44
498.181	189.44
498.398	192.44
498.615	180.44
498.832	206.44
499.049	205.44
499.267	207.44
499.484	218.44
499.701	223.44
499.918	250.44
500.135	259.44
500.352	249.44
500.569	254.44
500.786	273.44
501.003	249.44
501.22	246.44
501.437	242.44
501.654	213.44
501.871	214.44
502.088	191.44
502.305	202.44
502.522	209.44
502.739	194.44
502.956	185.44
503.172	188.44
503.389	182.44
503.606	169.44
503.823	163.44
504.04	175.44
504.256	176.44
