Data from Fe(NO3)3@0.05M.TitratingCurve.Agarose3%dH2O.NegLispCup.LampEnergy10.LIBS07252019_HRD10591_16-46-54-334.txt Node
Date: Thu Jul 25 16:46:54 EDT 2019
User: cochatt
Spectrometer: HR+D1059
Trigger mode: 1
Integration Time (sec): 1.000000E-1
Scans to average: 1
Electric dark correction enabled: true
Nonlinearity correction enabled: false
Boxcar width: 0
XAxis mode: Wavelengths
Number of Pixels in Spectrum: 2048
>>>>>Begin Spectral Data<<<<<
223.165	-9.69
223.4	-9.69
223.635	-9.69
223.869	-22.69
224.104	-20.69
224.338	-13.69
224.573	-35.69
224.808	-12.69
225.042	-14.69
225.277	-2.69
225.511	3.31
225.746	2.31
225.98	2.31
226.215	26.31
226.449	29.31
226.683	13.31
226.918	21.31
227.152	34.31
227.387	34.31
227.621	31.31
227.856	54.31
228.09	42.31
228.324	53.31
228.559	52.31
228.793	67.31
229.027	119.31
229.262	131.31
229.496	147.31
229.73	141.31
229.964	136.31
230.199	145.31
230.433	144.31
230.667	159.31
230.901	133.31
231.136	153.31
231.37	155.31
231.604	157.31
231.838	172.31
232.072	154.31
232.306	161.31
232.541	169.31
232.775	177.31
233.009	159.31
233.243	167.31
233.477	179.31
233.711	202.31
233.945	186.31
234.179	197.31
234.413	191.31
234.647	187.31
234.881	186.31
235.115	196.31
235.349	200.31
235.583	201.31
235.817	191.31
236.051	217.31
236.285	207.31
236.519	208.31
236.753	187.31
236.987	202.31
237.221	192.31
237.455	199.31
237.689	204.31
237.922	209.31
238.156	208.31
238.39	231.31
238.624	255.31
238.858	246.31
239.091	224.31
239.325	224.31
239.559	229.31
239.793	229.31
240.027	255.31
240.26	258.31
240.494	240.31
240.728	259.31
240.961	267.31
241.195	244.31
241.429	259.31
241.662	245.31
241.896	257.31
242.13	251.31
242.363	253.31
242.597	255.31
242.83	257.31
243.064	260.31
243.298	258.31
243.531	257.31
243.765	272.31
243.998	275.31
244.232	284.31
244.465	267.31
244.699	268.31
244.932	289.31
245.166	269.31
245.399	289.31
245.633	263.31
245.866	279.31
246.099	281.31
246.333	300.31
246.566	304.31
246.8	307.31
247.033	320.31
247.266	293.31
247.5	303.31
247.733	321.31
247.966	305.31
248.2	321.31
248.433	322.31
248.666	312.31
248.899	337.31
249.133	336.31
249.366	332.31
249.599	345.31
249.832	342.31
250.066	345.31
250.299	338.31
250.532	346.31
250.765	329.31
250.998	327.31
251.231	323.31
251.465	330.31
251.698	337.31
251.931	357.31
252.164	353.31
252.397	354.31
252.63	374.31
252.863	379.31
253.096	384.31
253.329	368.31
253.562	381.31
253.795	386.31
254.028	408.31
254.261	392.31
254.494	394.31
254.727	396.31
254.96	383.31
255.193	389.31
255.426	401.31
255.659	373.31
255.892	386.31
256.124	381.31
256.357	380.31
256.59	416.31
256.823	417.31
257.056	389.31
257.289	400.31
257.521	381.31
257.754	418.31
257.987	402.31
258.22	403.31
258.452	405.31
258.685	401.31
258.918	431.31
259.151	421.31
259.383	438.31
259.616	418.31
259.849	468.31
260.081	485.31
260.314	543.31
260.547	462.31
260.779	459.31
261.012	483.31
261.244	481.31
261.477	502.31
261.71	483.31
261.942	451.31
262.175	442.31
262.407	464.31
262.64	453.31
262.872	453.31
263.105	490.31
263.337	519.31
263.57	497.31
263.802	452.31
264.035	454.31
264.267	474.31
264.499	445.31
264.732	460.31
264.964	461.31
265.197	464.31
265.429	469.31
265.661	465.31
265.894	461.31
266.126	473.31
266.358	474.31
266.591	481.31
266.823	488.31
267.055	482.31
267.287	473.31
267.52	499.31
267.752	452.31
267.984	473.31
268.216	463.31
268.448	491.31
268.681	494.31
268.913	499.31
269.145	509.31
269.377	501.31
269.609	498.31
269.841	484.31
270.073	480.31
270.306	502.31
270.538	511.31
270.77	507.31
271.002	509.31
271.234	502.31
271.466	510.31
271.698	508.31
271.93	528.31
272.162	550.31
272.394	532.31
272.626	544.31
272.858	546.31
273.09	548.31
273.322	542.31
273.553	551.31
273.785	580.31
274.017	607.31
274.249	607.31
274.481	651.31
274.713	684.31
274.945	697.31
275.176	691.31
275.408	658.31
275.64	643.31
275.872	640.31
276.104	610.31
276.335	584.31
276.567	575.31
276.799	572.31
277.031	621.31
277.262	575.31
277.494	593.31
277.726	585.31
277.957	567.31
278.189	561.31
278.421	597.31
278.652	627.31
278.884	599.31
279.115	599.31
279.347	613.31
279.579	610.31
279.81	594.31
280.042	588.31
280.273	617.31
280.505	600.31
280.736	608.31
280.968	602.31
281.199	614.31
281.431	636.31
281.662	617.31
281.894	612.31
282.125	616.31
282.356	617.31
282.588	644.31
282.819	615.31
283.051	640.31
283.282	623.31
283.513	640.31
283.745	637.31
283.976	650.31
284.207	676.31
284.439	669.31
284.67	658.31
284.901	646.31
285.132	681.31
285.364	656.31
285.595	680.31
285.826	662.31
286.057	653.31
286.288	657.31
286.52	660.31
286.751	639.31
286.982	667.31
287.213	650.31
287.444	669.31
287.675	684.31
287.906	669.31
288.138	666.31
288.369	684.31
288.6	693.31
288.831	664.31
289.062	688.31
289.293	683.31
289.524	691.31
289.755	693.31
289.986	684.31
290.217	697.31
290.448	659.31
290.679	685.31
290.91	671.31
291.141	697.31
291.371	698.31
291.602	690.31
291.833	677.31
292.064	694.31
292.295	687.31
292.526	718.31
292.757	687.31
292.987	703.31
293.218	700.31
293.449	695.31
293.68	714.31
293.91	693.31
294.141	691.31
294.372	689.31
294.603	691.31
294.833	699.31
295.064	709.31
295.295	705.31
295.525	711.31
295.756	694.31
295.987	699.31
296.217	711.31
296.448	708.31
296.679	708.31
296.909	738.31
297.14	728.31
297.37	743.31
297.601	761.31
297.831	737.31
298.062	733.31
298.292	721.31
298.523	756.31
298.753	770.31
298.984	760.31
299.214	751.31
299.445	778.31
299.675	751.31
299.905	748.31
300.136	771.31
300.366	776.31
300.597	756.31
300.827	774.31
301.057	785.31
301.288	768.31
301.518	771.31
301.748	785.31
301.979	808.31
302.209	826.31
302.439	805.31
302.669	789.31
302.9	768.31
303.13	769.31
303.36	797.31
303.59	779.31
303.82	808.31
304.051	815.31
304.281	808.31
304.511	785.31
304.741	801.31
304.971	830.31
305.201	786.31
305.431	803.31
305.661	805.31
305.891	779.31
306.121	807.31
306.352	790.31
306.582	782.31
306.812	808.31
307.042	804.31
307.272	817.31
307.502	797.31
307.731	809.31
307.961	817.31
308.191	817.31
308.421	808.31
308.651	822.31
308.881	801.31
309.111	817.31
309.341	801.31
309.571	818.31
309.8	819.31
310.03	811.31
310.26	802.31
310.49	788.31
310.72	813.31
310.949	815.31
311.179	837.31
311.409	832.31
311.639	845.31
311.868	859.31
312.098	848.31
312.328	871.31
312.557	844.31
312.787	861.31
313.017	854.31
313.246	844.31
313.476	845.31
313.706	858.31
313.935	868.31
314.165	883.31
314.394	866.31
314.624	839.31
314.853	852.31
315.083	868.31
315.312	879.31
315.542	883.31
315.771	898.31
316.001	893.31
316.23	873.31
316.46	897.31
316.689	901.31
316.919	903.31
317.148	907.31
317.377	876.31
317.607	895.31
317.836	883.31
318.065	887.31
318.295	910.31
318.524	903.31
318.753	884.31
318.983	897.31
319.212	902.31
319.441	885.31
319.67	911.31
319.9	884.31
320.129	871.31
320.358	895.31
320.587	898.31
320.816	922.31
321.046	900.31
321.275	894.31
321.504	916.31
321.733	910.31
321.962	940.31
322.191	916.31
322.42	916.31
322.649	917.31
322.878	894.31
323.108	929.31
323.337	937.31
323.566	924.31
323.795	940.31
324.024	927.31
324.253	932.31
324.482	922.31
324.71	930.31
324.939	946.31
325.168	957.31
325.397	937.31
325.626	973.31
325.855	932.31
326.084	929.31
326.313	975.31
326.542	945.31
326.77	961.31
326.999	931.31
327.228	974.31
327.457	944.31
327.686	983.31
327.914	984.31
328.143	947.31
328.372	951.31
328.6	966.31
328.829	983.31
329.058	972.31
329.287	963.31
329.515	984.31
329.744	973.31
329.972	979.31
330.201	983.31
330.43	995.31
330.658	1010.31
330.887	1010.31
331.115	979.31
331.344	1012.31
331.572	1025.31
331.801	1015.31
332.03	1025.31
332.258	1009.31
332.486	1031.31
332.715	1047.31
332.943	1074.31
333.172	1090.31
333.4	1097.31
333.629	1091.31
333.857	1111.31
334.085	1124.31
334.314	1121.31
334.542	1116.31
334.771	1130.31
334.999	1114.31
335.227	1130.31
335.455	1168.31
335.684	1124.31
335.912	1155.31
336.14	1120.31
336.369	1143.31
336.597	1109.31
336.825	1117.31
337.053	1100.31
337.281	1093.31
337.51	1115.31
337.738	1113.31
337.966	1091.31
338.194	1103.31
338.422	1097.31
338.65	1095.31
338.878	1082.31
339.106	1079.31
339.334	1052.31
339.562	1036.31
339.79	1063.31
340.018	1063.31
340.246	1036.31
340.474	1020.31
340.702	1037.31
340.93	1052.31
341.158	1028.31
341.386	1029.31
341.614	1046.31
341.842	1042.31
342.07	1038.31
342.298	1059.31
342.526	1031.31
342.754	1035.31
342.981	1035.31
343.209	1052.31
343.437	1063.31
343.665	1093.31
343.893	1124.31
344.12	1146.31
344.348	1125.31
344.576	1085.31
344.804	1091.31
345.031	1064.31
345.259	1050.31
345.487	1033.31
345.714	1009.31
345.942	1031.31
346.17	1046.31
346.397	1013.31
346.625	1038.31
346.853	1028.31
347.08	984.31
347.308	991.31
347.535	1027.31
347.763	991.31
347.99	1012.31
348.218	985.31
348.445	970.31
348.673	988.31
348.9	993.31
349.128	990.31
349.355	1002.31
349.583	1012.31
349.81	999.31
350.037	1004.31
350.265	989.31
350.492	955.31
350.72	991.31
350.947	963.31
351.174	985.31
351.402	988.31
351.629	993.31
351.856	1004.31
352.083	1004.31
352.311	989.31
352.538	985.31
352.765	995.31
352.992	968.31
353.22	963.31
353.447	970.31
353.674	970.31
353.901	969.31
354.128	975.31
354.355	967.31
354.583	958.31
354.81	991.31
355.037	999.31
355.264	967.31
355.491	993.31
355.718	975.31
355.945	1009.31
356.172	1010.31
356.399	1004.31
356.626	993.31
356.853	1005.31
357.08	1019.31
357.307	1012.31
357.534	988.31
357.761	981.31
357.988	986.31
358.215	1029.31
358.441	1027.31
358.668	1002.31
358.895	1025.31
359.122	967.31
359.349	995.31
359.576	989.31
359.802	988.31
360.029	1036.31
360.256	998.31
360.483	1028.31
360.709	970.31
360.936	1017.31
361.163	1033.31
361.39	1000.31
361.616	1001.31
361.843	1026.31
362.07	1031.31
362.296	1009.31
362.523	991.31
362.749	993.31
362.976	1013.31
363.203	1009.31
363.429	1007.31
363.656	1010.31
363.882	1025.31
364.109	1048.31
364.335	1007.31
364.562	1031.31
364.788	1010.31
365.015	1033.31
365.241	1006.31
365.468	1024.31
365.694	1013.31
365.92	1017.31
366.147	1014.31
366.373	1009.31
366.599	1014.31
366.826	1008.31
367.052	1026.31
367.278	1045.31
367.505	1043.31
367.731	1023.31
367.957	1033.31
368.184	1027.31
368.41	1036.31
368.636	1027.31
368.862	1040.31
369.089	1062.31
369.315	1072.31
369.541	1059.31
369.767	1031.31
369.993	1029.31
370.219	1072.31
370.445	1098.31
370.672	1081.31
370.898	1122.31
371.124	1088.31
371.35	1077.31
371.576	1080.31
371.802	1100.31
372.028	1119.31
372.254	1137.31
372.48	1107.31
372.706	1134.31
372.932	1117.31
373.158	1105.31
373.384	1157.31
373.61	1185.31
373.835	1162.31
374.061	1135.31
374.287	1136.31
374.513	1159.31
374.739	1187.31
374.965	1196.31
375.191	1191.31
375.416	1145.31
375.642	1138.31
375.868	1149.31
376.094	1140.31
376.319	1131.31
376.545	1147.31
376.771	1144.31
376.997	1110.31
377.222	1120.31
377.448	1094.31
377.674	1137.31
377.899	1107.31
378.125	1088.31
378.35	1095.31
378.576	1100.31
378.802	1091.31
379.027	1113.31
379.253	1101.31
379.478	1125.31
379.704	1111.31
379.929	1096.31
380.155	1120.31
380.38	1138.31
380.606	1128.31
380.831	1148.31
381.057	1126.31
381.282	1087.31
381.507	1155.31
381.733	1149.31
381.958	1161.31
382.184	1186.31
382.409	1165.31
382.634	1179.31
382.86	1159.31
383.085	1164.31
383.31	1213.31
383.535	1215.31
383.761	1195.31
383.986	1225.31
384.211	1238.31
384.436	1221.31
384.662	1247.31
384.887	1238.31
385.112	1217.31
385.337	1251.31
385.562	1257.31
385.787	1221.31
386.013	1254.31
386.238	1302.31
386.463	1279.31
386.688	1265.31
386.913	1275.31
387.138	1303.31
387.363	1285.31
387.588	1288.31
387.813	1292.31
388.038	1296.31
388.263	1297.31
388.488	1290.31
388.713	1345.31
388.938	1330.31
389.163	1325.31
389.387	1295.31
389.612	1297.31
389.837	1330.31
390.062	1319.31
390.287	1313.31
390.512	1298.31
390.736	1301.31
390.961	1357.31
391.186	1327.31
391.411	1377.31
391.636	1373.31
391.86	1360.31
392.085	1365.31
392.31	1361.31
392.534	1383.31
392.759	1387.31
392.984	1382.31
393.208	1399.31
393.433	1384.31
393.658	1397.31
393.882	1371.31
394.107	1366.31
394.331	1379.31
394.556	1392.31
394.78	1366.31
395.005	1380.31
395.229	1401.31
395.454	1425.31
395.678	1396.31
395.903	1368.31
396.127	1407.31
396.352	1415.31
396.576	1452.31
396.801	1429.31
397.025	1443.31
397.249	1448.31
397.474	1473.31
397.698	1475.31
397.922	1472.31
398.147	1497.31
398.371	1490.31
398.595	1473.31
398.82	1559.31
399.044	1628.31
399.268	1695.31
399.492	1755.31
399.717	1813.31
399.941	1811.31
400.165	1823.31
400.389	1763.31
400.613	1699.31
400.837	1676.31
401.062	1659.31
401.286	1617.31
401.51	1580.31
401.734	1602.31
401.958	1556.31
402.182	1604.31
402.406	1567.31
402.63	1581.31
402.854	1559.31
403.078	1560.31
403.302	1592.31
403.526	1555.31
403.75	1606.31
403.974	1601.31
404.198	1596.31
404.422	1604.31
404.645	1612.31
404.869	1653.31
405.093	1652.31
405.317	1594.31
405.541	1579.31
405.765	1613.31
405.988	1647.31
406.212	1681.31
406.436	1706.31
406.66	1683.31
406.883	1714.31
407.107	1782.31
407.331	1762.31
407.555	1826.31
407.778	1788.31
408.002	1756.31
408.226	1806.31
408.449	1820.31
408.673	1755.31
408.896	1752.31
409.12	1720.31
409.344	1724.31
409.567	1692.31
409.791	1717.31
410.014	1665.31
410.238	1689.31
410.461	1682.31
410.685	1692.31
410.908	1660.31
411.132	1618.31
411.355	1571.31
411.578	1602.31
411.802	1619.31
412.025	1624.31
412.249	1608.31
412.472	1665.31
412.695	1635.31
412.919	1614.31
413.142	1587.31
413.365	1613.31
413.589	1625.31
413.812	1587.31
414.035	1599.31
414.258	1586.31
414.482	1609.31
414.705	1541.31
414.928	1599.31
415.151	1533.31
415.374	1604.31
415.597	1539.31
415.821	1521.31
416.044	1525.31
416.267	1521.31
416.49	1500.31
416.713	1498.31
416.936	1512.31
417.159	1497.31
417.382	1508.31
417.605	1516.31
417.828	1477.31
418.051	1495.31
418.274	1513.31
418.497	1508.31
418.72	1493.31
418.943	1471.31
419.166	1587.31
419.389	1660.31
419.611	1666.31
419.834	1614.31
420.057	1585.31
420.28	1508.31
420.503	1476.31
420.726	1473.31
420.948	1464.31
421.171	1482.31
421.394	1451.31
421.617	1463.31
421.839	1494.31
422.062	1501.31
422.285	1459.31
422.507	1493.31
422.73	1471.31
422.953	1521.31
423.175	1504.31
423.398	1492.31
423.621	1507.31
423.843	1497.31
424.066	1498.31
424.288	1477.31
424.511	1474.31
424.733	1485.31
424.956	1459.31
425.178	1498.31
425.401	1480.31
425.623	1525.31
425.846	1422.31
426.068	1469.31
426.291	1482.31
426.513	1456.31
426.735	1438.31
426.958	1498.31
427.18	1406.31
427.402	1465.31
427.625	1438.31
427.847	1394.31
428.069	1438.31
428.292	1434.31
428.514	1397.31
428.736	1410.31
428.958	1431.31
429.181	1397.31
429.403	1417.31
429.625	1417.31
429.847	1380.31
430.069	1424.31
430.292	1421.31
430.514	1379.31
430.736	1403.31
430.958	1439.31
431.18	1436.31
431.402	1425.31
431.624	1393.31
431.846	1443.31
432.068	1380.31
432.29	1436.31
432.512	1421.31
432.734	1474.31
432.956	1418.31
433.178	1471.31
433.4	1419.31
433.622	1453.31
433.844	1439.31
434.066	1435.31
434.287	1453.31
434.509	1456.31
434.731	1468.31
434.953	1479.31
435.175	1492.31
435.397	1512.31
435.618	1477.31
435.84	1416.31
436.062	1416.31
436.284	1449.31
436.505	1376.31
436.727	1437.31
436.949	1368.31
437.17	1359.31
437.392	1385.31
437.614	1384.31
437.835	1357.31
438.057	1362.31
438.278	1376.31
438.5	1405.31
438.721	1419.31
438.943	1392.31
439.165	1380.31
439.386	1376.31
439.608	1402.31
439.829	1395.31
440.05	1400.31
440.272	1428.31
440.493	1387.31
440.715	1415.31
440.936	1401.31
441.158	1428.31
441.379	1450.31
441.6	1502.31
441.822	1469.31
442.043	1470.31
442.264	1448.31
442.486	1464.31
442.707	1437.31
442.928	1476.31
443.149	1487.31
443.371	1472.31
443.592	1473.31
443.813	1486.31
444.034	1461.31
444.255	1539.31
444.476	1529.31
444.698	1558.31
444.919	1584.31
445.14	1620.31
445.361	1547.31
445.582	1510.31
445.803	1493.31
446.024	1441.31
446.245	1459.31
446.466	1428.31
446.687	1421.31
446.908	1425.31
447.129	1371.31
447.35	1443.31
447.571	1381.31
447.792	1353.31
448.013	1371.31
448.234	1315.31
448.455	1272.31
448.675	1313.31
448.896	1347.31
449.117	1299.31
449.338	1336.31
449.559	1305.31
449.779	1282.31
450	1305.31
450.221	1301.31
450.442	1305.31
450.662	1282.31
450.883	1280.31
451.104	1302.31
451.324	1278.31
451.545	1276.31
451.766	1288.31
451.986	1259.31
452.207	1262.31
452.428	1274.31
452.648	1276.31
452.869	1239.31
453.089	1223.31
453.31	1224.31
453.53	1229.31
453.751	1224.31
453.971	1220.31
454.192	1257.31
454.412	1254.31
454.633	1240.31
454.853	1232.31
455.073	1231.31
455.294	1273.31
455.514	1242.31
455.734	1229.31
455.955	1179.31
456.175	1250.31
456.395	1237.31
456.616	1255.31
456.836	1234.31
457.056	1250.31
457.276	1233.31
457.497	1267.31
457.717	1238.31
457.937	1245.31
458.157	1290.31
458.377	1313.31
458.598	1270.31
458.818	1321.31
459.038	1304.31
459.258	1324.31
459.478	1405.31
459.698	1405.31
459.918	1429.31
460.138	1469.31
460.358	1446.31
460.578	1499.31
460.798	1535.31
461.018	1523.31
461.238	1529.31
461.458	1520.31
461.678	1536.31
461.898	1575.31
462.118	1560.31
462.338	1634.31
462.558	1658.31
462.777	1621.31
462.997	1706.31
463.217	1697.31
463.437	1760.31
463.657	1715.31
463.876	1668.31
464.096	1675.31
464.316	1660.31
464.536	1644.31
464.755	1634.31
464.975	1622.31
465.195	1594.31
465.414	1539.31
465.634	1448.31
465.854	1462.31
466.073	1470.31
466.293	1437.31
466.512	1425.31
466.732	1404.31
466.951	1416.31
467.171	1397.31
467.391	1367.31
467.61	1360.31
467.829	1334.31
468.049	1360.31
468.268	1318.31
468.488	1351.31
468.707	1349.31
468.927	1356.31
469.146	1379.31
469.365	1383.31
469.585	1358.31
469.804	1379.31
470.023	1374.31
470.243	1363.31
470.462	1393.31
470.681	1379.31
470.901	1396.31
471.12	1398.31
471.339	1392.31
471.558	1385.31
471.777	1344.31
471.997	1365.31
472.216	1391.31
472.435	1379.31
472.654	1357.31
472.873	1383.31
473.092	1352.31
473.311	1378.31
473.53	1384.31
473.749	1356.31
473.968	1384.31
474.187	1366.31
474.406	1355.31
474.625	1357.31
474.844	1350.31
475.063	1398.31
475.282	1395.31
475.501	1400.31
475.72	1415.31
475.939	1409.31
476.158	1437.31
476.377	1439.31
476.596	1477.31
476.814	1524.31
477.033	1469.31
477.252	1501.31
477.471	1502.31
477.69	1527.31
477.908	1565.31
478.127	1557.31
478.346	1547.31
478.564	1547.31
478.783	1568.31
479.002	1622.31
479.22	1631.31
479.439	1688.31
479.658	1649.31
479.876	1676.31
480.095	1671.31
480.313	1655.31
480.532	1696.31
480.751	1643.31
480.969	1639.31
481.188	1672.31
481.406	1665.31
481.624	1622.31
481.843	1614.31
482.061	1631.31
482.28	1660.31
482.498	1659.31
482.717	1605.31
482.935	1649.31
483.153	1618.31
483.372	1637.31
483.59	1599.31
483.808	1612.31
484.027	1649.31
484.245	1626.31
484.463	1629.31
484.681	1662.31
484.9	1632.31
485.118	1656.31
485.336	1631.31
485.554	1693.31
485.772	1658.31
485.99	1648.31
486.209	1645.31
486.427	1647.31
486.645	1671.31
486.863	1682.31
487.081	1652.31
487.299	1652.31
487.517	1653.31
487.735	1636.31
487.953	1636.31
488.171	1718.31
488.389	1676.31
488.607	1656.31
488.825	1669.31
489.043	1648.31
489.261	1667.31
489.479	1653.31
489.696	1645.31
489.914	1637.31
490.132	1616.31
490.35	1691.31
490.568	1679.31
490.786	1659.31
491.003	1657.31
491.221	1715.31
491.439	1705.31
491.657	1674.31
491.874	1701.31
492.092	1686.31
492.31	1706.31
