Data from Fe(NO3)3@0.025M.TitratingCurve.Agarose3%dH2O.NegLispCup.LampEnergy10.LIBS07252019_HRD10591_16-55-15-335.txt Node
Date: Thu Jul 25 16:55:15 EDT 2019
User: cochatt
Spectrometer: HR+D1059
Trigger mode: 1
Integration Time (sec): 1.000000E-1
Scans to average: 1
Electric dark correction enabled: true
Nonlinearity correction enabled: false
Boxcar width: 0
XAxis mode: Wavelengths
Number of Pixels in Spectrum: 2048
>>>>>Begin Spectral Data<<<<<
223.165	-20.25
223.4	-20.25
223.635	-20.25
223.869	-24.25
224.104	-20.25
224.338	-11.25
224.573	-19.25
224.808	-11.25
225.042	0.75
225.277	-12.25
225.511	-4.25
225.746	-0.25
225.98	12.75
226.215	8.75
226.449	18.75
226.683	17.75
226.918	27.75
227.152	36.75
227.387	34.75
227.621	44.75
227.856	54.75
228.09	52.75
228.324	44.75
228.559	64.75
228.793	64.75
229.027	72.75
229.262	81.75
229.496	79.75
229.73	84.75
229.964	100.75
230.199	83.75
230.433	70.75
230.667	83.75
230.901	91.75
231.136	97.75
231.37	100.75
231.604	90.75
231.838	96.75
232.072	84.75
232.306	85.75
232.541	85.75
232.775	82.75
233.009	89.75
233.243	85.75
233.477	98.75
233.711	96.75
233.945	96.75
234.179	90.75
234.413	81.75
234.647	96.75
234.881	102.75
235.115	112.75
235.349	97.75
235.583	89.75
235.817	89.75
236.051	97.75
236.285	105.75
236.519	91.75
236.753	102.75
236.987	100.75
237.221	90.75
237.455	88.75
237.689	94.75
237.922	94.75
238.156	92.75
238.39	88.75
238.624	99.75
238.858	103.75
239.091	89.75
239.325	93.75
239.559	95.75
239.793	87.75
240.027	87.75
240.26	86.75
240.494	97.75
240.728	105.75
240.961	108.75
241.195	103.75
241.429	104.75
241.662	103.75
241.896	104.75
242.13	100.75
242.363	110.75
242.597	89.75
242.83	112.75
243.064	101.75
243.298	107.75
243.531	103.75
243.765	109.75
243.998	101.75
244.232	110.75
244.465	90.75
244.699	100.75
244.932	100.75
245.166	118.75
245.399	116.75
245.633	97.75
245.866	104.75
246.099	97.75
246.333	108.75
246.566	112.75
246.8	103.75
247.033	120.75
247.266	99.75
247.5	122.75
247.733	117.75
247.966	109.75
248.2	120.75
248.433	108.75
248.666	102.75
248.899	102.75
249.133	107.75
249.366	111.75
249.599	127.75
249.832	108.75
250.066	117.75
250.299	112.75
250.532	108.75
250.765	114.75
250.998	112.75
251.231	101.75
251.465	118.75
251.698	114.75
251.931	133.75
252.164	114.75
252.397	110.75
252.63	108.75
252.863	121.75
253.096	140.75
253.329	126.75
253.562	114.75
253.795	140.75
254.028	132.75
254.261	126.75
254.494	122.75
254.727	118.75
254.96	127.75
255.193	123.75
255.426	110.75
255.659	116.75
255.892	124.75
256.124	117.75
256.357	132.75
256.59	139.75
256.823	138.75
257.056	124.75
257.289	130.75
257.521	134.75
257.754	136.75
257.987	127.75
258.22	124.75
258.452	132.75
258.685	130.75
258.918	112.75
259.151	126.75
259.383	132.75
259.616	126.75
259.849	132.75
260.081	132.75
260.314	142.75
260.547	149.75
260.779	140.75
261.012	133.75
261.244	129.75
261.477	142.75
261.71	140.75
261.942	130.75
262.175	142.75
262.407	152.75
262.64	146.75
262.872	139.75
263.105	140.75
263.337	145.75
263.57	128.75
263.802	132.75
264.035	145.75
264.267	153.75
264.499	154.75
264.732	146.75
264.964	125.75
265.197	134.75
265.429	147.75
265.661	149.75
265.894	157.75
266.126	166.75
266.358	130.75
266.591	139.75
266.823	137.75
267.055	132.75
267.287	148.75
267.52	135.75
267.752	142.75
267.984	136.75
268.216	163.75
268.448	132.75
268.681	157.75
268.913	153.75
269.145	141.75
269.377	161.75
269.609	146.75
269.841	163.75
270.073	158.75
270.306	150.75
270.538	145.75
270.77	153.75
271.002	155.75
271.234	152.75
271.466	146.75
271.698	160.75
271.93	169.75
272.162	158.75
272.394	162.75
272.626	150.75
272.858	160.75
273.09	160.75
273.322	151.75
273.553	144.75
273.785	160.75
274.017	165.75
274.249	149.75
274.481	155.75
274.713	162.75
274.945	160.75
275.176	181.75
275.408	160.75
275.64	166.75
275.872	174.75
276.104	169.75
276.335	166.75
276.567	165.75
276.799	179.75
277.031	180.75
277.262	163.75
277.494	163.75
277.726	180.75
277.957	171.75
278.189	168.75
278.421	157.75
278.652	157.75
278.884	174.75
279.115	174.75
279.347	169.75
279.579	178.75
279.81	170.75
280.042	161.75
280.273	178.75
280.505	166.75
280.736	178.75
280.968	180.75
281.199	177.75
281.431	176.75
281.662	181.75
281.894	181.75
282.125	180.75
282.356	173.75
282.588	169.75
282.819	209.75
283.051	185.75
283.282	179.75
283.513	189.75
283.745	194.75
283.976	166.75
284.207	203.75
284.439	190.75
284.67	194.75
284.901	180.75
285.132	182.75
285.364	169.75
285.595	186.75
285.826	203.75
286.057	205.75
286.288	189.75
286.52	173.75
286.751	187.75
286.982	186.75
287.213	192.75
287.444	187.75
287.675	205.75
287.906	211.75
288.138	200.75
288.369	200.75
288.6	206.75
288.831	204.75
289.062	197.75
289.293	210.75
289.524	188.75
289.755	186.75
289.986	181.75
290.217	199.75
290.448	189.75
290.679	196.75
290.91	180.75
291.141	197.75
291.371	195.75
291.602	213.75
291.833	197.75
292.064	213.75
292.295	209.75
292.526	215.75
292.757	196.75
292.987	192.75
293.218	210.75
293.449	202.75
293.68	213.75
293.91	200.75
294.141	194.75
294.372	201.75
294.603	184.75
294.833	207.75
295.064	203.75
295.295	212.75
295.525	194.75
295.756	189.75
295.987	205.75
296.217	205.75
296.448	218.75
296.679	211.75
296.909	201.75
297.14	207.75
297.37	216.75
297.601	202.75
297.831	205.75
298.062	218.75
298.292	193.75
298.523	216.75
298.753	214.75
298.984	206.75
299.214	199.75
299.445	225.75
299.675	215.75
299.905	214.75
300.136	218.75
300.366	213.75
300.597	216.75
300.827	214.75
301.057	241.75
301.288	223.75
301.518	212.75
301.748	222.75
301.979	212.75
302.209	221.75
302.439	222.75
302.669	224.75
302.9	246.75
303.13	218.75
303.36	222.75
303.59	228.75
303.82	233.75
304.051	252.75
304.281	235.75
304.511	233.75
304.741	218.75
304.971	216.75
305.201	228.75
305.431	237.75
305.661	251.75
305.891	232.75
306.121	222.75
306.352	214.75
306.582	239.75
306.812	244.75
307.042	216.75
307.272	222.75
307.502	226.75
307.731	231.75
307.961	240.75
308.191	206.75
308.421	220.75
308.651	227.75
308.881	242.75
309.111	235.75
309.341	229.75
309.571	226.75
309.8	229.75
310.03	241.75
310.26	229.75
310.49	224.75
310.72	201.75
310.949	233.75
311.179	245.75
311.409	234.75
311.639	223.75
311.868	241.75
312.098	244.75
312.328	262.75
312.557	247.75
312.787	234.75
313.017	264.75
313.246	252.75
313.476	247.75
313.706	251.75
313.935	247.75
314.165	259.75
314.394	243.75
314.624	242.75
314.853	262.75
315.083	246.75
315.312	245.75
315.542	237.75
315.771	231.75
316.001	238.75
316.23	246.75
316.46	246.75
316.689	260.75
316.919	242.75
317.148	250.75
317.377	260.75
317.607	244.75
317.836	264.75
318.065	243.75
318.295	252.75
318.524	246.75
318.753	246.75
318.983	231.75
319.212	259.75
319.441	244.75
319.67	254.75
319.9	262.75
320.129	236.75
320.358	237.75
320.587	264.75
320.816	240.75
321.046	234.75
321.275	242.75
321.504	246.75
321.733	248.75
321.962	257.75
322.191	262.75
322.42	269.75
322.649	265.75
322.878	269.75
323.108	267.75
323.337	258.75
323.566	247.75
323.795	268.75
324.024	261.75
324.253	282.75
324.482	258.75
324.71	262.75
324.939	265.75
325.168	259.75
325.397	262.75
325.626	267.75
325.855	276.75
326.084	268.75
326.313	251.75
326.542	265.75
326.77	266.75
326.999	268.75
327.228	267.75
327.457	271.75
327.686	262.75
327.914	275.75
328.143	270.75
328.372	284.75
328.6	269.75
328.829	274.75
329.058	278.75
329.287	270.75
329.515	280.75
329.744	296.75
329.972	270.75
330.201	275.75
330.43	262.75
330.658	284.75
330.887	276.75
331.115	284.75
331.344	281.75
331.572	300.75
331.801	306.75
332.03	277.75
332.258	301.75
332.486	286.75
332.715	305.75
332.943	312.75
333.172	319.75
333.4	314.75
333.629	308.75
333.857	330.75
334.085	325.75
334.314	336.75
334.542	330.75
334.771	328.75
334.999	314.75
335.227	343.75
335.455	322.75
335.684	328.75
335.912	331.75
336.14	328.75
336.369	320.75
336.597	302.75
336.825	306.75
337.053	316.75
337.281	306.75
337.51	310.75
337.738	316.75
337.966	315.75
338.194	319.75
338.422	283.75
338.65	293.75
338.878	297.75
339.106	284.75
339.334	297.75
339.562	304.75
339.79	280.75
340.018	298.75
340.246	315.75
340.474	308.75
340.702	306.75
340.93	291.75
341.158	300.75
341.386	294.75
341.614	304.75
341.842	282.75
342.07	304.75
342.298	293.75
342.526	296.75
342.754	318.75
342.981	290.75
343.209	292.75
343.437	315.75
343.665	313.75
343.893	332.75
344.12	320.75
344.348	323.75
344.576	317.75
344.804	313.75
345.031	310.75
345.259	298.75
345.487	296.75
345.714	295.75
345.942	311.75
346.17	296.75
346.397	301.75
346.625	298.75
346.853	301.75
347.08	290.75
347.308	283.75
347.535	287.75
347.763	298.75
347.99	298.75
348.218	296.75
348.445	280.75
348.673	294.75
348.9	286.75
349.128	292.75
349.355	272.75
349.583	266.75
349.81	294.75
350.037	287.75
350.265	304.75
350.492	294.75
350.72	278.75
350.947	254.75
351.174	284.75
351.402	283.75
351.629	286.75
351.856	268.75
352.083	274.75
352.311	290.75
352.538	280.75
352.765	301.75
352.992	294.75
353.22	286.75
353.447	276.75
353.674	276.75
353.901	297.75
354.128	291.75
354.355	281.75
354.583	274.75
354.81	287.75
355.037	270.75
355.264	283.75
355.491	296.75
355.718	295.75
355.945	299.75
356.172	277.75
356.399	287.75
356.626	297.75
356.853	301.75
357.08	296.75
357.307	300.75
357.534	288.75
357.761	299.75
357.988	272.75
358.215	289.75
358.441	277.75
358.668	288.75
358.895	284.75
359.122	282.75
359.349	296.75
359.576	282.75
359.802	297.75
360.029	296.75
360.256	288.75
360.483	282.75
360.709	280.75
360.936	298.75
361.163	290.75
361.39	288.75
361.616	289.75
361.843	288.75
362.07	298.75
362.296	304.75
362.523	297.75
362.749	282.75
362.976	292.75
363.203	292.75
363.429	279.75
363.656	275.75
363.882	313.75
364.109	276.75
364.335	292.75
364.562	280.75
364.788	283.75
365.015	291.75
365.241	296.75
365.468	288.75
365.694	287.75
365.92	296.75
366.147	290.75
366.373	324.75
366.599	292.75
366.826	285.75
367.052	276.75
367.278	295.75
367.505	297.75
367.731	297.75
367.957	310.75
368.184	309.75
368.41	308.75
368.636	294.75
368.862	289.75
369.089	326.75
369.315	289.75
369.541	306.75
369.767	293.75
369.993	294.75
370.219	301.75
370.445	299.75
370.672	327.75
370.898	320.75
371.124	304.75
371.35	285.75
371.576	310.75
371.802	311.75
372.028	313.75
372.254	311.75
372.48	320.75
372.706	317.75
372.932	311.75
373.158	311.75
373.384	320.75
373.61	324.75
373.835	321.75
374.061	317.75
374.287	301.75
374.513	329.75
374.739	321.75
374.965	330.75
375.191	328.75
375.416	346.75
375.642	315.75
375.868	330.75
376.094	340.75
376.319	317.75
376.545	304.75
376.771	314.75
376.997	307.75
377.222	318.75
377.448	304.75
377.674	304.75
377.899	315.75
378.125	317.75
378.35	316.75
378.576	310.75
378.802	306.75
379.027	309.75
379.253	301.75
379.478	311.75
379.704	313.75
379.929	316.75
380.155	316.75
380.38	307.75
380.606	328.75
380.831	305.75
381.057	317.75
381.282	313.75
381.507	332.75
381.733	320.75
381.958	327.75
382.184	338.75
382.409	317.75
382.634	313.75
382.86	330.75
383.085	311.75
383.31	326.75
383.535	344.75
383.761	340.75
383.986	351.75
384.211	341.75
384.436	348.75
384.662	350.75
384.887	349.75
385.112	336.75
385.337	355.75
385.562	355.75
385.787	374.75
386.013	374.75
386.238	385.75
386.463	361.75
386.688	360.75
386.913	356.75
387.138	376.75
387.363	354.75
387.588	344.75
387.813	380.75
388.038	378.75
388.263	348.75
388.488	374.75
388.713	363.75
388.938	372.75
389.163	359.75
389.387	363.75
389.612	377.75
389.837	364.75
390.062	353.75
390.287	370.75
390.512	338.75
390.736	377.75
390.961	388.75
391.186	392.75
391.411	395.75
391.636	374.75
391.86	393.75
392.085	389.75
392.31	389.75
392.534	382.75
392.759	378.75
392.984	374.75
393.208	388.75
393.433	393.75
393.658	384.75
393.882	390.75
394.107	394.75
394.331	385.75
394.556	387.75
394.78	388.75
395.005	400.75
395.229	389.75
395.454	394.75
395.678	393.75
395.903	403.75
396.127	390.75
396.352	371.75
396.576	407.75
396.801	392.75
397.025	404.75
397.249	387.75
397.474	417.75
397.698	394.75
397.922	416.75
398.147	419.75
398.371	412.75
398.595	432.75
398.82	421.75
399.044	467.75
399.268	490.75
399.492	526.75
399.717	569.75
399.941	553.75
400.165	518.75
400.389	496.75
400.613	464.75
400.837	445.75
401.062	445.75
401.286	450.75
401.51	452.75
401.734	428.75
401.958	468.75
402.182	451.75
402.406	444.75
402.63	438.75
402.854	456.75
403.078	434.75
403.302	453.75
403.526	461.75
403.75	466.75
403.974	460.75
404.198	442.75
404.422	471.75
404.645	459.75
404.869	469.75
405.093	466.75
405.317	458.75
405.541	462.75
405.765	457.75
405.988	464.75
406.212	483.75
406.436	465.75
406.66	478.75
406.883	464.75
407.107	506.75
407.331	506.75
407.555	527.75
407.778	516.75
408.002	511.75
408.226	500.75
408.449	496.75
408.673	472.75
408.896	498.75
409.12	480.75
409.344	507.75
409.567	480.75
409.791	476.75
410.014	470.75
410.238	446.75
410.461	457.75
410.685	442.75
410.908	428.75
411.132	437.75
411.355	461.75
411.578	453.75
411.802	459.75
412.025	441.75
412.249	449.75
412.472	446.75
412.695	464.75
412.919	422.75
413.142	438.75
413.365	428.75
413.589	435.75
413.812	423.75
414.035	435.75
414.258	412.75
414.482	434.75
414.705	442.75
414.928	412.75
415.151	446.75
415.374	429.75
415.597	416.75
415.821	429.75
416.044	418.75
416.267	429.75
416.49	413.75
416.713	411.75
416.936	425.75
417.159	414.75
417.382	427.75
417.605	429.75
417.828	441.75
418.051	412.75
418.274	421.75
418.497	446.75
418.72	406.75
418.943	408.75
419.166	440.75
419.389	459.75
419.611	465.75
419.834	432.75
420.057	436.75
420.28	409.75
420.503	409.75
420.726	405.75
420.948	427.75
421.171	402.75
421.394	435.75
421.617	407.75
421.839	404.75
422.062	414.75
422.285	409.75
422.507	416.75
422.73	427.75
422.953	434.75
423.175	404.75
423.398	423.75
423.621	404.75
423.843	421.75
424.066	436.75
424.288	422.75
424.511	423.75
424.733	412.75
424.956	412.75
425.178	427.75
425.401	419.75
425.623	426.75
425.846	382.75
426.068	402.75
426.291	415.75
426.513	398.75
426.735	405.75
426.958	419.75
427.18	392.75
427.402	393.75
427.625	389.75
427.847	390.75
428.069	405.75
428.292	413.75
428.514	392.75
428.736	384.75
428.958	382.75
429.181	413.75
429.403	383.75
429.625	393.75
429.847	378.75
430.069	393.75
430.292	393.75
430.514	401.75
430.736	389.75
430.958	386.75
431.18	377.75
431.402	373.75
431.624	379.75
431.846	372.75
432.068	383.75
432.29	381.75
432.512	390.75
432.734	395.75
432.956	373.75
433.178	397.75
433.4	368.75
433.622	402.75
433.844	404.75
434.066	390.75
434.287	413.75
434.509	398.75
434.731	401.75
434.953	395.75
435.175	424.75
435.397	412.75
435.618	408.75
435.84	402.75
436.062	377.75
436.284	362.75
436.505	395.75
436.727	398.75
436.949	375.75
437.17	397.75
437.392	367.75
437.614	362.75
437.835	366.75
438.057	375.75
438.278	377.75
438.5	406.75
438.721	369.75
438.943	380.75
439.165	387.75
439.386	388.75
439.608	372.75
439.829	388.75
440.05	385.75
440.272	397.75
440.493	408.75
440.715	384.75
440.936	375.75
441.158	388.75
441.379	411.75
441.6	404.75
441.822	406.75
442.043	421.75
442.264	438.75
442.486	402.75
442.707	412.75
442.928	401.75
443.149	412.75
443.371	437.75
443.592	409.75
443.813	406.75
444.034	420.75
444.255	423.75
444.476	425.75
444.698	450.75
444.919	469.75
445.14	538.75
445.361	477.75
445.582	420.75
445.803	402.75
446.024	422.75
446.245	415.75
446.466	408.75
446.687	392.75
446.908	383.75
447.129	374.75
447.35	364.75
447.571	384.75
447.792	367.75
448.013	368.75
448.234	379.75
448.455	358.75
448.675	378.75
448.896	360.75
449.117	366.75
449.338	337.75
449.559	330.75
449.779	355.75
450	367.75
450.221	364.75
450.442	357.75
450.662	379.75
450.883	353.75
451.104	349.75
451.324	357.75
451.545	362.75
451.766	365.75
451.986	365.75
452.207	369.75
452.428	348.75
452.648	330.75
452.869	337.75
453.089	352.75
453.31	358.75
453.53	333.75
453.751	355.75
453.971	365.75
454.192	363.75
454.412	350.75
454.633	333.75
454.853	362.75
455.073	358.75
455.294	343.75
455.514	348.75
455.734	345.75
455.955	342.75
456.175	325.75
456.395	341.75
456.616	337.75
456.836	349.75
457.056	345.75
457.276	330.75
457.497	349.75
457.717	346.75
457.937	353.75
458.157	350.75
458.377	360.75
458.598	362.75
458.818	370.75
459.038	386.75
459.258	384.75
459.478	376.75
459.698	406.75
459.918	380.75
460.138	410.75
460.358	432.75
460.578	408.75
460.798	429.75
461.018	428.75
461.238	450.75
461.458	432.75
461.678	446.75
461.898	449.75
462.118	445.75
462.338	468.75
462.558	474.75
462.777	486.75
462.997	490.75
463.217	490.75
463.437	536.75
463.657	511.75
463.876	482.75
464.096	473.75
464.316	483.75
464.536	504.75
464.755	498.75
464.975	471.75
465.195	444.75
465.414	438.75
465.634	402.75
465.854	392.75
466.073	398.75
466.293	404.75
466.512	397.75
466.732	388.75
466.951	388.75
467.171	387.75
467.391	373.75
467.61	385.75
467.829	382.75
468.049	363.75
468.268	365.75
468.488	372.75
468.707	377.75
468.927	374.75
469.146	370.75
469.365	395.75
469.585	390.75
469.804	373.75
470.023	376.75
470.243	376.75
470.462	378.75
470.681	389.75
470.901	387.75
471.12	388.75
471.339	372.75
471.558	398.75
471.777	386.75
471.997	377.75
472.216	380.75
472.435	386.75
472.654	346.75
472.873	354.75
473.092	370.75
473.311	374.75
473.53	374.75
473.749	362.75
473.968	356.75
474.187	346.75
474.406	377.75
474.625	377.75
474.844	376.75
475.063	369.75
475.282	368.75
475.501	381.75
475.72	352.75
475.939	387.75
476.158	382.75
476.377	376.75
476.596	365.75
476.814	384.75
477.033	407.75
477.252	389.75
477.471	394.75
477.69	417.75
477.908	418.75
478.127	427.75
478.346	418.75
478.564	420.75
478.783	438.75
479.002	433.75
479.22	433.75
479.439	440.75
479.658	426.75
479.876	442.75
480.095	442.75
480.313	460.75
480.532	430.75
480.751	448.75
480.969	460.75
481.188	457.75
481.406	443.75
481.624	450.75
481.843	426.75
482.061	448.75
482.28	425.75
482.498	422.75
482.717	420.75
482.935	438.75
483.153	426.75
483.372	400.75
483.59	424.75
483.808	407.75
484.027	438.75
484.245	426.75
484.463	436.75
484.681	429.75
484.9	426.75
485.118	418.75
485.336	430.75
485.554	434.75
485.772	439.75
485.99	434.75
486.209	445.75
486.427	443.75
486.645	438.75
486.863	428.75
487.081	436.75
487.299	426.75
487.517	444.75
487.735	443.75
487.953	458.75
488.171	449.75
488.389	451.75
488.607	424.75
488.825	440.75
489.043	429.75
489.261	456.75
489.479	426.75
489.696	438.75
489.914	438.75
490.132	437.75
490.35	445.75
490.568	440.75
490.786	439.75
491.003	443.75
491.221	452.75
491.439	446.75
491.657	455.75
491.874	450.75
492.092	436.75
492.31	474.75
492.527	456.75
492.745	451.75
492.963	456.75
493.18	444.75
493.398	484.75
493.615	434.75
493.833	446.75
494.05	470.75
494.268	453.75
494.485	464.75
494.703	484.75
494.92	466.75
495.138	479.75
495.355	458.75
495.573	469.75
495.79	491.75
496.008	493.75
496.225	484.75
496.442	504.75
496.66	496.75
496.877	496.75
497.094	509.75
497.312	507.75
497.529	527.75
497.746	560.75
497.963	543.75
498.181	565.75
498.398	586.75
498.615	607.75
498.832	626.75
499.049	664.75
499.267	700.75
499.484	749.75
499.701	787.75
499.918	842.75
500.135	896.75
500.352	949.75
500.569	933.75
500.786	963.75
501.003	908.75
501.22	837.75
501.437	801.75
501.654	741.75
501.871	720.75
502.088	676.75
