Data from Fe(NO3)3@0.1M.TitratingCurve.Agarose3%dH2O.NegLispCup.LampEnergy10.LIBS07252019_HRD10591_16-39-23-333.txt Node
Date: Thu Jul 25 16:39:23 EDT 2019
User: cochatt
Spectrometer: HR+D1059
Trigger mode: 1
Integration Time (sec): 1.000000E-1
Scans to average: 1
Electric dark correction enabled: true
Nonlinearity correction enabled: false
Boxcar width: 0
XAxis mode: Wavelengths
Number of Pixels in Spectrum: 2048
>>>>>Begin Spectral Data<<<<<
223.165	-16.88
223.4	-16.88
223.635	-16.88
223.869	-12.88
224.104	-24.88
224.338	-10.88
224.573	-13.88
224.808	-24.88
225.042	4.12
225.277	-2.88
225.511	-6.88
225.746	0.12
225.98	9.12
226.215	8.12
226.449	16.12
226.683	11.12
226.918	37.12
227.152	28.12
227.387	18.12
227.621	38.12
227.856	49.12
228.09	42.12
228.324	44.12
228.559	62.12
228.793	55.12
229.027	55.12
229.262	74.12
229.496	74.12
229.73	64.12
229.964	64.12
230.199	84.12
230.433	90.12
230.667	83.12
230.901	80.12
231.136	91.12
231.37	89.12
231.604	95.12
231.838	89.12
232.072	73.12
232.306	89.12
232.541	93.12
232.775	92.12
233.009	87.12
233.243	83.12
233.477	103.12
233.711	92.12
233.945	84.12
234.179	92.12
234.413	96.12
234.647	79.12
234.881	89.12
235.115	102.12
235.349	81.12
235.583	96.12
235.817	85.12
236.051	93.12
236.285	87.12
236.519	98.12
236.753	95.12
236.987	81.12
237.221	87.12
237.455	100.12
237.689	91.12
237.922	87.12
238.156	79.12
238.39	87.12
238.624	70.12
238.858	90.12
239.091	90.12
239.325	84.12
239.559	80.12
239.793	89.12
240.027	98.12
240.26	101.12
240.494	99.12
240.728	91.12
240.961	91.12
241.195	91.12
241.429	86.12
241.662	105.12
241.896	81.12
242.13	101.12
242.363	105.12
242.597	103.12
242.83	98.12
243.064	91.12
243.298	106.12
243.531	96.12
243.765	94.12
243.998	97.12
244.232	95.12
244.465	99.12
244.699	103.12
244.932	86.12
245.166	87.12
245.399	95.12
245.633	100.12
245.866	98.12
246.099	92.12
246.333	101.12
246.566	103.12
246.8	96.12
247.033	99.12
247.266	96.12
247.5	108.12
247.733	108.12
247.966	98.12
248.2	98.12
248.433	104.12
248.666	90.12
248.899	84.12
249.133	98.12
249.366	92.12
249.599	99.12
249.832	90.12
250.066	108.12
250.299	93.12
250.532	106.12
250.765	99.12
250.998	104.12
251.231	89.12
251.465	94.12
251.698	99.12
251.931	104.12
252.164	100.12
252.397	103.12
252.63	98.12
252.863	108.12
253.096	119.12
253.329	113.12
253.562	106.12
253.795	105.12
254.028	111.12
254.261	107.12
254.494	118.12
254.727	128.12
254.96	111.12
255.193	116.12
255.426	101.12
255.659	115.12
255.892	105.12
256.124	105.12
256.357	111.12
256.59	93.12
256.823	115.12
257.056	114.12
257.289	102.12
257.521	109.12
257.754	98.12
257.987	115.12
258.22	123.12
258.452	125.12
258.685	131.12
258.918	119.12
259.151	103.12
259.383	118.12
259.616	115.12
259.849	114.12
260.081	113.12
260.314	137.12
260.547	125.12
260.779	117.12
261.012	113.12
261.244	100.12
261.477	133.12
261.71	121.12
261.942	109.12
262.175	127.12
262.407	119.12
262.64	127.12
262.872	123.12
263.105	122.12
263.337	111.12
263.57	106.12
263.802	99.12
264.035	111.12
264.267	117.12
264.499	108.12
264.732	112.12
264.964	131.12
265.197	135.12
265.429	134.12
265.661	123.12
265.894	119.12
266.126	134.12
266.358	122.12
266.591	122.12
266.823	128.12
267.055	131.12
267.287	118.12
267.52	127.12
267.752	125.12
267.984	122.12
268.216	110.12
268.448	115.12
268.681	128.12
268.913	116.12
269.145	128.12
269.377	115.12
269.609	135.12
269.841	130.12
270.073	124.12
270.306	131.12
270.538	132.12
270.77	138.12
271.002	122.12
271.234	124.12
271.466	127.12
271.698	122.12
271.93	117.12
272.162	145.12
272.394	126.12
272.626	126.12
272.858	127.12
273.09	141.12
273.322	151.12
273.553	136.12
273.785	146.12
274.017	133.12
274.249	127.12
274.481	141.12
274.713	130.12
274.945	148.12
275.176	151.12
275.408	135.12
275.64	141.12
275.872	150.12
276.104	142.12
276.335	140.12
276.567	125.12
276.799	134.12
277.031	143.12
277.262	130.12
277.494	145.12
277.726	140.12
277.957	142.12
278.189	140.12
278.421	124.12
278.652	131.12
278.884	141.12
279.115	147.12
279.347	127.12
279.579	131.12
279.81	142.12
280.042	138.12
280.273	157.12
280.505	130.12
280.736	149.12
280.968	156.12
281.199	149.12
281.431	134.12
281.662	152.12
281.894	140.12
282.125	130.12
282.356	149.12
282.588	149.12
282.819	150.12
283.051	135.12
283.282	140.12
283.513	146.12
283.745	156.12
283.976	131.12
284.207	148.12
284.439	157.12
284.67	149.12
284.901	162.12
285.132	142.12
285.364	151.12
285.595	149.12
285.826	145.12
286.057	140.12
286.288	143.12
286.52	155.12
286.751	135.12
286.982	161.12
287.213	147.12
287.444	158.12
287.675	153.12
287.906	150.12
288.138	154.12
288.369	144.12
288.6	153.12
288.831	159.12
289.062	152.12
289.293	141.12
289.524	140.12
289.755	167.12
289.986	142.12
290.217	139.12
290.448	143.12
290.679	151.12
290.91	165.12
291.141	130.12
291.371	151.12
291.602	150.12
291.833	161.12
292.064	150.12
292.295	163.12
292.526	153.12
292.757	162.12
292.987	145.12
293.218	153.12
293.449	142.12
293.68	158.12
293.91	156.12
294.141	151.12
294.372	156.12
294.603	171.12
294.833	143.12
295.064	151.12
295.295	154.12
295.525	143.12
295.756	168.12
295.987	156.12
296.217	163.12
296.448	155.12
296.679	167.12
296.909	169.12
297.14	165.12
297.37	185.12
297.601	169.12
297.831	175.12
298.062	176.12
298.292	180.12
298.523	179.12
298.753	161.12
298.984	160.12
299.214	160.12
299.445	165.12
299.675	179.12
299.905	157.12
300.136	159.12
300.366	165.12
300.597	178.12
300.827	175.12
301.057	166.12
301.288	167.12
301.518	173.12
301.748	170.12
301.979	180.12
302.209	179.12
302.439	167.12
302.669	175.12
302.9	176.12
303.13	166.12
303.36	175.12
303.59	179.12
303.82	179.12
304.051	169.12
304.281	170.12
304.511	178.12
304.741	164.12
304.971	172.12
305.201	170.12
305.431	180.12
305.661	184.12
305.891	162.12
306.121	179.12
306.352	188.12
306.582	161.12
306.812	179.12
307.042	164.12
307.272	164.12
307.502	171.12
307.731	166.12
307.961	169.12
308.191	173.12
308.421	171.12
308.651	169.12
308.881	162.12
309.111	174.12
309.341	158.12
309.571	178.12
309.8	165.12
310.03	164.12
310.26	171.12
310.49	179.12
310.72	172.12
310.949	173.12
311.179	160.12
311.409	165.12
311.639	188.12
311.868	193.12
312.098	172.12
312.328	161.12
312.557	163.12
312.787	179.12
313.017	179.12
313.246	171.12
313.476	176.12
313.706	169.12
313.935	185.12
314.165	184.12
314.394	167.12
314.624	187.12
314.853	183.12
315.083	192.12
315.312	184.12
315.542	180.12
315.771	176.12
316.001	179.12
316.23	175.12
316.46	180.12
316.689	186.12
316.919	181.12
317.148	188.12
317.377	173.12
317.607	187.12
317.836	195.12
318.065	168.12
318.295	187.12
318.524	186.12
318.753	169.12
318.983	175.12
319.212	193.12
319.441	192.12
319.67	178.12
319.9	176.12
320.129	187.12
320.358	199.12
320.587	180.12
320.816	183.12
321.046	179.12
321.275	179.12
321.504	169.12
321.733	188.12
321.962	186.12
322.191	176.12
322.42	182.12
322.649	182.12
322.878	169.12
323.108	175.12
323.337	176.12
323.566	187.12
323.795	183.12
324.024	188.12
324.253	195.12
324.482	189.12
324.71	190.12
324.939	194.12
325.168	194.12
325.397	198.12
325.626	183.12
325.855	202.12
326.084	194.12
326.313	189.12
326.542	183.12
326.77	214.12
326.999	202.12
327.228	193.12
327.457	192.12
327.686	194.12
327.914	200.12
328.143	193.12
328.372	197.12
328.6	210.12
328.829	201.12
329.058	192.12
329.287	202.12
329.515	186.12
329.744	196.12
329.972	191.12
330.201	196.12
330.43	204.12
330.658	192.12
330.887	203.12
331.115	207.12
331.344	205.12
331.572	203.12
331.801	203.12
332.03	227.12
332.258	208.12
332.486	212.12
332.715	230.12
332.943	220.12
333.172	222.12
333.4	227.12
333.629	228.12
333.857	265.12
334.085	235.12
334.314	227.12
334.542	228.12
334.771	232.12
334.999	241.12
335.227	229.12
335.455	246.12
335.684	216.12
335.912	244.12
336.14	219.12
336.369	206.12
336.597	213.12
336.825	228.12
337.053	214.12
337.281	223.12
337.51	223.12
337.738	212.12
337.966	214.12
338.194	220.12
338.422	227.12
338.65	201.12
338.878	195.12
339.106	210.12
339.334	214.12
339.562	212.12
339.79	202.12
340.018	205.12
340.246	217.12
340.474	178.12
340.702	198.12
340.93	217.12
341.158	208.12
341.386	208.12
341.614	205.12
341.842	211.12
342.07	196.12
342.298	199.12
342.526	216.12
342.754	205.12
342.981	216.12
343.209	228.12
343.437	226.12
343.665	222.12
343.893	233.12
344.12	238.12
344.348	233.12
344.576	209.12
344.804	226.12
345.031	212.12
345.259	209.12
345.487	217.12
345.714	217.12
345.942	233.12
346.17	204.12
346.397	195.12
346.625	202.12
346.853	209.12
347.08	191.12
347.308	211.12
347.535	215.12
347.763	205.12
347.99	223.12
348.218	214.12
348.445	193.12
348.673	203.12
348.9	206.12
349.128	208.12
349.355	220.12
349.583	205.12
349.81	203.12
350.037	186.12
350.265	205.12
350.492	206.12
350.72	189.12
350.947	192.12
351.174	204.12
351.402	191.12
351.629	191.12
351.856	196.12
352.083	204.12
352.311	197.12
352.538	195.12
352.765	204.12
352.992	204.12
353.22	202.12
353.447	192.12
353.674	197.12
353.901	206.12
354.128	207.12
354.355	193.12
354.583	203.12
354.81	190.12
355.037	207.12
355.264	212.12
355.491	201.12
355.718	207.12
355.945	207.12
356.172	201.12
356.399	217.12
356.626	213.12
356.853	188.12
357.08	210.12
357.307	208.12
357.534	203.12
357.761	211.12
357.988	193.12
358.215	204.12
358.441	197.12
358.668	215.12
358.895	220.12
359.122	206.12
359.349	196.12
359.576	198.12
359.802	197.12
360.029	192.12
360.256	194.12
360.483	217.12
360.709	199.12
360.936	220.12
361.163	179.12
361.39	191.12
361.616	208.12
361.843	192.12
362.07	214.12
362.296	200.12
362.523	199.12
362.749	201.12
362.976	187.12
363.203	194.12
363.429	204.12
363.656	193.12
363.882	211.12
364.109	206.12
364.335	204.12
364.562	204.12
364.788	205.12
365.015	207.12
365.241	191.12
365.468	209.12
365.694	209.12
365.92	199.12
366.147	199.12
366.373	214.12
366.599	191.12
366.826	192.12
367.052	196.12
367.278	187.12
367.505	202.12
367.731	168.12
367.957	188.12
368.184	203.12
368.41	199.12
368.636	197.12
368.862	193.12
369.089	213.12
369.315	202.12
369.541	216.12
369.767	202.12
369.993	204.12
370.219	204.12
370.445	205.12
370.672	207.12
370.898	212.12
371.124	218.12
371.35	219.12
371.576	232.12
371.802	217.12
372.028	204.12
372.254	228.12
372.48	218.12
372.706	251.12
372.932	224.12
373.158	217.12
373.384	205.12
373.61	232.12
373.835	215.12
374.061	210.12
374.287	229.12
374.513	215.12
374.739	221.12
374.965	231.12
375.191	232.12
375.416	237.12
375.642	235.12
375.868	234.12
376.094	217.12
376.319	216.12
376.545	226.12
376.771	215.12
376.997	211.12
377.222	234.12
377.448	221.12
377.674	225.12
377.899	225.12
378.125	237.12
378.35	230.12
378.576	223.12
378.802	213.12
379.027	223.12
379.253	222.12
379.478	226.12
379.704	217.12
379.929	222.12
380.155	235.12
380.38	214.12
380.606	230.12
380.831	225.12
381.057	226.12
381.282	216.12
381.507	228.12
381.733	215.12
381.958	236.12
382.184	234.12
382.409	254.12
382.634	228.12
382.86	226.12
383.085	223.12
383.31	228.12
383.535	246.12
383.761	232.12
383.986	240.12
384.211	265.12
384.436	257.12
384.662	231.12
384.887	255.12
385.112	244.12
385.337	259.12
385.562	252.12
385.787	253.12
386.013	253.12
386.238	261.12
386.463	243.12
386.688	252.12
386.913	246.12
387.138	255.12
387.363	247.12
387.588	259.12
387.813	266.12
388.038	232.12
388.263	249.12
388.488	248.12
388.713	256.12
388.938	269.12
389.163	265.12
389.387	249.12
389.612	264.12
389.837	244.12
390.062	263.12
390.287	257.12
390.512	257.12
390.736	270.12
390.961	273.12
391.186	260.12
391.411	274.12
391.636	285.12
391.86	283.12
392.085	303.12
392.31	275.12
392.534	273.12
392.759	284.12
392.984	283.12
393.208	285.12
393.433	271.12
393.658	266.12
393.882	292.12
394.107	284.12
394.331	271.12
394.556	274.12
394.78	259.12
395.005	255.12
395.229	264.12
395.454	297.12
395.678	272.12
395.903	280.12
396.127	266.12
396.352	269.12
396.576	272.12
396.801	288.12
397.025	275.12
397.249	283.12
397.474	296.12
397.698	285.12
397.922	289.12
398.147	289.12
398.371	290.12
398.595	304.12
398.82	314.12
399.044	330.12
399.268	348.12
399.492	369.12
399.717	407.12
399.941	397.12
400.165	391.12
400.389	361.12
400.613	334.12
400.837	293.12
401.062	307.12
401.286	309.12
401.51	311.12
401.734	307.12
401.958	298.12
402.182	311.12
402.406	306.12
402.63	320.12
402.854	338.12
403.078	327.12
403.302	358.12
403.526	335.12
403.75	349.12
403.974	355.12
404.198	373.12
404.422	356.12
404.645	346.12
404.869	324.12
405.093	361.12
405.317	345.12
405.541	344.12
405.765	325.12
405.988	356.12
406.212	346.12
406.436	335.12
406.66	353.12
406.883	364.12
407.107	361.12
407.331	374.12
407.555	387.12
407.778	386.12
408.002	381.12
408.226	369.12
408.449	364.12
408.673	358.12
408.896	329.12
409.12	349.12
409.344	341.12
409.567	348.12
409.791	372.12
410.014	368.12
410.238	349.12
410.461	357.12
410.685	339.12
410.908	347.12
411.132	340.12
411.355	331.12
411.578	329.12
411.802	333.12
412.025	345.12
412.249	332.12
412.472	329.12
412.695	301.12
412.919	319.12
413.142	313.12
413.365	313.12
413.589	331.12
413.812	305.12
414.035	315.12
414.258	329.12
414.482	312.12
414.705	339.12
414.928	307.12
415.151	326.12
415.374	310.12
415.597	311.12
415.821	315.12
416.044	335.12
416.267	317.12
416.49	333.12
416.713	320.12
416.936	306.12
417.159	336.12
417.382	323.12
417.605	322.12
417.828	308.12
418.051	333.12
418.274	320.12
418.497	314.12
418.72	328.12
418.943	319.12
419.166	324.12
419.389	366.12
419.611	351.12
419.834	334.12
420.057	322.12
420.28	313.12
420.503	320.12
420.726	315.12
420.948	317.12
421.171	317.12
421.394	313.12
421.617	323.12
421.839	330.12
422.062	341.12
422.285	309.12
422.507	315.12
422.73	321.12
422.953	309.12
423.175	329.12
423.398	327.12
423.621	330.12
423.843	338.12
424.066	341.12
424.288	345.12
424.511	333.12
424.733	333.12
424.956	328.12
425.178	328.12
425.401	329.12
425.623	315.12
425.846	313.12
426.068	322.12
426.291	313.12
426.513	284.12
426.735	297.12
426.958	319.12
427.18	304.12
427.402	327.12
427.625	305.12
427.847	308.12
428.069	293.12
428.292	298.12
428.514	282.12
428.736	293.12
428.958	306.12
429.181	303.12
429.403	284.12
429.625	290.12
429.847	303.12
430.069	298.12
430.292	297.12
430.514	276.12
430.736	281.12
430.958	290.12
431.18	283.12
431.402	290.12
431.624	290.12
431.846	283.12
432.068	295.12
432.29	290.12
432.512	290.12
432.734	294.12
432.956	303.12
433.178	308.12
433.4	316.12
433.622	324.12
433.844	298.12
434.066	301.12
434.287	296.12
434.509	316.12
434.731	323.12
434.953	323.12
435.175	322.12
435.397	339.12
435.618	322.12
435.84	330.12
436.062	298.12
436.284	314.12
436.505	286.12
436.727	292.12
436.949	307.12
437.17	320.12
437.392	305.12
437.614	289.12
437.835	287.12
438.057	283.12
438.278	278.12
438.5	305.12
438.721	283.12
438.943	296.12
439.165	289.12
439.386	308.12
439.608	311.12
439.829	297.12
440.05	297.12
440.272	304.12
440.493	309.12
440.715	314.12
440.936	313.12
441.158	325.12
441.379	334.12
441.6	324.12
441.822	335.12
442.043	332.12
442.264	326.12
442.486	313.12
442.707	329.12
442.928	340.12
443.149	341.12
443.371	344.12
443.592	322.12
443.813	339.12
444.034	337.12
444.255	356.12
444.476	344.12
444.698	369.12
444.919	388.12
445.14	484.12
445.361	405.12
445.582	324.12
445.803	333.12
446.024	334.12
446.245	334.12
446.466	327.12
446.687	329.12
446.908	336.12
447.129	334.12
447.35	313.12
447.571	306.12
447.792	298.12
448.013	289.12
448.234	300.12
448.455	301.12
448.675	307.12
448.896	293.12
449.117	298.12
449.338	317.12
449.559	297.12
449.779	285.12
450	305.12
450.221	303.12
450.442	280.12
450.662	287.12
450.883	303.12
451.104	318.12
451.324	302.12
451.545	293.12
451.766	311.12
451.986	287.12
452.207	295.12
452.428	296.12
452.648	287.12
452.869	270.12
453.089	297.12
453.31	277.12
453.53	264.12
453.751	275.12
453.971	281.12
454.192	287.12
454.412	279.12
454.633	275.12
454.853	273.12
455.073	277.12
455.294	278.12
455.514	284.12
455.734	289.12
455.955	273.12
456.175	259.12
456.395	279.12
456.616	276.12
456.836	266.12
457.056	275.12
457.276	265.12
457.497	274.12
457.717	266.12
457.937	288.12
458.157	272.12
458.377	263.12
458.598	296.12
458.818	292.12
459.038	285.12
459.258	310.12
459.478	291.12
459.698	332.12
459.918	324.12
460.138	331.12
460.358	340.12
460.578	362.12
460.798	352.12
461.018	357.12
461.238	333.12
461.458	333.12
461.678	358.12
461.898	360.12
462.118	342.12
462.338	375.12
462.558	398.12
462.777	389.12
462.997	402.12
463.217	419.12
463.437	412.12
463.657	387.12
463.876	381.12
464.096	396.12
464.316	373.12
464.536	375.12
464.755	364.12
464.975	354.12
465.195	363.12
465.414	352.12
465.634	316.12
465.854	317.12
466.073	315.12
466.293	296.12
466.512	294.12
466.732	304.12
466.951	292.12
467.171	305.12
467.391	281.12
467.61	291.12
467.829	298.12
468.049	289.12
468.268	303.12
468.488	306.12
468.707	287.12
468.927	293.12
469.146	293.12
469.365	305.12
469.585	290.12
469.804	311.12
470.023	300.12
470.243	288.12
470.462	303.12
470.681	298.12
470.901	307.12
471.12	315.12
471.339	292.12
471.558	313.12
471.777	279.12
471.997	278.12
472.216	304.12
472.435	291.12
472.654	259.12
472.873	266.12
473.092	274.12
473.311	255.12
473.53	290.12
473.749	277.12
473.968	299.12
474.187	289.12
474.406	280.12
474.625	289.12
474.844	284.12
475.063	273.12
475.282	288.12
475.501	290.12
475.72	288.12
475.939	282.12
476.158	266.12
476.377	279.12
476.596	293.12
476.814	300.12
477.033	269.12
477.252	283.12
477.471	317.12
477.69	320.12
477.908	300.12
478.127	310.12
478.346	318.12
478.564	317.12
478.783	331.12
479.002	324.12
479.22	339.12
479.439	325.12
479.658	340.12
479.876	323.12
480.095	310.12
480.313	355.12
480.532	353.12
480.751	330.12
480.969	333.12
481.188	313.12
481.406	312.12
481.624	316.12
481.843	303.12
482.061	318.12
482.28	289.12
482.498	306.12
482.717	291.12
482.935	282.12
483.153	321.12
483.372	320.12
483.59	299.12
483.808	313.12
484.027	317.12
484.245	319.12
484.463	309.12
484.681	327.12
484.9	308.12
485.118	315.12
485.336	309.12
485.554	317.12
485.772	308.12
485.99	330.12
486.209	330.12
486.427	299.12
486.645	325.12
486.863	330.12
487.081	329.12
487.299	328.12
487.517	311.12
487.735	316.12
487.953	322.12
488.171	314.12
488.389	331.12
488.607	321.12
488.825	315.12
489.043	314.12
489.261	297.12
489.479	307.12
489.696	310.12
489.914	323.12
490.132	309.12
490.35	323.12
490.568	304.12
490.786	329.12
491.003	336.12
491.221	327.12
491.439	312.12
491.657	329.12
491.874	327.12
492.092	333.12
492.31	331.12
492.527	331.12
492.745	334.12
492.963	343.12
493.18	340.12
493.398	338.12
493.615	346.12
493.833	331.12
494.05	341.12
494.268	326.12
494.485	338.12
494.703	339.12
494.92	344.12
495.138	346.12
495.355	343.12
495.573	361.12
495.79	335.12
496.008	353.12
496.225	324.12
496.442	347.12
496.66	357.12
496.877	363.12
497.094	375.12
497.312	357.12
497.529	366.12
497.746	371.12
497.963	395.12
498.181	386.12
498.398	392.12
498.615	414.12
498.832	442.12
499.049	486.12
499.267	520.12
499.484	545.12
499.701	601.12
499.918	632.12
500.135	693.12
500.352	762.12
500.569	781.12
500.786	787.12
501.003	729.12
501.22	663.12
501.437	625.12
501.654	557.12
501.871	520.12
502.088	490.12
502.305	426.12
502.522	445.12
502.739	410.12
