Data from Fe(NO3)3@0.025M.TitratingCurve.Agarose3%dH2O.NegLispCup.LampEnergy10.LIBS07252019_HRD10591_16-54-57-335.txt Node
Date: Thu Jul 25 16:54:57 EDT 2019
User: cochatt
Spectrometer: HR+D1059
Trigger mode: 1
Integration Time (sec): 1.000000E-1
Scans to average: 1
Electric dark correction enabled: true
Nonlinearity correction enabled: false
Boxcar width: 0
XAxis mode: Wavelengths
Number of Pixels in Spectrum: 2048
>>>>>Begin Spectral Data<<<<<
223.165	-8.12
223.4	-8.12
223.635	-8.12
223.869	-11.12
224.104	-15.12
224.338	-19.12
224.573	-14.12
224.808	-11.12
225.042	-2.12
225.277	-10.12
225.511	-3.12
225.746	4.88
225.98	0.88
226.215	2.88
226.449	11.88
226.683	24.88
226.918	31.88
227.152	16.88
227.387	41.88
227.621	37.88
227.856	47.88
228.09	55.88
228.324	40.88
228.559	40.88
228.793	51.88
229.027	80.88
229.262	73.88
229.496	77.88
229.73	94.88
229.964	86.88
230.199	80.88
230.433	95.88
230.667	91.88
230.901	94.88
231.136	90.88
231.37	97.88
231.604	96.88
231.838	101.88
232.072	106.88
232.306	98.88
232.541	103.88
232.775	94.88
233.009	118.88
233.243	95.88
233.477	109.88
233.711	111.88
233.945	136.88
234.179	113.88
234.413	115.88
234.647	83.88
234.881	105.88
235.115	116.88
235.349	118.88
235.583	98.88
235.817	106.88
236.051	112.88
236.285	113.88
236.519	110.88
236.753	121.88
236.987	120.88
237.221	109.88
237.455	105.88
237.689	112.88
237.922	117.88
238.156	122.88
238.39	108.88
238.624	122.88
238.858	130.88
239.091	111.88
239.325	114.88
239.559	106.88
239.793	102.88
240.027	120.88
240.26	131.88
240.494	117.88
240.728	109.88
240.961	132.88
241.195	116.88
241.429	116.88
241.662	120.88
241.896	118.88
242.13	116.88
242.363	113.88
242.597	113.88
242.83	127.88
243.064	122.88
243.298	114.88
243.531	118.88
243.765	116.88
243.998	126.88
244.232	123.88
244.465	121.88
244.699	111.88
244.932	122.88
245.166	133.88
245.399	123.88
245.633	134.88
245.866	124.88
246.099	124.88
246.333	139.88
246.566	135.88
246.8	135.88
247.033	132.88
247.266	139.88
247.5	138.88
247.733	120.88
247.966	136.88
248.2	136.88
248.433	143.88
248.666	152.88
248.899	128.88
249.133	135.88
249.366	141.88
249.599	141.88
249.832	132.88
250.066	143.88
250.299	148.88
250.532	134.88
250.765	139.88
250.998	149.88
251.231	155.88
251.465	132.88
251.698	151.88
251.931	150.88
252.164	152.88
252.397	156.88
252.63	138.88
252.863	144.88
253.096	168.88
253.329	143.88
253.562	158.88
253.795	156.88
254.028	154.88
254.261	149.88
254.494	154.88
254.727	141.88
254.96	154.88
255.193	150.88
255.426	171.88
255.659	146.88
255.892	146.88
256.124	154.88
256.357	152.88
256.59	148.88
256.823	158.88
257.056	154.88
257.289	160.88
257.521	169.88
257.754	154.88
257.987	158.88
258.22	154.88
258.452	156.88
258.685	161.88
258.918	150.88
259.151	150.88
259.383	171.88
259.616	165.88
259.849	161.88
260.081	169.88
260.314	168.88
260.547	159.88
260.779	162.88
261.012	167.88
261.244	173.88
261.477	184.88
261.71	168.88
261.942	153.88
262.175	172.88
262.407	158.88
262.64	186.88
262.872	174.88
263.105	182.88
263.337	171.88
263.57	180.88
263.802	175.88
264.035	163.88
264.267	163.88
264.499	166.88
264.732	183.88
264.964	185.88
265.197	173.88
265.429	176.88
265.661	174.88
265.894	162.88
266.126	187.88
266.358	195.88
266.591	183.88
266.823	180.88
267.055	203.88
267.287	180.88
267.52	190.88
267.752	183.88
267.984	188.88
268.216	193.88
268.448	189.88
268.681	176.88
268.913	185.88
269.145	204.88
269.377	204.88
269.609	175.88
269.841	194.88
270.073	198.88
270.306	202.88
270.538	199.88
270.77	186.88
271.002	183.88
271.234	186.88
271.466	196.88
271.698	185.88
271.93	191.88
272.162	195.88
272.394	202.88
272.626	204.88
272.858	198.88
273.09	192.88
273.322	199.88
273.553	214.88
273.785	198.88
274.017	198.88
274.249	209.88
274.481	194.88
274.713	213.88
274.945	234.88
275.176	211.88
275.408	220.88
275.64	219.88
275.872	228.88
276.104	230.88
276.335	200.88
276.567	205.88
276.799	214.88
277.031	216.88
277.262	224.88
277.494	210.88
277.726	220.88
277.957	214.88
278.189	229.88
278.421	217.88
278.652	204.88
278.884	209.88
279.115	219.88
279.347	216.88
279.579	221.88
279.81	216.88
280.042	225.88
280.273	228.88
280.505	219.88
280.736	211.88
280.968	220.88
281.199	231.88
281.431	230.88
281.662	235.88
281.894	247.88
282.125	230.88
282.356	246.88
282.588	240.88
282.819	225.88
283.051	235.88
283.282	234.88
283.513	224.88
283.745	235.88
283.976	245.88
284.207	230.88
284.439	235.88
284.67	232.88
284.901	251.88
285.132	238.88
285.364	225.88
285.595	241.88
285.826	254.88
286.057	268.88
286.288	235.88
286.52	258.88
286.751	239.88
286.982	235.88
287.213	241.88
287.444	265.88
287.675	241.88
287.906	258.88
288.138	263.88
288.369	229.88
288.6	236.88
288.831	241.88
289.062	257.88
289.293	254.88
289.524	265.88
289.755	260.88
289.986	255.88
290.217	255.88
290.448	261.88
290.679	273.88
290.91	278.88
291.141	263.88
291.371	266.88
291.602	268.88
291.833	273.88
292.064	265.88
292.295	250.88
292.526	258.88
292.757	280.88
292.987	256.88
293.218	254.88
293.449	261.88
293.68	266.88
293.91	281.88
294.141	273.88
294.372	261.88
294.603	272.88
294.833	262.88
295.064	264.88
295.295	271.88
295.525	272.88
295.756	265.88
295.987	274.88
296.217	261.88
296.448	249.88
296.679	279.88
296.909	271.88
297.14	275.88
297.37	281.88
297.601	265.88
297.831	274.88
298.062	272.88
298.292	280.88
298.523	294.88
298.753	274.88
298.984	282.88
299.214	277.88
299.445	273.88
299.675	281.88
299.905	278.88
300.136	287.88
300.366	298.88
300.597	289.88
300.827	282.88
301.057	299.88
301.288	287.88
301.518	292.88
301.748	312.88
301.979	288.88
302.209	298.88
302.439	302.88
302.669	284.88
302.9	292.88
303.13	290.88
303.36	299.88
303.59	293.88
303.82	267.88
304.051	314.88
304.281	307.88
304.511	310.88
304.741	276.88
304.971	292.88
305.201	295.88
305.431	272.88
305.661	286.88
305.891	300.88
306.121	289.88
306.352	290.88
306.582	278.88
306.812	297.88
307.042	296.88
307.272	295.88
307.502	283.88
307.731	299.88
307.961	314.88
308.191	291.88
308.421	310.88
308.651	308.88
308.881	288.88
309.111	288.88
309.341	296.88
309.571	300.88
309.8	291.88
310.03	308.88
310.26	300.88
310.49	298.88
310.72	287.88
310.949	299.88
311.179	306.88
311.409	311.88
311.639	306.88
311.868	318.88
312.098	311.88
312.328	309.88
312.557	288.88
312.787	321.88
313.017	313.88
313.246	307.88
313.476	307.88
313.706	319.88
313.935	324.88
314.165	314.88
314.394	310.88
314.624	333.88
314.853	319.88
315.083	325.88
315.312	313.88
315.542	329.88
315.771	330.88
316.001	315.88
316.23	331.88
316.46	308.88
316.689	315.88
316.919	312.88
317.148	312.88
317.377	328.88
317.607	296.88
317.836	313.88
318.065	306.88
318.295	315.88
318.524	316.88
318.753	297.88
318.983	298.88
319.212	304.88
319.441	324.88
319.67	323.88
319.9	312.88
320.129	306.88
320.358	315.88
320.587	324.88
320.816	310.88
321.046	316.88
321.275	328.88
321.504	310.88
321.733	324.88
321.962	310.88
322.191	329.88
322.42	325.88
322.649	323.88
322.878	322.88
323.108	318.88
323.337	307.88
323.566	346.88
323.795	319.88
324.024	330.88
324.253	341.88
324.482	340.88
324.71	338.88
324.939	344.88
325.168	315.88
325.397	333.88
325.626	311.88
325.855	335.88
326.084	360.88
326.313	343.88
326.542	342.88
326.77	350.88
326.999	336.88
327.228	347.88
327.457	338.88
327.686	336.88
327.914	359.88
328.143	339.88
328.372	341.88
328.6	362.88
328.829	362.88
329.058	343.88
329.287	344.88
329.515	350.88
329.744	369.88
329.972	370.88
330.201	360.88
330.43	350.88
330.658	358.88
330.887	359.88
331.115	376.88
331.344	371.88
331.572	370.88
331.801	362.88
332.03	382.88
332.258	386.88
332.486	384.88
332.715	402.88
332.943	410.88
333.172	443.88
333.4	427.88
333.629	444.88
333.857	444.88
334.085	442.88
334.314	443.88
334.542	426.88
334.771	422.88
334.999	423.88
335.227	426.88
335.455	418.88
335.684	420.88
335.912	407.88
336.14	418.88
336.369	422.88
336.597	400.88
336.825	413.88
337.053	396.88
337.281	387.88
337.51	399.88
337.738	406.88
337.966	384.88
338.194	378.88
338.422	378.88
338.65	371.88
338.878	370.88
339.106	382.88
339.334	388.88
339.562	377.88
339.79	368.88
340.018	381.88
340.246	361.88
340.474	359.88
340.702	378.88
340.93	370.88
341.158	377.88
341.386	353.88
341.614	362.88
341.842	349.88
342.07	356.88
342.298	362.88
342.526	370.88
342.754	378.88
342.981	372.88
343.209	394.88
343.437	380.88
343.665	433.88
343.893	439.88
344.12	432.88
344.348	435.88
344.576	412.88
344.804	391.88
345.031	371.88
345.259	376.88
345.487	371.88
345.714	384.88
345.942	352.88
346.17	365.88
346.397	370.88
346.625	363.88
346.853	368.88
347.08	347.88
347.308	346.88
347.535	347.88
347.763	366.88
347.99	362.88
348.218	376.88
348.445	353.88
348.673	338.88
348.9	336.88
349.128	344.88
349.355	352.88
349.583	344.88
349.81	340.88
350.037	322.88
350.265	362.88
350.492	363.88
350.72	358.88
350.947	337.88
351.174	362.88
351.402	344.88
351.629	350.88
351.856	338.88
352.083	344.88
352.311	345.88
352.538	351.88
352.765	356.88
352.992	360.88
353.22	359.88
353.447	339.88
353.674	352.88
353.901	363.88
354.128	367.88
354.355	344.88
354.583	350.88
354.81	346.88
355.037	347.88
355.264	342.88
355.491	361.88
355.718	335.88
355.945	362.88
356.172	338.88
356.399	359.88
356.626	353.88
356.853	358.88
357.08	345.88
357.307	352.88
357.534	369.88
357.761	354.88
357.988	362.88
358.215	361.88
358.441	371.88
358.668	374.88
358.895	339.88
359.122	370.88
359.349	373.88
359.576	350.88
359.802	348.88
360.029	347.88
360.256	372.88
360.483	347.88
360.709	370.88
360.936	362.88
361.163	338.88
361.39	348.88
361.616	356.88
361.843	347.88
362.07	353.88
362.296	354.88
362.523	372.88
362.749	374.88
362.976	373.88
363.203	360.88
363.429	366.88
363.656	354.88
363.882	361.88
364.109	349.88
364.335	352.88
364.562	368.88
364.788	359.88
365.015	361.88
365.241	352.88
365.468	364.88
365.694	343.88
365.92	361.88
366.147	358.88
366.373	363.88
366.599	356.88
366.826	353.88
367.052	362.88
367.278	363.88
367.505	372.88
367.731	353.88
367.957	368.88
368.184	369.88
368.41	353.88
368.636	370.88
368.862	352.88
369.089	352.88
369.315	366.88
369.541	362.88
369.767	358.88
369.993	370.88
370.219	376.88
370.445	382.88
370.672	375.88
370.898	387.88
371.124	387.88
371.35	382.88
371.576	393.88
371.802	396.88
372.028	384.88
372.254	384.88
372.48	393.88
372.706	398.88
372.932	401.88
373.158	383.88
373.384	393.88
373.61	388.88
373.835	384.88
374.061	374.88
374.287	389.88
374.513	392.88
374.739	405.88
374.965	404.88
375.191	419.88
375.416	425.88
375.642	399.88
375.868	437.88
376.094	408.88
376.319	395.88
376.545	392.88
376.771	422.88
376.997	392.88
377.222	373.88
377.448	383.88
377.674	379.88
377.899	376.88
378.125	388.88
378.35	393.88
378.576	383.88
378.802	394.88
379.027	392.88
379.253	378.88
379.478	390.88
379.704	384.88
379.929	363.88
380.155	387.88
380.38	369.88
380.606	378.88
380.831	371.88
381.057	395.88
381.282	362.88
381.507	386.88
381.733	376.88
381.958	395.88
382.184	408.88
382.409	405.88
382.634	388.88
382.86	400.88
383.085	403.88
383.31	437.88
383.535	410.88
383.761	426.88
383.986	423.88
384.211	436.88
384.436	420.88
384.662	437.88
384.887	461.88
385.112	429.88
385.337	465.88
385.562	454.88
385.787	462.88
386.013	469.88
386.238	454.88
386.463	435.88
386.688	472.88
386.913	464.88
387.138	439.88
387.363	456.88
387.588	450.88
387.813	447.88
388.038	452.88
388.263	472.88
388.488	460.88
388.713	451.88
388.938	438.88
389.163	454.88
389.387	438.88
389.612	432.88
389.837	437.88
390.062	458.88
390.287	442.88
390.512	466.88
390.736	436.88
390.961	489.88
391.186	462.88
391.411	479.88
391.636	504.88
391.86	499.88
392.085	510.88
392.31	490.88
392.534	490.88
392.759	488.88
392.984	463.88
393.208	481.88
393.433	475.88
393.658	479.88
393.882	486.88
394.107	480.88
394.331	490.88
394.556	483.88
394.78	486.88
395.005	488.88
395.229	490.88
395.454	500.88
395.678	518.88
395.903	516.88
396.127	498.88
396.352	498.88
396.576	494.88
396.801	501.88
397.025	479.88
397.249	524.88
397.474	497.88
397.698	512.88
397.922	509.88
398.147	510.88
398.371	537.88
398.595	549.88
398.82	568.88
399.044	608.88
399.268	664.88
399.492	709.88
399.717	746.88
399.941	764.88
400.165	677.88
400.389	648.88
400.613	624.88
400.837	585.88
401.062	588.88
401.286	558.88
401.51	561.88
401.734	560.88
401.958	554.88
402.182	539.88
402.406	575.88
402.63	576.88
402.854	592.88
403.078	579.88
403.302	593.88
403.526	620.88
403.75	613.88
403.974	637.88
404.198	600.88
404.422	607.88
404.645	606.88
404.869	594.88
405.093	607.88
405.317	563.88
405.541	601.88
405.765	603.88
405.988	602.88
406.212	607.88
406.436	616.88
406.66	617.88
406.883	611.88
407.107	650.88
407.331	673.88
407.555	702.88
407.778	682.88
408.002	666.88
408.226	628.88
408.449	650.88
408.673	633.88
408.896	624.88
409.12	610.88
409.344	628.88
409.567	599.88
409.791	599.88
410.014	627.88
410.238	594.88
410.461	584.88
410.685	575.88
410.908	592.88
411.132	578.88
411.355	598.88
411.578	583.88
411.802	578.88
412.025	563.88
412.249	552.88
412.472	582.88
412.695	578.88
412.919	562.88
413.142	543.88
413.365	558.88
413.589	584.88
413.812	553.88
414.035	547.88
414.258	532.88
414.482	560.88
414.705	567.88
414.928	583.88
415.151	558.88
415.374	543.88
415.597	570.88
415.821	562.88
416.044	541.88
416.267	534.88
416.49	533.88
416.713	546.88
416.936	543.88
417.159	550.88
417.382	527.88
417.605	560.88
417.828	553.88
418.051	534.88
418.274	571.88
418.497	561.88
418.72	552.88
418.943	569.88
419.166	564.88
419.389	619.88
419.611	590.88
419.834	594.88
420.057	576.88
420.28	554.88
420.503	538.88
420.726	521.88
420.948	530.88
421.171	531.88
421.394	544.88
421.617	524.88
421.839	548.88
422.062	544.88
422.285	561.88
422.507	567.88
422.73	555.88
422.953	563.88
423.175	552.88
423.398	544.88
423.621	545.88
423.843	574.88
424.066	564.88
424.288	569.88
424.511	586.88
424.733	563.88
424.956	530.88
425.178	540.88
425.401	530.88
425.623	545.88
425.846	536.88
426.068	523.88
426.291	510.88
426.513	512.88
426.735	520.88
426.958	514.88
427.18	502.88
427.402	529.88
427.625	501.88
427.847	494.88
428.069	488.88
428.292	486.88
428.514	472.88
428.736	471.88
428.958	514.88
429.181	491.88
429.403	495.88
429.625	488.88
429.847	480.88
430.069	480.88
430.292	481.88
430.514	471.88
430.736	486.88
430.958	475.88
431.18	466.88
431.402	485.88
431.624	487.88
431.846	494.88
432.068	486.88
432.29	517.88
432.512	483.88
432.734	490.88
432.956	507.88
433.178	486.88
433.4	492.88
433.622	521.88
433.844	503.88
434.066	481.88
434.287	502.88
434.509	506.88
434.731	524.88
434.953	539.88
435.175	538.88
435.397	488.88
435.618	514.88
435.84	500.88
436.062	495.88
436.284	496.88
436.505	482.88
436.727	471.88
436.949	496.88
437.17	487.88
437.392	495.88
437.614	456.88
437.835	482.88
438.057	465.88
438.278	449.88
438.5	473.88
438.721	468.88
438.943	470.88
439.165	474.88
439.386	476.88
439.608	473.88
439.829	483.88
440.05	488.88
440.272	488.88
440.493	474.88
440.715	480.88
440.936	510.88
441.158	517.88
441.379	531.88
441.6	523.88
441.822	507.88
442.043	520.88
442.264	528.88
442.486	538.88
442.707	515.88
442.928	542.88
443.149	525.88
443.371	517.88
443.592	521.88
443.813	543.88
444.034	541.88
444.255	555.88
444.476	576.88
444.698	597.88
444.919	599.88
445.14	670.88
445.361	598.88
445.582	543.88
445.803	522.88
446.024	511.88
446.245	526.88
446.466	507.88
446.687	474.88
446.908	474.88
447.129	466.88
447.35	486.88
447.571	489.88
447.792	444.88
448.013	439.88
448.234	443.88
448.455	442.88
448.675	431.88
448.896	442.88
449.117	442.88
449.338	446.88
449.559	441.88
449.779	455.88
450	443.88
450.221	455.88
450.442	450.88
450.662	446.88
450.883	437.88
451.104	449.88
451.324	461.88
451.545	437.88
451.766	448.88
451.986	460.88
452.207	453.88
452.428	447.88
452.648	436.88
452.869	450.88
453.089	438.88
453.31	446.88
453.53	439.88
453.751	434.88
453.971	438.88
454.192	439.88
454.412	427.88
454.633	415.88
454.853	428.88
455.073	444.88
455.294	419.88
455.514	434.88
455.734	423.88
455.955	415.88
456.175	411.88
456.395	435.88
456.616	443.88
456.836	410.88
457.056	417.88
457.276	408.88
457.497	417.88
457.717	430.88
457.937	435.88
458.157	427.88
458.377	454.88
458.598	452.88
458.818	466.88
459.038	459.88
459.258	467.88
459.478	472.88
459.698	488.88
459.918	486.88
460.138	508.88
460.358	565.88
460.578	542.88
460.798	553.88
461.018	597.88
461.238	547.88
461.458	567.88
461.678	574.88
461.898	580.88
462.118	576.88
462.338	577.88
462.558	615.88
462.777	622.88
462.997	686.88
463.217	716.88
463.437	708.88
463.657	665.88
463.876	621.88
464.096	640.88
464.316	637.88
464.536	622.88
464.755	641.88
464.975	603.88
465.195	574.88
465.414	560.88
465.634	523.88
465.854	484.88
466.073	482.88
466.293	515.88
466.512	512.88
466.732	472.88
466.951	466.88
467.171	460.88
467.391	470.88
467.61	467.88
467.829	463.88
468.049	465.88
468.268	469.88
468.488	450.88
468.707	467.88
468.927	466.88
469.146	448.88
469.365	459.88
469.585	457.88
469.804	478.88
470.023	474.88
470.243	464.88
470.462	461.88
470.681	453.88
470.901	468.88
471.12	488.88
471.339	471.88
471.558	468.88
471.777	467.88
471.997	448.88
472.216	478.88
472.435	465.88
472.654	471.88
472.873	443.88
473.092	443.88
473.311	451.88
473.53	428.88
473.749	440.88
473.968	460.88
474.187	442.88
474.406	452.88
474.625	467.88
474.844	450.88
475.063	433.88
475.282	436.88
475.501	447.88
475.72	467.88
475.939	461.88
476.158	451.88
476.377	466.88
476.596	466.88
476.814	465.88
477.033	481.88
477.252	485.88
477.471	481.88
477.69	502.88
477.908	502.88
478.127	536.88
478.346	520.88
478.564	525.88
478.783	532.88
479.002	545.88
479.22	566.88
479.439	550.88
479.658	553.88
479.876	541.88
480.095	551.88
480.313	587.88
480.532	575.88
480.751	590.88
480.969	534.88
481.188	551.88
481.406	503.88
481.624	522.88
481.843	528.88
482.061	521.88
482.28	510.88
482.498	522.88
482.717	518.88
482.935	503.88
483.153	487.88
483.372	512.88
483.59	505.88
483.808	492.88
484.027	489.88
484.245	514.88
484.463	543.88
484.681	518.88
484.9	541.88
485.118	509.88
485.336	528.88
485.554	529.88
485.772	514.88
485.99	515.88
486.209	539.88
486.427	515.88
486.645	519.88
486.863	551.88
487.081	504.88
487.299	525.88
487.517	532.88
487.735	551.88
487.953	536.88
488.171	526.88
488.389	533.88
488.607	504.88
488.825	540.88
489.043	523.88
489.261	518.88
489.479	510.88
489.696	530.88
489.914	530.88
490.132	551.88
490.35	539.88
490.568	531.88
490.786	527.88
491.003	515.88
491.221	552.88
491.439	554.88
491.657	555.88
491.874	504.88
492.092	539.88
492.31	539.88
492.527	547.88
492.745	536.88
492.963	550.88
493.18	553.88
493.398	572.88
493.615	554.88
493.833	542.88
494.05	547.88
494.268	548.88
494.485	546.88
494.703	576.88
494.92	559.88
495.138	548.88
495.355	583.88
495.573	560.88
495.79	583.88
496.008	588.88
496.225	549.88
496.442	586.88
496.66	613.88
496.877	608.88
497.094	591.88
497.312	613.88
497.529	643.88
497.746	649.88
497.963	693.88
498.181	688.88
498.398	728.88
498.615	759.88
498.832	807.88
499.049	839.88
499.267	879.88
499.484	946.88
499.701	1044.88
499.918	1113.88
500.135	1278.88
500.352	1399.88
500.569	1402.88
500.786	1396.88
501.003	1290.88
501.22	1173.88
501.437	1080.88
501.654	1028.88
